Fp1,Fp2,F7,F3,Fz,F4,F8,FT7,FC3,FCz,FC4,FT8,T3,C3,Cz,C4,T4,TP7,CP3,CPz,CP4,TP8,T5,P3,Pz,P4,T6,O1,Oz,O2,A1,A2
8.452678680419921875e+00,4.962538242340087891e+00,5.618381500244140625e+00,6.442251682281494141e+00,7.685187339782714844e+00,6.430431365966796875e+00,7.173525333404541016e+00,6.201959609985351562e+00,1.089335322380065918e+00,-2.284423589706420898e+00,-3.720948100090026855e-01,3.676487922668457031e+00,6.030029296875000000e+00,1.775411605834960938e+00,-2.961021423339843750e+00,-2.478324413299560547e+00,-3.330264091491699219e-01,1.193373680114746094e+00,1.395272016525268555e+00,7.670888900756835938e-01,-1.219917535781860352e+00,-2.012162923812866211e+00,-8.167993426322937012e-01,1.171283483505249023e+00,1.126329183578491211e+00,-2.049808390438556671e-02,3.657624125480651855e-01,3.476668119430541992e+00,5.164978504180908203e+00,4.708836555480957031e+00,2.460857152938842773e+00,-1.147975564002990723e+00
-3.144038021564483643e-01,-1.599487066268920898e+00,-1.415847659111022949e+00,-2.138300389051437378e-01,1.835855960845947266e+00,1.498911499977111816e+00,2.806843519210815430e-01,4.570128396153450012e-02,-2.918218374252319336e+00,-3.925860643386840820e+00,-5.044141292572021484e+00,-6.108174324035644531e+00,-7.697420597076416016e+00,-1.238801097869873047e+01,-1.407394886016845703e+01,-9.593917846679687500e+00,-7.205276489257812500e+00,-7.038179397583007812e+00,-7.452097892761230469e+00,-8.277586936950683594e+00,-9.429072380065917969e+00,-7.861945629119873047e+00,-5.020582199096679688e+00,-4.487760543823242188e+00,-8.240144729614257812e+00,-7.129539012908935547e+00,-4.997733116149902344e+00,-8.269092440605163574e-02,2.825054228305816650e-01,-4.255866050720214844e+00,-1.292258453369140625e+01,-7.207518577575683594e+00
1.414939880371093750e+00,1.384886741638183594e+00,2.178103685379028320e+00,2.601551294326782227e+00,3.198686122894287109e+00,2.402770042419433594e+00,2.206254720687866211e+00,3.724086761474609375e+00,4.779136180877685547e+00,9.576965570449829102e-01,-4.538762569427490234e+00,-8.444714546203613281e+00,-1.129683113098144531e+01,-1.164957618713378906e+01,-1.175761795043945312e+01,-8.152653694152832031e+00,-8.691205024719238281e+00,-7.412124156951904297e+00,-7.240046501159667969e+00,-4.773686408996582031e+00,-5.536066055297851562e+00,-4.240312099456787109e+00,-3.085738897323608398e+00,-2.942005395889282227e+00,-2.912226676940917969e+00,7.987312078475952148e-01,1.648759722709655762e+00,1.125177502632141113e+00,-3.057413101196289062e-01,-2.472275018692016602e+00,-7.219746589660644531e+00,-1.656469702720642090e+00
5.938805580139160156e+00,4.617815494537353516e+00,4.751531124114990234e+00,5.932391643524169922e+00,5.233850955963134766e+00,2.129715204238891602e+00,3.602740764617919922e+00,7.662725925445556641e+00,8.842203140258789062e+00,5.755389928817749023e-01,-4.153964519500732422e+00,-6.006664276123046875e+00,-4.923467636108398438e+00,-5.228660106658935547e-01,4.743712246417999268e-01,-2.488900661468505859e+00,-6.122617721557617188e+00,-4.813805103302001953e+00,-3.459671974182128906e+00,-6.713240146636962891e-01,-1.544260263442993164e+00,-2.227632522583007812e+00,-3.789273262023925781e+00,9.790154695510864258e-01,5.856117725372314453e+00,8.388786315917968750e+00,5.459194183349609375e+00,1.593457460403442383e+00,1.461253523826599121e+00,7.098315238952636719e+00,1.180532836914062500e+01,5.810191631317138672e+00
2.132665634155273438e+00,3.036471843719482422e+00,-3.356617093086242676e-01,2.542042970657348633e+00,2.490569353103637695e+00,-3.172474503517150879e-01,-2.915897369384765625e+00,2.014163494110107422e+00,3.263151645660400391e+00,-3.310632944107055664e+00,-5.704101562500000000e+00,-5.125351905822753906e+00,-4.256814479827880859e+00,-2.911980628967285156e+00,-2.014687061309814453e+00,-5.139571666717529297e+00,-7.323914527893066406e+00,-7.304030418395996094e+00,-6.169557571411132812e+00,-8.298801422119140625e+00,-8.720374107360839844e+00,-6.293099880218505859e+00,-4.062406063079833984e+00,7.013253569602966309e-01,3.401190519332885742e+00,3.508305072784423828e+00,2.397571355104446411e-01,2.434169292449951172e+00,4.643612384796142578e+00,9.243618011474609375e+00,8.460609436035156250e+00,3.374741554260253906e+00
-5.344688892364501953e+00,-2.855862140655517578e+00,-5.993666172027587891e+00,-1.781389594078063965e+00,-1.142401546239852905e-01,-2.947285890579223633e+00,-6.896115779876708984e+00,-2.803741216659545898e+00,-1.527141094207763672e+00,-6.592879772186279297e+00,-8.444811820983886719e+00,-7.772428989410400391e+00,-8.030195236206054688e+00,-8.614672660827636719e+00,-8.921077728271484375e+00,-9.238351821899414062e+00,-1.000661563873291016e+01,-8.709792137145996094e+00,-8.188998222351074219e+00,-1.042054748535156250e+01,-1.200611114501953125e+01,-7.765162944793701172e+00,-5.150010108947753906e+00,-5.249750137329101562e+00,-3.893871545791625977e+00,-2.954992532730102539e+00,-2.830024480819702148e+00,-2.063094377517700195e+00,-1.606237173080444336e+00,-3.072685718536376953e+00,-8.108654975891113281e+00,-5.428260326385498047e+00
-1.092572593688964844e+01,-9.495331764221191406e+00,-9.128143310546875000e+00,-5.370928764343261719e+00,-4.548180580139160156e+00,-8.713823318481445312e+00,-8.171874046325683594e+00,-2.865112304687500000e+00,-6.674839556217193604e-02,-5.879284858703613281e+00,-9.899651527404785156e+00,-1.295025634765625000e+01,-1.238692569732666016e+01,-1.084916877746582031e+01,-7.179282665252685547e+00,-7.952713489532470703e+00,-1.010943508148193359e+01,-9.253523826599121094e+00,-9.905360221862792969e+00,-7.640767097473144531e+00,-8.146101951599121094e+00,-7.530725479125976562e+00,-1.018908214569091797e+01,-1.158680152893066406e+01,-9.867387771606445312e+00,-7.416140556335449219e+00,-5.966698646545410156e+00,-1.231218242645263672e+01,-1.316901969909667969e+01,-1.309956455230712891e+01,-1.048747158050537109e+01,-9.967176437377929688e+00
-8.630423545837402344e+00,-9.530742645263671875e+00,-1.177845191955566406e+01,-9.012823104858398438e+00,-7.711632251739501953e+00,-8.871253013610839844e+00,-8.206547737121582031e+00,-3.655061721801757812e+00,9.030493497848510742e-01,-2.162818908691406250e-01,-3.907537221908569336e+00,-7.578067779541015625e+00,-7.474225044250488281e+00,1.439616084098815918e+00,1.094575023651123047e+01,5.496815204620361328e+00,-1.231812834739685059e+00,-2.881324052810668945e+00,-3.348474979400634766e+00,-6.149334907531738281e+00,-5.285341739654541016e+00,-6.992835521697998047e+00,-7.836510658264160156e+00,-8.503465652465820312e+00,-1.252695941925048828e+01,-1.339739513397216797e+01,-1.068129253387451172e+01,-9.630752563476562500e+00,-9.611567497253417969e+00,-9.031281471252441406e+00,-8.554318428039550781e+00,-1.216655158996582031e+01
-1.701197624206542969e+00,-6.815556526184082031e+00,-1.222577762603759766e+01,-7.928845405578613281e+00,-3.318789243698120117e+00,-2.152859687805175781e+00,-1.657627463340759277e+00,-6.705837249755859375e-01,1.938642710447311401e-01,2.035651206970214844e+00,2.478904247283935547e+00,2.875535488128662109e+00,2.419527292251586914e+00,9.145012855529785156e+00,1.512365913391113281e+01,9.814121246337890625e+00,3.011068105697631836e+00,3.691222906112670898e+00,5.137951850891113281e+00,-7.230184078216552734e-01,-2.347527980804443359e+00,-4.340728282928466797e+00,-5.140048265457153320e-01,-2.057583093643188477e+00,-1.086698341369628906e+01,-1.507783985137939453e+01,-1.035742568969726562e+01,4.239249229431152344e-02,-4.759219884872436523e-01,-5.383525371551513672e+00,-1.582851219177246094e+01,-1.611699867248535156e+01
-3.912245750427246094e+00,-5.856301784515380859e+00,-5.061755180358886719e+00,-1.205089569091796875e+00,8.201918601989746094e-01,-3.898273944854736328e+00,7.541781067848205566e-01,3.666990280151367188e+00,1.698158979415893555e+00,-2.227234125137329102e+00,-2.743375301361083984e+00,-1.517016768455505371e+00,-7.942672967910766602e-01,6.201952695846557617e-01,2.119853973388671875e+00,-1.683602571487426758e+00,-5.420518875122070312e+00,-2.930971384048461914e+00,-1.089012384414672852e+00,3.011416435241699219e+00,1.624410033226013184e+00,-1.916469573974609375e+00,-1.649409651756286621e+00,-1.840707302093505859e+00,-4.637798786163330078e+00,-6.392315387725830078e+00,-5.323159694671630859e+00,-3.000145435333251953e+00,-3.317126750946044922e+00,-5.975782394409179688e+00,-1.376216506958007812e+01,-1.039273643493652344e+01
-7.531018733978271484e+00,-7.703779697418212891e+00,1.403053641319274902e+00,4.435252666473388672e+00,3.296064138412475586e-01,-8.497812271118164062e+00,-6.266315460205078125e+00,1.430463075637817383e+00,1.634665846824645996e+00,-4.210088729858398438e+00,-7.887743949890136719e+00,-7.089529514312744141e+00,-7.021769046783447266e+00,-8.912183761596679688e+00,-8.426952362060546875e+00,-8.619985580444335938e+00,-8.063112258911132812e+00,-8.873533248901367188e+00,-8.699400901794433594e+00,-4.984576702117919922e+00,-3.947487354278564453e+00,-5.754228115081787109e+00,-6.484982967376708984e+00,-5.378797054290771484e+00,-3.700638294219970703e+00,-4.730329513549804688e+00,-6.096707820892333984e+00,-8.887331008911132812e+00,-8.011936187744140625e+00,-7.965397357940673828e+00,-6.825990676879882812e+00,-6.597136497497558594e+00
-1.978583455085754395e+00,-9.717367172241210938e+00,-4.365834236145019531e+00,2.727122783660888672e+00,2.858684301376342773e+00,-1.868017554283142090e+00,-6.893952369689941406e+00,-1.205434560775756836e+00,4.483505725860595703e+00,4.902369976043701172e+00,9.138097167015075684e-01,1.401618868112564087e-01,-1.713487267494201660e+00,-6.467087745666503906e+00,-9.252458572387695312e+00,-5.879631519317626953e+00,-2.546242475509643555e+00,-5.165379524230957031e+00,-8.898087501525878906e+00,-1.220294761657714844e+01,-1.056581401824951172e+01,-7.689735889434814453e+00,-4.568464756011962891e+00,-5.960405826568603516e+00,-8.163880348205566406e+00,-1.171430969238281250e+01,-9.681284904479980469e+00,-4.563069820404052734e+00,-3.905325889587402344e+00,-9.440402030944824219e+00,-1.202317428588867188e+01,-1.290050029754638672e+01
2.062326908111572266e+00,-1.180932235717773438e+01,-9.468276023864746094e+00,-1.241355061531066895e+00,5.244606018066406250e+00,3.766062259674072266e+00,1.624354362487792969e+00,1.208478450775146484e+00,6.094366073608398438e+00,7.011805057525634766e+00,7.705372333526611328e+00,5.394304752349853516e+00,4.354501247406005859e+00,-1.640415787696838379e+00,-7.663386344909667969e+00,-1.312271714210510254e+00,1.811602264642715454e-01,-1.791292786598205566e+00,-8.005334854125976562e+00,-1.146678161621093750e+01,-1.189758110046386719e+01,-4.794077873229980469e+00,-1.556007504463195801e+00,-7.020898342132568359e+00,-1.488219261169433594e+01,-1.684174346923828125e+01,-1.124123382568359375e+01,-2.682255983352661133e+00,-1.937872648239135742e+00,-1.207315158843994141e+01,-2.006395149230957031e+01,-2.135505104064941406e+01
2.303375005722045898e-01,-8.923865318298339844e+00,2.996298968791961670e-01,2.244927883148193359e+00,1.009387254714965820e+00,-2.826019287109375000e+00,2.087270021438598633e+00,2.547035455703735352e+00,7.268596291542053223e-01,-3.202315330505371094e+00,5.993058681488037109e-01,8.391082882881164551e-01,1.366229891777038574e+00,-1.723020970821380615e-01,-4.365166187286376953e+00,8.264286518096923828e-01,1.345992922782897949e+00,6.387784481048583984e-01,-2.409763574600219727e+00,-3.498277902603149414e+00,-5.533094882965087891e+00,-1.393287420272827148e+00,-1.059087514877319336e+00,-5.789913654327392578e+00,-8.008506774902343750e+00,-6.584855556488037109e+00,-4.918480396270751953e+00,-2.763552904129028320e+00,-1.337157964706420898e+00,-7.042398929595947266e+00,-9.462369918823242188e+00,-1.345465469360351562e+01
-2.633766174316406250e+00,-4.841063499450683594e+00,1.070389270782470703e+01,1.082919216156005859e+01,-2.730597257614135742e+00,-8.249451637268066406e+00,-4.065441608428955078e+00,2.604774236679077148e+00,9.328132867813110352e-01,-1.475581288337707520e+00,-3.600228071212768555e+00,-1.852903008460998535e+00,-4.857932627201080322e-01,-1.813347637653350830e-01,-2.003049373626708984e+00,-2.296948432922363281e+00,3.660639762878417969e+00,5.538231849670410156e+00,5.998538494110107422e+00,5.365275382995605469e+00,2.605186700820922852e+00,-9.208021163940429688e-01,-3.946462869644165039e+00,-4.189011096954345703e+00,-1.558084726333618164e+00,-1.317059516906738281e+00,-3.599342346191406250e+00,-1.307461977005004883e+00,-6.172656416893005371e-01,-1.158864259719848633e+00,-9.011946916580200195e-01,1.198077321052551270e+00
-5.962993144989013672e+00,-1.420784235000610352e+00,6.700588226318359375e+00,7.099354267120361328e+00,-4.101500988006591797e+00,-3.793836832046508789e+00,-2.943058490753173828e+00,-1.289960622787475586e+00,3.712590038776397705e-01,1.586347103118896484e+00,6.029505133628845215e-01,-2.999927401542663574e-01,2.488733291625976562e+00,1.440902233123779297e+00,-1.358484178781509399e-01,-3.412489414215087891e+00,2.006152868270874023e+00,3.121796607971191406e+00,3.345382928848266602e+00,3.570552587509155273e+00,1.922662377357482910e+00,-1.587126016616821289e+00,-6.275985240936279297e+00,-4.915419578552246094e+00,-7.803012132644653320e-01,-7.552778124809265137e-01,-5.186833858489990234e+00,-4.894548892974853516e+00,-5.042697906494140625e+00,-3.489762544631958008e+00,-2.016973495483398438e+00,3.989481210708618164e+00
-5.904726982116699219e+00,1.167480349540710449e+00,-2.924935102462768555e+00,-6.599594593048095703e+00,-6.356819629669189453e+00,-7.054714560508728027e-01,-1.241953372955322266e+00,-6.225790023803710938e+00,-3.060234069824218750e+00,-2.417199134826660156e+00,7.660610079765319824e-01,-1.320781946182250977e+00,2.633474171161651611e-01,-1.264213204383850098e+00,-2.660615921020507812e+00,-1.946706056594848633e+00,-2.767328262329101562e+00,-3.912997245788574219e+00,-3.075684070587158203e+00,-1.611901283264160156e+00,-6.360076069831848145e-01,-4.510320127010345459e-01,-1.293365955352783203e+00,-1.843458116054534912e-01,-1.355566859245300293e+00,-1.775035709142684937e-01,-1.011670112609863281e+00,-3.742202043533325195e+00,-3.781625509262084961e+00,-2.305994033813476562e+00,-3.663711547851562500e+00,-3.793938875198364258e+00
-9.141699075698852539e-01,-6.548344492912292480e-01,-7.539804935455322266e+00,-1.043731594085693359e+01,-5.267092704772949219e+00,-4.507770836353302002e-01,-3.485263824462890625e+00,-8.392959594726562500e+00,-5.476146697998046875e+00,-4.865297317504882812e+00,-2.933008670806884766e+00,-6.120411872863769531e+00,-8.056237220764160156e+00,-6.317545890808105469e+00,-5.899676799774169922e+00,-3.323808431625366211e+00,-4.934634208679199219e+00,-4.265882015228271484e+00,-8.494875431060791016e-01,-6.988018155097961426e-01,7.824343442916870117e-01,-5.906613469123840332e-01,3.074939966201782227e+00,4.481181144714355469e+00,-2.834281027317047119e-01,1.830013990402221680e-01,4.318763732910156250e+00,3.084618806838989258e+00,2.035318374633789062e+00,3.856264114379882812e+00,1.710235118865966797e+00,-1.651834368705749512e+00
-9.326075315475463867e-01,3.983043193817138672e+00,-3.703198432922363281e+00,-5.754800319671630859e+00,-4.302338600158691406e+00,9.218633770942687988e-01,-3.406348228454589844e+00,-9.935623168945312500e+00,-8.175587654113769531e+00,-5.049022197723388672e+00,-3.858584403991699219e+00,-6.217341423034667969e+00,-8.191939353942871094e+00,-4.297954559326171875e+00,-3.650604963302612305e+00,-4.636680603027343750e+00,-2.527146339416503906e+00,1.120908379554748535e+00,4.396868705749511719e+00,3.435076475143432617e+00,3.686034202575683594e+00,1.039031744003295898e+00,2.811912775039672852e+00,4.974678993225097656e+00,9.856851577758789062e+00,9.914714813232421875e+00,9.518792152404785156e+00,2.687112092971801758e+00,-1.179193556308746338e-01,7.231740951538085938e+00,1.673380661010742188e+01,1.175358390808105469e+01
-2.008172035217285156e+00,8.142805099487304688e+00,-2.231737852096557617e+00,-7.246947765350341797e+00,-6.422371387481689453e+00,2.750131130218505859e+00,9.014017581939697266e-01,-8.690748214721679688e+00,-9.586236000061035156e+00,-6.857844829559326172e+00,-2.971958637237548828e+00,3.422695636749267578e+00,4.202455043792724609e+00,2.085426807403564453e+00,-2.674930989742279053e-01,1.097202897071838379e+00,3.107459783554077148e+00,4.000184535980224609e+00,4.195845603942871094e+00,4.560053348541259766e+00,4.974639415740966797e+00,6.101601600646972656e+00,5.227154731750488281e+00,6.465279579162597656e+00,9.251351356506347656e+00,7.373161315917968750e+00,4.948308944702148438e+00,-1.351077437400817871e+00,-2.587505340576171875e+00,2.211204051971435547e+00,9.695489883422851562e+00,8.040519714355468750e+00
-8.096651434898376465e-01,4.206160545349121094e+00,-5.178358554840087891e+00,-9.718409538269042969e+00,-6.638077259063720703e+00,-3.444781303405761719e-01,4.403356015682220459e-01,-7.530730724334716797e+00,-7.553609371185302734e+00,-5.599145412445068359e+00,-1.801541566848754883e+00,3.642961978912353516e+00,3.182195425033569336e+00,-6.158838048577308655e-02,-1.290558695793151855e+00,2.426661252975463867e+00,1.538425683975219727e+00,-7.677208185195922852e-01,-1.396302342414855957e+00,1.988192439079284668e+00,4.375132560729980469e+00,5.018108367919921875e+00,1.904719114303588867e+00,4.540062904357910156e+00,8.135288238525390625e+00,7.193953514099121094e+00,3.900812387466430664e+00,7.286392152309417725e-02,9.834751486778259277e-01,1.189190864562988281e+00,1.746657490730285645e+00,4.714210510253906250e+00
1.492883801460266113e+00,5.493643283843994141e+00,2.358516931533813477e+00,-7.698976397514343262e-01,-2.853309392929077148e+00,-2.337570667266845703e+00,-4.248246848583221436e-01,-4.380140304565429688e+00,4.082273226231336594e-03,2.317360639572143555e+00,1.348948240280151367e+00,-2.216004848480224609e+00,-2.864139080047607422e+00,-1.078414916992187500e+00,-5.921281576156616211e-01,-1.914835810661315918e+00,-1.149643659591674805e+00,-2.317051649093627930e+00,-2.080358505249023438e+00,-6.502634286880493164e-01,7.362759709358215332e-01,-3.455673754215240479e-01,-3.649472713470458984e+00,-2.015899896621704102e+00,6.261985778808593750e+00,1.076179218292236328e+01,8.427283287048339844e+00,3.746345996856689453e+00,3.937756776809692383e+00,8.786222457885742188e+00,1.342891407012939453e+01,1.328241252899169922e+01
5.462056636810302734e+00,1.285483741760253906e+01,1.246966838836669922e+01,9.133250236511230469e+00,2.718558311462402344e+00,4.338153839111328125e+00,5.670385837554931641e+00,2.314064264297485352e+00,2.002462863922119141e+00,4.130021572113037109e+00,5.704039573669433594e+00,6.149212360382080078e+00,8.317268371582031250e+00,6.182119369506835938e+00,3.449163675308227539e+00,2.672326326370239258e+00,5.886896133422851562e+00,2.574367284774780273e+00,2.254050016403198242e+00,7.622848749160766602e-01,-9.455576539039611816e-01,9.254603981971740723e-01,3.797028541564941406e+00,1.800651669502258301e+00,1.057792544364929199e+00,3.962349653244018555e+00,6.709638118743896484e+00,6.418644428253173828e+00,6.837765216827392578e+00,9.868191719055175781e+00,1.259333992004394531e+01,1.080878829956054688e+01
6.431363582611083984e+00,6.503603458404541016e+00,3.172887325286865234e+00,4.338020801544189453e+00,6.202733993530273438e+00,8.952212333679199219e+00,8.890988349914550781e+00,4.505138397216796875e+00,1.157753229141235352e+00,1.924234509468078613e+00,5.484116077423095703e+00,1.039114093780517578e+01,9.438576698303222656e+00,3.243198633193969727e+00,6.858567595481872559e-01,6.004446983337402344e+00,5.163571357727050781e+00,3.006639182567596436e-01,-7.755827903747558594e-02,1.405634403228759766e+00,4.056610465049743652e-01,2.648146152496337891e+00,6.463213920593261719e+00,6.498879909515380859e+00,1.297586083412170410e+00,-3.982982039451599121e-01,2.101127624511718750e+00,4.849326133728027344e+00,5.048153877258300781e+00,3.150065243244171143e-01,-3.419900417327880859e+00,1.439465045928955078e+00
2.596495628356933594e+00,-4.128955841064453125e+00,-8.496758460998535156e+00,-4.650824546813964844e+00,1.448094367980957031e+00,1.753687143325805664e+00,2.916471004486083984e+00,5.665064454078674316e-01,2.619471788406372070e+00,4.037067890167236328e+00,2.827521324157714844e+00,-5.389249697327613831e-02,-3.910341024398803711e+00,-2.965157032012939453e+00,-2.550471067428588867e+00,4.471454024314880371e-01,-1.785146117210388184e+00,-1.240714311599731445e+00,-1.420408010482788086e+00,1.732657998800277710e-01,1.374860644340515137e+00,9.371880888938903809e-01,-1.511975049972534180e+00,-1.098278164863586426e+00,-4.219537973403930664e-01,1.515277385711669922e+00,-5.920439958572387695e-01,4.832399487495422363e-01,-8.793413043022155762e-01,-2.099143266677856445e+00,-3.652906179428100586e+00,-1.852263689041137695e+00
3.501247167587280273e+00,-7.113761901855468750e-01,-2.496392965316772461e+00,-1.524339437484741211e+00,-1.268821835517883301e+00,-2.062891006469726562e+00,-1.194308042526245117e+00,-2.404161930084228516e+00,-2.759402804076671600e-02,4.145080566406250000e+00,2.600550651550292969e+00,1.564340442419052124e-01,2.165863037109375000e+00,6.785823345184326172e+00,6.048611640930175781e+00,4.201395034790039062e+00,6.871182918548583984e+00,9.388351440429687500e+00,7.902986526489257812e+00,4.506309986114501953e+00,5.316941261291503906e+00,4.621334075927734375e+00,3.521880149841308594e+00,7.244074940681457520e-01,1.396563768386840820e+00,3.083947896957397461e+00,8.154139518737792969e-01,3.854756593704223633e+00,3.614956617355346680e+00,7.940310478210449219e+00,8.279259681701660156e+00,1.576861858367919922e+00
1.010429096221923828e+01,4.761000633239746094e+00,4.278492450714111328e+00,4.960612773895263672e+00,4.274252414703369141e+00,5.587234020233154297e+00,3.783749818801879883e+00,1.030208945274353027e+00,-1.917306035757064819e-01,3.836596965789794922e+00,7.090908527374267578e+00,1.071542072296142578e+01,1.305371570587158203e+01,1.281813335418701172e+01,1.328500747680664062e+01,1.252790451049804688e+01,1.295043659210205078e+01,1.458571910858154297e+01,1.450529956817626953e+01,1.138085746765136719e+01,1.135354423522949219e+01,1.153864192962646484e+01,1.364344120025634766e+01,1.197918605804443359e+01,1.158566284179687500e+01,8.485544204711914062e+00,7.576337337493896484e+00,1.165168666839599609e+01,1.338848304748535156e+01,1.243105888366699219e+01,9.709530830383300781e+00,7.136041641235351562e+00
8.550955772399902344e+00,1.531563878059387207e+00,-1.821115016937255859e-01,1.796192526817321777e+00,3.929299354553222656e+00,6.103944301605224609e+00,6.409407615661621094e+00,4.419113636016845703e+00,1.711481451988220215e+00,1.001327395439147949e+00,4.306952476501464844e+00,6.162857532501220703e+00,5.073517799377441406e+00,4.312263488769531250e+00,6.438673496246337891e+00,6.221572875976562500e+00,2.344383716583251953e+00,4.720052719116210938e+00,5.397643089294433594e+00,8.151668548583984375e+00,1.090631389617919922e+01,1.084924793243408203e+01,8.365638732910156250e+00,8.109222412109375000e+00,1.082314491271972656e+01,1.125001430511474609e+01,9.013875007629394531e+00,7.944219589233398438e+00,6.440094947814941406e+00,3.153320550918579102e+00,2.533325672149658203e+00,5.287353992462158203e+00
6.348772048950195312e-01,-3.549424409866333008e+00,-4.750645637512207031e+00,-4.284625053405761719e+00,-4.909115314483642578e+00,-2.884204387664794922e+00,5.900991559028625488e-01,4.059115052223205566e-01,-1.989813804626464844e+00,-4.120796203613281250e+00,-3.579390287399291992e+00,-2.091167688369750977e+00,-2.865185260772705078e+00,-1.262678265571594238e+00,-1.861145734786987305e+00,-1.708595991134643555e+00,-3.425654172897338867e+00,-2.372499942779541016e+00,-2.417143344879150391e+00,2.571588277816772461e+00,6.752209663391113281e+00,5.706937313079833984e+00,3.207024812698364258e+00,1.711575269699096680e+00,2.929135560989379883e+00,2.771852493286132812e+00,2.285844087600708008e+00,-9.826592803001403809e-01,-4.695435047149658203e+00,-3.731180191040039062e+00,-1.997551470994949341e-01,-6.164322376251220703e+00
-4.672302246093750000e+00,-3.904203176498413086e+00,-6.691072940826416016e+00,-8.280914306640625000e+00,-9.955743789672851562e+00,-6.276950836181640625e+00,-7.566640853881835938e+00,-9.125998497009277344e+00,-8.665160179138183594e+00,-5.606188297271728516e+00,-5.557903766632080078e+00,-3.188303232192993164e+00,-2.047989368438720703e+00,-3.560097694396972656e+00,-3.017978906631469727e+00,-2.309999465942382812e+00,1.994619727134704590e+00,-3.585628271102905273e-01,-2.600391805171966553e-01,1.347578316926956177e-01,1.722069025039672852e+00,1.389018177986145020e+00,1.485368013381958008e+00,8.002880811691284180e-01,5.053265094757080078e-01,-4.134938716888427734e+00,-3.694057703018188477e+00,-2.412615776062011719e+00,-3.357933998107910156e+00,-3.639698505401611328e+00,-2.246278047561645508e+00,-9.007342338562011719e+00
-5.941007137298583984e+00,-2.553967475891113281e+00,-8.435781478881835938e+00,-1.249272632598876953e+01,-1.061008071899414062e+01,-5.917973995208740234e+00,-9.401994705200195312e+00,-1.249432277679443359e+01,-9.321705818176269531e+00,-3.131849527359008789e+00,-2.664237022399902344e+00,-5.155423164367675781e+00,-5.724996566772460938e+00,-5.211271286010742188e+00,-3.008302450180053711e+00,-4.218714714050292969e+00,-3.804866552352905273e+00,-3.112410306930541992e+00,-1.219017267227172852e+00,-1.651259183883666992e+00,-2.972237348556518555e+00,-2.507974863052368164e+00,-4.523184776306152344e+00,-3.731145381927490234e+00,-2.732470035552978516e+00,-3.356912374496459961e+00,-4.486417293548583984e+00,-1.989602923393249512e+00,-5.179021954536437988e-01,-3.209124088287353516e+00,-7.057289123535156250e+00,-4.377855300903320312e+00
-5.048405647277832031e+00,-4.577831268310546875e+00,-1.085604763031005859e+01,-1.584478569030761719e+01,-1.038115406036376953e+01,-6.099549770355224609e+00,-4.495100498199462891e+00,-7.659931182861328125e+00,-7.864141464233398438e+00,-5.290174961090087891e+00,-3.073083400726318359e+00,-3.975646734237670898e+00,-4.011697292327880859e+00,-3.231220245361328125e+00,-4.372550010681152344e+00,-4.296482563018798828e+00,-5.390524864196777344e+00,-5.113827705383300781e+00,-5.509718894958496094e+00,-5.072052955627441406e+00,-4.744930744171142578e+00,-3.710782289505004883e+00,-3.898837089538574219e+00,-4.133147716522216797e+00,-4.385744094848632812e+00,-3.623807430267333984e+00,-3.366774320602416992e+00,-3.705680608749389648e+00,-2.064852952957153320e+00,-3.012180805206298828e+00,-6.634386539459228516e+00,-6.317171573638916016e+00
-3.942676819860935211e-03,-3.901960849761962891e+00,-1.005352401733398438e+01,-1.252459430694580078e+01,-6.846745491027832031e+00,-1.945963501930236816e+00,9.306361079216003418e-01,-3.251580476760864258e+00,-6.624372959136962891e+00,-6.158867359161376953e+00,-2.393974781036376953e+00,2.826311349868774414e+00,3.619564294815063477e+00,-1.148728728294372559e+00,-1.869547367095947266e+00,9.321727156639099121e-01,4.078662395477294922e+00,-4.262280464172363281e-01,-3.128337860107421875e+00,-4.967467784881591797e+00,-2.508252859115600586e+00,-9.561639428138732910e-01,2.806641578674316406e+00,1.705622553825378418e+00,1.042499423027038574e+00,1.901683062314987183e-01,8.659932017326354980e-01,4.836718738079071045e-01,7.973473668098449707e-01,1.567750930786132812e+00,2.301898956298828125e+00,-9.848694205284118652e-01
6.474914550781250000e+00,6.337088108062744141e+00,-3.254530429840087891e-01,-2.690118551254272461e+00,-1.726477742195129395e-01,5.126002788543701172e+00,4.808665275573730469e+00,-2.355298250913619995e-01,1.215402841567993164e+00,4.904262065887451172e+00,6.904181480407714844e+00,6.342778682708740234e+00,5.285099506378173828e+00,5.745978355407714844e+00,8.234946250915527344e+00,5.678342819213867188e+00,4.441597938537597656e+00,3.831593751907348633e+00,4.213740825653076172e+00,3.975858688354492188e+00,3.647849798202514648e+00,3.614650726318359375e+00,3.668188810348510742e+00,4.880259990692138672e+00,8.213783264160156250e+00,1.190055274963378906e+01,8.984927177429199219e+00,8.220098495483398438e+00,7.442974090576171875e+00,9.826888084411621094e+00,1.257569980621337891e+01,1.137268447875976562e+01
7.190973758697509766e+00,9.265731811523437500e+00,5.432018280029296875e+00,2.097654581069946289e+00,1.255044698715209961e+00,4.043433189392089844e+00,4.315947532653808594e+00,7.125678658485412598e-01,4.586165428161621094e+00,7.096148490905761719e+00,8.957656860351562500e+00,2.609492063522338867e+00,2.242848157882690430e+00,1.028198051452636719e+01,1.249104595184326172e+01,7.148663520812988281e+00,1.867758393287658691e+00,5.895084857940673828e+00,6.511192798614501953e+00,7.296759128570556641e+00,4.425212383270263672e+00,3.805355548858642578e+00,1.833329677581787109e+00,1.590582370758056641e+00,3.433035612106323242e+00,8.383194923400878906e+00,7.030656337738037109e+00,7.635660648345947266e+00,9.544945716857910156e+00,1.115600109100341797e+01,9.360669136047363281e+00,7.655592441558837891e+00
3.457594394683837891e+00,3.509249448776245117e+00,1.752064228057861328e+00,1.350493729114532471e-01,-7.432036846876144409e-02,2.440059185028076172e+00,3.394465923309326172e+00,5.563259720802307129e-01,-2.516421079635620117e+00,-2.743118524551391602e+00,1.214507818222045898e+00,1.527150630950927734e+00,3.149637699127197266e+00,4.117046356201171875e+00,6.230337619781494141e+00,5.704577922821044922e+00,7.683301925659179688e+00,7.474763393402099609e+00,5.472710609436035156e+00,3.211211204528808594e+00,2.177516698837280273e+00,2.598532438278198242e+00,2.701941251754760742e+00,1.031990170478820801e+00,-8.639056682586669922e-01,-2.019330739974975586e+00,-4.977930784225463867e-01,-3.210155367851257324e-01,3.053015708923339844e+00,2.366276979446411133e+00,1.827878117561340332e+00,-3.755133450031280518e-01
5.975585937500000000e+00,7.234395980834960938e+00,4.090652942657470703e+00,1.364549040794372559e+00,4.792381823062896729e-01,5.688572406768798828e+00,6.459306240081787109e+00,3.067464113235473633e+00,-4.998138904571533203e+00,-4.435720920562744141e+00,2.176721334457397461e+00,6.991120815277099609e+00,5.892344474792480469e+00,2.764566659927368164e+00,4.907484531402587891e+00,4.920015811920166016e+00,6.938561916351318359e+00,5.520440101623535156e+00,6.188804149627685547e+00,5.699693202972412109e+00,5.615781307220458984e+00,5.206920146942138672e+00,4.492831707000732422e+00,5.333911418914794922e+00,2.746180295944213867e+00,1.211928367614746094e+00,2.328101873397827148e+00,-1.505371570587158203e+00,-2.226409435272216797e+00,-1.108946561813354492e+00,5.125173568725585938e+00,3.933581590652465820e+00
9.948727607727050781e+00,1.315943908691406250e+01,1.305640697479248047e+01,1.018365383148193359e+01,5.666209220886230469e+00,7.312910556793212891e+00,9.957937240600585938e+00,7.907620429992675781e+00,4.838006496429443359e+00,3.955382108688354492e+00,8.242023468017578125e+00,7.269483089447021484e+00,4.231310844421386719e+00,5.482082366943359375e+00,6.589865684509277344e+00,4.677612781524658203e+00,-4.119618833065032959e-01,2.640208721160888672e+00,5.014091491699218750e+00,7.082159042358398438e+00,4.296543121337890625e+00,3.881716012954711914e+00,3.302760601043701172e+00,4.749982357025146484e+00,3.365020275115966797e+00,5.064408302307128906e+00,7.425468921661376953e+00,2.845095157623291016e+00,6.162914633750915527e-01,3.217904806137084961e+00,1.063467025756835938e+01,8.689398765563964844e+00
4.318089485168457031e+00,5.357554435729980469e+00,6.248063087463378906e+00,7.344891548156738281e+00,7.212829113006591797e+00,5.458337306976318359e+00,7.048419475555419922e+00,5.568556308746337891e+00,7.325377941131591797e+00,4.505426883697509766e+00,5.819247245788574219e+00,2.136427402496337891e+00,2.838289260864257812e+00,1.282603859901428223e+00,1.149937033653259277e+00,2.754215955734252930e+00,4.443102777004241943e-01,1.503982305526733398e+00,7.544280290603637695e-01,1.499834537506103516e+00,-3.023508071899414062e+00,-2.755007505416870117e+00,-1.585627913475036621e+00,-9.915250539779663086e-01,-2.094298839569091797e+00,-1.851927757263183594e+00,1.757689476013183594e+00,6.112287044525146484e-01,1.038236498832702637e+00,1.621971845626831055e+00,6.301952362060546875e+00,8.801930427551269531e+00
8.033733367919921875e-01,-1.379419445991516113e+00,-6.440759181976318359e+00,-5.451999664306640625e+00,9.563876390457153320e-01,2.889453887939453125e+00,1.159130454063415527e+00,-1.462826371192932129e+00,-1.488056540489196777e+00,6.718080639839172363e-01,1.796860337257385254e+00,2.894098997116088867e+00,5.387194156646728516e+00,1.265980243682861328e+00,-2.484997510910034180e+00,-5.009676814079284668e-01,3.580125272274017334e-01,-2.011593341827392578e+00,-1.472976922988891602e+00,9.078183770179748535e-01,-1.411666035652160645e+00,-3.492444515228271484e+00,-4.776549339294433594e+00,-2.150534868240356445e+00,-1.953012228012084961e+00,-2.781614780426025391e+00,-2.845496892929077148e+00,-4.360033035278320312e+00,-3.571895837783813477e+00,-2.183168172836303711e+00,4.346675395965576172e+00,9.448110580444335938e+00
6.392019271850585938e+00,4.461715698242187500e+00,1.591039896011352539e+00,1.647281944751739502e-01,2.277869462966918945e+00,2.990948677062988281e+00,8.435622453689575195e-01,-5.970963835716247559e-01,-2.782892465591430664e+00,1.829348921775817871e+00,3.968864917755126953e+00,5.586027145385742188e+00,4.439662456512451172e+00,8.052871704101562500e+00,4.759705066680908203e+00,4.972655177116394043e-01,-3.107577800750732422e+00,-3.236017704010009766e+00,8.320084810256958008e-01,5.186444282531738281e+00,4.587234973907470703e+00,3.875343501567840576e-01,-6.518116593360900879e-01,4.982995033264160156e+00,8.551039695739746094e+00,9.157320022583007812e+00,5.421939849853515625e+00,2.939183413982391357e-01,4.530046582221984863e-01,4.364123344421386719e+00,1.236122703552246094e+01,1.004986953735351562e+01
8.121044158935546875e+00,7.123980045318603516e+00,1.342265892028808594e+01,1.176633644104003906e+01,5.960863113403320312e+00,3.880115747451782227e+00,3.382974386215209961e+00,1.996945023536682129e+00,1.420614123344421387e+00,1.967733263969421387e+00,4.340144634246826172e+00,1.015208601951599121e+00,-6.592113971710205078e-01,4.165088653564453125e+00,6.922392845153808594e+00,3.956896066665649414e+00,1.188440084457397461e+00,1.645853161811828613e+00,2.635723829269409180e+00,4.060936450958251953e+00,2.609139442443847656e+00,2.495760917663574219e+00,5.758894443511962891e+00,9.382276535034179688e+00,9.451212882995605469e+00,1.056979465484619141e+01,1.062953853607177734e+01,1.000012016296386719e+01,9.724687576293945312e+00,1.039981746673583984e+01,1.185727691650390625e+01,9.166492462158203125e+00
4.006808757781982422e+00,7.389798164367675781e+00,1.085882568359375000e+01,6.076438426971435547e+00,5.139269232749938965e-01,2.585377454757690430e+00,4.149131774902343750e+00,1.338649272918701172e+00,1.007080674171447754e+00,-9.024308323860168457e-01,2.202221602201461792e-01,-1.731809258460998535e+00,1.061947941780090332e-01,-4.433093070983886719e+00,-4.262168884277343750e+00,-1.700337648391723633e+00,1.097843289375305176e+00,1.235796570777893066e+00,-1.117356777191162109e+00,-1.494301557540893555e+00,-2.256070137023925781e+00,2.142965793609619141e+00,1.746549248695373535e+00,1.074396729469299316e+00,-2.367404460906982422e+00,8.449299260973930359e-03,2.074635505676269531e+00,7.024846553802490234e+00,7.968815326690673828e+00,6.096586704254150391e+00,1.060203552246093750e+00,4.963759899139404297e+00
4.303334712982177734e+00,3.816609382629394531e+00,2.025438308715820312e+00,-1.255245327949523926e+00,-1.136182069778442383e+00,1.563429951667785645e+00,3.353570938110351562e+00,1.276894450187683105e+00,-3.792955398559570312e+00,-4.707815170288085938e+00,-1.846149682998657227e+00,3.625185728073120117e+00,4.116906642913818359e+00,-4.852021336555480957e-01,-5.669102668762207031e+00,-3.582881927490234375e+00,-3.484711408615112305e+00,-3.171835184097290039e+00,-3.456935882568359375e+00,-3.261250019073486328e+00,-3.830391883850097656e+00,-1.734900712966918945e+00,-3.068241834640502930e+00,-3.089134454727172852e+00,-3.850186824798583984e+00,-2.200356960296630859e+00,-2.630180120468139648e+00,8.645295500755310059e-01,2.572058677673339844e+00,2.561038732528686523e+00,-1.131463408470153809e+00,6.203548312187194824e-01
7.853537559509277344e+00,-2.092131853103637695e+00,1.626224875450134277e+00,4.600091934204101562e+00,7.884328365325927734e+00,4.775120258331298828e+00,3.250248908996582031e+00,3.411901712417602539e+00,-2.036500453948974609e+00,-1.672355890274047852e+00,2.955159187316894531e+00,7.654417991638183594e+00,5.673627853393554688e+00,6.843619823455810547e+00,5.840814113616943359e+00,6.330091953277587891e+00,3.868348598480224609e+00,5.252689123153686523e-01,1.180398225784301758e+00,2.542782545089721680e+00,1.426956892013549805e+00,4.342753291130065918e-01,5.264587879180908203e+00,7.726144313812255859e+00,8.448715209960937500e+00,5.717853069305419922e+00,3.970176458358764648e+00,6.448982715606689453e+00,5.946669101715087891e+00,6.193472385406494141e+00,4.949841976165771484e+00,4.594466209411621094e+00
4.424175739288330078e+00,-1.769073009490966797e+00,2.829620838165283203e+00,2.429410219192504883e+00,3.052608489990234375e+00,9.300487637519836426e-01,-1.051268100738525391e+00,-4.385777711868286133e-01,1.176926970481872559e+00,4.009983539581298828e+00,6.164713859558105469e+00,4.014400482177734375e+00,5.392261505126953125e+00,4.190917968750000000e+00,4.950119018554687500e+00,6.515259742736816406e+00,8.088308334350585938e+00,4.860456943511962891e+00,4.685523509979248047e+00,7.006324291229248047e+00,7.300763130187988281e+00,8.113740921020507812e+00,1.020980167388916016e+01,9.581185340881347656e+00,8.979980468750000000e+00,4.737216472625732422e+00,2.483192205429077148e+00,8.437987327575683594e+00,8.837435722351074219e+00,7.628090858459472656e+00,2.259457349777221680e+00,5.116053104400634766e+00
-1.558893203735351562e+00,-1.072036623954772949e+00,-9.571438431739807129e-01,-5.429476737976074219e+00,-5.904968738555908203e+00,-6.396662712097167969e+00,-4.013248443603515625e+00,-1.968280911445617676e+00,-6.651371121406555176e-01,2.698046900331974030e-02,1.096156910061836243e-01,-5.148051381111145020e-01,1.210706114768981934e+00,-1.814890503883361816e+00,-5.624860763549804688e+00,-2.074031352996826172e+00,-1.738586872816085815e-01,4.037075340747833252e-01,1.244425475597381592e-01,5.690550804138183594e-01,1.860500693321228027e+00,4.572750568389892578e+00,2.171973943710327148e+00,-6.401948332786560059e-01,5.305590033531188965e-01,-5.382860302925109863e-01,-3.814061641693115234e+00,8.394475579261779785e-01,3.957544803619384766e+00,3.162102699279785156e+00,-4.983012199401855469e+00,-4.905504703521728516e+00
-6.784130632877349854e-02,-2.911594629287719727e+00,-5.412510596215724945e-03,1.445451021194458008e+00,4.528666019439697266e+00,-2.034808993339538574e-01,2.078798055648803711e+00,5.260787963867187500e+00,-1.177906751632690430e+00,-4.584255218505859375e+00,-2.664157152175903320e+00,2.026745796203613281e+00,-1.656653642654418945e+00,-1.827450633049011230e+00,-5.374475479125976562e+00,1.300032734870910645e+00,3.156437575817108154e-01,7.126282900571823120e-02,-3.613549172878265381e-01,3.296466469764709473e-01,-6.364362835884094238e-01,2.238214612007141113e-01,7.555284500122070312e-01,6.207790970802307129e-01,2.807952880859375000e+00,4.357980728149414062e+00,2.114467859268188477e+00,6.002016663551330566e-01,1.396535396575927734e+00,2.485705137252807617e+00,-1.028065562248229980e+00,-6.965301513671875000e+00
2.638164520263671875e+00,5.111794453114271164e-03,4.246194839477539062e+00,5.989114761352539062e+00,9.092343330383300781e+00,5.892873287200927734e+00,4.526645660400390625e+00,5.003162384033203125e+00,-1.017709136009216309e+00,-5.912522077560424805e-01,3.221305847167968750e+00,5.471662998199462891e+00,2.792029380798339844e+00,1.449529767036437988e+00,-3.740966916084289551e-01,5.743544578552246094e+00,7.091027259826660156e+00,5.108324527740478516e+00,4.604322433471679688e+00,8.101596832275390625e+00,7.366415977478027344e+00,7.616823673248291016e+00,6.268600463867187500e+00,5.966967582702636719e+00,6.919157981872558594e+00,9.201516151428222656e+00,8.222133636474609375e+00,4.794184207916259766e+00,2.554914474487304688e+00,2.596250057220458984e+00,2.726874351501464844e+00,2.042752027511596680e+00
-1.381444573402404785e+00,2.153454542160034180e+00,2.656064510345458984e+00,-2.083553552627563477e+00,-1.825988411903381348e+00,-4.899807572364807129e-01,-1.868536710739135742e+00,-2.966615200042724609e+00,-5.542014598846435547e+00,-3.297801017761230469e+00,8.425383567810058594e-01,-8.518728613853454590e-01,1.800238728523254395e+00,2.588418722152709961e+00,1.450616002082824707e+00,1.421162724494934082e+00,2.367264509201049805e+00,2.005251169204711914e+00,1.147246837615966797e+00,2.584002494812011719e+00,5.173794269561767578e+00,7.238777160644531250e+00,3.771215677261352539e+00,7.990485429763793945e-02,3.220897197723388672e+00,3.970951557159423828e+00,3.143854379653930664e+00,5.109930038452148438e-01,-1.553551793098449707e+00,-1.801521897315979004e+00,-3.266062736511230469e-01,2.745783030986785889e-01
-5.254121303558349609e+00,-1.885775804519653320e+00,-1.893718242645263672e+00,-2.651157855987548828e+00,-5.501140117645263672e+00,-4.800576686859130859e+00,-4.680412292480468750e+00,-6.845249652862548828e+00,-5.963194847106933594e+00,-7.081090450286865234e+00,-6.044650554656982422e+00,-6.239805698394775391e+00,-3.867830514907836914e+00,3.560497760772705078e-01,1.667078614234924316e+00,-9.913331270217895508e-01,-3.819970846176147461e+00,-4.391979694366455078e+00,-6.456566810607910156e+00,-8.296578407287597656e+00,-6.958425521850585938e+00,-3.765366077423095703e+00,-1.195222258567810059e+00,-4.444789886474609375e+00,-2.079217910766601562e+00,-1.928447484970092773e+00,-2.179659307003021240e-01,-3.087338685989379883e+00,-4.476798057556152344e+00,-2.359652280807495117e+00,-3.003132641315460205e-01,-5.137663364410400391e+00
-3.368443727493286133e+00,1.573540717363357544e-01,-1.038106203079223633e+00,1.296341300010681152e+00,-1.301965355873107910e+00,-8.599911332130432129e-01,-1.043208003044128418e+00,-6.051631927490234375e+00,-2.200115442276000977e+00,-1.371184945106506348e+00,-2.385334253311157227e+00,-1.760192155838012695e+00,-2.236546516418457031e+00,-3.391353368759155273e+00,-3.055005788803100586e+00,-1.935380697250366211e+00,-1.044790983200073242e+00,-1.701286315917968750e+00,-1.830989956855773926e+00,-7.983350753784179688e-01,-1.992789864540100098e+00,-1.627965331077575684e+00,-1.919677376747131348e+00,-1.992060184478759766e+00,-1.093158483505249023e+00,5.727204084396362305e-01,1.794300913810729980e+00,-3.590657711029052734e-01,-5.102782845497131348e-01,1.619192481040954590e+00,3.269002199172973633e+00,1.195634245872497559e+00
1.207928776741027832e+00,5.821078300476074219e+00,-7.873811721801757812e+00,-8.557806968688964844e+00,-2.855791568756103516e+00,3.270411491394042969e+00,2.097632884979248047e+00,-4.418523311614990234e+00,-3.898107051849365234e+00,-1.414698004722595215e+00,1.890696287155151367e+00,3.030589818954467773e+00,2.516088485717773438e+00,-1.727031946182250977e+00,-4.808121204376220703e+00,-2.762103557586669922e+00,1.946733951568603516e+00,2.905284881591796875e+00,4.944101810455322266e+00,7.346546173095703125e+00,7.120795726776123047e+00,5.813906669616699219e+00,3.760205805301666260e-01,1.336066365242004395e+00,3.407063007354736328e+00,4.536061286926269531e+00,2.586651325225830078e+00,2.424286365509033203e+00,4.848386287689208984e+00,3.813438892364501953e+00,4.747778415679931641e+00,1.178578090667724609e+01
8.929685592651367188e+00,1.098700046539306641e+01,-9.929866790771484375e+00,-1.080507373809814453e+01,-1.091135382652282715e+00,9.523919105529785156e+00,9.631304740905761719e+00,2.272098779678344727e+00,-2.602009296417236328e+00,-3.630991697311401367e+00,3.718229055404663086e+00,6.664802074432373047e+00,7.175849914550781250e+00,8.818754196166992188e+00,7.780172824859619141e+00,7.156270980834960938e+00,6.781522750854492188e+00,5.694839954376220703e+00,4.928504943847656250e+00,4.568145275115966797e+00,5.079821586608886719e+00,6.450588703155517578e+00,7.773911476135253906e+00,7.228844642639160156e+00,6.599142551422119141e+00,5.678741455078125000e+00,6.760718822479248047e+00,6.636362552642822266e+00,6.947317600250244141e+00,6.423509120941162109e+00,9.956025123596191406e+00,1.419609260559082031e+01
5.623221874237060547e+00,1.231537628173828125e+01,7.499646663665771484e+00,5.682816982269287109e+00,3.465913772583007812e+00,7.705483913421630859e+00,8.646626472473144531e+00,6.365814208984375000e+00,4.194164276123046875e+00,4.167643547058105469e+00,4.119480609893798828e+00,2.421887636184692383e+00,3.813362121582031250e+00,7.075122356414794922e+00,1.105776596069335938e+01,8.046363830566406250e+00,5.580690383911132812e+00,3.658390522003173828e+00,3.808174133300781250e+00,3.358851432800292969e+00,2.831482410430908203e+00,2.564086437225341797e+00,4.731273651123046875e+00,4.568218708038330078e+00,5.748987197875976562e+00,7.727114677429199219e+00,7.304986000061035156e+00,5.086331367492675781e+00,2.018491744995117188e+00,5.445249080657958984e+00,1.751365661621093750e+01,1.090319252014160156e+01
-1.492880439758300781e+01,1.231593862175941467e-01,1.458777332305908203e+01,1.402450752258300781e+01,2.034085035324096680e+00,-6.594359874725341797e+00,-6.783555507659912109e+00,4.701656341552734375e+00,1.101073741912841797e+01,9.247988700866699219e+00,-5.660658359527587891e+00,-1.110558223724365234e+01,-1.121415996551513672e+01,-8.833899497985839844e+00,-4.088680267333984375e+00,-6.906425476074218750e+00,-1.137873458862304688e+01,-1.058429050445556641e+01,-5.781103134155273438e+00,-7.482675075531005859e+00,-1.003160953521728516e+01,-1.336384010314941406e+01,-1.400532722473144531e+01,-1.397036170959472656e+01,-1.053065776824951172e+01,-8.802046775817871094e+00,-1.314143466949462891e+01,-1.407898139953613281e+01,-1.257441425323486328e+01,-1.250886535644531250e+01,-1.119457602500915527e+00,3.183556079864501953e+00
-1.532558727264404297e+01,-7.672934055328369141e+00,3.700507879257202148e+00,4.664586544036865234e+00,2.630236148834228516e+00,-8.118509292602539062e+00,-8.407789230346679688e+00,5.031133174896240234e+00,6.704694271087646484e+00,1.316547393798828125e+00,-9.397963523864746094e+00,-1.226259040832519531e+01,-1.199994182586669922e+01,-1.194736194610595703e+01,-1.374738979339599609e+01,-1.352045726776123047e+01,-1.231817913055419922e+01,-1.173134040832519531e+01,-8.935880661010742188e+00,-1.020049571990966797e+01,-1.287610816955566406e+01,-1.479346370697021484e+01,-1.390890789031982422e+01,-1.364175987243652344e+01,-1.451206207275390625e+01,-1.671306228637695312e+01,-1.403577613830566406e+01,-1.436936378479003906e+01,-1.379562664031982422e+01,-1.698123168945312500e+01,-1.491168785095214844e+01,-1.186133265495300293e+00
6.310014724731445312e-01,2.506176710128784180e+00,2.565308094024658203e+00,1.392737388610839844e+00,6.186341762542724609e+00,3.044722557067871094e+00,2.585999488830566406e+00,8.063943862915039062e+00,3.604030609130859375e+00,3.236793041229248047e+00,-3.182365298271179199e-01,1.144655466079711914e+00,9.769868850708007812e-01,-1.031053423881530762e+00,-3.957699060440063477e+00,-4.106850147247314453e+00,-1.743311434984207153e-01,1.310976445674896240e-01,-1.446842312812805176e+00,-1.031180262565612793e+00,-1.386003017425537109e+00,-6.805815547704696655e-02,-3.672881126403808594e-01,2.992108762264251709e-01,-2.775543212890625000e+00,-3.044568061828613281e+00,1.794208288192749023e+00,5.580540746450424194e-03,3.293238878250122070e-01,-8.168984651565551758e-01,3.035279214382171631e-01,-7.208268046379089355e-01
-3.555233478546142578e+00,-1.660548448562622070e+00,5.218332290649414062e+00,6.169179439544677734e+00,2.227200031280517578e+00,-1.566002815961837769e-01,-1.515493750572204590e+00,4.164897918701171875e+00,7.427354812622070312e+00,1.087099170684814453e+01,4.393376827239990234e+00,1.079725623130798340e+00,7.593900561332702637e-01,-1.944299936294555664e-01,-1.517244815826416016e+00,-2.635247230529785156e+00,-2.718892097473144531e+00,-4.058424472808837891e+00,-6.555805206298828125e+00,-8.416833877563476562e+00,-8.080473899841308594e+00,-5.835870265960693359e+00,-4.207039356231689453e+00,-4.702877521514892578e+00,-8.428723335266113281e+00,-8.529910087585449219e+00,-2.989315509796142578e+00,-2.447114467620849609e+00,-3.976069927215576172e+00,-3.936866521835327148e+00,-2.497146606445312500e+00,-8.728457450866699219e+00
-1.057734394073486328e+01,-1.199199295043945312e+01,-8.097339272499084473e-01,1.765846729278564453e+00,-1.536749362945556641e+00,-6.483108043670654297e+00,-5.953958988189697266e+00,1.101358771324157715e+00,4.502619266510009766e+00,3.753304243087768555e+00,-4.160782337188720703e+00,-7.036591053009033203e+00,-8.735843658447265625e+00,-8.101170539855957031e+00,-8.626553535461425781e+00,-1.259847354888916016e+01,-1.199743080139160156e+01,-1.072298526763916016e+01,-1.049433517456054688e+01,-1.118374919891357422e+01,-1.091068744659423828e+01,-1.067730998992919922e+01,-9.300699234008789062e+00,-8.104179382324218750e+00,-1.156031894683837891e+01,-1.463822078704833984e+01,-1.397852802276611328e+01,-1.199807739257812500e+01,-1.196385765075683594e+01,-1.238217449188232422e+01,-1.070743560791015625e+01,-8.278922080993652344e+00
2.641170501708984375e+00,7.177330851554870605e-01,2.028880596160888672e+00,1.026470899581909180e+00,3.060421228408813477e+00,3.992911100387573242e+00,5.372997283935546875e+00,6.722318172454833984e+00,4.080593109130859375e+00,1.900304436683654785e+00,9.270730614662170410e-02,1.482086777687072754e+00,-5.831057429313659668e-01,-1.407941222190856934e+00,-1.908128857612609863e+00,-4.188330650329589844e+00,-2.594482898712158203e+00,-2.306497335433959961e+00,-2.119676113128662109e+00,1.168588399887084961e+00,3.328703165054321289e+00,4.002742290496826172e+00,5.998001575469970703e+00,5.950042247772216797e+00,9.766200929880142212e-02,-3.177684068679809570e+00,-1.185295224189758301e+00,1.490150332450866699e+00,4.457324445247650146e-01,-2.514189004898071289e+00,-3.980362892150878906e+00,6.109668731689453125e+00
9.285306930541992188e+00,5.881312847137451172e+00,4.693182945251464844e+00,3.771536111831665039e+00,4.401553153991699219e+00,9.115926742553710938e+00,9.142503738403320312e+00,7.966779708862304688e+00,6.455280303955078125e+00,5.192833900451660156e+00,4.954592704772949219e+00,7.733371257781982422e+00,5.029629707336425781e+00,2.570688247680664062e+00,4.005488395690917969e+00,3.711588144302368164e+00,3.269814252853393555e+00,8.321514129638671875e-01,-1.640325307846069336e+00,1.584068387746810913e-01,2.875821828842163086e+00,5.717864990234375000e+00,7.581248283386230469e+00,8.387470245361328125e+00,5.875500202178955078e+00,4.349120616912841797e+00,4.588191986083984375e+00,6.630658149719238281e+00,5.678425788879394531e+00,2.463190317153930664e+00,-1.925882101058959961e+00,3.884547472000122070e+00
2.865246832370758057e-01,-6.094380378723144531e+00,-5.799743533134460449e-01,1.984205245971679688e+00,-1.469675064086914062e+00,-3.094187259674072266e+00,-3.229545116424560547e+00,1.126040697097778320e+00,6.655871868133544922e+00,2.025139808654785156e+00,-7.981036305427551270e-01,-1.578605532646179199e+00,-2.605871200561523438e+00,-3.097676277160644531e+00,1.336190104484558105e-01,-2.736646175384521484e+00,-2.792257308959960938e+00,-4.003229141235351562e+00,-5.105199813842773438e+00,-5.889099597930908203e+00,-5.104329109191894531e+00,-2.646397829055786133e+00,3.309648856520652771e-02,5.325387120246887207e-01,2.521460771560668945e+00,2.128777027130126953e+00,-3.278712183237075806e-02,-1.258350312709808350e-01,3.070195615291595459e-01,-7.632353901863098145e-01,-6.029567718505859375e+00,-9.783247947692871094e+00
1.722316741943359375e+00,-2.497985124588012695e+00,-7.237278819084167480e-01,-1.965971350669860840e+00,-5.870452404022216797e+00,-6.915436267852783203e+00,-8.542025566101074219e+00,-6.561341762542724609e+00,6.717757225036621094e+00,6.267784118652343750e+00,2.679063081741333008e+00,-3.302455425262451172e+00,-7.038287073373794556e-02,2.163448572158813477e+00,4.818743228912353516e+00,-1.514712333679199219e+00,-5.798841118812561035e-01,-7.697775959968566895e-01,2.342374324798583984e+00,3.524408578872680664e+00,4.298617362976074219e+00,3.980870008468627930e+00,4.879172801971435547e+00,2.114492177963256836e+00,3.510628461837768555e+00,5.198401927947998047e+00,5.495747566223144531e+00,5.722994327545166016e+00,5.508293151855468750e+00,4.715698242187500000e+00,-1.231324434280395508e+00,-5.161037921905517578e+00
3.242357730865478516e+00,5.422883629798889160e-01,-5.573910236358642578e+00,-6.468426704406738281e+00,-4.139895439147949219e+00,-1.554842114448547363e+00,-3.142075061798095703e+00,-2.638509750366210938e+00,5.573512077331542969e+00,6.659645080566406250e+00,3.288335323333740234e+00,1.016060590744018555e+00,3.109441518783569336e+00,5.956283569335937500e+00,8.590499877929687500e+00,4.382483959197998047e+00,4.084498882293701172e+00,2.787616729736328125e+00,5.528962612152099609e+00,6.480383872985839844e+00,6.246530532836914062e+00,3.242575407028198242e+00,7.654494047164916992e-01,1.813559532165527344e+00,4.595304489135742188e+00,6.438500404357910156e+00,4.177947998046875000e+00,4.922209739685058594e+00,4.763630867004394531e+00,5.359784126281738281e+00,1.271502971649169922e+00,-1.920662283897399902e+00
-7.514470100402832031e+00,-1.125359058380126953e+01,-1.964032745361328125e+01,-1.634898376464843750e+01,-9.297619819641113281e+00,-7.109350681304931641e+00,-5.213501453399658203e+00,-1.548246026039123535e+00,-5.644682407379150391e+00,-6.324875831604003906e+00,-9.770147323608398438e+00,-4.366465568542480469e+00,-5.900854587554931641e+00,-4.739203929901123047e+00,-1.638603687286376953e+00,-4.011636257171630859e+00,-3.409965276718139648e+00,-2.663513660430908203e+00,-1.989305377006530762e+00,-4.827856063842773438e+00,-7.140429973602294922e+00,-9.704730033874511719e+00,-1.091639328002929688e+01,-8.137464523315429688e+00,-4.832570075988769531e+00,-4.599069595336914062e+00,-8.994810104370117188e+00,-8.694621086120605469e+00,-7.331485748291015625e+00,-5.600006103515625000e+00,-9.533343315124511719e+00,-1.496879673004150391e+01
-6.824632167816162109e+00,-8.133508682250976562e+00,-1.581975650787353516e+01,-1.570160961151123047e+01,-1.189151000976562500e+01,-8.733082771301269531e+00,-6.879856109619140625e+00,-5.368954658508300781e+00,-1.145268058776855469e+01,-9.911373138427734375e+00,-9.629729270935058594e+00,-4.540763854980468750e+00,-4.786041259765625000e+00,-5.344779968261718750e+00,-2.532022714614868164e+00,-4.984598636627197266e+00,-2.909219503402709961e+00,-1.222475916147232056e-01,1.267578482627868652e+00,-2.859232664108276367e+00,-4.654867172241210938e+00,-4.890655994415283203e+00,-3.312661409378051758e+00,-5.454714775085449219e+00,-7.721801280975341797e+00,-7.497299194335937500e+00,-5.039971351623535156e+00,-5.567845344543457031e+00,-5.254395484924316406e+00,-2.856708526611328125e+00,-5.422012329101562500e+00,-1.183494377136230469e+01
1.752567887306213379e+00,-2.628790616989135742e+00,-9.235595703125000000e+00,-7.680997848510742188e+00,-2.775488376617431641e+00,1.649029999971389771e-01,-8.748105168342590332e-01,-1.787815332412719727e+00,-1.439706325531005859e+00,-1.607866883277893066e+00,1.410258650779724121e+00,1.995394349098205566e+00,4.773092269897460938e+00,6.190415382385253906e+00,1.108133602142333984e+01,7.683806419372558594e+00,6.921292304992675781e+00,7.516812801361083984e+00,8.590344429016113281e+00,7.046376228332519531e+00,7.394222736358642578e+00,6.634185791015625000e+00,4.730352878570556641e+00,1.780670881271362305e+00,3.840218111872673035e-02,2.874103486537933350e-01,4.718875885009765625e+00,1.798188567161560059e+00,1.538433670997619629e+00,4.446818828582763672e+00,5.304883956909179688e+00,-9.146997332572937012e-01
-5.025401115417480469e+00,-9.968783378601074219e+00,-1.239664745330810547e+01,-7.495613098144531250e+00,-1.551271915435791016e+00,-2.156408309936523438e+00,-4.939125537872314453e+00,-2.815910339355468750e+00,-6.220425367355346680e-01,2.059380412101745605e-01,-1.643716931343078613e+00,-3.914042711257934570e+00,-8.862763047218322754e-01,3.477165937423706055e+00,9.020350456237792969e+00,5.391434192657470703e+00,3.208952188491821289e+00,3.620676517486572266e+00,3.177430629730224609e+00,8.434773683547973633e-01,1.422932505607604980e+00,-7.487793453037738800e-03,-5.087849140167236328e+00,-4.500010967254638672e+00,-1.749908447265625000e+00,-2.339362144470214844e+00,-3.904917240142822266e+00,-5.605370521545410156e+00,-5.739778518676757812e+00,-5.617093086242675781e+00,-6.023073673248291016e+00,-7.369671344757080078e+00
-1.262837600708007812e+01,-9.019815444946289062e+00,-6.709162712097167969e+00,-8.030668258666992188e+00,-9.478397369384765625e+00,-1.141230106353759766e+01,-1.203879833221435547e+01,-9.532319068908691406e+00,-5.211690425872802734e+00,-4.798817634582519531e+00,-9.172122955322265625e+00,-1.202122497558593750e+01,-1.022040653228759766e+01,-9.813157081604003906e+00,-7.591696739196777344e+00,-8.122726440429687500e+00,-6.760527610778808594e+00,-4.064411163330078125e+00,-3.336218595504760742e+00,-8.137325286865234375e+00,-8.260477066040039062e+00,-8.190814018249511719e+00,-9.703198432922363281e+00,-9.722770690917968750e+00,-9.715155601501464844e+00,-1.056323719024658203e+01,-1.144432830810546875e+01,-9.917211532592773438e+00,-1.026995563507080078e+01,-1.270534229278564453e+01,-1.698172187805175781e+01,-1.480019092559814453e+01
-8.986634254455566406e+00,-9.551951408386230469e+00,-7.746954917907714844e+00,-9.073308944702148438e+00,-1.123444843292236328e+01,-1.182041549682617188e+01,-9.722106933593750000e+00,-9.003730773925781250e+00,-6.521042823791503906e+00,-6.119931221008300781e+00,-8.141841888427734375e+00,-9.368359565734863281e+00,-9.698239326477050781e+00,-1.135642147064208984e+01,-8.762187957763671875e+00,-8.826247215270996094e+00,-8.214674949645996094e+00,-5.847183227539062500e+00,-4.310556888580322266e+00,-8.250817298889160156e+00,-7.982485294342041016e+00,-6.216777324676513672e+00,-4.381717681884765625e+00,-8.754034996032714844e+00,-1.303699588775634766e+01,-1.513015556335449219e+01,-1.098395824432373047e+01,-9.571314811706542969e+00,-8.207539558410644531e+00,-1.293483257293701172e+01,-1.861943626403808594e+01,-1.678058624267578125e+01
-4.897636890411376953e+00,-5.666503429412841797e+00,-6.376858711242675781e+00,-3.293218374252319336e+00,-2.383076906204223633e+00,-3.129543304443359375e+00,-1.993172168731689453e+00,8.393207192420959473e-01,-3.847864151000976562e+00,-6.994686603546142578e+00,-5.666476249694824219e+00,-4.062119483947753906e+00,-5.961983680725097656e+00,-3.793271064758300781e+00,-1.157640695571899414e+00,-4.874530315399169922e+00,-7.937158584594726562e+00,-6.592175483703613281e+00,-7.133687496185302734e+00,-6.708210945129394531e+00,-5.792114257812500000e+00,-5.413878917694091797e+00,-4.017159938812255859e+00,-3.093313217163085938e+00,-2.940660953521728516e+00,-4.663851261138916016e+00,-5.351135253906250000e+00,-7.594115257263183594e+00,-6.014238357543945312e+00,-7.248338699340820312e+00,-8.890100479125976562e+00,-8.198374748229980469e+00
1.173887848854064941e-01,7.155175685882568359e+00,5.502942562103271484e+00,5.319401264190673828e+00,2.823288440704345703e+00,2.979405164718627930e+00,1.490260243415832520e+00,2.572391033172607422e+00,-2.124736905097961426e-01,-4.656210839748382568e-01,7.984545230865478516e-01,1.533977508544921875e+00,2.468647509813308716e-01,1.291935205459594727e+00,-1.999651908874511719e+00,-4.085218429565429688e+00,-5.611500740051269531e+00,-4.006802082061767578e+00,-5.796485424041748047e+00,-1.271053075790405273e+00,3.479211330413818359e-01,-7.689180970191955566e-01,-5.661769509315490723e-01,3.210681676864624023e+00,6.355853557586669922e+00,6.859681129455566406e+00,4.822769165039062500e+00,1.628200769424438477e+00,-2.918515801429748535e-01,2.101835727691650391e+00,5.990159511566162109e+00,6.232001304626464844e+00
2.760648012161254883e+00,5.680642604827880859e+00,7.112654209136962891e+00,7.097489833831787109e+00,3.174926280975341797e+00,2.390520095825195312e+00,7.635935544967651367e-01,-2.834519445896148682e-01,1.266866803169250488e+00,2.875966310501098633e+00,2.865089654922485352e+00,1.845491886138916016e+00,1.452254295349121094e+00,-6.450357437133789062e-01,-3.205012798309326172e+00,-2.057355880737304688e+00,-1.441354513168334961e+00,-8.724316954612731934e-02,-5.321081876754760742e-01,2.506729364395141602e+00,2.539704322814941406e+00,2.186744928359985352e+00,2.999720811843872070e+00,1.599343419075012207e+00,3.545636653900146484e+00,4.659595966339111328e+00,7.005812644958496094e+00,4.600381851196289062e+00,4.184838771820068359e+00,5.904953002929687500e+00,9.982810974121093750e+00,9.998272895812988281e+00
-4.450783252716064453e+00,-6.741425514221191406e+00,-4.673625946044921875e+00,-2.605916023254394531e+00,-1.551972270011901855e+00,-4.628774642944335938e+00,-3.909540176391601562e+00,-2.625298500061035156e+00,1.277963966131210327e-01,-2.184835195541381836e+00,-4.813371658325195312e+00,-6.554684638977050781e+00,-7.130949020385742188e+00,-8.190797805786132812e+00,-5.656989574432373047e+00,-6.528256416320800781e+00,-6.153360843658447266e+00,-6.011995315551757812e+00,-6.248535156250000000e+00,-5.741084098815917969e+00,-6.315712928771972656e+00,-6.029828071594238281e+00,-5.605087757110595703e+00,-3.798762559890747070e+00,-5.803664922714233398e-01,1.061278581619262695e-02,-2.807094335556030273e+00,-5.509499549865722656e+00,-8.373736739158630371e-01,2.277288913726806641e+00,1.757596492767333984e+00,-8.180828094482421875e-01
-6.051397323608398438e+00,-1.860303640365600586e+00,1.631340235471725464e-01,-4.020940303802490234e+00,-5.565782546997070312e+00,-7.388143062591552734e+00,-3.987391233444213867e+00,-3.809000015258789062e+00,-4.339746013283729553e-02,-1.045667529106140137e+00,-4.627557754516601562e+00,-6.472500324249267578e+00,-7.539832592010498047e+00,-9.239017486572265625e+00,-9.630629539489746094e+00,-1.151258182525634766e+01,-1.064418601989746094e+01,-1.006732177734375000e+01,-8.983983993530273438e+00,-7.182098388671875000e+00,-7.407705307006835938e+00,-9.985569953918457031e+00,-9.377376556396484375e+00,-1.485663652420043945e+00,2.799185276031494141e+00,3.002935171127319336e+00,-3.883090496063232422e+00,-4.973107337951660156e+00,-2.000486135482788086e+00,1.033065557479858398e+00,-1.523810148239135742e+00,-7.012435197830200195e-01
1.184445023536682129e+00,1.105666446685791016e+01,1.618740844726562500e+01,9.589491844177246094e+00,7.910055518150329590e-01,8.058334589004516602e-01,6.100434780120849609e+00,4.701896667480468750e+00,2.151438713073730469e+00,1.899146080017089844e+00,2.573713064193725586e+00,2.973121404647827148e+00,1.043917417526245117e+00,-1.851043462753295898e+00,-4.862448692321777344e+00,-4.395213603973388672e+00,-4.017584323883056641e+00,-2.551975250244140625e+00,4.815390110015869141e-01,3.556554555892944336e+00,2.644841432571411133e+00,-1.830981492996215820e+00,-1.234477758407592773e+00,4.063331127166748047e+00,9.504536628723144531e+00,1.018402481079101562e+01,7.409497261047363281e+00,5.348870754241943359e+00,5.815311431884765625e+00,8.037583351135253906e+00,7.949205875396728516e+00,8.960763931274414062e+00
2.522963583469390869e-01,8.643843650817871094e+00,1.250797367095947266e+01,1.118804454803466797e+01,3.825648069381713867e+00,4.295130729675292969e+00,9.510601997375488281e+00,9.505454063415527344e+00,1.904525279998779297e+00,-3.422029614448547363e-01,4.174827575683593750e+00,4.277317523956298828e+00,2.900929212570190430e+00,3.798110783100128174e-01,6.993444561958312988e-01,1.005375266075134277e+00,1.931750178337097168e+00,1.016132831573486328e+00,2.730794191360473633e+00,4.947797775268554688e+00,5.480785369873046875e+00,2.808031320571899414e+00,1.527303218841552734e+00,2.838679313659667969e+00,9.433860778808593750e+00,1.071915626525878906e+01,8.137540817260742188e+00,4.573695659637451172e+00,6.804909706115722656e+00,9.830314636230468750e+00,9.003509521484375000e+00,7.428803443908691406e+00
-1.913771152496337891e+00,3.807929277420043945e+00,4.674012184143066406e+00,5.301437377929687500e+00,3.267581462860107422e+00,9.300370216369628906e-01,1.163818955421447754e+00,7.436355948448181152e-01,3.762832164764404297e+00,2.216141700744628906e+00,4.318973541259765625e+00,8.755284547805786133e-01,6.344232559204101562e-01,-1.309193372726440430e+00,-7.545706033706665039e-01,-3.143956363201141357e-01,2.229043960571289062e+00,7.828134298324584961e-02,-3.863914906978607178e-01,1.471749067306518555e+00,4.008916378021240234e+00,1.179520249366760254e+00,2.219222187995910645e-01,4.067526340484619141e+00,9.311744689941406250e+00,8.656806945800781250e+00,2.273711681365966797e+00,1.634803414344787598e+00,4.259959220886230469e+00,7.485356330871582031e+00,5.148874282836914062e+00,4.139927864074707031e+00
4.258348941802978516e+00,5.310507774353027344e+00,8.475813865661621094e+00,1.012178707122802734e+01,8.160134315490722656e+00,3.136963844299316406e+00,-7.557833939790725708e-02,-1.811067223548889160e+00,6.408791542053222656e+00,4.573297023773193359e+00,4.855908393859863281e+00,2.656595230102539062e+00,2.565616130828857422e+00,1.822472572326660156e+00,4.935011863708496094e-01,2.689700841903686523e+00,3.202234506607055664e+00,4.064878940582275391e+00,4.307454586029052734e+00,7.752866744995117188e+00,1.013584327697753906e+01,6.282752513885498047e+00,5.788541793823242188e+00,9.553217887878417969e+00,1.322864151000976562e+01,1.093593692779541016e+01,7.229066848754882812e+00,7.472936630249023438e+00,8.473296165466308594e+00,9.039129257202148438e+00,8.169984817504882812e+00,8.761274337768554688e+00
4.205572605133056641e+00,3.719976425170898438e+00,6.407730102539062500e+00,1.003650760650634766e+01,6.526086330413818359e+00,5.216999053955078125e+00,3.019765138626098633e+00,1.481720805168151855e+00,-2.657704651355743408e-01,-1.395764589309692383e+00,3.237327635288238525e-01,2.245576381683349609e+00,3.329153060913085938e+00,1.601217627525329590e+00,-1.790392994880676270e+00,7.120984196662902832e-01,9.303715229034423828e-01,2.112793207168579102e+00,2.407507896423339844e+00,6.595140457153320312e+00,8.975279808044433594e+00,8.569215774536132812e+00,7.459438323974609375e+00,5.646372318267822266e+00,8.069246292114257812e+00,8.417700767517089844e+00,9.204829216003417969e+00,5.460149288177490234e+00,6.313400745391845703e+00,5.458740711212158203e+00,7.113605499267578125e+00,1.079167938232421875e+01
9.319897294044494629e-01,3.326325416564941406e+00,3.035326480865478516e+00,3.314451217651367188e+00,-1.223984479904174805e+00,-2.661595940589904785e-01,-5.718293786048889160e-01,-1.995914578437805176e-01,-5.779327869415283203e+00,-5.078735828399658203e+00,-3.924546718597412109e+00,-4.248065054416656494e-01,6.514211297035217285e-01,-4.018414020538330078e+00,-1.054106140136718750e+01,-7.937937259674072266e+00,-3.922673463821411133e+00,-6.149648666381835938e+00,-7.557289123535156250e+00,-5.202914714813232422e+00,-2.351795673370361328e+00,-7.078701853752136230e-01,9.639633893966674805e-01,-1.666990518569946289e+00,-6.090452075004577637e-01,1.876567125320434570e+00,4.018529891967773438e+00,-2.702948093414306641e+00,-2.943235158920288086e+00,1.551682204008102417e-01,8.012475967407226562e+00,8.351579666137695312e+00
6.441556453704833984e+00,1.124060249328613281e+01,1.338666534423828125e+01,1.127924442291259766e+01,3.571383714675903320e+00,1.504203677177429199e+00,1.990203619003295898e+00,3.502489089965820312e+00,7.222642898559570312e-01,-2.620592117309570312e-01,5.860770940780639648e-01,5.163837909698486328e+00,3.292859554290771484e+00,-2.575696945190429688e+00,-6.652656555175781250e+00,-2.032745599746704102e+00,2.740272283554077148e+00,4.309996962547302246e-01,-1.024737596511840820e+00,-2.428303956985473633e-01,1.049754142761230469e+00,-6.617309898138046265e-02,2.494445800781250000e+00,3.135609388351440430e+00,5.414873600006103516e+00,6.881927013397216797e+00,7.218590259552001953e+00,6.124452948570251465e-01,-2.310746908187866211e-01,6.453694343566894531e+00,1.708020401000976562e+01,1.282620143890380859e+01
7.280963420867919922e+00,1.235377216339111328e+01,1.108288860321044922e+01,1.165968322753906250e+01,6.758095741271972656e+00,6.639204502105712891e+00,5.135389804840087891e+00,3.285370588302612305e+00,2.404544830322265625e+00,1.606407761573791504e+00,3.802297830581665039e+00,4.448156833648681641e+00,7.610407471656799316e-01,-2.971765756607055664e+00,-1.827945232391357422e+00,3.565599918365478516e+00,4.871429443359375000e+00,5.416401386260986328e+00,3.748307228088378906e+00,4.561312198638916016e+00,5.348489761352539062e+00,6.370187282562255859e+00,6.514719009399414062e+00,6.529075622558593750e+00,8.251738548278808594e+00,9.111343383789062500e+00,7.695584297180175781e+00,5.263502597808837891e+00,6.718690872192382812e+00,9.989420890808105469e+00,1.177290344238281250e+01,1.236852359771728516e+01
-1.727432966232299805e+00,5.371213912963867188e+00,-3.602173805236816406e+00,-3.203379392623901367e+00,-1.273144245147705078e+00,1.480710625648498535e+00,-2.445667743682861328e+00,-6.925807952880859375e+00,-4.668483257293701172e+00,-3.494571924209594727e+00,-1.671984195709228516e+00,-6.485608100891113281e+00,-7.390747547149658203e+00,-8.067989349365234375e+00,-6.415284156799316406e+00,-4.495643138885498047e+00,-5.450160503387451172e+00,-4.564712524414062500e+00,-7.350963592529296875e+00,-9.852708816528320312e+00,-8.635519981384277344e+00,-3.817248344421386719e+00,-1.928238511085510254e+00,-1.028312444686889648e+00,6.228566169738769531e-01,1.394744277000427246e+00,-2.120504617691040039e+00,-1.761498898267745972e-01,2.530973672866821289e+00,2.610245227813720703e+00,1.059902191162109375e+00,2.574165821075439453e+00
-6.670334339141845703e+00,-1.356219410896301270e+00,-6.694597721099853516e+00,-8.619341850280761719e+00,-8.186501502990722656e+00,-7.441360473632812500e+00,-8.029748916625976562e+00,-8.897747993469238281e+00,-1.018470478057861328e+01,-8.598615646362304688e+00,-6.649830341339111328e+00,-6.084723949432373047e+00,-4.010600566864013672e+00,4.071451187133789062e+00,1.140009593963623047e+01,6.970316410064697266e+00,2.831212580204010010e-01,-5.404072999954223633e-01,3.429722487926483154e-01,-9.995869636535644531e+00,-1.309025287628173828e+01,-1.208703327178955078e+01,-7.413995265960693359e+00,-8.314303398132324219e+00,-1.004949474334716797e+01,-1.037252521514892578e+01,-8.934560775756835938e+00,-4.320270061492919922e+00,-3.786370515823364258e+00,-6.978664875030517578e+00,-6.328031539916992188e+00,-5.822325706481933594e+00
-3.042853832244873047e+00,-1.662794828414916992e+00,-1.033375382423400879e+00,-2.326794624328613281e+00,-4.724531173706054688e+00,-4.793774604797363281e+00,-4.671413421630859375e+00,-5.028980255126953125e+00,-7.608424663543701172e+00,-4.639167308807373047e+00,-1.559985160827636719e+00,4.271420955657958984e+00,4.640151977539062500e+00,1.152286148071289062e+01,1.627990722656250000e+01,1.428707027435302734e+01,1.196742343902587891e+01,1.055373382568359375e+01,9.862974166870117188e+00,1.660684466361999512e+00,-2.253748178482055664e+00,-6.923189759254455566e-01,2.353031635284423828e+00,-6.489245414733886719e+00,-1.421579456329345703e+01,-1.485155296325683594e+01,-6.323040962219238281e+00,-4.789941012859344482e-02,3.718102276325225830e-01,-5.171755790710449219e+00,-8.970091819763183594e+00,-4.189928054809570312e+00
2.781116962432861328e+00,4.952057361602783203e+00,2.230764865875244141e+00,1.719141840934753418e+00,3.183432817459106445e+00,5.403298854827880859e+00,1.874521970748901367e+00,-3.477466821670532227e+00,1.055457234382629395e+00,6.217798233032226562e+00,8.190903663635253906e+00,8.888985633850097656e+00,7.891501903533935547e+00,2.772095918655395508e+00,3.706959009170532227e+00,4.453598976135253906e+00,4.681322097778320312e+00,3.556800603866577148e+00,2.454600334167480469e+00,3.760953664779663086e+00,4.506542205810546875e+00,8.674074172973632812e+00,7.581361293792724609e+00,-1.302827596664428711e+00,-5.473501682281494141e+00,-5.465021133422851562e+00,-6.165601015090942383e-01,4.548809051513671875e+00,7.964282035827636719e+00,5.682736873626708984e+00,2.023164033889770508e-01,5.841236591339111328e+00
2.832085132598876953e+00,6.887742042541503906e+00,2.118470668792724609e+00,2.183803319931030273e+00,4.873789787292480469e+00,7.268333435058593750e+00,3.710062503814697266e+00,-1.709671020507812500e+00,-1.517814695835113525e-01,4.074666976928710938e+00,6.922571659088134766e+00,6.319082260131835938e+00,6.162103652954101562e+00,1.968272924423217773e+00,-3.820370912551879883e+00,-2.625397682189941406e+00,-3.576327323913574219e+00,-3.077863454818725586e+00,-3.757292747497558594e+00,1.627762198448181152e+00,8.217497467994689941e-01,3.330168008804321289e+00,3.120950460433959961e-01,1.921381235122680664e+00,3.103746175765991211e+00,2.989001512527465820e+00,2.198319196701049805e+00,1.901607513427734375e+00,4.069004535675048828e+00,6.510436534881591797e+00,9.060547828674316406e+00,9.622893333435058594e+00
-3.652156114578247070e+00,5.111402034759521484e+00,4.678028106689453125e+00,5.487901210784912109e+00,3.375587701797485352e+00,4.090419769287109375e+00,2.787347793579101562e+00,2.331310272216796875e+00,-2.328730583190917969e+00,-3.430568933486938477e+00,-6.735024452209472656e-01,1.304339647293090820e+00,9.595268964767456055e-01,-1.387932300567626953e+00,-2.524156093597412109e+00,-1.681272983551025391e+00,-9.276038408279418945e-01,-2.091697931289672852e+00,-2.792986154556274414e+00,-4.038324832916259766e+00,-7.028305053710937500e+00,-2.838392972946166992e+00,-3.240042924880981445e+00,4.521631717681884766e+00,4.714085102081298828e+00,5.917922496795654297e+00,4.290132045745849609e+00,-2.932166755199432373e-01,-3.211355209350585938e+00,1.883854031562805176e+00,1.107574272155761719e+01,8.880192756652832031e+00
-1.758056163787841797e+00,8.566396713256835938e+00,1.168970108032226562e+01,1.195689487457275391e+01,6.370458126068115234e+00,5.667634010314941406e+00,5.445885658264160156e+00,4.825792789459228516e+00,4.324884414672851562e+00,6.068832427263259888e-02,7.171521186828613281e-01,2.709611892700195312e+00,3.131563425064086914e+00,-3.522423028945922852e+00,-3.902037620544433594e+00,-3.040547668933868408e-01,3.046150922775268555e+00,-1.216111481189727783e-01,-5.572192668914794922e-01,-2.113944292068481445e+00,-2.720053911209106445e+00,4.073190391063690186e-01,1.848659873008728027e+00,5.788641452789306641e+00,4.880072593688964844e+00,8.617572784423828125e+00,6.918823242187500000e+00,3.330297470092773438e+00,1.455412626266479492e+00,5.981717586517333984e+00,1.359125137329101562e+01,1.248259258270263672e+01
7.817655563354492188e+00,1.189438915252685547e+01,1.555616283416748047e+01,1.452724933624267578e+01,9.811109542846679688e+00,9.331513404846191406e+00,8.784215927124023438e+00,4.681059360504150391e+00,1.018118572235107422e+01,1.142011260986328125e+01,1.099824523925781250e+01,9.904307365417480469e+00,1.277905368804931641e+01,7.008031368255615234e+00,3.270197153091430664e+00,5.404036045074462891e+00,6.983267784118652344e+00,5.138380527496337891e+00,6.236570358276367188e+00,8.269322395324707031e+00,9.557599067687988281e+00,8.909217834472656250e+00,7.334646701812744141e+00,6.187448501586914062e+00,7.623530387878417969e+00,1.255891799926757812e+01,1.101177310943603516e+01,8.410012245178222656e+00,1.063656330108642578e+01,1.286227035522460938e+01,1.642069435119628906e+01,1.688229942321777344e+01
5.438446044921875000e+00,4.418547630310058594e+00,7.332568168640136719e+00,5.563860893249511719e+00,4.916373729705810547e+00,5.165431022644042969e+00,4.704045772552490234e+00,3.419475555419921875e+00,9.153178215026855469e+00,1.260551738739013672e+01,1.121489524841308594e+01,5.857533931732177734e+00,9.753185272216796875e+00,9.833471298217773438e+00,9.130603790283203125e+00,5.409854888916015625e+00,5.219338417053222656e+00,2.345710992813110352e+00,2.918225288391113281e+00,6.366010665893554688e+00,7.149798393249511719e+00,6.308034420013427734e+00,3.652952432632446289e+00,4.680316448211669922e+00,1.022860145568847656e+01,1.156276988983154297e+01,8.430105209350585938e+00,4.715338706970214844e+00,6.513860702514648438e+00,8.266284942626953125e+00,9.601565361022949219e+00,1.033636188507080078e+01
-5.394996166229248047e+00,-4.652110099792480469e+00,-1.267602324485778809e+00,-1.721093893051147461e+00,-6.610755920410156250e-01,-1.755311489105224609e+00,-5.350559353828430176e-01,2.688836812973022461e+00,2.133978128433227539e+00,2.108845949172973633e+00,-3.079001903533935547e-01,-5.706653118133544922e+00,-1.274843692779541016e+00,1.143269062042236328e+00,2.385954618453979492e+00,-3.630277872085571289e+00,-4.414996623992919922e+00,-7.393998622894287109e+00,-5.875303745269775391e+00,-3.463612079620361328e+00,-4.776551723480224609e+00,-6.451147556304931641e+00,-5.610072135925292969e+00,-3.404800891876220703e-01,6.042866230010986328e+00,3.014321565628051758e+00,-1.361810684204101562e+00,-5.125904083251953125e+00,-4.597867965698242188e+00,-3.199776649475097656e+00,-2.055795192718505859e+00,-1.143190503120422363e+00
-2.157963991165161133e+00,-2.951105833053588867e+00,3.189511060714721680e+00,6.303254604339599609e+00,2.700194120407104492e+00,-5.337809920310974121e-01,3.423041820526123047e+00,7.441360473632812500e+00,-4.989331364631652832e-01,-5.034653186798095703e+00,-7.270720481872558594e+00,-2.993777990341186523e+00,-2.924379348754882812e+00,-3.066071987152099609e+00,-6.615100860595703125e+00,-7.166188716888427734e+00,-8.140501976013183594e+00,-8.710399627685546875e+00,-8.027890205383300781e+00,-7.047334671020507812e+00,-7.251555442810058594e+00,-7.012407302856445312e+00,-3.681160211563110352e+00,-3.059107363224029541e-01,3.349023580551147461e+00,1.467753648757934570e+00,-3.202418088912963867e-01,-1.553291678428649902e+00,-2.928337097167968750e+00,-2.969941139221191406e+00,-1.647928953170776367e+00,-2.342392206192016602e+00
6.013068675994873047e+00,1.245057344436645508e+00,6.183036327362060547e+00,8.861958503723144531e+00,4.690528869628906250e+00,1.763268232345581055e+00,5.137278556823730469e+00,8.027692794799804688e+00,2.418109655380249023e+00,1.331563591957092285e+00,-1.664099097251892090e+00,-7.122662663459777832e-01,-4.805252552032470703e+00,-6.883985042572021484e+00,-7.510159492492675781e+00,-2.380313396453857422e+00,-1.176176428794860840e+00,-1.313475608825683594e+00,-4.225533962249755859e+00,-4.795822143554687500e+00,-1.808620333671569824e+00,3.989943981170654297e+00,4.538531303405761719e+00,4.558716773986816406e+00,6.742868900299072266e+00,7.658673286437988281e+00,5.769638538360595703e+00,5.448075294494628906e+00,1.217978835105895996e+00,2.344581127166748047e+00,4.432848453521728516e+00,3.505999743938446045e-01
1.943193554878234863e+00,-2.868863105773925781e+00,-3.188075304031372070e+00,-4.861672878265380859e+00,-2.953407526016235352e+00,-3.464377164840698242e+00,-3.587961912155151367e+00,-1.913945078849792480e+00,5.632186889648437500e+00,6.172189235687255859e+00,-1.434229493141174316e+00,-8.609284400939941406e+00,-8.700948715209960938e+00,-9.607755661010742188e+00,-3.416140794754028320e+00,1.350964665412902832e+00,2.894628524780273438e+00,2.143962860107421875e+00,2.498711943626403809e-01,9.920618683099746704e-02,1.630456566810607910e+00,5.961491584777832031e+00,1.863857388496398926e+00,6.357098817825317383e-01,3.202573060989379883e+00,3.451412916183471680e+00,2.321781357750296593e-03,-1.860918760299682617e+00,-3.301921367645263672e+00,-2.116676568984985352e+00,-2.657200694084167480e-01,-4.216684341430664062e+00
2.043411254882812500e+00,-6.718495368957519531e+00,-1.029279994964599609e+01,-1.230434703826904297e+01,-7.931459426879882812e+00,-5.965609073638916016e+00,-5.755697727203369141e+00,-4.014713287353515625e+00,2.890509128570556641e+00,4.435019493103027344e+00,2.054795175790786743e-01,-1.589950680732727051e+00,-6.361403465270996094e-01,-1.898269355297088623e-01,5.636851191520690918e-01,2.435558319091796875e+00,7.473774552345275879e-01,-1.381299018859863281e+00,-2.695004940032958984e+00,-3.539267778396606445e-01,2.360494136810302734e+00,4.040620803833007812e+00,2.669635117053985596e-01,-3.830702066421508789e+00,-1.790865540504455566e+00,-3.438726902008056641e+00,-4.103019237518310547e+00,-3.484372138977050781e+00,-9.682203531265258789e-01,-4.812091350555419922e+00,-8.895781517028808594e+00,-9.675685882568359375e+00
6.928375720977783203e+00,-1.594756171107292175e-02,-2.121858835220336914e+00,-8.881946802139282227e-01,1.473421752452850342e-01,1.465973019599914551e+00,2.213679790496826172e+00,3.213221073150634766e+00,-2.332094609737396240e-01,1.523517370223999023e-01,2.744539022445678711e+00,9.068045616149902344e+00,7.187568664550781250e+00,4.957829475402832031e+00,-1.217295050621032715e+00,9.666261672973632812e-01,-7.415472269058227539e-01,-4.960123538970947266e+00,-8.239857673645019531e+00,-5.304756641387939453e+00,-1.191607192158699036e-01,4.611498832702636719e+00,7.313812732696533203e+00,5.350098133087158203e+00,3.162949562072753906e+00,1.297425985336303711e+00,2.400149583816528320e+00,7.197137355804443359e+00,7.569929122924804688e+00,3.764790534973144531e+00,-2.350224494934082031e+00,-2.050959587097167969e+00
6.798108577728271484e+00,3.287551879882812500e+00,2.153692960739135742e+00,4.102810859680175781e+00,5.765046596527099609e+00,5.699024677276611328e+00,4.774925708770751953e+00,4.371580123901367188e+00,1.218124628067016602e+00,-3.948592185974121094e+00,-2.053493499755859375e+00,3.203953742980957031e+00,2.737690210342407227e+00,-3.950743913650512695e+00,-8.291128158569335938e+00,-3.705313444137573242e+00,-1.297887086868286133e+00,-3.908062219619750977e+00,-6.166281700134277344e+00,-4.193414211273193359e+00,-2.502325534820556641e+00,2.312277555465698242e+00,5.564824581146240234e+00,8.631952285766601562e+00,5.143855571746826172e+00,4.683274269104003906e+00,4.009048938751220703e+00,7.629866123199462891e+00,6.231490135192871094e+00,5.729176998138427734e+00,2.898483753204345703e+00,2.636310815811157227e+00
5.107993602752685547e+00,3.962746620178222656e+00,5.873382568359375000e+00,5.976723670959472656e+00,4.550364971160888672e+00,3.282697916030883789e+00,2.334322214126586914e+00,2.905650138854980469e+00,3.084641218185424805e+00,-3.423418045043945312e+00,-2.528831243515014648e+00,9.939463734626770020e-01,6.396297812461853027e-01,-5.781288623809814453e+00,-6.908634662628173828e+00,-1.519545555114746094e+00,2.334512710571289062e+00,1.518560528755187988e+00,-1.489257812500000000e+00,1.899930715560913086e+00,2.981989145278930664e+00,3.616526603698730469e+00,3.446307778358459473e-01,5.540592670440673828e-01,-4.744932800531387329e-02,2.495194196701049805e+00,3.959202766418457031e+00,2.103538274765014648e+00,2.323339700698852539e+00,3.316523790359497070e+00,4.434637069702148438e+00,6.552801132202148438e+00
5.929109096527099609e+00,9.224578857421875000e+00,1.469402599334716797e+01,1.380201530456542969e+01,6.157084941864013672e+00,4.880550384521484375e+00,5.702027320861816406e+00,6.457028865814208984e+00,7.216458797454833984e+00,3.899599313735961914e+00,7.251494407653808594e+00,7.265354156494140625e+00,5.281180858612060547e+00,5.368913173675537109e+00,6.250556945800781250e+00,7.710114955902099609e+00,7.495362758636474609e+00,7.109726905822753906e+00,3.313208818435668945e+00,7.738530635833740234e+00,1.181082820892333984e+01,1.147576999664306641e+01,7.463521480560302734e+00,2.966764211654663086e+00,2.078695058822631836e+00,2.850494146347045898e+00,6.278518676757812500e+00,4.961536407470703125e+00,6.506124496459960938e+00,7.481311321258544922e+00,9.255507469177246094e+00,1.333638668060302734e+01
7.577219009399414062e+00,1.163045978546142578e+01,1.545027065277099609e+01,1.313086795806884766e+01,6.940309047698974609e+00,6.215779304504394531e+00,7.936755657196044922e+00,8.512522697448730469e+00,7.520865917205810547e+00,4.990928649902343750e+00,8.521832466125488281e+00,7.761778831481933594e+00,7.082765579223632812e+00,8.672946929931640625e+00,1.046046447753906250e+01,9.093752861022949219e+00,8.031789779663085938e+00,7.149121761322021484e+00,6.010776519775390625e+00,8.644212722778320312e+00,1.110875988006591797e+01,1.122467327117919922e+01,1.043319320678710938e+01,9.003012657165527344e+00,5.906430244445800781e+00,3.311997175216674805e+00,4.117616176605224609e+00,7.236944198608398438e+00,8.124018669128417969e+00,1.063256168365478516e+01,1.151204299926757812e+01,1.487996959686279297e+01
2.930649518966674805e+00,4.619578838348388672e+00,6.032396316528320312e+00,2.985558271408081055e+00,8.904435038566589355e-01,2.871281504631042480e-01,2.233597755432128906e+00,3.111292600631713867e+00,-2.487894296646118164e+00,-5.115166187286376953e+00,-6.250627636909484863e-01,4.840364456176757812e+00,5.573294639587402344e+00,2.639976024627685547e+00,1.655747652053833008e+00,1.972741603851318359e+00,7.228156566619873047e+00,7.715755462646484375e+00,5.824083328247070312e+00,4.227611064910888672e+00,3.037247419357299805e+00,3.322163105010986328e+00,4.022589027881622314e-01,2.674490451812744141e+00,1.315535157918930054e-01,5.790317654609680176e-01,1.458133578300476074e+00,2.456382274627685547e+00,9.680770635604858398e-01,3.378356933593750000e+00,5.552889347076416016e+00,7.814606666564941406e+00
-4.190691947937011719e+00,-2.360301494598388672e+00,-1.023010492324829102e+00,-7.396699190139770508e-01,-2.109141588211059570e+00,-2.699683427810668945e+00,-1.917286038398742676e+00,-1.010243415832519531e+00,-6.203297615051269531e+00,-6.691245079040527344e+00,-5.831813812255859375e-01,3.007124423980712891e+00,1.776987075805664062e+00,-8.572522997856140137e-01,-2.317049264907836914e+00,-5.457715392112731934e-01,5.161371707916259766e+00,8.099239349365234375e+00,5.071050167083740234e+00,2.443810701370239258e+00,7.201492786407470703e-01,1.422366142272949219e+00,-1.777227520942687988e+00,-3.318493604660034180e+00,-7.574151515960693359e+00,-7.240918159484863281e+00,-1.320964574813842773e+00,-9.109814167022705078e-01,-2.537181854248046875e+00,-3.585767507553100586e+00,-4.014137268066406250e+00,-1.037322044372558594e+00
-4.223055839538574219e+00,-3.886600971221923828e+00,-4.729413986206054688e+00,-2.497252941131591797e+00,-2.051467895507812500e+00,-2.242385387420654297e+00,-4.463821411132812500e+00,-4.637095451354980469e+00,-2.355000257492065430e+00,-1.692389130592346191e+00,1.068429470062255859e+00,-3.379276514053344727e+00,-5.655423641204833984e+00,-4.945865631103515625e+00,-4.210825920104980469e+00,-2.011284351348876953e+00,-2.006073713302612305e+00,1.121385861188173294e-02,-6.333829760551452637e-01,-5.919578671455383301e-01,-1.133970856666564941e+00,-5.007157921791076660e-01,1.062676757574081421e-01,-3.622534513473510742e+00,-9.877521514892578125e+00,-1.281658935546875000e+01,-6.668164253234863281e+00,-3.715096950531005859e+00,-1.895270109176635742e+00,-4.098863601684570312e+00,-1.025846195220947266e+01,-6.331692218780517578e+00
2.854837417602539062e+00,-2.417197465896606445e+00,-6.702486038208007812e+00,-6.850879669189453125e+00,-2.525544166564941406e+00,-1.655637145042419434e+00,-3.721026897430419922e+00,-5.130295753479003906e+00,-6.187700748443603516e+00,-5.058925151824951172e+00,-4.780486583709716797e+00,-1.299879550933837891e+00,-5.085911273956298828e+00,-6.734237194061279297e+00,-8.420853614807128906e+00,-3.695421457290649414e+00,-4.358854293823242188e+00,-6.269185543060302734e+00,-7.534503936767578125e+00,-6.882005214691162109e+00,-6.592779636383056641e+00,-5.575770378112792969e+00,-4.539987564086914062e+00,-5.711134910583496094e+00,-1.025074386596679688e+01,-8.625042915344238281e+00,-5.581314086914062500e+00,-3.932766199111938477e+00,-2.017182350158691406e+00,-4.373956203460693359e+00,-1.131919384002685547e+01,-9.725502967834472656e+00
5.114293098449707031e+00,-6.313186287879943848e-01,-1.126321196556091309e+00,-1.556939601898193359e+00,1.373378038406372070e+00,3.212296009063720703e+00,3.892815589904785156e+00,1.260501265525817871e+00,-9.311709403991699219e+00,-7.323684215545654297e+00,-2.990039825439453125e+00,9.526679992675781250e+00,4.663683891296386719e+00,2.291568994522094727e+00,-1.904337763786315918e+00,2.391819238662719727e+00,3.342560529708862305e+00,1.219556689262390137e+00,-2.569478988647460938e+00,-1.967029094696044922e+00,-9.365397691726684570e-01,3.180520236492156982e-01,-1.168004155158996582e+00,-2.920745849609375000e+00,-5.392098426818847656e+00,-3.117747902870178223e-01,2.210050821304321289e+00,3.356503725051879883e+00,1.793264031410217285e+00,-2.686769142746925354e-02,-3.709466218948364258e+00,-3.899056911468505859e+00
3.369475364685058594e+00,-1.541305422782897949e+00,-1.412544965744018555e+00,-9.515277296304702759e-02,2.839074850082397461e+00,5.405542850494384766e+00,6.372018337249755859e+00,2.282315015792846680e+00,-3.220597982406616211e+00,-1.485790133476257324e+00,4.470865726470947266e+00,6.201420783996582031e+00,5.776484012603759766e+00,8.659951210021972656e+00,8.124740600585937500e+00,7.098268032073974609e+00,6.062191963195800781e+00,6.357082366943359375e+00,5.402761936187744141e+00,8.243691444396972656e+00,8.725355148315429688e+00,6.343016147613525391e+00,4.521516799926757812e+00,3.561733484268188477e+00,3.202197551727294922e+00,1.758083462715148926e+00,2.665366888046264648e+00,3.296945095062255859e+00,1.055981874465942383e+00,7.212741374969482422e-01,3.186747312545776367e+00,9.684149026870727539e-01
1.135269522666931152e+00,-2.098151683807373047e+00,-8.425992012023925781e+00,-8.719631195068359375e+00,-2.712227344512939453e+00,-1.448196291923522949e+00,-1.496767282485961914e+00,-2.037505865097045898e+00,1.236727714538574219e+00,2.436197996139526367e+00,3.587718486785888672e+00,-1.623978734016418457e+00,-5.973350405693054199e-01,2.988028049468994141e+00,3.321810722351074219e+00,1.141455650329589844e+00,3.444401025772094727e-01,2.956004738807678223e-01,1.411904454231262207e+00,2.874310731887817383e+00,2.362044334411621094e+00,-2.009514570236206055e+00,-2.296414613723754883e+00,1.144253849983215332e+00,2.372929811477661133e+00,-5.053431987762451172e-01,-2.179902791976928711e+00,-5.986916065216064453e+00,-7.501418590545654297e+00,-5.689121246337890625e+00,1.960905671119689941e+00,-3.911758661270141602e+00
-1.387318849563598633e+00,-4.532322287559509277e-02,-5.941246032714843750e+00,-6.046242713928222656e+00,-1.290503382682800293e+00,-1.589458703994750977e+00,-1.408206820487976074e+00,3.344751596450805664e-01,1.375330328941345215e+00,2.086311340332031250e+00,1.015465974807739258e+00,2.592969417572021484e+00,-2.546929419040679932e-01,6.619312167167663574e-01,-1.064408421516418457e+00,-6.748956441879272461e-01,9.248007088899612427e-03,-7.704385519027709961e-01,-6.679277867078781128e-02,-5.164395570755004883e-01,-3.460535109043121338e-01,-5.329810142517089844e+00,-5.765616416931152344e+00,-4.623037338256835938e+00,-2.230603456497192383e+00,3.028104901313781738e-01,-2.862163484096527100e-01,-3.798374176025390625e+00,-4.393940925598144531e+00,-4.761126041412353516e+00,-3.514091730117797852e+00,-5.407342433929443359e+00
-2.063966035842895508e+00,-5.502701997756958008e-01,-1.063036561012268066e+00,1.335577964782714844e+00,2.881628990173339844e+00,2.390582084655761719e+00,1.235790133476257324e+00,1.382730960845947266e+00,2.153808355331420898e+00,1.998719453811645508e+00,-9.908564090728759766e-01,1.604089975357055664e+00,2.306799650192260742e+00,6.746775150299072266e+00,6.509129524230957031e+00,4.492232322692871094e+00,2.530220508575439453e+00,3.495050668716430664e+00,5.527378559112548828e+00,7.938320636749267578e+00,8.147673606872558594e+00,1.944889307022094727e+00,-9.452803134918212891e-01,-3.761626482009887695e+00,2.367739230394363403e-01,6.572253704071044922e-01,-2.980228662490844727e-01,1.769275903701782227e+00,4.212693214416503906e+00,-3.307908773422241211e-01,-7.044460773468017578e+00,-2.339582204818725586e+00
-6.370229244232177734e+00,-8.178782463073730469e+00,-5.793967247009277344e+00,-6.601323604583740234e+00,-8.308375358581542969e+00,-7.644248008728027344e+00,-8.619544982910156250e+00,-7.839231491088867188e+00,-2.794962406158447266e+00,-4.591473937034606934e-01,-6.456062316894531250e+00,-6.235519409179687500e+00,-7.100747227668762207e-01,5.530441761016845703e+00,6.805775642395019531e+00,2.932862758636474609e+00,6.923288106918334961e-01,6.062504649162292480e-01,2.053947448730468750e+00,3.521395444869995117e+00,2.960895776748657227e+00,-1.160026311874389648e+00,-3.462682723999023438e+00,-3.324073314666748047e+00,-8.961687684059143066e-01,-3.914720058441162109e+00,-7.995666980743408203e+00,-6.611316204071044922e+00,-4.835196971893310547e+00,-4.955248355865478516e+00,-5.007244586944580078e+00,-8.538621902465820312e+00
-1.317414665222167969e+01,-1.409265613555908203e+01,-1.075292873382568359e+01,-1.304796695709228516e+01,-1.379836750030517578e+01,-1.490268611907958984e+01,-1.401575946807861328e+01,-1.285357379913330078e+01,-8.188341140747070312e+00,-4.810295581817626953e+00,-9.220247268676757812e+00,-6.003544807434082031e+00,-2.540292501449584961e+00,2.054598331451416016e+00,4.329241275787353516e+00,3.026144027709960938e+00,1.812781810760498047e+00,1.159450650215148926e+00,2.842820405960083008e+00,-1.191528558731079102e+00,-4.146606922149658203e+00,-7.730627059936523438e+00,-8.179851531982421875e+00,-6.760247230529785156e+00,-5.975770950317382812e+00,-5.656977653503417969e+00,-9.728467941284179688e+00,-1.151583290100097656e+01,-1.304758071899414062e+01,-8.953647613525390625e+00,-3.001063108444213867e+00,-1.494486808776855469e+01
-4.787269592285156250e+00,-6.984612464904785156e+00,-8.481833457946777344e+00,-5.184762001037597656e+00,-9.690879583358764648e-01,-3.179738283157348633e+00,-3.099540710449218750e+00,-3.031573295593261719e+00,-1.043424844741821289e+00,-1.077729105949401855e+00,-2.667817831039428711e+00,1.131422281265258789e+00,2.910114288330078125e+00,7.607162475585937500e+00,1.191385841369628906e+01,9.560625076293945312e+00,7.581375598907470703e+00,9.656396865844726562e+00,1.302791976928710938e+01,9.342759132385253906e+00,5.920146465301513672e+00,1.059373497962951660e+00,-9.000059962272644043e-01,-2.146092891693115234e+00,3.307956755161285400e-01,5.189255475997924805e-01,-8.528916835784912109e-01,-1.959167838096618652e+00,-2.156957149505615234e+00,-2.659966468811035156e+00,-5.813403129577636719e+00,-6.972197532653808594e+00
4.927073121070861816e-01,2.108403682708740234e+00,-2.711041927337646484e+00,1.449590642005205154e-02,1.550970792770385742e+00,2.145227193832397461e+00,1.440178155899047852e+00,3.191075325012207031e+00,4.887244701385498047e+00,3.288705587387084961e+00,-1.058919668197631836e+00,4.665136933326721191e-01,1.767880082130432129e+00,6.678911209106445312e+00,1.075818443298339844e+01,6.784137725830078125e+00,4.931046962738037109e+00,5.240501403808593750e+00,7.612571239471435547e+00,8.218438148498535156e+00,7.228149890899658203e+00,2.551378488540649414e+00,1.042308807373046875e+00,1.543834209442138672e+00,4.085999011993408203e+00,2.180680990219116211e+00,1.611703038215637207e+00,8.953494429588317871e-01,1.588369965553283691e+00,-7.813214063644409180e-01,-7.230896472930908203e+00,2.164991855621337891e+00
-1.095227241516113281e+01,-4.922726154327392578e+00,-2.139519691467285156e+00,-3.840325117111206055e+00,-8.089706420898437500e+00,-7.270763874053955078e+00,-7.241140365600585938e+00,-4.218443393707275391e+00,-3.028211593627929688e+00,-2.903019428253173828e+00,-6.734073162078857422e+00,-4.586400508880615234e+00,-5.479304790496826172e+00,-1.885889172554016113e+00,1.877290457487106323e-01,-1.113333463668823242e+00,-3.685439348220825195e+00,-5.836977958679199219e+00,-3.992646932601928711e+00,-3.520008325576782227e+00,-4.568980693817138672e+00,-8.871936798095703125e+00,-7.049447059631347656e+00,-5.170245647430419922e+00,-6.940393447875976562e+00,-9.039638519287109375e+00,-8.138241767883300781e+00,-8.693311691284179688e+00,-9.797970771789550781e+00,-9.667137145996093750e+00,-7.892868995666503906e+00,-1.723950147628784180e+00
-1.478365707397460938e+01,-1.339748668670654297e+01,-8.921804428100585938e+00,-8.450140953063964844e+00,-9.002488136291503906e+00,-8.697577476501464844e+00,-9.636281967163085938e+00,-8.099983215332031250e+00,-6.970842361450195312e+00,-7.744819641113281250e+00,-1.024852561950683594e+01,-1.069565963745117188e+01,-1.013270473480224609e+01,-5.413716316223144531e+00,-1.560286760330200195e+00,-3.606415271759033203e+00,-5.311789989471435547e+00,-3.224435806274414062e+00,2.497706115245819092e-01,-1.954733967781066895e+00,-5.847559928894042969e+00,-1.060223960876464844e+01,-1.047823238372802734e+01,-1.073685646057128906e+01,-1.211142539978027344e+01,-1.353722667694091797e+01,-1.208707714080810547e+01,-1.151815509796142578e+01,-1.171100044250488281e+01,-1.175410938262939453e+01,-1.031863975524902344e+01,-6.892027378082275391e+00
-8.722537994384765625e+00,-3.911180734634399414e+00,-8.880499839782714844e+00,-9.107439041137695312e+00,-4.752652645111083984e+00,-4.004662990570068359e+00,-6.161783218383789062e+00,-4.269702911376953125e+00,1.413717985153198242e+00,-9.515332579612731934e-01,-5.682079792022705078e+00,-1.103536415100097656e+01,-7.591958999633789062e+00,-3.182591915130615234e+00,1.611194849014282227e+00,-3.176983118057250977e+00,-1.857156515121459961e+00,2.532863616943359375e+00,6.064818382263183594e+00,3.239822387695312500e+00,-1.122071743011474609e+00,-4.778439998626708984e+00,-7.902806282043457031e+00,-7.260345935821533203e+00,-4.222102165222167969e+00,-4.734043598175048828e+00,-5.353951930999755859e+00,-3.700182437896728516e+00,-1.292394876480102539e+00,-3.435538530349731445e+00,-8.057163238525390625e+00,-8.291418075561523438e+00
-9.785541534423828125e+00,3.297583580017089844e+00,-5.460503101348876953e-01,-4.130789756774902344e+00,-2.759992361068725586e+00,-3.064626693725585938e+00,-5.845479965209960938e+00,-5.476759910583496094e+00,3.376289606094360352e+00,3.237947702407836914e+00,1.629805266857147217e-01,-6.030419826507568359e+00,-6.216409683227539062e+00,-7.186637401580810547e+00,-4.106568813323974609e+00,-6.164389133453369141e+00,-4.725713253021240234e+00,-4.650059223175048828e+00,-4.061053276062011719e+00,-5.605560779571533203e+00,-6.589780807495117188e+00,-6.352744102478027344e+00,-6.253079891204833984e+00,-2.869227409362792969e+00,-1.646261930465698242e+00,-2.210968255996704102e+00,-3.485234737396240234e+00,-8.367355465888977051e-01,2.069525957107543945e+00,1.699501037597656250e+00,-2.355572223663330078e+00,-8.643438339233398438e+00
-9.005745887756347656e+00,1.581751853227615356e-01,4.159988403320312500e+00,3.884724855422973633e+00,1.564735531806945801e+00,-8.505659103393554688e-01,-3.364958524703979492e+00,-4.003235816955566406e+00,-3.923573732376098633e+00,-3.863720893859863281e+00,-3.264112234115600586e+00,-5.264851570129394531e+00,-6.546935081481933594e+00,-9.316307067871093750e+00,-8.710305213928222656e+00,-9.194913864135742188e+00,-9.489521980285644531e+00,-9.074936866760253906e+00,-1.053552150726318359e+01,-9.995656967163085938e+00,-8.122665405273437500e+00,-5.273120880126953125e+00,-3.304688453674316406e+00,-4.652586877346038818e-01,-4.651560783386230469e-01,-1.304783105850219727e+00,-2.742110252380371094e+00,-1.280602931976318359e+00,8.138737082481384277e-01,1.431187987327575684e+00,-7.087524980306625366e-02,4.245571792125701904e-01
4.447569370269775391e+00,5.397352218627929688e+00,6.320388793945312500e+00,8.597214698791503906e+00,8.500566482543945312e+00,8.339685440063476562e+00,8.345773696899414062e+00,8.238538742065429688e+00,-3.763284444808959961e+00,-6.303596019744873047e+00,-1.516367554664611816e+00,4.300744533538818359e+00,5.417311191558837891e+00,3.163409471511840820e+00,4.935853779315948486e-01,-3.365656733512878418e-01,1.177301287651062012e+00,2.279622077941894531e+00,-1.549297928810119629e+00,2.328294992446899414e+00,4.541150569915771484e+00,7.535676479339599609e+00,6.292284011840820312e+00,6.532176017761230469e+00,5.366718769073486328e+00,6.689685821533203125e+00,7.019695281982421875e+00,5.284854412078857422e+00,4.140949726104736328e+00,5.702289104461669922e+00,8.796965599060058594e+00,1.118304252624511719e+01
1.887072324752807617e+00,-1.612426877021789551e+00,-5.088720321655273438e+00,-5.061456680297851562e+00,-6.162477731704711914e-01,2.379732847213745117e+00,3.751773595809936523e+00,4.283766269683837891e+00,-1.030585169792175293e+00,-2.798785924911499023e+00,3.712244033813476562e-01,4.689766407012939453e+00,5.476374626159667969e+00,2.381933689117431641e+00,8.706907033920288086e-01,1.811076879501342773e+00,4.354925155639648438e+00,3.183674573898315430e+00,2.908348083496093750e+00,5.023636341094970703e+00,5.817625522613525391e+00,6.902355194091796875e+00,5.361307144165039062e+00,3.160794258117675781e+00,-5.598006844520568848e-01,1.402051448822021484e+00,5.150340080261230469e+00,2.629288434982299805e+00,-1.530424594879150391e+00,-1.739347428083419800e-01,4.761546134948730469e+00,-5.684559345245361328e+00
-9.489258766174316406e+00,-1.114264678955078125e+01,-1.244962692260742188e+01,-1.195072555541992188e+01,-7.967656612396240234e+00,-7.649492263793945312e+00,-8.188869476318359375e+00,-7.615946292877197266e+00,-2.151412487030029297e+00,-3.288936614990234375e+00,-2.833219528198242188e+00,-5.729284286499023438e+00,-5.031502246856689453e+00,-9.618783950805664062e+00,-1.066652297973632812e+01,-7.670435905456542969e+00,-5.003005504608154297e+00,-6.529355049133300781e+00,-6.709498882293701172e+00,-5.040847778320312500e+00,-3.730864286422729492e+00,-2.603269815444946289e+00,-3.782218694686889648e+00,-5.903234004974365234e+00,-6.666211128234863281e+00,-6.321905136108398438e+00,-4.556035995483398438e+00,-6.082274913787841797e+00,-7.311593055725097656e+00,-8.314819335937500000e+00,-7.129905700683593750e+00,-1.452897644042968750e+01
-3.065181016921997070e+00,-4.099566936492919922e+00,-6.476984500885009766e+00,-6.570054054260253906e+00,-4.051783561706542969e+00,-3.753572463989257812e+00,-3.090851545333862305e+00,-2.996368169784545898e+00,-6.129705309867858887e-01,-3.665487051010131836e+00,-1.896100759506225586e+00,-3.438931941986083984e+00,-1.415297865867614746e+00,-3.238324642181396484e+00,-5.077677249908447266e+00,-4.267155170440673828e+00,-1.584102272987365723e+00,-2.248146057128906250e+00,-4.490409851074218750e+00,-3.683923721313476562e+00,-1.767046570777893066e+00,7.169001698493957520e-01,-1.255731105804443359e+00,-8.070930242538452148e-01,4.368521645665168762e-02,1.413799166679382324e+00,-8.253111243247985840e-01,7.451028823852539062e-01,-2.836896181106567383e-01,-4.179446697235107422e+00,-1.054776477813720703e+01,-6.396904945373535156e+00
7.765952110290527344e+00,4.915454387664794922e+00,5.886382102966308594e+00,5.492403507232666016e+00,4.609205722808837891e+00,4.069729328155517578e+00,4.466142654418945312e+00,2.566154003143310547e+00,-7.919194549322128296e-02,-2.278014183044433594e+00,1.964598178863525391e+00,6.387174606323242188e+00,7.178365230560302734e+00,7.318008422851562500e+00,6.063647270202636719e+00,6.671525955200195312e+00,7.539919853210449219e+00,6.402323246002197266e+00,5.187688350677490234e+00,4.220801353454589844e+00,4.475372314453125000e+00,7.113641262054443359e+00,7.602225780487060547e+00,9.447649955749511719e+00,4.334369659423828125e+00,5.093404769897460938e+00,5.785600662231445312e+00,1.008474349975585938e+01,5.578653335571289062e+00,3.821158409118652344e+00,1.419610738754272461e+00,7.258005142211914062e+00
-1.615754365921020508e+00,-1.559153437614440918e+00,-2.809954285621643066e-01,7.528726458549499512e-01,-1.398149251937866211e+00,-1.639962345361709595e-01,-3.710598230361938477e+00,-6.492552757263183594e+00,-6.992166042327880859e+00,-5.665253162384033203e+00,-3.022140979766845703e+00,-8.269938230514526367e-01,-7.871060371398925781e-01,-1.333792448043823242e+00,-1.714271426200866699e+00,-2.183934599161148071e-01,-1.288162946701049805e+00,-1.679511815309524536e-01,6.109083890914916992e-01,1.734344959259033203e-01,-1.692000269889831543e+00,9.917373955249786377e-02,4.300965309143066406e+00,3.890615701675415039e+00,-2.335500955581665039e+00,-4.744915008544921875e+00,-4.977394640445709229e-01,8.282955884933471680e-01,-1.024513125419616699e+00,-1.414259672164916992e+00,1.777946949005126953e+00,-1.833266019821166992e+00
-1.276426696777343750e+01,-1.892697572708129883e+00,5.918055176734924316e-01,6.577406525611877441e-01,-4.112517833709716797e+00,-3.914366483688354492e+00,-5.287266254425048828e+00,-2.508767604827880859e+00,-1.490452170372009277e+00,-4.451083183288574219e+00,-7.350873470306396484e+00,-8.298773765563964844e+00,-7.523870944976806641e+00,-8.381446838378906250e+00,-9.426609039306640625e+00,-8.383673667907714844e+00,-7.889435291290283203e+00,-6.611481189727783203e+00,-6.192978382110595703e+00,-5.631206989288330078e+00,-6.301764011383056641e+00,-6.045159816741943359e+00,-3.362913608551025391e+00,-5.134736061096191406e+00,-3.824241161346435547e+00,-3.656073808670043945e+00,-2.025309324264526367e+00,-5.255209445953369141e+00,-4.088730335235595703e+00,-4.393763542175292969e+00,-2.569795250892639160e-01,-6.817025691270828247e-02
-5.250569343566894531e+00,9.801866531372070312e+00,1.312632179260253906e+01,1.172980499267578125e+01,7.428236961364746094e+00,6.824162960052490234e+00,7.332684516906738281e+00,1.026834106445312500e+01,7.913804531097412109e+00,2.710284948348999023e+00,-6.415415555238723755e-02,1.099603399634361267e-01,1.747320652008056641e+00,1.402379989624023438e+00,1.342997550964355469e+00,1.838371515274047852e+00,2.471137523651123047e+00,1.440256953239440918e+00,2.693604230880737305e+00,2.775035858154296875e+00,2.946033954620361328e+00,1.852296829223632812e+00,3.660060763359069824e-01,1.520559906959533691e+00,7.317896366119384766e+00,1.024559593200683594e+01,8.625725746154785156e+00,5.978084564208984375e+00,6.540760040283203125e+00,8.678276062011718750e+00,1.122277736663818359e+01,1.383824348449707031e+01
2.248516559600830078e+00,1.326908588409423828e+01,1.344031143188476562e+01,1.274180030822753906e+01,1.159538269042968750e+01,1.215075302124023438e+01,8.622427940368652344e+00,9.744736671447753906e+00,9.102834701538085938e+00,5.936037063598632812e+00,2.457738637924194336e+00,9.696974605321884155e-02,1.738871097564697266e+00,4.356843948364257812e+00,6.801102161407470703e+00,6.019352436065673828e+00,3.681079626083374023e+00,5.555995941162109375e+00,7.668781757354736328e+00,8.814146995544433594e+00,7.892712593078613281e+00,7.053943634033203125e+00,3.751052856445312500e+00,8.988858222961425781e+00,1.355644226074218750e+01,1.342323780059814453e+01,9.323563575744628906e+00,9.155755996704101562e+00,1.209258174896240234e+01,1.575190830230712891e+01,1.506647396087646484e+01,1.448983287811279297e+01
1.675454974174499512e-01,1.119605350494384766e+01,1.138611221313476562e+01,1.215761661529541016e+01,1.026577854156494141e+01,5.944513320922851562e+00,2.739558935165405273e+00,5.669676303863525391e+00,9.481760025024414062e+00,4.596247673034667969e+00,5.492947101593017578e-01,-3.419895410537719727e+00,-2.982465028762817383e+00,-2.309734106063842773e+00,-4.482197284698486328e+00,-3.828939199447631836e+00,-3.701187133789062500e+00,1.142117023468017578e+00,6.515491753816604614e-02,2.101096391677856445e+00,3.100394487380981445e+00,4.849176883697509766e+00,2.344252347946166992e+00,7.732034683227539062e+00,1.159604549407958984e+01,1.131709194183349609e+01,5.635926723480224609e+00,3.768706321716308594e+00,7.055744647979736328e+00,1.220303440093994141e+01,1.794441413879394531e+01,1.928980445861816406e+01
4.690801620483398438e+00,1.872877311706542969e+01,2.364737319946289062e+01,2.172421073913574219e+01,1.337793350219726562e+01,1.100940322875976562e+01,1.310430145263671875e+01,1.368377876281738281e+01,1.269912910461425781e+01,8.458201408386230469e+00,8.980355262756347656e+00,9.554108619689941406e+00,8.033881187438964844e+00,1.710209488868713379e+00,-5.255284309387207031e+00,-6.954861879348754883e-01,3.393047094345092773e+00,3.396436452865600586e+00,2.260101318359375000e+00,3.944852828979492188e+00,7.498153686523437500e+00,8.974516868591308594e+00,9.477132797241210938e+00,1.092961788177490234e+01,1.455011749267578125e+01,1.584711360931396484e+01,1.229728794097900391e+01,1.141092586517333984e+01,1.287955856323242188e+01,1.513415145874023438e+01,2.168485641479492188e+01,2.406168174743652344e+01
1.338067340850830078e+01,2.116551589965820312e+01,2.802740478515625000e+01,2.637262725830078125e+01,1.598575782775878906e+01,1.614828491210937500e+01,1.680484580993652344e+01,1.663509941101074219e+01,1.172489356994628906e+01,1.092215156555175781e+01,1.139216423034667969e+01,1.329864978790283203e+01,1.150516128540039062e+01,8.793113708496093750e+00,5.207537174224853516e+00,8.019422531127929688e+00,8.688867568969726562e+00,8.265995979309082031e+00,9.633257865905761719e+00,1.159235668182373047e+01,1.412709808349609375e+01,1.401767539978027344e+01,1.566663360595703125e+01,1.660222625732421875e+01,1.945171165466308594e+01,2.015134811401367188e+01,1.795249366760253906e+01,1.802194023132324219e+01,1.816926956176757812e+01,2.011907196044921875e+01,2.468955230712890625e+01,2.964102554321289062e+01
3.475239753723144531e+00,3.533581256866455078e+00,4.370376586914062500e+00,3.272432327270507812e+00,2.080903053283691406e+00,2.833170890808105469e+00,3.485888719558715820e+00,3.279718399047851562e+00,2.991576910018920898e+00,6.537980437278747559e-01,9.806222915649414062e-01,1.311826586723327637e+00,-5.806377530097961426e-01,-1.754833817481994629e+00,-1.342064142227172852e+00,-2.140898466110229492e+00,-2.909260749816894531e+00,-5.618515014648437500e-01,-5.861977115273475647e-04,-1.125229299068450928e-01,1.319568157196044922e+00,2.621040821075439453e+00,4.077265739440917969e+00,6.011258602142333984e+00,7.642720699310302734e+00,9.520502090454101562e+00,8.455812454223632812e+00,5.581656455993652344e+00,3.266620159149169922e+00,6.646266937255859375e+00,1.030892276763916016e+01,6.066258907318115234e+00
-7.792292118072509766e+00,-4.505334496498107910e-01,-8.672100305557250977e-01,2.323004961013793945e+00,2.401884794235229492e+00,-1.410162568092346191e+00,-4.231978893280029297e+00,-1.135665535926818848e+00,4.577099800109863281e+00,-7.355824112892150879e-01,-3.542032480239868164e+00,-6.037004947662353516e+00,-6.250546455383300781e+00,-9.732315063476562500e+00,-1.290580081939697266e+01,-1.091089057922363281e+01,-8.709826469421386719e+00,-6.664451599121093750e+00,-5.163540363311767578e+00,-7.696064949035644531e+00,-9.251154899597167969e+00,-8.066780090332031250e+00,-5.965795993804931641e+00,-6.789022445678710938e+00,-5.599268913269042969e+00,-2.490929841995239258e+00,-1.124701052904129028e-01,-1.757006406784057617e+00,-2.716796875000000000e+00,-5.076517462730407715e-01,1.484466910362243652e+00,1.170042753219604492e-01
3.059102296829223633e+00,7.287055015563964844e+00,1.391635417938232422e+01,1.509797191619873047e+01,8.315222740173339844e+00,5.083681583404541016e+00,1.496882081031799316e+00,2.759095430374145508e+00,6.724084377288818359e+00,7.572413921356201172e+00,4.793594837188720703e+00,3.575808763504028320e+00,3.939185619354248047e+00,-9.402216076850891113e-01,-2.207168579101562500e+00,-1.791417121887207031e+00,1.311988472938537598e+00,3.021173000335693359e+00,4.914616107940673828e+00,1.523922801017761230e+00,-3.009531497955322266e-01,1.332820296287536621e+00,2.068304538726806641e+00,-5.051333308219909668e-01,1.580912619829177856e-01,1.528761506080627441e+00,4.050875663757324219e+00,4.118164539337158203e+00,6.161508560180664062e+00,3.497153759002685547e+00,2.255618810653686523e+00,1.140544223785400391e+01
1.167147445678710938e+01,1.092376995086669922e+01,1.638979911804199219e+01,1.406496334075927734e+01,7.620633125305175781e+00,5.652059555053710938e+00,7.294162273406982422e+00,9.362274169921875000e+00,7.092716693878173828e+00,8.930025100708007812e+00,8.445658683776855469e+00,9.355263710021972656e+00,9.394451141357421875e+00,1.021384906768798828e+01,1.229275608062744141e+01,1.016592311859130859e+01,8.859534263610839844e+00,7.912281990051269531e+00,8.604953765869140625e+00,8.690483093261718750e+00,9.849264144897460938e+00,9.863992691040039062e+00,8.664750099182128906e+00,1.136281204223632812e+01,1.404882144927978516e+01,1.472417259216308594e+01,1.028589248657226562e+01,9.577510833740234375e+00,9.682513236999511719e+00,9.222201347351074219e+00,1.045299530029296875e+01,2.044828605651855469e+01
-8.701625466346740723e-01,1.101005196571350098e+00,2.995692014694213867e+00,2.319178104400634766e+00,7.931356430053710938e-01,-1.143136501312255859e+00,1.741530537605285645e+00,3.274169445037841797e+00,2.345779180526733398e+00,-6.256428956985473633e-01,-1.083525776863098145e+00,-2.042527198791503906e+00,-1.460460424423217773e+00,3.276699542999267578e+00,4.855292320251464844e+00,3.100856542587280273e+00,-3.057735562324523926e-01,-2.430374622344970703e+00,-2.432180404663085938e+00,-1.500580668449401855e+00,-4.423371553421020508e-01,-1.649486660957336426e+00,-2.845079421997070312e+00,3.066699266433715820e+00,6.381672859191894531e+00,6.558955192565917969e+00,1.913506031036376953e+00,6.114711761474609375e-01,-1.039204478263854980e+00,4.411044120788574219e+00,9.957885742187500000e+00,5.388740539550781250e+00
1.248838603496551514e-01,-2.030380964279174805e+00,-7.578241348266601562e+00,-6.071335792541503906e+00,-1.451959252357482910e+00,2.488454818725585938e+00,9.458276629447937012e-01,-3.276835441589355469e+00,-4.168867588043212891e+00,-6.577044486999511719e+00,-3.895416736602783203e+00,-4.095019340515136719e+00,-7.290798187255859375e+00,-9.013855934143066406e+00,-1.103642272949218750e+01,-5.036054134368896484e+00,-6.136002540588378906e+00,-7.196172237396240234e+00,-9.620898246765136719e+00,-1.025459003448486328e+01,-9.632619857788085938e+00,-6.360530376434326172e+00,-2.517759084701538086e+00,-5.563383579254150391e+00,-8.547666549682617188e+00,-8.315341949462890625e+00,-2.345393180847167969e+00,-2.604132890701293945e+00,-1.697418570518493652e+00,4.567275047302246094e-01,2.899820327758789062e+00,-1.012643241882324219e+01
1.746449661254882812e+01,1.076876544952392578e+01,1.263608455657958984e+00,-1.201584577560424805e+00,2.199115991592407227e+00,1.027665042877197266e+01,9.665254592895507812e+00,3.802914619445800781e+00,-8.813475966453552246e-01,-3.524581193923950195e-01,5.929003715515136719e+00,9.552815437316894531e+00,3.111306905746459961e+00,-2.411641359329223633e+00,-3.743993282318115234e+00,2.911359786987304688e+00,4.515968799591064453e+00,3.062167882919311523e+00,-1.401714205741882324e+00,-1.485817313194274902e+00,1.002276182174682617e+00,7.383065223693847656e+00,9.760343551635742188e+00,3.427775382995605469e+00,-1.614021062850952148e+00,1.765275001525878906e+00,8.890314102172851562e+00,8.527576446533203125e+00,9.307710647583007812e+00,5.192480087280273438e+00,1.969966411590576172e+00,-1.880125284194946289e+00
1.637017440795898438e+01,1.125973129272460938e+01,6.551673889160156250e+00,5.091842174530029297e+00,7.983696460723876953e+00,1.426851749420166016e+01,1.413161849975585938e+01,9.804224967956542969e+00,6.173842906951904297e+00,7.791642665863037109e+00,1.048443508148193359e+01,1.409887218475341797e+01,1.158156108856201172e+01,1.057837295532226562e+01,1.158049869537353516e+01,1.090101814270019531e+01,1.064474964141845703e+01,9.563758850097656250e+00,8.183563232421875000e+00,9.223803520202636719e+00,1.106544876098632812e+01,1.164104843139648438e+01,9.222776412963867188e+00,8.378319740295410156e+00,8.309089660644531250e+00,1.165334510803222656e+01,1.046934795379638672e+01,1.105963706970214844e+01,1.136715316772460938e+01,7.308342456817626953e+00,4.011022090911865234e+00,8.319067001342773438e+00
1.805341362953186035e+00,-4.577444553375244141e+00,-3.790397405624389648e+00,-1.086804747581481934e+00,9.297859668731689453e-01,3.411802768707275391e+00,9.324214458465576172e-01,-1.565592765808105469e+00,-1.867450714111328125e+00,1.013215065002441406e+00,2.015483379364013672e+00,2.879351854324340820e+00,2.990680217742919922e+00,4.398451328277587891e+00,3.961308240890502930e+00,6.173545122146606445e-01,6.096834540367126465e-01,5.535156726837158203e-01,9.637151360511779785e-01,1.505537390708923340e+00,1.161538839340209961e+00,-1.836653947830200195e+00,-5.328254222869873047e+00,-1.477208137512207031e+00,-2.612135112285614014e-01,-1.728678822517395020e+00,-6.013628482818603516e+00,-2.503860473632812500e+00,1.126518845558166504e+00,-1.739668250083923340e+00,-5.097249507904052734e+00,-2.809545278549194336e+00
-5.258241653442382812e+00,-8.024221420288085938e+00,-7.704140186309814453e+00,-8.993489265441894531e+00,-1.001791286468505859e+01,-9.823715209960937500e+00,-1.003956794738769531e+01,-9.847142219543457031e+00,-8.759597778320312500e+00,-8.484577178955078125e+00,-7.823057174682617188e+00,-9.760054588317871094e+00,-1.137264347076416016e+01,-1.035001564025878906e+01,-1.132487773895263672e+01,-1.217227077484130859e+01,-1.350188636779785156e+01,-1.322312068939208984e+01,-1.343876457214355469e+01,-1.489529037475585938e+01,-1.579815196990966797e+01,-1.446938037872314453e+01,-1.186543846130371094e+01,-7.596706867218017578e+00,-7.432716369628906250e+00,-9.096002578735351562e+00,-1.162628650665283203e+01,-6.875510692596435547e+00,-3.435157060623168945e+00,-5.910106658935546875e+00,-1.217911243438720703e+01,-1.035246372222900391e+01
-4.226863861083984375e+00,1.681351900100708008e+00,3.256308794021606445e+00,4.232177734375000000e-01,-2.975227355957031250e+00,-3.987663745880126953e+00,-3.244754076004028320e+00,-2.964892387390136719e+00,3.097810782492160797e-02,-2.845521688461303711e+00,-2.858412981033325195e+00,-4.472192764282226562e+00,-6.870831489562988281e+00,-9.876564979553222656e+00,-1.066079616546630859e+01,-9.665109634399414062e+00,-9.145327568054199219e+00,-9.204153060913085938e+00,-9.477581024169921875e+00,-1.106179428100585938e+01,-1.074697589874267578e+01,-8.716637611389160156e+00,-5.868144989013671875e+00,-4.074816703796386719e+00,-2.514071941375732422e+00,-4.475906789302825928e-01,-9.687083959579467773e-01,2.966951847076416016e+00,2.752497911453247070e+00,3.820629119873046875e+00,7.881336659193038940e-02,4.143730163574218750e+00
-9.315795898437500000e-01,2.230321645736694336e+00,4.196343421936035156e+00,5.670287132263183594e+00,4.126690864562988281e+00,2.277056694030761719e+00,3.343105912208557129e-01,1.104606866836547852e+00,3.914016246795654297e+00,5.433688640594482422e+00,2.688270568847656250e+00,-2.568331003189086914e+00,-3.358088731765747070e+00,-5.888091564178466797e+00,-4.479794502258300781e+00,-5.720231533050537109e+00,-3.213586807250976562e+00,-1.860436916351318359e+00,-2.020277827978134155e-01,-3.940105915069580078e+00,-4.086172103881835938e+00,-3.951143264770507812e+00,-2.098778486251831055e+00,-2.371790409088134766e+00,-8.397847414016723633e-01,1.018950343132019043e+00,2.196262121200561523e+00,1.157625675201416016e+00,-5.257124826312065125e-02,5.878777980804443359e+00,1.083697891235351562e+01,8.790159225463867188e+00
1.762501001358032227e+00,3.866206645965576172e+00,6.023744583129882812e+00,6.099123001098632812e+00,3.552137136459350586e+00,-1.648346185684204102e+00,7.171117514371871948e-02,3.356912851333618164e+00,2.738914728164672852e+00,1.800157427787780762e+00,1.193994060158729553e-01,-1.673067331314086914e+00,-3.776020765304565430e+00,-5.753844261169433594e+00,-4.081285476684570312e+00,-6.207880973815917969e+00,-7.122860431671142578e+00,-6.984616279602050781e+00,-6.355577468872070312e+00,-8.124560356140136719e+00,-7.323925018310546875e+00,-4.849300384521484375e+00,-1.109947800636291504e+00,-7.218579053878784180e-01,-7.712527513504028320e-01,-7.051192522048950195e-01,1.390172123908996582e+00,-4.428492546081542969e+00,-5.363665580749511719e+00,-7.423165440559387207e-01,7.698188304901123047e+00,5.464421272277832031e+00
-1.834814906120300293e+00,1.333732247352600098e+00,4.782375812530517578e+00,3.957464218139648438e+00,1.644879460334777832e+00,-1.892798304557800293e+00,2.860831022262573242e+00,4.881612777709960938e+00,3.026061534881591797e+00,5.172336101531982422e-01,9.750095605850219727e-01,6.252739429473876953e-01,-1.636219263076782227e+00,-3.787016868591308594e+00,-2.834705829620361328e+00,-4.765120983123779297e+00,-6.367568969726562500e+00,-7.334478378295898438e+00,-6.535491943359375000e+00,-6.561563491821289062e+00,-5.981223583221435547e+00,-3.713642835617065430e+00,7.704714536666870117e-01,1.290584802627563477e+00,2.333263635635375977e+00,3.556214094161987305e+00,4.309552669525146484e+00,1.163223862648010254e+00,-3.896990120410919189e-01,-2.152236223220825195e+00,-1.236753225326538086e+00,1.354365229606628418e+00
