Fp1,Fp2,F7,F3,Fz,F4,F8,FT7,FC3,FCz,FC4,FT8,T3,C3,Cz,C4,T4,TP7,CP3,CPz,CP4,TP8,T5,P3,Pz,P4,T6,O1,Oz,O2,A1,A2
-3.376322984695434570e+00,1.145092368125915527e+00,6.616664409637451172e+00,5.293981075286865234e+00,-4.114129066467285156e+00,-3.844136238098144531e+00,-5.171188831329345703e+00,-3.449324846267700195e+00,-3.604381799697875977e+00,-3.779256105422973633e+00,-3.566635131835937500e+00,-4.807179927825927734e+00,-4.634454727172851562e+00,1.057678237557411194e-01,-7.198697924613952637e-01,-2.285807847976684570e+00,-2.997002363204956055e+00,-7.239609360694885254e-01,-2.162270545959472656e+00,-1.006783962249755859e+00,-3.017363071441650391e+00,-3.764510869979858398e+00,-3.658599853515625000e+00,1.612577795982360840e+00,-9.308709502220153809e-01,1.083493351936340332e+00,1.775275021791458130e-01,4.636049568653106689e-01,-4.490310192108154297e+00,-5.076186656951904297e+00,-2.227106988430023193e-01,7.960492610931396484e+00
-9.233601570129394531e+00,-4.679736614227294922e+00,1.965030312538146973e+00,-5.719801187515258789e-01,-5.466144561767578125e+00,-6.488457679748535156e+00,-4.785042285919189453e+00,-3.311690390110015869e-01,2.397714614868164062e+00,-2.535114049911499023e+00,-7.598840713500976562e+00,-8.632256507873535156e+00,-4.184742450714111328e+00,2.634281814098358154e-01,3.034926652908325195e+00,2.197014570236206055e+00,3.056764364242553711e+00,1.532718300819396973e+00,3.776935100555419922e+00,-1.583672285079956055e+00,-6.928156852722167969e+00,-1.295112895965576172e+01,-1.017284774780273438e+01,-1.029155063629150391e+01,-9.266762733459472656e+00,-6.277646541595458984e+00,-7.095667362213134766e+00,-7.460910797119140625e+00,-7.126636505126953125e+00,-6.904460430145263672e+00,-4.788462162017822266e+00,-4.176162719726562500e+00
-1.658045196533203125e+01,-1.429310417175292969e+01,-2.442895174026489258e+00,1.539094090461730957e+00,-2.548803806304931641e+00,-9.830492019653320312e+00,-9.613723754882812500e+00,-1.645789146423339844e-01,2.777084350585937500e+00,-1.932288646697998047e+00,-1.014217472076416016e+01,-1.274198722839355469e+01,-9.225915908813476562e+00,-3.252160787582397461e+00,9.743361175060272217e-02,-4.421309947967529297e+00,-6.007846832275390625e+00,-6.362522125244140625e+00,1.280490875244140625e+00,-3.485017299652099609e+00,-9.982291221618652344e+00,-1.874027061462402344e+01,-1.558778190612792969e+01,-1.441885185241699219e+01,-9.252997398376464844e+00,-6.511739253997802734e+00,-8.779644012451171875e+00,-1.373432445526123047e+01,-1.251595211029052734e+01,-1.206862831115722656e+01,-1.136890506744384766e+01,-8.548110008239746094e+00
-1.545595836639404297e+01,-1.566020965576171875e+01,-6.534729480743408203e+00,-3.223531723022460938e+00,-6.884977817535400391e+00,-1.347540760040283203e+01,-1.189804458618164062e+01,-2.226695299148559570e+00,-1.425024509429931641e+00,-2.440649032592773438e+00,-1.030131053924560547e+01,-1.360237503051757812e+01,-1.251901817321777344e+01,-4.946046352386474609e+00,-5.536335468292236328e+00,-1.012830638885498047e+01,-1.170816421508789062e+01,-8.251486778259277344e+00,-5.401108741760253906e+00,-7.917095661163330078e+00,-1.225040245056152344e+01,-1.641056823730468750e+01,-1.717671775817871094e+01,-1.333771228790283203e+01,-1.044850635528564453e+01,-8.505259513854980469e+00,-1.270815944671630859e+01,-1.713880157470703125e+01,-1.820298194885253906e+01,-1.529881477355957031e+01,-1.485631370544433594e+01,-1.319972896575927734e+01
-1.181851196289062500e+01,-1.123430728912353516e+01,-2.470524072647094727e+00,-5.734773159027099609e+00,-1.011089420318603516e+01,-1.448795795440673828e+01,-8.526453018188476562e+00,-2.866343498229980469e+00,1.422625422477722168e+00,6.255669593811035156e-01,-6.367761135101318359e+00,-9.327470779418945312e+00,-1.017895221710205078e+01,-6.207602500915527344e+00,-4.307494163513183594e+00,-6.144676208496093750e+00,-6.302831172943115234e+00,-5.878755569458007812e+00,-4.486486434936523438e+00,-7.753771781921386719e+00,-8.652945518493652344e+00,-1.130982780456542969e+01,-1.428001117706298828e+01,-1.102834320068359375e+01,-8.809313774108886719e+00,-8.773056030273437500e+00,-1.530497360229492188e+01,-1.646277618408203125e+01,-1.302515316009521484e+01,-7.416189670562744141e+00,-7.985659122467041016e+00,-8.125768661499023438e+00
-6.413352489471435547e+00,1.813540458679199219e+00,1.201323127746582031e+01,7.277891159057617188e+00,-1.166064023971557617e+00,-5.014512538909912109e+00,-1.956051230430603027e+00,2.249984592199325562e-01,4.153082847595214844e+00,1.101757049560546875e+00,-3.029150724411010742e+00,-2.734309911727905273e+00,-1.522790908813476562e+00,-4.368053376674652100e-01,4.282704830169677734e+00,4.620307385921478271e-01,-3.797878921031951904e-01,-3.422642946243286133e+00,2.325982332229614258e+00,1.076820254325866699e+00,9.960741996765136719e-01,-3.029662847518920898e+00,-3.148098468780517578e+00,-1.581120371818542480e+00,3.670087575912475586e+00,5.554320812225341797e+00,1.458716392517089844e+00,-3.891638755798339844e+00,7.465045899152755737e-02,4.039933681488037109e+00,7.448018550872802734e+00,2.330305671691894531e+01
9.843939542770385742e-01,1.532314300537109375e+01,1.835188293457031250e+01,1.627754783630371094e+01,7.237910747528076172e+00,5.689362525939941406e+00,1.281208157539367676e+00,2.976434707641601562e+00,1.854770660400390625e+00,-5.288491249084472656e-01,-1.913387894630432129e+00,1.449546068906784058e-01,4.899790763854980469e+00,8.481739997863769531e+00,8.781912803649902344e+00,3.215169191360473633e+00,2.039677143096923828e+00,2.825315237045288086e+00,4.113800048828125000e+00,7.780506610870361328e+00,7.211586475372314453e+00,5.444576263427734375e+00,5.874472618103027344e+00,4.211245536804199219e+00,8.718783378601074219e+00,1.304611015319824219e+01,1.446512603759765625e+01,7.594743728637695312e+00,6.720083236694335938e+00,6.495481491088867188e+00,1.623204994201660156e+01,4.786397552490234375e+01
4.360916137695312500e+00,1.047051048278808594e+01,1.043984222412109375e+01,1.115441417694091797e+01,6.149536132812500000e+00,5.602107524871826172e+00,1.924485564231872559e+00,2.714281082153320312e+00,1.805072665214538574e+00,3.224588394165039062e+00,4.616058826446533203e+00,5.471864223480224609e+00,6.912045955657958984e+00,7.469977378845214844e+00,6.522226810455322266e+00,6.891714572906494141e+00,7.424344062805175781e+00,8.348931312561035156e+00,3.825469493865966797e+00,8.226727485656738281e+00,8.970332145690917969e+00,9.671636581420898438e+00,6.701556682586669922e+00,7.316565513610839844e+00,9.740359306335449219e+00,1.026982784271240234e+01,8.289509773254394531e+00,5.911462783813476562e+00,2.643166065216064453e+00,3.258854150772094727e+00,1.441575241088867188e+01,2.887924194335937500e+01
3.094783782958984375e+00,-6.646044254302978516e-01,5.761042118072509766e+00,8.860974311828613281e+00,5.032872200012207031e+00,2.544932842254638672e+00,3.867167472839355469e+00,2.600933551788330078e+00,1.351367712020874023e+00,3.310150861740112305e+00,7.105086803436279297e+00,7.831933021545410156e+00,6.998241424560546875e+00,4.829248905181884766e+00,4.781621456146240234e+00,9.089341163635253906e+00,9.798320770263671875e+00,7.502759456634521484e+00,6.033075809478759766e+00,7.628236293792724609e+00,9.231984138488769531e+00,8.413984298706054688e+00,4.514334201812744141e+00,1.108965301513671875e+01,1.570116424560546875e+01,1.341520309448242188e+01,5.752740859985351562e+00,1.033883571624755859e+00,-2.452409267425537109e-01,2.852264165878295898e+00,1.151612091064453125e+01,8.621907234191894531e+00
-1.617425084114074707e+00,-3.508814811706542969e+00,9.246010780334472656e-01,2.650198936462402344e+00,-6.505611538887023926e-01,-7.733159065246582031e-01,1.522384285926818848e+00,-1.183214068412780762e+00,-6.317833423614501953e+00,-5.860452175140380859e+00,-1.818359971046447754e+00,-9.848828315734863281e-01,1.543394446372985840e+00,3.600381135940551758e+00,8.948714733123779297e-01,5.135126113891601562e-01,-9.108009934425354004e-02,5.494061708450317383e-01,1.666803359985351562e+00,1.225698232650756836e+00,1.403024792671203613e+00,-5.092749744653701782e-02,-1.506635904312133789e+00,-1.033175230026245117e+00,2.555587291717529297e+00,5.378578186035156250e+00,4.547053337097167969e+00,-1.860223412513732910e+00,-5.967500805854797363e-01,1.500520110130310059e+00,4.610725402832031250e+00,7.657409191131591797e+00
-6.183783054351806641e+00,-3.836341142654418945e+00,-8.091501235961914062e+00,-1.078456497192382812e+01,-9.066847801208496094e+00,-4.005809783935546875e+00,-3.680163621902465820e+00,-7.485445499420166016e+00,-1.125565433502197266e+01,-6.491998672485351562e+00,-2.354851245880126953e+00,-4.105770587921142578e+00,-4.068063259124755859e+00,-1.280244469642639160e+00,-4.885183334350585938e+00,-6.048326015472412109e+00,-7.260128974914550781e+00,-5.692326068878173828e+00,-6.209187030792236328e+00,-4.941824913024902344e+00,-3.598612785339355469e+00,-4.437861442565917969e+00,-4.894524097442626953e+00,-1.056947326660156250e+01,-8.920760154724121094e+00,-7.166984081268310547e+00,-2.300923585891723633e+00,-3.525037527084350586e+00,-2.411630153656005859e+00,-3.381846845149993896e-01,-8.662908673286437988e-01,-2.515847206115722656e+00
-2.292009592056274414e+00,8.153443932533264160e-01,-8.015848994255065918e-01,-4.348757743835449219e+00,-3.406918764114379883e+00,7.140528559684753418e-01,1.896997690200805664e+00,-2.168871879577636719e+00,-5.851304531097412109e+00,3.006905913352966309e-01,6.633670330047607422e+00,4.992930412292480469e+00,1.894170492887496948e-01,-1.549284458160400391e+00,-1.520378589630126953e+00,6.037386059761047363e-01,7.605177760124206543e-01,-9.115609526634216309e-01,8.934552073478698730e-01,1.349317193031311035e+00,2.727488040924072266e+00,-7.933086156845092773e-01,-9.132261276245117188e-01,2.981927394866943359e+00,3.200917005538940430e+00,9.279564619064331055e-01,-1.866267204284667969e+00,-3.019157424569129944e-02,-9.939595460891723633e-01,5.994665622711181641e-01,2.106390476226806641e+00,-4.009342670440673828e+00
7.334854125976562500e+00,1.163126373291015625e+01,1.479463481903076172e+01,1.300665283203125000e+01,1.004355049133300781e+01,1.037027835845947266e+01,1.156276798248291016e+01,8.790966033935546875e+00,9.980728626251220703e-01,5.953136458992958069e-02,6.219788074493408203e+00,8.984414100646972656e+00,7.136403083801269531e+00,4.096610546112060547e+00,6.297321319580078125e+00,6.574615478515625000e+00,7.758417129516601562e+00,6.823520660400390625e+00,9.790700912475585938e+00,7.479086875915527344e+00,5.856703281402587891e+00,3.934514522552490234e+00,5.770231723785400391e+00,1.153240776062011719e+01,1.348856067657470703e+01,9.434549331665039062e+00,4.322849273681640625e+00,6.098680019378662109e+00,6.490902900695800781e+00,5.142433643341064453e+00,7.319894313812255859e+00,1.742981719970703125e+01
1.119819736480712891e+01,1.641904258728027344e+01,1.294687175750732422e+01,7.994016170501708984e+00,1.076660156250000000e+01,1.318936729431152344e+01,1.223053741455078125e+01,7.847376823425292969e+00,1.114963054656982422e+00,-1.284346699714660645e+00,3.991899967193603516e+00,7.734729290008544922e+00,9.758321762084960938e+00,6.410334587097167969e+00,5.480389595031738281e+00,2.946247339248657227e+00,3.265201330184936523e+00,3.313801288604736328e+00,1.351019024848937988e+00,1.209680318832397461e+00,2.309244632720947266e+00,6.500783443450927734e+00,8.251851081848144531e+00,2.678354740142822266e+00,1.128823399543762207e+00,3.071866750717163086e+00,5.787473678588867188e+00,7.322514057159423828e+00,1.116065311431884766e+01,1.071234512329101562e+01,8.992093086242675781e+00,1.987677574157714844e+01
9.297266960144042969e+00,8.780750274658203125e+00,1.570533037185668945e+00,-5.098263740539550781e+00,2.045653343200683594e+00,7.754205226898193359e+00,8.412902832031250000e+00,4.385672509670257568e-01,-1.473169445991516113e+00,2.536677598953247070e+00,8.880340576171875000e+00,9.236124038696289062e+00,6.879043102264404297e+00,1.518434762954711914e+00,-1.244055986404418945e+00,-6.671470999717712402e-01,1.953963637351989746e-01,-2.437496662139892578e+00,-5.929742336273193359e+00,-4.850390434265136719e+00,-1.313084006309509277e+00,4.144393920898437500e+00,6.749510765075683594e+00,4.587246477603912354e-02,-4.291526317596435547e+00,-1.890038371086120605e+00,3.266167879104614258e+00,4.628940582275390625e+00,7.981313705444335938e+00,1.050464439392089844e+01,7.610582828521728516e+00,1.704783201217651367e+00
3.004183292388916016e+00,-5.217920541763305664e-01,-1.190160393714904785e+00,-2.040076494216918945e+00,-5.792855024337768555e-01,2.978405058383941650e-01,-4.496600031852722168e-01,-3.666080951690673828e+00,-1.281722307205200195e+00,3.308471441268920898e+00,4.966998577117919922e+00,3.999451160430908203e+00,-8.221616744995117188e-01,-4.036570549011230469e+00,-3.338494062423706055e+00,1.206623554229736328e+00,2.795780181884765625e+00,8.895822763442993164e-01,1.402783393859863281e+00,-1.131682753562927246e+00,-3.272229909896850586e+00,-1.916989684104919434e+00,1.438609361648559570e+00,2.371107101440429688e+00,-8.588548898696899414e-01,-1.879082679748535156e+00,-1.245054483413696289e+00,1.369666218757629395e+00,2.580260753631591797e+00,2.355957984924316406e+00,-4.065367281436920166e-01,-2.539315223693847656e+00
-1.164716601371765137e+00,9.384091496467590332e-01,2.408392429351806641e+00,4.199371337890625000e+00,2.998435974121093750e+00,-8.576568961143493652e-01,-5.620522975921630859e+00,-4.622847080230712891e+00,-1.155562162399291992e+00,-1.922982186079025269e-01,-3.537241697311401367e+00,-4.175048828125000000e+00,-5.141434669494628906e+00,-2.803630113601684570e+00,2.699954211711883545e-01,2.768481254577636719e+00,3.026543855667114258e+00,5.286629676818847656e+00,6.689992427825927734e+00,4.557340621948242188e+00,1.703870058059692383e+00,-1.062103081494569778e-02,6.426215171813964844e-01,2.783846378326416016e+00,1.616717696189880371e+00,-1.548734188079833984e+00,-1.683975100517272949e+00,2.114566802978515625e+00,3.198279857635498047e+00,1.171285957098007202e-01,-3.126053571701049805e+00,5.492835044860839844e-01
4.840271472930908203e+00,1.087898826599121094e+01,8.436779022216796875e+00,5.069212913513183594e+00,5.930888175964355469e+00,4.745276927947998047e+00,3.043815135955810547e+00,-1.107107758522033691e+00,-1.681996822357177734e+00,-2.709696054458618164e+00,-1.309352874755859375e+00,-2.117428183555603027e-01,3.437090635299682617e+00,6.694910526275634766e+00,6.226006031036376953e+00,2.759525299072265625e+00,2.918412446975708008e+00,7.581995964050292969e+00,6.494587421417236328e+00,7.617559909820556641e+00,9.568822860717773438e+00,1.018450450897216797e+01,9.029703140258789062e+00,8.862090110778808594e+00,6.062388896942138672e+00,2.835380315780639648e+00,4.633382320404052734e+00,8.595667839050292969e+00,8.375884056091308594e+00,5.625540733337402344e+00,3.427403450012207031e+00,6.460002422332763672e+00
9.415739059448242188e+00,1.341022014617919922e+01,1.020792293548583984e+01,4.387628078460693359e+00,3.802659273147583008e+00,6.396235466003417969e+00,8.894681930541992188e+00,2.805589437484741211e+00,-1.291952967643737793e+00,-2.373057603836059570e+00,3.456213235855102539e+00,6.774938583374023438e+00,1.096565055847167969e+01,1.029276943206787109e+01,8.549026489257812500e+00,4.994802951812744141e+00,5.572487354278564453e+00,6.835190296173095703e+00,5.850981235504150391e+00,5.628784179687500000e+00,5.616851806640625000e+00,7.536076545715332031e+00,7.755372047424316406e+00,8.207824707031250000e+00,5.330054283142089844e+00,5.233234405517578125e+00,6.761346817016601562e+00,1.029213619232177734e+01,7.545547485351562500e+00,3.747422218322753906e+00,3.314312219619750977e+00,1.822563934326171875e+01
8.036219596862792969e+00,5.932876110076904297e+00,2.583684682846069336e+00,5.272101759910583496e-01,3.270980358123779297e+00,5.131749629974365234e+00,6.964003086090087891e+00,3.127613067626953125e+00,1.284162282943725586e+00,3.339339971542358398e+00,7.936304092407226562e+00,8.654146194458007812e+00,6.530937671661376953e+00,2.287422895431518555e+00,4.171755790710449219e+00,7.691431045532226562e+00,8.246222496032714844e+00,5.086183547973632812e+00,4.837950229644775391e+00,3.484572410583496094e+00,2.360574483871459961e+00,3.469318628311157227e+00,3.940824270248413086e+00,1.421043515205383301e+00,-9.356426000595092773e-01,-6.988976597785949707e-01,2.872990846633911133e+00,6.414392948150634766e+00,4.924887657165527344e+00,-1.495933413505554199e+00,-4.526910781860351562e+00,5.861989021301269531e+00
1.397815418243408203e+01,8.040589332580566406e+00,4.751959800720214844e+00,2.619323492050170898e+00,8.629396438598632812e+00,8.648055076599121094e+00,1.080720806121826172e+01,7.519867897033691406e+00,6.127312183380126953e+00,6.857217311859130859e+00,9.717972755432128906e+00,9.162203788757324219e+00,4.659867286682128906e+00,1.440644741058349609e+00,2.614996910095214844e+00,6.754168510437011719e+00,8.255471229553222656e+00,8.163826942443847656e+00,7.315590381622314453e+00,7.678003787994384766e+00,1.088092708587646484e+01,1.417975711822509766e+01,1.557817649841308594e+01,8.311612129211425781e+00,2.424453258514404297e+00,1.389544606208801270e-01,8.571298599243164062e+00,1.044649505615234375e+01,1.235753631591796875e+01,8.461766242980957031e+00,4.175048351287841797e+00,-1.382684898376464844e+01
1.325824832916259766e+01,1.359538269042968750e+01,1.239269256591796875e+01,9.269886970520019531e+00,1.069252395629882812e+01,8.359802246093750000e+00,9.257672309875488281e+00,8.245829582214355469e+00,7.534700393676757812e+00,2.582413911819458008e+00,2.887552976608276367e+00,3.515045642852783203e+00,3.590607404708862305e+00,2.806455612182617188e+00,1.427555561065673828e+00,1.808740735054016113e+00,1.937337994575500488e+00,5.582094669342041016e+00,4.227883338928222656e+00,6.524211406707763672e+00,8.145627975463867188e+00,1.301597118377685547e+01,1.412521457672119141e+01,1.073989009857177734e+01,5.099504470825195312e+00,6.130503177642822266e+00,1.250165367126464844e+01,1.259895133972167969e+01,1.437493228912353516e+01,1.500092506408691406e+01,1.455535030364990234e+01,1.331598907709121704e-01
-1.555866479873657227e+00,6.250649929046630859e+00,3.379542827606201172e+00,4.047714233398437500e+00,4.339498996734619141e+00,1.861477375030517578e+00,-3.680368661880493164e+00,-1.740142107009887695e+00,1.342923164367675781e+00,-1.023979306221008301e+00,-3.577442646026611328e+00,-4.796738147735595703e+00,-4.618382453918457031e+00,-4.476859092712402344e+00,-5.169513702392578125e+00,-4.247360706329345703e+00,-4.960937023162841797e+00,-4.597537994384765625e+00,-6.046562671661376953e+00,-3.303024053573608398e+00,-4.457167148590087891e+00,-2.905658245086669922e+00,-5.593384265899658203e+00,-3.320050954818725586e+00,-2.575332403182983398e+00,3.659070134162902832e-01,-1.120341897010803223e+00,-7.256414294242858887e-01,-1.528740406036376953e+00,1.738643944263458252e-01,4.580956935882568359e+00,1.775031661987304688e+01
-1.085038185119628906e+00,-1.622615098953247070e+00,-7.424236774444580078e+00,-4.507052898406982422e+00,6.198070049285888672e-01,2.448726892471313477e+00,-1.951305389404296875e+00,-3.278263807296752930e+00,-4.882914066314697266e+00,-2.630931138992309570e+00,-1.390408635139465332e+00,-2.196154594421386719e+00,-7.939295291900634766e+00,-9.516105651855468750e+00,-9.329728126525878906e+00,-6.772089958190917969e+00,-5.590849399566650391e+00,-8.444780349731445312e+00,-9.197673797607421875e+00,-7.202901840209960938e+00,-4.672091484069824219e+00,-5.295863628387451172e+00,-8.247333526611328125e+00,-6.937351703643798828e+00,-4.762724876403808594e+00,-5.273632049560546875e+00,-8.271257400512695312e+00,-8.274468421936035156e+00,-8.231943130493164062e+00,-6.674380302429199219e+00,-3.378483295440673828e+00,6.523226261138916016e+00
8.253575325012207031e+00,1.778913974761962891e+00,1.193072557449340820e+00,7.360758185386657715e-01,2.592492103576660156e+00,4.416991233825683594e+00,7.484014511108398438e+00,5.621806621551513672e+00,6.587402224540710449e-01,-3.337715268135070801e-01,1.795752406120300293e+00,2.536832809448242188e+00,-1.462866306304931641e+00,-4.292778968811035156e+00,-4.207874774932861328e+00,-3.988168239593505859e-01,-4.027707874774932861e-02,-9.503923654556274414e-01,-2.050696134567260742e+00,-1.539816617965698242e+00,8.724831342697143555e-01,3.319699287414550781e+00,4.652552604675292969e+00,7.222083806991577148e-01,8.361079692840576172e-01,1.896281719207763672e+00,3.214453458786010742e+00,1.245920896530151367e+00,4.296106815338134766e+00,5.918558597564697266e+00,5.105068206787109375e+00,-1.834756135940551758e+00
-4.568077623844146729e-02,3.837994813919067383e+00,8.673062324523925781e+00,7.786693096160888672e+00,2.415899991989135742e+00,-8.975415825843811035e-01,-2.399108648300170898e+00,-3.564031561836600304e-03,2.948196411132812500e+00,2.906068563461303711e-01,-3.062583446502685547e+00,-5.631669044494628906e+00,-2.405597209930419922e+00,-2.367186069488525391e+00,-2.536828279495239258e+00,-6.140877604484558105e-01,-2.353477239608764648e+00,-8.046799898147583008e-01,-2.290275335311889648e+00,-2.064943790435791016e+00,-3.752475976943969727e+00,-9.639883637428283691e-01,1.010484099388122559e+00,1.858232766389846802e-01,3.521974563598632812e+00,6.655346870422363281e+00,4.750911235809326172e+00,3.310376405715942383e+00,6.503204345703125000e+00,8.548100471496582031e+00,7.511843204498291016e+00,5.882232785224914551e-01
-6.923852443695068359e+00,-3.804675936698913574e-01,-1.371841669082641602e+00,-8.366069793701171875e-01,-2.632589340209960938e+00,-5.246977329254150391e+00,-1.170848560333251953e+01,-9.807079315185546875e+00,-5.107297897338867188e+00,-5.976688861846923828e+00,-8.976519584655761719e+00,-1.254662418365478516e+01,-9.992988586425781250e+00,-8.944349288940429688e+00,-1.002779579162597656e+01,-1.098171997070312500e+01,-1.093664550781250000e+01,-7.930128097534179688e+00,-8.732169151306152344e+00,-6.804937362670898438e+00,-7.031232357025146484e+00,-7.832666873931884766e+00,-7.608070373535156250e+00,-4.040795803070068359e+00,-1.095910310745239258e+00,-1.724685668945312500e+00,-4.579623222351074219e+00,-4.007324695587158203e+00,-4.109589576721191406e+00,-3.671308279037475586e+00,-4.932596206665039062e+00,-1.277043533325195312e+01
1.538339376449584961e+00,-4.121671199798583984e+00,-1.064927291870117188e+01,-1.133432197570800781e+01,-4.296951293945312500e+00,-3.610407352447509766e+00,-2.553138256072998047e+00,-1.182113409042358398e+00,-1.750857710838317871e+00,-4.434757232666015625e+00,-5.453807830810546875e+00,-4.775036334991455078e+00,-6.082522392272949219e+00,-6.029551506042480469e+00,-6.891613483428955078e+00,-5.292261123657226562e+00,-5.183972835540771484e+00,-2.921658039093017578e+00,-5.268162250518798828e+00,-2.733100891113281250e+00,3.800476491451263428e-01,1.023481726646423340e+00,8.761297464370727539e-01,-4.022604942321777344e+00,-6.386981964111328125e+00,-4.895390033721923828e+00,1.272052884101867676e+00,1.253090240061283112e-02,-2.970670938491821289e+00,-6.300899028778076172e+00,-1.158405113220214844e+01,-2.051441574096679688e+01
9.347792863845825195e-01,-5.950254440307617188e+00,-7.413503170013427734e+00,-7.247618198394775391e+00,-1.267564535140991211e+00,-1.671538591384887695e+00,1.307567834854125977e+00,4.278517246246337891e+00,5.363675594329833984e+00,2.847089529037475586e+00,5.933017730712890625e-01,1.700611591339111328e+00,1.960495114326477051e+00,4.200472354888916016e+00,4.882043838500976562e+00,6.646141529083251953e+00,4.403412818908691406e+00,4.416711807250976562e+00,6.321649998426437378e-02,2.188654899597167969e+00,4.354905128479003906e+00,6.399739742279052734e+00,3.585388183593750000e+00,-9.200347959995269775e-02,-1.573918312788009644e-01,4.730315208435058594e+00,8.110138893127441406e+00,4.382315158843994141e+00,8.571933507919311523e-01,-1.523855328559875488e+00,-2.654973506927490234e+00,-1.703622221946716309e+00
-1.084361648559570312e+01,-1.180913066864013672e+01,-5.343561649322509766e+00,-2.019396543502807617e+00,-5.598812103271484375e+00,-6.198977947235107422e+00,-6.114476680755615234e+00,-3.012294292449951172e+00,-1.429512262344360352e+00,-7.661343216896057129e-01,-3.237414360046386719e+00,-3.388278961181640625e+00,1.610653877258300781e+00,5.067340373992919922e+00,3.067715644836425781e+00,-2.976048290729522705e-01,-2.332190990447998047e+00,4.719341546297073364e-02,6.076332926750183105e-01,-3.958125114440917969e-01,-3.144371271133422852e+00,-6.424718856811523438e+00,-9.127541542053222656e+00,1.004700064659118652e+00,6.185705661773681641e+00,4.525018215179443359e+00,-5.880750656127929688e+00,-7.033379554748535156e+00,-1.083221721649169922e+01,-7.829598426818847656e+00,8.568456023931503296e-02,3.613603115081787109e+00
-1.598672676086425781e+01,-1.978796195983886719e+01,-1.197527217864990234e+01,-8.501148223876953125e+00,-1.361425971984863281e+01,-1.312657165527343750e+01,-8.977945327758789062e+00,-5.769281387329101562e+00,-8.535264968872070312e+00,-7.820708751678466797e+00,-9.799887657165527344e+00,-8.467466354370117188e+00,-4.697164058685302734e+00,-3.522387981414794922e+00,-6.502010822296142578e+00,-1.157380008697509766e+01,-1.076458740234375000e+01,-6.834778785705566406e+00,-6.928606033325195312e-01,-6.575005531311035156e+00,-1.239287853240966797e+01,-1.904984283447265625e+01,-1.596241664886474609e+01,-7.977313041687011719e+00,-4.250239372253417969e+00,-9.542752265930175781e+00,-1.679686927795410156e+01,-1.614027023315429688e+01,-1.992058181762695312e+01,-1.707575988769531250e+01,-1.410349559783935547e+01,-1.857474136352539062e+01
-1.022672080993652344e+01,-1.700865936279296875e+01,-1.585535526275634766e+01,-1.346673870086669922e+01,-1.047090435028076172e+01,-9.725575447082519531e+00,-7.319175243377685547e+00,-5.915132045745849609e+00,-6.874425888061523438e+00,-3.973313331604003906e+00,-5.028131008148193359e+00,-4.185461997985839844e+00,-3.085328340530395508e+00,-4.124444484710693359e+00,-4.002309322357177734e+00,-4.481369495391845703e+00,-1.850370168685913086e+00,-5.694867134094238281e+00,-4.422545909881591797e+00,-9.615108489990234375e+00,-1.083348464965820312e+01,-1.366438388824462891e+01,-9.012116432189941406e+00,-1.429443073272705078e+01,-1.479177570343017578e+01,-1.247462177276611328e+01,-7.101401805877685547e+00,-8.933644294738769531e+00,-1.191299629211425781e+01,-1.201566410064697266e+01,-1.762295532226562500e+01,-2.565544128417968750e+01
-2.984531223773956299e-01,-4.887278556823730469e+00,-1.142644882202148438e+01,-8.914943695068359375e+00,-2.135663747787475586e+00,1.292089819908142090e+00,-2.572393178939819336e+00,-3.679515600204467773e+00,-2.140309095382690430e+00,3.647073030471801758e+00,5.161734104156494141e+00,3.614858388900756836e+00,5.654125690460205078e+00,4.529526233673095703e+00,4.132217407226562500e+00,4.001556396484375000e+00,6.533504009246826172e+00,2.175630092620849609e+00,-1.627221107482910156e+00,-2.275248765945434570e+00,-2.381729483604431152e-01,-6.958001852035522461e-01,-1.964108943939208984e+00,-5.585607051849365234e+00,-7.462717533111572266e+00,-2.508083105087280273e+00,-7.138782143592834473e-01,-3.300756454467773438e+00,-3.042433500289916992e+00,-8.051860332489013672e-01,-3.478560209274291992e+00,-1.353366470336914062e+01
1.915803670883178711e+00,-5.496219635009765625e+00,-1.095061874389648438e+01,-8.458413124084472656e+00,-3.435454607009887695e+00,6.131188571453094482e-02,1.407769441604614258e+00,1.347272157669067383e+00,4.150758683681488037e-01,2.214571714401245117e+00,3.586426258087158203e+00,1.628825545310974121e+00,1.827902793884277344e-01,-3.169005215167999268e-01,-3.729845210909843445e-02,-5.958769917488098145e-01,-1.113238096237182617e+00,2.275214433670043945e+00,2.918618917465209961e+00,1.870657682418823242e+00,4.309214651584625244e-02,-2.416402578353881836e+00,-4.618052959442138672e+00,5.203713178634643555e-01,-3.584013581275939941e-01,-2.469562768936157227e+00,-8.756804466247558594e+00,-8.371699333190917969e+00,-3.704794406890869141e+00,-7.231709957122802734e-01,-2.836892127990722656e+00,-1.376083564758300781e+01
-5.323982715606689453e+00,-1.300205326080322266e+01,-1.043439292907714844e+01,-8.916155815124511719e+00,-5.944518089294433594e+00,-8.567129135131835938e+00,-2.367703437805175781e+00,-1.472700357437133789e+00,-2.157349586486816406e+00,-3.137402296066284180e+00,-2.744328737258911133e+00,-3.955349445343017578e+00,-1.166662406921386719e+01,-1.047687530517578125e+01,-9.513746261596679688e+00,-5.313819885253906250e+00,-6.744036197662353516e+00,-6.465022087097167969e+00,-3.825902938842773438e+00,-6.012993335723876953e+00,-7.984454631805419922e+00,-1.026277351379394531e+01,-7.335822105407714844e+00,-6.610573291778564453e+00,-8.311311721801757812e+00,-1.122745323181152344e+01,-1.041408538818359375e+01,-8.498298645019531250e+00,-4.152229309082031250e+00,-7.245670795440673828e+00,-1.335623455047607422e+01,-1.101356697082519531e+01
-5.266950130462646484e+00,-8.672191619873046875e+00,-5.187088489532470703e+00,-5.685277462005615234e+00,-7.308327674865722656e+00,-9.859866142272949219e+00,-9.822879791259765625e+00,-9.527539253234863281e+00,-8.254652023315429688e+00,-5.957990169525146484e+00,-5.571742534637451172e+00,-5.019990444183349609e+00,-5.769396781921386719e+00,-2.470155239105224609e+00,-1.105507493019104004e+00,-8.928212523460388184e-01,-8.126993179321289062e-01,-4.485203742980957031e+00,-4.476558208465576172e+00,-7.078866958618164062e+00,-6.183158397674560547e+00,-5.513048171997070312e+00,-2.019369125366210938e+00,-4.757221698760986328e+00,-7.675153255462646484e+00,-7.870431423187255859e+00,-3.612511634826660156e+00,-2.046113491058349609e+00,-3.417595624923706055e+00,-8.463280677795410156e+00,-8.794356346130371094e+00,3.833306312561035156e+00
3.648946523666381836e+00,2.546966314315795898e+00,1.452440261840820312e+00,-2.624723434448242188e+00,-6.100186347961425781e+00,-3.416608572006225586e+00,-5.657649993896484375e+00,-5.868649482727050781e+00,-4.914155483245849609e+00,-3.860041379928588867e+00,-4.591410160064697266e+00,-2.070573568344116211e+00,6.410660743713378906e+00,1.036725997924804688e+01,1.029734134674072266e+01,3.099044561386108398e+00,4.477571010589599609e+00,5.881409645080566406e+00,7.035936832427978516e+00,3.601907491683959961e+00,2.727603912353515625e+00,3.804492235183715820e+00,3.207056760787963867e+00,6.051894664764404297e+00,4.810645103454589844e+00,2.500876903533935547e+00,1.888511478900909424e-01,2.958265542984008789e+00,-8.009816706180572510e-02,-4.775431454181671143e-01,6.357542514801025391e+00,5.989993572235107422e+00
4.811566829681396484e+00,3.452039718627929688e+00,2.255761623382568359e+00,-1.229274749755859375e+00,-1.395271778106689453e+00,-2.501886785030364990e-01,8.584819734096527100e-02,-4.250151216983795166e-01,9.825870394706726074e-01,8.433042168617248535e-01,-3.001890145242214203e-02,1.039383649826049805e+00,2.438690423965454102e+00,5.167361259460449219e+00,4.188956737518310547e+00,1.900811314582824707e+00,3.258492708206176758e+00,3.759465217590332031e+00,5.007424831390380859e+00,5.102190971374511719e+00,4.445559978485107422e+00,5.150431632995605469e+00,4.625233650207519531e+00,4.986954212188720703e+00,3.868682861328125000e+00,1.726482629776000977e+00,2.472506046295166016e+00,5.699010848999023438e+00,4.476047515869140625e+00,5.431609630584716797e+00,1.028917217254638672e+01,1.408962607383728027e+00
4.426473081111907959e-01,-1.329651832580566406e+00,-2.215173959732055664e+00,-9.625849127769470215e-01,7.083743214607238770e-01,-1.898027181625366211e+00,-4.988048553466796875e+00,-4.714698314666748047e+00,-1.685704737901687622e-01,2.410304069519042969e+00,8.866216540336608887e-01,-1.908740997314453125e+00,-5.394407749176025391e+00,-7.422809123992919922e+00,-6.035957813262939453e+00,-2.117953777313232422e+00,-3.187206745147705078e+00,-5.761331081390380859e+00,-7.283228397369384766e+00,-4.397675037384033203e+00,3.187824249267578125e+00,7.897650241851806641e+00,6.264241218566894531e+00,2.234423160552978516e+00,-4.588267300277948380e-03,-5.618891119956970215e-02,5.487416744232177734e+00,5.547286510467529297e+00,3.418059349060058594e+00,1.228582620620727539e+00,2.597779273986816406e+00,1.816864252090454102e+00
-5.291215896606445312e+00,-7.282936573028564453e-01,-5.179071426391601562e+00,-2.604499816894531250e+00,-5.153626948595046997e-02,-1.157639145851135254e+00,-8.034283638000488281e+00,-6.684501647949218750e+00,-2.844951391220092773e+00,-2.308096885681152344e+00,-4.864022731781005859e+00,-7.054025650024414062e+00,-3.695471048355102539e+00,-5.774280071258544922e+00,-7.092554092407226562e+00,-1.115482044219970703e+01,-1.176896190643310547e+01,-1.139697456359863281e+01,-1.059984302520751953e+01,-1.326307487487792969e+01,-5.188560962677001953e+00,5.749688744544982910e-01,-1.929176926612854004e+00,-9.314272552728652954e-02,-5.168707966804504395e-01,8.655946850776672363e-01,7.642665505409240723e-01,-5.770443379878997803e-02,-7.520290613174438477e-01,-2.239147663116455078e+00,-5.775785923004150391e+00,-1.520439052581787109e+01
-9.935860633850097656e+00,-7.391270995140075684e-01,-5.171728610992431641e+00,-3.505017995834350586e+00,2.390817403793334961e-01,2.511414289474487305e+00,8.120318651199340820e-01,1.167846679687500000e+00,-2.140717983245849609e+00,-4.853126049041748047e+00,-3.868978023529052734e+00,-2.992880344390869141e+00,-8.325167298316955566e-01,-3.979780435562133789e+00,-5.994496822357177734e+00,-1.181655311584472656e+01,-1.015733051300048828e+01,-1.018707466125488281e+01,-7.664841175079345703e+00,-1.190770816802978516e+01,-1.228646564483642578e+01,-1.145665645599365234e+01,-9.460256576538085938e+00,-5.580411911010742188e+00,-7.164465427398681641e+00,-2.962201595306396484e+00,-6.288346290588378906e+00,-7.645854473114013672e+00,-4.075787544250488281e+00,-1.170634150505065918e+00,-7.925440788269042969e+00,-2.804236602783203125e+01
-6.059430599212646484e+00,-4.487813472747802734e+00,-2.899187564849853516e+00,-1.315568566322326660e+00,3.708842396736145020e-01,2.301445960998535156e+00,8.727690696716308594e+00,8.874066352844238281e+00,3.575962066650390625e+00,2.656920671463012695e+00,5.275487899780273438e+00,4.701809406280517578e+00,8.422033786773681641e-01,-2.736621379852294922e+00,-1.060432791709899902e+00,-1.018552184104919434e+00,-1.526832222938537598e+00,-5.039309501647949219e+00,-2.741578817367553711e+00,-2.760338068008422852e+00,-5.598143577575683594e+00,-8.033612251281738281e+00,-4.984849452972412109e+00,-5.372245311737060547e+00,-8.880398750305175781e+00,-3.143013000488281250e+00,-3.634264230728149414e+00,-6.391353130340576172e+00,-4.928841590881347656e+00,-2.953757047653198242e+00,-4.332802295684814453e+00,7.934118509292602539e-01
-7.238384246826171875e+00,-1.687317466735839844e+01,-1.398462104797363281e+01,-1.028796005249023438e+01,-6.765761852264404297e+00,-7.274900913238525391e+00,-1.927189826965332031e+00,-3.937207758426666260e-01,-1.806671470403671265e-01,1.167557954788208008e+00,-9.918621778488159180e-01,-3.993000268936157227e+00,-1.693118214607238770e+00,8.567039370536804199e-01,2.206340312957763672e+00,-2.509441852569580078e+00,-4.142090797424316406e+00,-4.465861320495605469e+00,-3.434418916702270508e+00,-4.612346172332763672e+00,-6.665488243103027344e+00,-7.425205230712890625e+00,-6.645717144012451172e+00,-1.094787311553955078e+01,-1.010702228546142578e+01,-6.811899662017822266e+00,-5.552261352539062500e+00,-7.583658695220947266e+00,-1.078062057495117188e+01,-1.072081756591796875e+01,-7.821935653686523438e+00,6.241227626800537109e+00
-1.236944484710693359e+01,-1.250774669647216797e+01,-1.023629379272460938e+01,-9.048387527465820312e+00,-7.754348278045654297e+00,-9.874804496765136719e+00,-9.897427558898925781e+00,-7.484646797180175781e+00,-5.406876087188720703e+00,-5.056958198547363281e+00,-9.582534790039062500e+00,-9.927083015441894531e+00,-3.892956256866455078e+00,1.736254453659057617e+00,1.122298240661621094e+00,-7.121238708496093750e+00,-7.460996627807617188e+00,-3.914326190948486328e+00,-4.845988273620605469e+00,-4.705230236053466797e+00,-5.804740905761718750e+00,-6.840814590454101562e+00,-7.883847713470458984e+00,-8.445119857788085938e+00,-3.328089237213134766e+00,-3.325131654739379883e+00,-5.791515350341796875e+00,-6.447271347045898438e+00,-9.155487060546875000e+00,-6.583526134490966797e+00,-7.148386955261230469e+00,-1.828841018676757812e+01
-5.398872852325439453e+00,3.669847249984741211e+00,4.032562255859375000e+00,1.349974274635314941e+00,-9.834637641906738281e-01,-7.828370332717895508e-01,-1.109413385391235352e+00,-4.215433895587921143e-01,-1.313290357589721680e+00,-3.031215667724609375e-01,-2.549318313598632812e+00,-1.531608998775482178e-01,-1.120899796485900879e+00,2.382290601730346680e+00,4.957206726074218750e+00,2.051840782165527344e+00,5.961055159568786621e-01,2.957507371902465820e+00,5.556375980377197266e+00,9.148088455200195312e+00,5.054113864898681641e+00,-1.153135225176811218e-01,-2.036015838384628296e-01,4.991133213043212891e+00,1.319901371002197266e+01,8.420219421386718750e+00,1.447068452835083008e-01,-5.068333148956298828e-01,5.403615236282348633e-01,2.853188037872314453e+00,-3.398387432098388672e-01,-2.022096633911132812e+01
1.837603211402893066e+00,4.731166839599609375e+00,1.641779780387878418e+00,1.939952731132507324e+00,3.097613811492919922e+00,4.404222965240478516e+00,3.482515335083007812e+00,2.114603519439697266e+00,3.435698509216308594e+00,5.611919879913330078e+00,3.255971908569335938e+00,2.097334384918212891e+00,2.335377633571624756e-01,3.252881050109863281e+00,7.280697345733642578e+00,4.723423480987548828e+00,2.941962480545043945e+00,3.909119367599487305e+00,8.448956489562988281e+00,1.203353691101074219e+01,6.830218791961669922e+00,1.514560580253601074e+00,2.196919441223144531e+00,3.920863151550292969e+00,1.199934864044189453e+01,5.653559684753417969e+00,1.215059757232666016e+00,2.224972963333129883e+00,3.992462635040283203e+00,1.672771096229553223e+00,2.235666275024414062e+00,4.324288845062255859e+00
-3.650878906250000000e+00,-1.150371646881103516e+01,-1.590712833404541016e+01,-1.152225780487060547e+01,-3.956603527069091797e+00,-2.276513814926147461e+00,-3.721715927124023438e+00,-3.111095905303955078e+00,1.914289742708206177e-01,2.942363262176513672e+00,-4.371390044689178467e-01,-3.795669317245483398e+00,-8.828631639480590820e-01,2.317744016647338867e+00,1.804706931114196777e+00,-2.402942895889282227e+00,-1.959270238876342773e+00,-3.554132699966430664e+00,-2.409322977066040039e+00,-1.506520032882690430e+00,-1.690658211708068848e+00,-3.862308740615844727e+00,-3.567199468612670898e+00,-6.102743148803710938e+00,-4.933121681213378906e+00,-4.884912014007568359e+00,-2.965407848358154297e+00,-2.719787120819091797e+00,-4.635359764099121094e+00,-7.092208862304687500e+00,-7.613113880157470703e+00,-2.920493602752685547e+00
-5.478631019592285156e+00,-3.078861951828002930e+00,-4.173089981079101562e+00,-4.387537479400634766e+00,-3.387898445129394531e+00,-2.675925493240356445e+00,-2.380924463272094727e+00,-1.879629850387573242e+00,-3.383516311645507812e+00,-2.728048086166381836e+00,-2.268193483352661133e+00,-2.025569915771484375e+00,-1.481345534324645996e+00,-1.921609044075012207e+00,-5.283118247985839844e+00,-4.815326690673828125e+00,-5.203639030456542969e+00,-6.286683082580566406e+00,-9.188278198242187500e+00,-6.431725978851318359e+00,-4.315660476684570312e+00,-2.774953603744506836e+00,-2.638423442840576172e+00,-1.221042990684509277e+00,-3.192722558975219727e+00,-1.550872206687927246e+00,-2.388883352279663086e+00,-2.629076004028320312e+00,-3.034437894821166992e+00,-1.613004565238952637e+00,-2.740702867507934570e+00,5.046822547912597656e+00
1.168720006942749023e+00,1.450098323822021484e+01,1.726735687255859375e+01,1.368786239624023438e+01,5.990177154541015625e+00,3.514652967453002930e+00,1.946270227432250977e+00,2.596085786819458008e+00,1.904602766036987305e+00,-1.913874745368957520e+00,-1.558594226837158203e+00,-2.299205660820007324e-01,-7.160007953643798828e-01,-2.023485660552978516e+00,-4.849067687988281250e+00,-3.270545482635498047e+00,-4.619876861572265625e+00,-3.729624986648559570e+00,-6.606413841247558594e+00,-1.175238370895385742e+00,2.803345441818237305e+00,5.717820644378662109e+00,3.817807912826538086e+00,1.022006320953369141e+01,8.970400810241699219e+00,7.269108772277832031e+00,3.765722036361694336e+00,4.988313674926757812e+00,6.982023715972900391e+00,6.578958988189697266e+00,7.976354598999023438e+00,1.922768020629882812e+01
1.469752979278564453e+01,3.095977592468261719e+01,3.334697341918945312e+01,2.890948104858398438e+01,1.892913436889648438e+01,1.924133110046386719e+01,1.672996139526367188e+01,1.187167739868164062e+01,1.015449428558349609e+01,7.952404022216796875e+00,1.277139854431152344e+01,1.389401054382324219e+01,1.429935550689697266e+01,1.009089183807373047e+01,3.896271705627441406e+00,5.407234191894531250e+00,7.833992958068847656e+00,4.893131256103515625e+00,4.706217944622039795e-01,3.738819837570190430e+00,1.092464447021484375e+01,1.836131095886230469e+01,1.722606277465820312e+01,1.527589416503906250e+01,7.629938125610351562e+00,1.112872028350830078e+01,1.639688873291015625e+01,1.878419876098632812e+01,2.113197135925292969e+01,1.971316146850585938e+01,2.272284126281738281e+01,3.215172576904296875e+01
1.745801353454589844e+01,3.565863800048828125e+01,4.248495864868164062e+01,3.644166564941406250e+01,2.524463081359863281e+01,2.527215576171875000e+01,2.877806282043457031e+01,1.999540901184082031e+01,1.475235843658447266e+01,1.177346992492675781e+01,1.809856796264648438e+01,2.245297431945800781e+01,2.084590148925781250e+01,1.371701335906982422e+01,6.570709228515625000e+00,1.012717437744140625e+01,1.252834796905517578e+01,9.699924468994140625e+00,2.316206216812133789e+00,5.692264080047607422e+00,1.106412506103515625e+01,2.337185478210449219e+01,2.557443809509277344e+01,1.533422851562500000e+01,5.448872566223144531e+00,1.406720924377441406e+01,2.433324050903320312e+01,2.581973266601562500e+01,2.681636619567871094e+01,2.821625900268554688e+01,3.793148803710937500e+01,6.526587677001953125e+01
-2.088278532028198242e+00,2.659252166748046875e+01,3.870607757568359375e+01,3.254699325561523438e+01,1.723938941955566406e+01,1.286080360412597656e+01,1.570773029327392578e+01,1.186037731170654297e+01,1.094305133819580078e+01,3.957206010818481445e+00,7.454356670379638672e+00,1.029461383819580078e+01,9.575076103210449219e+00,2.874622583389282227e+00,-3.034809589385986328e+00,-1.189991474151611328e+00,3.834221363067626953e-01,-1.684740662574768066e+00,-5.925137996673583984e+00,-2.157758474349975586e+00,8.662739396095275879e-02,8.965983390808105469e+00,1.118678474426269531e+01,7.275139331817626953e+00,3.782004594802856445e+00,9.633336067199707031e+00,1.239731788635253906e+01,1.190729618072509766e+01,1.728106498718261719e+01,1.775662422180175781e+01,2.074540710449218750e+01,4.494351959228515625e+01
-9.390263557434082031e+00,1.477923107147216797e+01,1.684373474121093750e+01,1.543773841857910156e+01,1.052280616760253906e+01,7.447141170501708984e+00,3.613733291625976562e+00,1.860769987106323242e+00,3.957357883453369141e+00,-4.178309738636016846e-01,-1.197222113609313965e+00,-3.808422088623046875e-01,2.556058168411254883e-01,-3.627666711807250977e+00,-6.971828937530517578e+00,-6.725672245025634766e+00,-4.708023071289062500e+00,-1.178534317016601562e+01,-1.274068164825439453e+01,-9.378791809082031250e+00,-6.200001716613769531e+00,-2.665760815143585205e-01,3.397204399108886719e+00,-2.241065740585327148e+00,-5.502337932586669922e+00,1.244307398796081543e+00,5.639198303222656250e+00,5.270156860351562500e+00,1.024565124511718750e+01,1.020170307159423828e+01,9.722070693969726562e+00,2.173065757751464844e+01
6.257318019866943359e+00,1.620826911926269531e+01,1.082035255432128906e+01,8.890179634094238281e+00,8.518035888671875000e+00,1.141967296600341797e+01,9.044073104858398438e+00,6.391200542449951172e+00,4.847308158874511719e+00,7.146510124206542969e+00,8.000953674316406250e+00,1.075481224060058594e+01,9.183021545410156250e+00,5.450050830841064453e+00,3.037114143371582031e+00,9.353617429733276367e-01,3.551014661788940430e+00,-2.846384525299072266e+00,-2.333069801330566406e+00,-9.195477366447448730e-01,-1.138795256614685059e+00,5.048104763031005859e+00,1.046421623229980469e+01,3.123724222183227539e+00,-2.472505807876586914e+00,5.075059413909912109e+00,1.086273765563964844e+01,1.368518829345703125e+01,1.250229454040527344e+01,1.318320465087890625e+01,1.708893013000488281e+01,1.757316207885742188e+01
1.855402183532714844e+01,3.417198562622070312e+01,4.408587265014648438e+01,3.709729385375976562e+01,1.877875328063964844e+01,1.786539077758789062e+01,1.790142250061035156e+01,1.406286716461181641e+01,1.058365440368652344e+01,1.094165325164794922e+01,1.452055072784423828e+01,1.375924587249755859e+01,1.201717472076416016e+01,1.401364421844482422e+01,1.123670482635498047e+01,5.267451286315917969e+00,1.753506779670715332e+00,7.109673023223876953e+00,9.999909400939941406e+00,8.894967079162597656e+00,5.309881210327148438e+00,8.734710693359375000e+00,1.156547164916992188e+01,1.632419586181640625e+01,1.313645172119140625e+01,1.438685989379882812e+01,1.259103870391845703e+01,1.765230941772460938e+01,1.894087600708007812e+01,1.729723739624023438e+01,2.245462226867675781e+01,5.008134460449218750e+01
1.326397800445556641e+01,2.527809715270996094e+01,3.263087844848632812e+01,2.878852462768554688e+01,1.671238708496093750e+01,1.443174266815185547e+01,1.338613224029541016e+01,1.139334678649902344e+01,1.066985607147216797e+01,6.208389282226562500e+00,8.699995040893554688e+00,5.678419113159179688e+00,5.038461685180664062e+00,7.668180942535400391e+00,7.911417007446289062e+00,4.591135978698730469e+00,-2.784534692764282227e+00,3.640165090560913086e+00,5.715258598327636719e+00,8.632070541381835938e+00,9.002264022827148438e+00,9.924841880798339844e+00,7.697446823120117188e+00,1.457562828063964844e+01,1.534351253509521484e+01,1.390321254730224609e+01,1.047477626800537109e+01,1.081950378417968750e+01,1.360322856903076172e+01,7.418392658233642578e+00,6.671384811401367188e+00,3.718498992919921875e+01
8.846870422363281250e+00,1.649502372741699219e+01,1.041497898101806641e+01,6.293628692626953125e+00,5.991414546966552734e+00,1.033975315093994141e+01,1.092390537261962891e+01,8.001695632934570312e+00,7.979281425476074219e+00,4.403983592987060547e+00,6.337501049041748047e+00,6.206954479217529297e+00,3.089738130569458008e+00,1.494846463203430176e+00,4.154617786407470703e+00,8.227228164672851562e+00,5.465654373168945312e+00,3.685286283493041992e+00,5.290426015853881836e-01,5.435700416564941406e+00,9.792805671691894531e+00,1.137691116333007812e+01,6.748195648193359375e+00,6.545249938964843750e+00,1.122834300994873047e+01,9.021094322204589844e+00,7.827285289764404297e+00,5.567771911621093750e+00,7.130157947540283203e+00,5.190237045288085938e+00,6.239925861358642578e+00,1.514220142364501953e+01
5.217066287994384766e+00,-1.029773235321044922e+00,-5.173656344413757324e-01,-3.447695970535278320e-01,1.882445931434631348e+00,8.602485060691833496e-01,1.431696295738220215e+00,-3.618892133235931396e-01,-8.352233767509460449e-01,-3.596311211585998535e-01,-3.933026492595672607e-01,3.428166389465332031e+00,2.467199802398681641e+00,1.337230801582336426e+00,3.281209230422973633e+00,7.766835689544677734e+00,1.012550640106201172e+01,9.536186218261718750e+00,5.620300292968750000e+00,6.333674430847167969e+00,8.375041961669921875e+00,7.267904758453369141e+00,3.724854469299316406e+00,3.317204236984252930e+00,7.132942676544189453e+00,6.431565284729003906e-01,-4.493231475353240967e-01,1.733198404312133789e+00,2.460521221160888672e+00,9.516082763671875000e+00,1.310004520416259766e+01,-3.813933372497558594e+00
-2.033095598220825195e+00,-3.451604127883911133e+00,2.037559270858764648e+00,6.029322147369384766e+00,3.262864112854003906e+00,-2.631131172180175781e+00,-7.875233173370361328e+00,-5.545002460479736328e+00,-4.682826519012451172e+00,-4.244150161743164062e+00,-5.524537086486816406e+00,-2.706836700439453125e+00,4.306226968765258789e-02,1.871681332588195801e+00,3.055532217025756836e+00,5.579479336738586426e-01,2.036276817321777344e+00,3.350313425064086914e+00,5.797206878662109375e+00,7.513149261474609375e+00,6.726421356201171875e+00,2.107269525527954102e+00,9.855723381042480469e-01,1.005480408668518066e+00,9.050839543342590332e-01,-4.908156692981719971e-01,1.819447398185729980e+00,2.856713533401489258e+00,3.819691658020019531e+00,4.751682758331298828e+00,4.015342235565185547e+00,6.834027290344238281e+00
-8.622134208679199219e+00,-4.468017578125000000e+00,-5.867205619812011719e+00,-6.208470344543457031e+00,-9.678374290466308594e+00,-7.180684566497802734e+00,-6.086019515991210938e+00,-4.079881668090820312e+00,-3.237720012664794922e+00,-1.720792889595031738e+00,-1.031565546989440918e+00,-3.139715194702148438e+00,2.379853129386901855e-01,1.560941815376281738e+00,2.791820287704467773e+00,-1.272697210311889648e+00,-3.391351699829101562e-01,-3.305453300476074219e+00,-5.363041162490844727e-01,3.482460737228393555e+00,5.054038524627685547e+00,8.089867830276489258e-01,-9.164685606956481934e-01,-5.181990146636962891e+00,-6.046586036682128906e+00,-6.806492805480957031e+00,-1.211463093757629395e+00,-3.181902647018432617e+00,-3.675045490264892578e+00,-1.133705520629882812e+01,-1.328997802734375000e+01,6.474151611328125000e+00
-3.317309141159057617e+00,-5.455641746520996094e+00,-7.339586257934570312e+00,-1.015656852722167969e+01,-7.287220001220703125e+00,-4.749913215637207031e+00,2.175559282302856445e+00,1.765301227569580078e+00,3.166341066360473633e+00,2.969758272171020508e+00,4.971812248229980469e+00,2.627135515213012695e+00,5.112803936004638672e+00,4.587676048278808594e+00,3.184685468673706055e+00,3.497763633728027344e+00,5.333573818206787109e+00,4.057342052459716797e+00,1.762756943702697754e+00,2.625905275344848633e+00,3.917360305786132812e+00,6.141921043395996094e+00,4.804024219512939453e+00,2.193049430847167969e+00,-5.575873255729675293e-01,-6.863163471221923828e+00,-6.533845424652099609e+00,-5.769818305969238281e+00,-4.152273178100585938e+00,-4.482082843780517578e+00,-3.102240085601806641e+00,3.330946862697601318e-01
2.014857530593872070e+00,7.463933467864990234e+00,1.080233860015869141e+01,1.029848384857177734e+01,8.521035194396972656e+00,6.091580390930175781e+00,3.275035619735717773e+00,3.074367046356201172e+00,3.404883146286010742e+00,2.930545091629028320e+00,5.714651107788085938e+00,7.733583450317382812e+00,7.740942001342773438e+00,6.499840736389160156e+00,3.578845024108886719e+00,3.990014553070068359e+00,4.824972629547119141e+00,7.894374847412109375e+00,6.512376308441162109e+00,2.886102199554443359e+00,7.748824954032897949e-01,6.831274986267089844e+00,8.772382736206054688e+00,8.873344421386718750e+00,4.272520542144775391e+00,3.884772062301635742e+00,6.926982402801513672e-01,2.778510808944702148e+00,3.363779067993164062e+00,9.393817901611328125e+00,1.094174385070800781e+01,1.399204063415527344e+01
4.497011899948120117e-01,1.995464324951171875e+00,-9.300367832183837891e-01,1.793342113494873047e+00,2.661392450332641602e+00,4.153021335601806641e+00,-7.497357726097106934e-01,-1.877734899520874023e+00,-4.090279102325439453e+00,-1.069098830223083496e+00,1.210998058319091797e+00,3.744512319564819336e+00,4.294518947601318359e+00,1.739730954170227051e+00,-5.022549629211425781e-01,-4.885340332984924316e-01,1.979314804077148438e+00,2.343950510025024414e+00,1.448642969131469727e+00,-3.459037065505981445e+00,-5.437733650207519531e+00,-1.315325021743774414e+00,1.755728483200073242e+00,-9.859105944633483887e-01,-2.266223430633544922e+00,9.646937847137451172e-01,1.787695884704589844e+00,3.700823307037353516e+00,-1.979850053787231445e+00,-5.603960990905761719e+00,-8.768734931945800781e+00,4.079832077026367188e+00
-5.741842389106750488e-01,-4.469259738922119141e+00,-9.649113655090332031e+00,-8.522564888000488281e+00,-4.497362613677978516e+00,-1.027135968208312988e+00,2.146609067916870117e+00,-4.182243347167968750e-01,-2.851473093032836914e+00,-3.629800558090209961e+00,-3.751302242279052734e+00,-1.296082019805908203e+00,1.085692048072814941e+00,-3.111769914627075195e+00,-5.354959487915039062e+00,-2.300791740417480469e+00,1.844301223754882812e+00,-8.515704870223999023e-01,-4.603945255279541016e+00,-7.324334621429443359e+00,-6.170421123504638672e+00,-2.062617301940917969e+00,-6.420683264732360840e-01,-4.484303474426269531e+00,-5.882292270660400391e+00,-7.698698520660400391e+00,-4.393558502197265625e+00,-1.489825606346130371e+00,-5.314434528350830078e+00,-8.321474075317382812e+00,-9.278985023498535156e+00,-6.913053512573242188e+00
3.623550415039062500e+00,3.428108930587768555e+00,7.811072349548339844e+00,6.449374198913574219e+00,3.206612586975097656e+00,2.516295909881591797e+00,6.595691204071044922e+00,5.381277561187744141e+00,2.865293979644775391e+00,-2.707159757614135742e+00,-8.414888978004455566e-01,2.880345344543457031e+00,5.000009536743164062e-01,-3.082869291305541992e+00,-2.291710376739501953e+00,1.847045660018920898e+00,8.892780542373657227e-01,-1.656478643417358398e+00,-3.210557699203491211e+00,-2.669936180114746094e+00,-6.645410656929016113e-01,2.729410886764526367e+00,3.192827701568603516e+00,-4.410381615161895752e-01,-4.431086540222167969e+00,-4.182609558105468750e+00,1.422453284263610840e+00,3.216726064682006836e+00,5.056735515594482422e+00,6.633802890777587891e+00,1.002285480499267578e+01,9.955725669860839844e+00
7.706835746765136719e+00,2.295330810546875000e+01,2.899948692321777344e+01,2.361051177978515625e+01,1.105575466156005859e+01,9.712627410888671875e+00,7.616104602813720703e+00,6.822217464447021484e+00,7.384738922119140625e+00,4.750428676605224609e+00,6.964491367340087891e+00,5.299112796783447266e+00,7.818822264671325684e-01,2.147149562835693359e+00,4.194865226745605469e+00,4.533945560455322266e+00,9.930480122566223145e-01,7.158944010734558105e-01,2.654056787490844727e+00,3.847429752349853516e+00,4.207283020019531250e+00,4.100344181060791016e+00,2.924470186233520508e+00,1.642121076583862305e+00,3.432655334472656250e+00,8.515136718750000000e+00,1.154947376251220703e+01,1.029676055908203125e+01,1.500802898406982422e+01,1.279462814331054688e+01,1.501032829284667969e+01,2.861844825744628906e+01
1.750782489776611328e+00,6.708132743835449219e+00,4.526524543762207031e+00,3.598693370819091797e+00,4.988861560821533203e+00,3.257549285888671875e+00,-2.386232763528823853e-01,-4.567538797855377197e-01,4.547546386718750000e+00,5.998414039611816406e+00,2.963919401168823242e+00,-2.789046525955200195e+00,-3.830733895301818848e-01,3.794230699539184570e+00,2.439471721649169922e+00,8.891733363270759583e-03,2.417799472808837891e+00,5.907714366912841797e+00,6.439369201660156250e+00,3.703777074813842773e+00,3.836658716201782227e+00,5.424899458885192871e-01,-2.605806589126586914e+00,3.670321464538574219e+00,1.057930755615234375e+01,7.495600700378417969e+00,-1.171199798583984375e+00,-2.173784017562866211e+00,1.602200150489807129e+00,4.501819610595703125e+00,4.573528289794921875e+00,-7.045227527618408203e+00
-1.350049614906311035e+00,-1.006815719604492188e+01,-1.051557540893554688e+01,-5.790139675140380859e+00,1.087501764297485352e+00,-1.636198997497558594e+00,-3.812939405441284180e+00,-2.849241256713867188e+00,-1.689776301383972168e+00,5.792621970176696777e-01,-2.799789428710937500e+00,-3.800100803375244141e+00,-3.343923330307006836e+00,-1.930254697799682617e+00,-2.240697860717773438e+00,-2.663271665573120117e+00,-7.554763555526733398e-01,2.298748970031738281e+00,3.856270074844360352e+00,2.645880699157714844e+00,3.067010879516601562e+00,-2.634124517440795898e+00,-5.106060981750488281e+00,3.827952146530151367e+00,9.324073791503906250e+00,3.010339021682739258e+00,-5.424052715301513672e+00,-6.988244056701660156e+00,-5.093039512634277344e+00,2.039470911026000977e+00,2.950608253479003906e+00,-2.054663467407226562e+01
2.223688840866088867e+00,-1.255971336364746094e+01,-1.632018280029296875e+01,-1.293337249755859375e+01,-6.225298881530761719e+00,-4.547658920288085938e+00,-6.731593608856201172e+00,-6.165266990661621094e+00,-8.168134689331054688e+00,-3.988537549972534180e+00,-3.690674543380737305e+00,-2.386976957321166992e+00,-6.464095592498779297e+00,-4.551479339599609375e+00,1.991760611534118652e+00,2.574441432952880859e+00,-2.143612623214721680e+00,-1.176704645156860352e+00,4.137312412261962891e+00,5.792332649230957031e+00,4.929827690124511719e+00,-3.626839399337768555e+00,-5.442138195037841797e+00,-3.213837623596191406e+00,-4.936368763446807861e-01,-1.342511296272277832e+00,1.694247722625732422e+00,-1.224048733711242676e+00,-1.441286683082580566e+00,-1.369315862655639648e+00,-5.195031642913818359e+00,-1.859300613403320312e+01
2.351124525070190430e+00,-1.509285831451416016e+01,-2.138818740844726562e+01,-2.133167266845703125e+01,-1.222542762756347656e+01,-1.065716266632080078e+01,-9.056837081909179688e+00,-7.633409023284912109e+00,-5.827380180358886719e+00,-4.443363189697265625e+00,-5.529116153717041016e+00,-8.050855636596679688e+00,-4.700272560119628906e+00,1.240322589874267578e+00,8.912240028381347656e+00,3.900658845901489258e+00,1.061172485351562500e-01,1.989207744598388672e+00,9.292188644409179688e+00,8.813993453979492188e+00,7.984519958496093750e+00,-1.031754732131958008e+00,-2.413052558898925781e+00,3.428415656089782715e-01,9.260705113410949707e-01,-3.586533546447753906e+00,-1.832800149917602539e+00,-2.185383558273315430e+00,-4.754817485809326172e+00,-6.766226768493652344e+00,-9.407112121582031250e+00,-2.358128929138183594e+01
1.847749501466751099e-01,-1.216070747375488281e+01,-7.519832134246826172e+00,-7.997653961181640625e+00,-6.868341922760009766e+00,-1.022851562500000000e+01,-2.490608453750610352e+00,8.979578614234924316e-01,8.612849563360214233e-02,-3.494525432586669922e+00,-5.430572032928466797e+00,-6.143632411956787109e+00,-4.854733943939208984e+00,-5.770720243453979492e-01,2.030774354934692383e+00,-2.467368602752685547e+00,-2.184191465377807617e+00,2.529335916042327881e-01,5.410704612731933594e+00,5.729027271270751953e+00,4.488457679748535156e+00,-1.814270973205566406e+00,-1.432967185974121094e+00,8.479310989379882812e+00,9.452025413513183594e+00,1.505642414093017578e+00,-3.107174396514892578e+00,-1.560666918754577637e+00,-7.247027873992919922e+00,-5.931188583374023438e+00,-2.191278696060180664e+00,-1.478933143615722656e+01
-9.444586634635925293e-01,-1.000813674926757812e+01,-6.136261463165283203e+00,-5.384408950805664062e+00,-6.102474689483642578e+00,-6.629667758941650391e+00,-1.594079256057739258e+00,4.428296685218811035e-01,-3.038378000259399414e+00,-4.020060539245605469e+00,-4.004909038543701172e+00,-2.206234931945800781e+00,-8.999698638916015625e+00,-8.576188087463378906e+00,-7.691007614135742188e+00,-4.436337471008300781e+00,-5.032426834106445312e+00,-3.973021507263183594e+00,-3.132225036621093750e+00,-1.726803183555603027e+00,-3.997317314147949219e+00,-7.496633529663085938e+00,-6.523808479309082031e+00,-6.992757320404052734e-01,2.016885995864868164e+00,-1.057125702500343323e-01,-1.891094923019409180e+00,-1.820608258247375488e+00,-7.579795360565185547e+00,-8.711813926696777344e+00,-9.206762313842773438e+00,-1.365838050842285156e+01
-1.401643753051757812e-01,-9.550871849060058594e+00,-1.518772220611572266e+01,-1.375664710998535156e+01,-8.906408309936523438e+00,-6.025272369384765625e+00,-8.825377464294433594e+00,-9.129395484924316406e+00,-7.082555294036865234e+00,-4.336061477661132812e+00,-3.883311033248901367e+00,-5.445262908935546875e+00,-3.500311374664306641e+00,-3.257339477539062500e+00,-2.144522428512573242e+00,-1.501149058341979980e+00,4.422641098499298096e-01,7.034903764724731445e-01,-1.232857942581176758e+00,-2.825249433517456055e+00,-6.425119876861572266e+00,-6.813633918762207031e+00,-5.776483535766601562e+00,-9.814768791198730469e+00,-1.024218940734863281e+01,-9.848386764526367188e+00,-7.165126800537109375e+00,-6.730843067169189453e+00,-8.242955207824707031e+00,-1.111016654968261719e+01,-1.566858291625976562e+01,-1.499454689025878906e+01
3.451672315597534180e+00,-5.564398288726806641e+00,-6.766993522644042969e+00,-4.354766845703125000e+00,-3.427807092666625977e+00,-3.054070711135864258e+00,-5.615451812744140625e+00,-5.080817222595214844e+00,-3.137229681015014648e+00,-1.852779388427734375e+00,-1.583912253379821777e+00,-3.291392326354980469e+00,5.448113441467285156e+00,4.059024810791015625e+00,3.304630994796752930e+00,7.710884213447570801e-01,8.114263534545898438e+00,7.495213031768798828e+00,2.167943954467773438e+00,5.421465262770652771e-02,-2.148801565170288086e+00,1.385561704635620117e+00,3.077270269393920898e+00,-3.623826265335083008e+00,-8.632434844970703125e+00,-9.780462265014648438e+00,-5.424461364746093750e+00,-4.506145000457763672e+00,-6.107205867767333984e+00,-6.284871101379394531e+00,-6.797858238220214844e+00,-6.781353473663330078e+00
4.992930412292480469e+00,-4.024308681488037109e+00,2.908352315425872803e-01,2.869324922561645508e+00,2.916289865970611572e-01,-7.348256111145019531e-01,4.683285951614379883e-01,1.829849839210510254e+00,-1.772400923073291779e-02,7.320065498352050781e-01,1.004704594612121582e+00,2.332844972610473633e+00,1.543580174446105957e+00,-1.324184775352478027e+00,-3.736670017242431641e+00,4.269654750823974609e-01,4.368056774139404297e+00,5.958993434906005859e+00,-3.058957755565643311e-01,-4.653946161270141602e-01,-4.002576693892478943e-02,2.864809989929199219e+00,2.538225412368774414e+00,2.678402900695800781e+00,2.707981348037719727e+00,2.515957832336425781e+00,2.641032695770263672e+00,1.525910615921020508e+00,-2.795048236846923828e+00,-3.985598802566528320e+00,-3.769150018692016602e+00,-7.939459800720214844e+00
-3.287317514419555664e+00,-8.403256416320800781e+00,-1.065609931945800781e+01,-8.146183013916015625e+00,-4.389581680297851562e+00,-3.922292947769165039e+00,-6.342316150665283203e+00,-4.695628166198730469e+00,-3.118185281753540039e+00,-6.436201333999633789e-01,-2.703321695327758789e+00,-3.359961748123168945e+00,-6.550036907196044922e+00,-3.678443908691406250e+00,-4.606886863708496094e+00,-2.152954101562500000e+00,-4.061310768127441406e+00,3.919353783130645752e-01,-7.518040537834167480e-01,-2.330233335494995117e+00,-4.346484661102294922e+00,-6.329887866973876953e+00,-6.808190345764160156e+00,-2.912645339965820312e+00,1.306442260742187500e+00,7.825118303298950195e-01,-4.212037086486816406e+00,-6.114521503448486328e+00,-8.439965248107910156e+00,-9.380447387695312500e+00,-9.609793663024902344e+00,-1.030663490295410156e+01
-1.052016925811767578e+01,-1.018611431121826172e+01,-1.739859199523925781e+01,-1.359167098999023438e+01,-5.369687557220458984e+00,-4.204250335693359375e+00,-9.807544708251953125e+00,-7.802591800689697266e+00,-5.468231678009033203e+00,-2.657177925109863281e+00,-5.590584754943847656e+00,-8.241101264953613281e+00,-4.528692245483398438e+00,-7.889609336853027344e-01,7.474474906921386719e-01,-4.128347396850585938e+00,-6.051133632659912109e+00,-4.516164779663085938e+00,-1.773116827011108398e+00,-4.625530242919921875e+00,-7.957999229431152344e+00,-1.100249862670898438e+01,-9.121340751647949219e+00,-1.079292678833007812e+01,-9.812132835388183594e+00,-8.811414718627929688e+00,-8.665454864501953125e+00,-1.238431167602539062e+01,-1.127821159362792969e+01,-9.214717864990234375e+00,-9.628841400146484375e+00,-1.357404994964599609e+01
-9.262040138244628906e+00,-9.981389045715332031e+00,-1.338372421264648438e+01,-1.085787582397460938e+01,-6.267171859741210938e+00,-6.120738506317138672e+00,-5.030603885650634766e+00,-1.785159945487976074e+00,-2.088517189025878906e+00,-1.655760407447814941e+00,-4.454470157623291016e+00,-5.409291744232177734e+00,-5.665211677551269531e+00,-6.680902004241943359e+00,-4.602714061737060547e+00,-2.828728199005126953e+00,-4.733497619628906250e+00,-6.888050079345703125e+00,-6.206488132476806641e+00,-5.340202331542968750e+00,-4.803670406341552734e+00,-6.201260089874267578e+00,-6.136435985565185547e+00,-1.033271789550781250e+01,-1.062784957885742188e+01,-6.963396549224853516e+00,-1.106046915054321289e+00,-5.443101406097412109e+00,-5.090371608734130859e+00,-4.773986339569091797e+00,-7.033351421356201172e+00,-2.135842514038085938e+01
-1.094809055328369141e+01,-1.318461799621582031e+01,-1.176380157470703125e+01,-1.237028026580810547e+01,-1.151616573333740234e+01,-1.300821208953857422e+01,-9.089920043945312500e+00,-4.853890419006347656e+00,-1.370629191398620605e+00,-1.450182080268859863e+00,-5.126290798187255859e+00,-4.703258991241455078e+00,-9.664182662963867188e+00,-7.520169734954833984e+00,-7.580436706542968750e+00,-1.833481788635253906e+00,-5.628379821777343750e+00,-5.648645401000976562e+00,-3.723284482955932617e+00,-2.084406137466430664e+00,-5.092949271202087402e-01,-3.800033092498779297e+00,-6.141469478607177734e+00,-4.528411865234375000e+00,-2.492079257965087891e+00,-2.336853981018066406e+00,-3.784318447113037109e+00,-4.841831684112548828e+00,-4.878372669219970703e+00,-5.456530094146728516e+00,-6.244432926177978516e+00,-1.859567451477050781e+01
-1.393504142761230469e+01,-1.197061443328857422e+01,-1.047921848297119141e+01,-1.150854492187500000e+01,-1.131202125549316406e+01,-1.110769557952880859e+01,-1.257851982116699219e+01,-1.073594093322753906e+01,-6.665492534637451172e+00,-2.865803480148315430e+00,-5.096494674682617188e+00,-4.978614330291748047e+00,-3.048647403717041016e+00,3.111918568611145020e-01,-1.859362959861755371e+00,-2.877198457717895508e+00,-4.503704547882080078e+00,-5.210354328155517578e+00,-2.922867298126220703e+00,-3.285219669342041016e+00,-2.883978843688964844e+00,-5.371029376983642578e+00,-7.333669662475585938e+00,-4.491560459136962891e+00,-2.321161270141601562e+00,-3.863594532012939453e+00,-1.024337673187255859e+01,-1.091686344146728516e+01,-9.412658691406250000e+00,-7.472132205963134766e+00,-5.871513366699218750e+00,-1.248006439208984375e+01
-7.239766120910644531e+00,-3.675562858581542969e+00,-3.492001771926879883e+00,-3.365515470504760742e+00,-3.865879297256469727e+00,-3.254779100418090820e+00,-5.015427112579345703e+00,-6.367792606353759766e+00,-7.299140453338623047e+00,-2.969518899917602539e+00,-1.502450823783874512e+00,-1.471783161163330078e+00,3.111768484115600586e+00,1.005714535713195801e+00,-1.299002408981323242e+00,-3.195538282394409180e+00,-1.374226093292236328e+00,-5.437629222869873047e+00,-9.406151771545410156e+00,-7.683704376220703125e+00,-4.243139743804931641e+00,-5.778969526290893555e-01,-2.883421897888183594e+00,-5.467586994171142578e+00,-6.901963710784912109e+00,-5.910128593444824219e+00,-4.761473178863525391e+00,-4.940640449523925781e+00,-4.929898738861083984e+00,-5.078526496887207031e+00,-4.183458328247070312e+00,-5.917916297912597656e+00
3.110965490341186523e+00,6.896171092987060547e+00,7.137866020202636719e+00,7.031378746032714844e+00,7.322399616241455078e+00,5.306630611419677734e+00,6.173994064331054688e+00,3.067287445068359375e+00,6.003555059432983398e-01,-8.668517321348190308e-02,3.596044063568115234e+00,5.100514411926269531e+00,5.545835018157958984e+00,1.157853484153747559e+00,-1.288633584976196289e+00,2.187893390655517578e-01,2.342656135559082031e+00,-3.525152802467346191e-01,-4.022518157958984375e+00,-2.603983402252197266e+00,1.444388747215270996e+00,6.440668582916259766e+00,5.998378276824951172e+00,2.580638885498046875e+00,-2.817198753356933594e+00,-2.305831193923950195e+00,2.052432537078857422e+00,6.793870925903320312e+00,6.593471050262451172e+00,3.742564439773559570e+00,3.103170871734619141e+00,8.430401802062988281e+00
4.745022058486938477e-01,6.115730285644531250e+00,8.155833244323730469e+00,9.024134635925292969e+00,8.938549041748046875e+00,7.575650215148925781e+00,8.889288902282714844e+00,8.565848350524902344e+00,6.978372097015380859e+00,4.279165267944335938e+00,5.537693977355957031e+00,5.940192222595214844e+00,5.232758045196533203e+00,4.338952541351318359e+00,4.638175010681152344e+00,3.588276863098144531e+00,3.015144348144531250e+00,7.297693490982055664e-01,5.169340610504150391e+00,2.509606599807739258e+00,8.732780218124389648e-01,-7.467962503433227539e-01,2.412087202072143555e+00,1.934547662734985352e+00,-3.432568861171603203e-03,1.373269438743591309e+00,8.135209083557128906e-01,3.754750013351440430e+00,5.358788013458251953e+00,3.934277534484863281e+00,1.217391610145568848e+00,6.294372558593750000e+00
-6.327220439910888672e+00,-1.296192765235900879e+00,-2.015938423573970795e-02,1.561096072196960449e+00,-4.954942762851715088e-01,2.685247182846069336e+00,5.129137516021728516e+00,6.661194801330566406e+00,4.884296894073486328e+00,3.349617958068847656e+00,1.803444623947143555e+00,-2.498378753662109375e+00,-2.698905706405639648e+00,1.997159570455551147e-01,1.983250617980957031e+00,-2.184340238571166992e+00,-5.489879608154296875e+00,-7.581021308898925781e+00,-5.516056060791015625e+00,-5.850662231445312500e+00,-7.632316112518310547e+00,-8.023733139038085938e+00,-5.761060714721679688e+00,-6.962588787078857422e+00,-5.814147472381591797e+00,-3.162595629692077637e-01,5.541315078735351562e-01,-3.307524204254150391e+00,-1.914805054664611816e+00,-4.048343896865844727e-01,-2.367697954177856445e+00,-7.082573413848876953e+00
-4.643136978149414062e+00,-4.535671234130859375e+00,-4.688739776611328125e+00,-3.735098361968994141e+00,-4.551795005798339844e+00,-1.397171974182128906e+00,1.862094998359680176e+00,2.135764837265014648e+00,9.712231159210205078e-01,-2.398871898651123047e+00,-3.145381927490234375e+00,-6.994050025939941406e+00,-5.333232879638671875e+00,-1.953137516975402832e+00,-4.993810176849365234e+00,-9.922741889953613281e+00,-1.224835586547851562e+01,-9.488069534301757812e+00,-1.367782592773437500e+01,-9.619036674499511719e+00,-8.643204689025878906e+00,-4.545249462127685547e+00,-4.655700206756591797e+00,-5.368218421936035156e+00,-4.718339920043945312e+00,-4.656570255756378174e-01,1.124721527099609375e+00,-2.257224559783935547e+00,-2.738930463790893555e+00,1.416082739830017090e+00,4.122304916381835938e+00,2.053184747695922852e+00
1.615990281105041504e+00,4.306648731231689453e+00,3.620552539825439453e+00,3.083096265792846680e+00,4.782870769500732422e+00,5.909965515136718750e+00,6.562067508697509766e+00,4.161886215209960938e+00,3.445953607559204102e+00,-1.106552600860595703e+00,7.400122880935668945e-01,1.184308767318725586e+00,2.360768795013427734e+00,7.609282135963439941e-01,-4.155523300170898438e+00,-5.158426284790039062e+00,-4.615903854370117188e+00,-2.981128931045532227e+00,-4.351890087127685547e+00,-1.947036623954772949e+00,-3.049161434173583984e+00,-1.140222191810607910e+00,1.164603698998689651e-02,2.857258558273315430e+00,3.643972635269165039e+00,4.917503833770751953e+00,1.456512510776519775e-01,2.702499389648437500e+00,4.209015369415283203e+00,8.064239501953125000e+00,9.438859939575195312e+00,1.754962348937988281e+01
6.216123580932617188e+00,1.253304481506347656e+01,9.916669845581054688e+00,7.647648334503173828e+00,9.736027717590332031e+00,1.032348823547363281e+01,9.916604995727539062e+00,7.554726123809814453e+00,7.302127361297607422e+00,2.951650619506835938e+00,3.604589939117431641e+00,3.509144544601440430e+00,6.757468730211257935e-02,-4.096311569213867188e+00,-4.444625854492187500e+00,-1.042369246482849121e+00,-2.033959150314331055e+00,-6.351444721221923828e+00,-3.265881299972534180e+00,-3.620238304138183594e+00,-5.148868083953857422e+00,-3.337162017822265625e+00,-5.166448950767517090e-01,2.741351366043090820e+00,3.333602905273437500e+00,6.243587017059326172e+00,-3.518395125865936279e-02,3.501797914505004883e+00,8.385871887207031250e+00,1.004127788543701172e+01,6.580000877380371094e+00,1.368285751342773438e+01
8.959931373596191406e+00,1.100030899047851562e+01,6.044477462768554688e+00,1.969602704048156738e+00,4.326560020446777344e+00,4.813059806823730469e+00,5.693094253540039062e+00,4.566343784332275391e+00,5.356067657470703125e+00,-6.023405194282531738e-01,-1.224975228309631348e+00,-1.424022674560546875e+00,-6.145223617553710938e+00,-7.674047470092773438e+00,-6.939635753631591797e+00,-4.824042797088623047e+00,-7.863236904144287109e+00,-1.072111606597900391e+01,-1.130918502807617188e+01,-1.088812637329101562e+01,-7.914827346801757812e+00,-3.399465978145599365e-02,2.081779718399047852e+00,1.453750491142272949e+00,-1.428034663200378418e+00,2.396829843521118164e+00,2.998861074447631836e+00,4.025254249572753906e+00,7.224164962768554688e+00,7.685485839843750000e+00,6.087166309356689453e+00,8.537979125976562500e+00
1.029593849182128906e+01,8.583457946777343750e+00,5.274734973907470703e+00,3.531495630741119385e-01,1.112160444259643555e+00,2.745033979415893555e+00,3.065216779708862305e+00,1.983061909675598145e+00,2.583646535873413086e+00,-1.529035568237304688e+00,-8.176308870315551758e-02,3.937647104263305664e+00,8.017891645431518555e-01,-2.843250513076782227e+00,-3.739760160446166992e+00,-2.276803016662597656e+00,-2.585866212844848633e+00,-2.921248435974121094e+00,-6.342326641082763672e+00,-3.794515371322631836e+00,-2.925375699996948242e-01,7.299110412597656250e+00,9.787597656250000000e+00,5.358817577362060547e+00,-5.255198478698730469e-01,2.239337205886840820e+00,6.566643238067626953e+00,8.995100021362304688e+00,9.241962432861328125e+00,6.030473232269287109e+00,2.790096521377563477e+00,7.246106624603271484e+00
8.246529579162597656e+00,3.063448190689086914e+00,3.329352617263793945e+00,7.254823446273803711e-01,-8.522948622703552246e-01,5.149984955787658691e-01,5.069509744644165039e-01,6.863767504692077637e-01,9.428728818893432617e-01,2.611631870269775391e+00,3.910887002944946289e+00,8.547463417053222656e+00,5.434195518493652344e+00,1.360633850097656250e+00,3.558543205261230469e+00,6.084331989288330078e+00,6.718126773834228516e+00,3.783124685287475586e+00,4.880729675292968750e+00,5.082863330841064453e+00,4.050984859466552734e+00,5.112465858459472656e+00,9.064049720764160156e+00,2.724043846130371094e+00,-1.830690741539001465e+00,8.972328305244445801e-01,3.615638017654418945e+00,6.920513629913330078e+00,6.718854904174804688e+00,9.989797323942184448e-02,-8.361841201782226562e+00,-7.119804620742797852e-01
4.216730594635009766e+00,-1.394447684288024902e+00,-1.607302665710449219e+00,-8.454908728599548340e-01,-1.483379840850830078e+00,-2.523286581039428711e+00,-3.328078985214233398e+00,-2.587779045104980469e+00,-2.224776744842529297e+00,1.845339298248291016e+00,2.246228218078613281e+00,3.860849380493164062e+00,1.854411959648132324e+00,3.714726209640502930e+00,5.888899803161621094e+00,4.784456729888916016e+00,2.586925029754638672e+00,8.799102902412414551e-01,3.354286432266235352e+00,2.449934959411621094e+00,4.823366701602935791e-01,4.030708372592926025e-01,2.179733514785766602e+00,-2.815680742263793945e+00,-4.538804531097412109e+00,-2.206463336944580078e+00,-4.941499829292297363e-01,-1.186932563781738281e+00,-1.177673935890197754e+00,-2.959109783172607422e+00,-4.483528137207031250e+00,3.374902009963989258e+00
-1.768209338188171387e+00,7.889173030853271484e-01,5.739811062812805176e-01,2.632568836212158203e+00,2.080763101577758789e+00,6.582838892936706543e-01,-2.045795679092407227e+00,-3.474759817123413086e+00,-5.602005481719970703e+00,-5.095673561096191406e+00,-1.948299169540405273e+00,6.867962479591369629e-01,7.173929810523986816e-01,1.267081141471862793e+00,-6.587527990341186523e-01,-4.389049530029296875e+00,-5.970790863037109375e+00,-5.239516258239746094e+00,-7.979873180389404297e+00,-6.432296752929687500e+00,-4.454519748687744141e+00,-1.273554682731628418e+00,-3.292757034301757812e+00,-3.419023990631103516e+00,-3.104344606399536133e+00,-2.907864570617675781e+00,-2.442692041397094727e+00,-4.292337417602539062e+00,-4.822472095489501953e+00,-1.305262088775634766e+00,5.514078140258789062e+00,6.111801147460937500e+00
-2.943124294281005859e+00,4.392490863800048828e+00,5.430774211883544922e+00,5.217684745788574219e+00,2.857693672180175781e+00,3.323658943176269531e+00,1.963279843330383301e+00,-9.662296175956726074e-01,-4.367613792419433594e+00,-7.630830764770507812e+00,-3.762595891952514648e+00,5.385044217109680176e-01,9.706156849861145020e-01,-5.857891559600830078e+00,-8.148679733276367188e+00,-6.717802047729492188e+00,-4.386265754699707031e+00,-6.631791114807128906e+00,-1.165909290313720703e+01,-1.103393745422363281e+01,-8.014916419982910156e+00,-2.399854660034179688e+00,-2.221926450729370117e+00,2.375029802322387695e+00,1.423428177833557129e+00,-1.083064556121826172e+00,-3.927878379821777344e+00,-1.397124052047729492e+00,-1.634531855583190918e+00,1.783794164657592773e-01,2.574187278747558594e+00,-4.514270305633544922e+00
3.759919166564941406e+00,7.849021434783935547e+00,7.558045387268066406e+00,5.284049034118652344e+00,2.674278497695922852e+00,3.820167303085327148e+00,2.990097045898437500e+00,1.647459387779235840e+00,9.439881443977355957e-01,1.263174772262573242e+00,1.615344643592834473e+00,2.914481163024902344e+00,2.369416475296020508e+00,-1.624774098396301270e+00,-2.544497489929199219e+00,-1.609008550643920898e+00,1.295421719551086426e+00,9.146440029144287109e-01,3.213998079299926758e-01,-1.451575994491577148e+00,-2.553358793258666992e+00,9.205374717712402344e-01,4.100195884704589844e+00,1.135193252563476562e+01,9.844189643859863281e+00,6.796564579010009766e+00,1.413179516792297363e+00,3.701359748840332031e+00,4.363131523132324219e+00,5.058882236480712891e+00,6.353093624114990234e+00,9.051730155944824219e+00
4.625975608825683594e+00,8.288913726806640625e+00,9.697994232177734375e+00,8.739006996154785156e+00,3.892050981521606445e+00,3.953163623809814453e+00,2.446139603853225708e-01,1.131801724433898926e+00,3.251310825347900391e+00,8.629299163818359375e+00,6.100416660308837891e+00,3.411556243896484375e+00,2.555191755294799805e+00,5.455796718597412109e+00,5.241701602935791016e+00,1.925055384635925293e+00,5.485473871231079102e-01,3.416754245758056641e+00,6.506708145141601562e+00,9.335632324218750000e+00,6.793209075927734375e+00,4.451876163482666016e+00,3.116625070571899414e+00,9.546554565429687500e+00,1.144749355316162109e+01,1.119828033447265625e+01,7.363194465637207031e+00,4.638501167297363281e+00,5.639793395996093750e+00,6.340723514556884766e+00,1.211987113952636719e+01,3.091847419738769531e+01
-7.584055900573730469e+00,-1.742077112197875977e+00,4.559260368347167969e+00,5.611424446105957031e+00,-9.076426625251770020e-01,-3.736884593963623047e+00,-5.945724964141845703e+00,-3.663301467895507812e+00,1.297467797994613647e-01,3.147677898406982422e+00,-7.907135486602783203e-01,-4.108590126037597656e+00,-4.297792434692382812e+00,-2.124045848846435547e+00,-3.657884150743484497e-02,-4.408744871616363525e-01,-4.108767986297607422e+00,-5.314449787139892578e+00,-3.583165168762207031e+00,1.327450394630432129e+00,1.690590381622314453e+00,-2.519807815551757812e+00,-7.129534721374511719e+00,-5.258056163787841797e+00,-2.569173574447631836e+00,1.291071474552154541e-01,6.175095438957214355e-01,-2.523418426513671875e+00,-3.462141990661621094e+00,-3.202821969985961914e+00,-1.308417201042175293e+00,7.059736728668212891e+00
-7.565798759460449219e+00,-5.822693824768066406e+00,-2.532549858093261719e+00,-1.549416184425354004e+00,-2.504673719406127930e+00,-5.477550983428955078e+00,-3.087778091430664062e+00,-1.950670003890991211e+00,-3.442806303501129150e-01,-1.160069108009338379e+00,-3.018172264099121094e+00,-4.614892005920410156e+00,-2.974249124526977539e+00,-7.116424441337585449e-01,4.949962198734283447e-01,4.733934402465820312e-01,-1.125327229499816895e+00,-3.296975135803222656e+00,-3.778890848159790039e+00,-2.871242046356201172e+00,-7.564381957054138184e-01,-1.108279109001159668e+00,-3.105829715728759766e+00,-5.781011104583740234e+00,-7.639599323272705078e+00,-6.587263107299804688e+00,-3.310045957565307617e+00,-2.781997442245483398e+00,-4.626782894134521484e+00,-5.336639881134033203e+00,-7.946685314178466797e+00,-1.352907848358154297e+01
9.258131980895996094e+00,6.252056598663330078e+00,5.409661769866943359e+00,5.361215114593505859e+00,6.793035507202148438e+00,7.084864616394042969e+00,9.556699752807617188e+00,7.842590332031250000e+00,4.960899353027343750e+00,4.822076320648193359e+00,7.399450302124023438e+00,6.972565650939941406e+00,1.115138626098632812e+01,1.503422927856445312e+01,1.245280551910400391e+01,8.646239280700683594e+00,8.945567131042480469e+00,1.065778064727783203e+01,8.454998016357421875e+00,1.084299945831298828e+01,1.364482784271240234e+01,1.608142662048339844e+01,1.265008449554443359e+01,9.554862976074218750e+00,6.032652378082275391e+00,4.772192001342773438e+00,6.932021617889404297e+00,8.187019348144531250e+00,7.901221275329589844e+00,4.138382434844970703e+00,4.115641593933105469e+00,6.410549163818359375e+00
7.714112281799316406e+00,1.232537651062011719e+01,1.563155364990234375e+01,1.466585445404052734e+01,9.893387794494628906e+00,9.002240180969238281e+00,9.057579994201660156e+00,6.582479953765869141e+00,4.900772094726562500e+00,4.041889667510986328e+00,6.225904464721679688e+00,5.437317848205566406e+00,9.223239898681640625e+00,1.073322963714599609e+01,8.523243904113769531e+00,6.281418323516845703e+00,6.754611492156982422e+00,5.259023666381835938e+00,3.409604310989379883e+00,8.245950698852539062e+00,1.228589153289794922e+01,1.361009597778320312e+01,1.040334606170654297e+01,6.861377239227294922e+00,6.719471931457519531e+00,5.410895347595214844e+00,9.002954483032226562e+00,8.088541984558105469e+00,9.325721740722656250e+00,8.112364768981933594e+00,1.216768264770507812e+01,1.815729331970214844e+01
-1.721898913383483887e+00,2.676148414611816406e+00,3.540071487426757812e+00,3.560907840728759766e+00,4.035546779632568359e+00,5.040320754051208496e-01,6.987286806106567383e-01,-4.467285275459289551e-01,-4.575844854116439819e-02,-1.586446046829223633e+00,-9.919332861900329590e-01,-1.671778112649917603e-01,-1.093694210052490234e+00,-3.602879762649536133e+00,-3.458511829376220703e+00,-2.794170081615447998e-01,1.483619332313537598e+00,-4.224045753479003906e+00,-3.499719619750976562e+00,-3.128595352172851562e+00,-5.257682204246520996e-01,3.719695210456848145e-01,1.499047517776489258e+00,-2.354764938354492188e+00,-2.427458286285400391e+00,-2.727331399917602539e+00,2.081645488739013672e+00,1.201797962188720703e+00,1.842500090599060059e+00,6.734329700469970703e+00,1.039373111724853516e+01,1.643084526062011719e+00
9.684993743896484375e+00,1.291193866729736328e+01,9.201499938964843750e+00,8.344428062438964844e+00,1.075909137725830078e+01,9.975140571594238281e+00,8.370625495910644531e+00,6.438880920410156250e+00,4.298313140869140625e+00,1.578789591789245605e+00,4.308828830718994141e+00,7.129279136657714844e+00,5.340639114379882812e+00,2.060536623001098633e+00,2.463775157928466797e+00,3.881955623626708984e+00,6.725884437561035156e+00,5.851251602172851562e+00,6.168536663055419922e+00,4.336542129516601562e+00,5.510282516479492188e+00,8.779469490051269531e+00,9.999939918518066406e+00,9.739873886108398438e+00,6.806360244750976562e+00,6.433946132659912109e+00,7.129854202270507812e+00,1.039894199371337891e+01,1.296505165100097656e+01,1.446015262603759766e+01,1.528680229187011719e+01,1.447800159454345703e+01
1.721458625793457031e+01,2.959914398193359375e+01,3.240638351440429688e+01,2.850318527221679688e+01,1.955884933471679688e+01,2.094222068786621094e+01,1.780727386474609375e+01,1.339192771911621094e+01,1.149434947967529297e+01,8.020787239074707031e+00,1.081861019134521484e+01,1.165815162658691406e+01,1.144197082519531250e+01,1.137790489196777344e+01,1.037760829925537109e+01,8.008334159851074219e+00,7.489437580108642578e+00,1.239200592041015625e+01,1.013187217712402344e+01,1.270611095428466797e+01,1.496871757507324219e+01,1.921284675598144531e+01,1.599184322357177734e+01,2.068329429626464844e+01,1.983395767211914062e+01,1.758764076232910156e+01,1.367823028564453125e+01,1.751642417907714844e+01,2.101208114624023438e+01,1.645790863037109375e+01,1.775874328613281250e+01,3.234762954711914062e+01
8.710670471191406250e+00,2.598087310791015625e+01,3.212457275390625000e+01,2.649891853332519531e+01,1.275656890869140625e+01,1.455208873748779297e+01,1.329742813110351562e+01,9.802970886230468750e+00,9.760987281799316406e+00,9.484012603759765625e+00,1.104879188537597656e+01,1.259350013732910156e+01,1.000190448760986328e+01,9.593857765197753906e+00,8.812744140625000000e+00,9.484216690063476562e+00,6.860995769500732422e+00,1.092538070678710938e+01,8.713973999023437500e+00,1.220283889770507812e+01,1.155945491790771484e+01,1.333739280700683594e+01,1.032684707641601562e+01,1.067612648010253906e+01,1.056774330139160156e+01,1.101095581054687500e+01,1.175560569763183594e+01,1.101742649078369141e+01,1.264485549926757812e+01,1.214393138885498047e+01,1.557996940612792969e+01,2.119086647033691406e+01
8.106582641601562500e+00,1.361435508728027344e+01,1.095081043243408203e+01,8.199193954467773438e+00,7.757491111755371094e+00,8.995020866394042969e+00,8.727375984191894531e+00,5.625471591949462891e+00,2.311285972595214844e+00,1.206773042678833008e+00,4.606166839599609375e+00,9.803521156311035156e+00,8.721951484680175781e+00,4.546981811523437500e+00,5.378794193267822266e+00,6.669540405273437500e+00,8.852736473083496094e+00,8.755642890930175781e+00,8.413031578063964844e+00,5.995607376098632812e+00,3.157343626022338867e+00,3.897843599319458008e+00,6.880336761474609375e+00,7.643771171569824219e-01,-2.986940145492553711e+00,7.340240478515625000e-01,7.624159336090087891e+00,7.954324722290039062e+00,8.146659851074218750e+00,1.057155227661132812e+01,1.356476879119873047e+01,1.831617164611816406e+01
5.924883842468261719e+00,1.046584892272949219e+01,7.227055072784423828e+00,6.213750362396240234e+00,9.426850318908691406e+00,9.024138450622558594e+00,7.823369979858398438e+00,3.979559659957885742e+00,2.556125223636627197e-01,-4.312002182006835938e+00,-9.938677549362182617e-01,2.482354640960693359e+00,5.869068622589111328e+00,1.873533725738525391e+00,1.397428512573242188e+00,1.907546639442443848e+00,6.719880104064941406e+00,5.366056919097900391e+00,3.867684602737426758e+00,-4.428349137306213379e-01,8.408219367265701294e-02,2.434759140014648438e+00,5.161359786987304688e+00,4.126859188079833984e+00,1.374400019645690918e+00,1.000647425651550293e+00,2.386076688766479492e+00,6.666331768035888672e+00,7.695184707641601562e+00,5.584748744964599609e+00,3.680853843688964844e+00,1.376029300689697266e+01
-2.744276285171508789e+00,4.131630420684814453e+00,4.389854907989501953e+00,5.567135334014892578e+00,5.648898124694824219e+00,2.908983469009399414e+00,3.722972571849822998e-01,6.827574372291564941e-01,1.393506050109863281e+00,-8.501117825508117676e-01,-1.412571787834167480e+00,-2.933091402053833008e+00,-4.839193820953369141e+00,-4.154578685760498047e+00,-5.289044380187988281e+00,-3.549351930618286133e+00,-4.446195125579833984e+00,-2.781007289886474609e+00,-4.324434280395507812e+00,-2.591057777404785156e+00,-9.060822427272796631e-03,1.370262384414672852e+00,-6.516661494970321655e-02,4.095479488372802734e+00,5.218741893768310547e+00,1.776699185371398926e+00,-2.076650857925415039e+00,-8.126384615898132324e-01,2.127279758453369141e+00,1.296590924263000488e+00,-2.070370912551879883e+00,-3.087414503097534180e+00
2.664976596832275391e+00,-3.912075519561767578e+00,-1.000079822540283203e+01,-5.294191360473632812e+00,2.786200046539306641e+00,9.902641773223876953e-01,-2.001376867294311523e+00,5.466609597206115723e-01,1.374693274497985840e+00,1.578878045082092285e+00,1.513216644525527954e-01,-2.659238576889038086e+00,-6.373784065246582031e+00,-4.282436370849609375e+00,-5.053057670593261719e+00,-5.938756942749023438e+00,-8.593514442443847656e+00,-6.554387092590332031e+00,-5.937686920166015625e+00,-1.198929905891418457e+00,1.733202695846557617e+00,2.235856294631958008e+00,-3.942851722240447998e-01,6.656348705291748047e-01,1.007022976875305176e+00,-3.254169225692749023e-01,-1.604867815971374512e+00,-1.433928847312927246e+00,1.001148581504821777e+00,3.963237524032592773e+00,5.793633460998535156e+00,4.502844810485839844e+00
5.791739940643310547e+00,-3.932774305343627930e+00,-7.806991100311279297e+00,-5.981718540191650391e+00,8.304536342620849609e-01,-1.564384698867797852e+00,-1.006090715527534485e-01,1.443900346755981445e+00,2.313319683074951172e+00,-5.807796716690063477e-01,-8.670187592506408691e-01,-2.855936050415039062e+00,8.154659271240234375e-01,6.332521140575408936e-02,1.732371211051940918e+00,-2.591717839241027832e-01,2.280429840087890625e+00,-1.963640004396438599e-01,1.448335051536560059e+00,1.843600392341613770e+00,5.561222076416015625e+00,5.325084209442138672e+00,3.594381809234619141e+00,1.679211497306823730e+00,2.876658737659454346e-01,1.392179429531097412e-01,1.544947862625122070e+00,3.988375186920166016e+00,3.110660791397094727e+00,3.946822404861450195e+00,8.393353462219238281e+00,1.828392410278320312e+01
-5.540376663208007812e+00,2.029640913009643555e+00,6.403619289398193359e+00,3.659003019332885742e+00,-1.838679790496826172e+00,-2.431642532348632812e+00,-1.494856238365173340e+00,-2.543248891830444336e+00,-9.943858385086059570e-01,-2.533742189407348633e+00,-4.147272109985351562e+00,-5.734990596771240234e+00,-2.010017395019531250e+00,-2.922982215881347656e+00,-2.219807863235473633e+00,-1.671786069869995117e+00,2.718198299407958984e+00,7.696073651313781738e-01,2.605098247528076172e+00,8.955839276313781738e-01,3.704242467880249023e+00,1.747276663780212402e+00,2.289052724838256836e+00,-2.712842226028442383e+00,-4.435775279998779297e+00,-5.371174335479736328e+00,-3.650973737239837646e-01,1.157043695449829102e+00,-3.166049122810363770e-01,-1.796788811683654785e+00,-1.225934267044067383e+00,-7.719778418540954590e-01
-1.015699195861816406e+01,-4.643094539642333984e-01,-1.836962252855300903e-01,3.878451883792877197e-01,-3.362771034240722656e+00,-3.105307817459106445e-01,-4.940279960632324219e+00,-4.908945560455322266e+00,-4.902552127838134766e+00,-3.163897514343261719e+00,-5.817475318908691406e+00,-6.029898643493652344e+00,-6.819081783294677734e+00,-6.127794265747070312e+00,-7.895148754119873047e+00,-6.214448451995849609e+00,-5.907082557678222656e+00,-3.974456787109375000e+00,-3.011016607284545898e+00,-2.205159425735473633e+00,-1.500450730323791504e+00,-3.026200771331787109e+00,-2.164988994598388672e+00,-6.042391777038574219e+00,-6.674889087677001953e+00,-9.823184967041015625e+00,-4.764306545257568359e+00,-4.356412887573242188e+00,-4.283906459808349609e+00,-6.752532482147216797e+00,-8.753300666809082031e+00,-2.072587966918945312e+01
-6.406421184539794922e+00,-9.928732872009277344e+00,-1.324514961242675781e+01,-9.134497642517089844e+00,-3.665215969085693359e+00,-5.339996337890625000e+00,-5.764955997467041016e+00,-3.061989545822143555e+00,-3.103621006011962891e+00,-4.787197113037109375e+00,-4.572991371154785156e+00,-4.369772434234619141e+00,-7.110878944396972656e+00,-8.222706794738769531e+00,-7.273360252380371094e+00,-3.907377243041992188e+00,-4.849225044250488281e+00,-3.138210773468017578e+00,-4.415195465087890625e+00,-4.024675846099853516e+00,-2.812507867813110352e+00,-2.971820354461669922e+00,-5.356165409088134766e+00,2.109101414680480957e-01,1.278677582740783691e+00,-4.620450973510742188e+00,-7.632851123809814453e+00,-4.649213790893554688e+00,-7.401902198791503906e+00,-9.861456871032714844e+00,-8.710863113403320312e+00,-1.807545661926269531e+01
-1.050533413887023926e+00,-7.285193443298339844e+00,-7.833424091339111328e+00,-5.800169944763183594e+00,-4.775060117244720459e-01,-3.894900321960449219e+00,1.076458692550659180e+00,7.613440752029418945e-01,2.650081925094127655e-02,-2.197530269622802734e+00,9.742534756660461426e-01,1.828413367271423340e+00,-1.207201480865478516e+00,-4.970772743225097656e+00,-4.071734905242919922e+00,8.508322238922119141e-01,3.117297887802124023e+00,1.748896956443786621e+00,-2.398103661835193634e-02,-1.656699419021606445e+00,1.423781394958496094e+00,8.362375497817993164e-01,-8.051496744155883789e-01,7.740630149841308594e+00,6.625781536102294922e+00,-2.421113997697830200e-01,-5.950552463531494141e+00,-7.559473514556884766e-01,-5.712545871734619141e+00,-6.626860141754150391e+00,-4.167449474334716797e+00,-1.144795131683349609e+01
4.722692489624023438e+00,2.639276981353759766e+00,-1.837200641632080078e+00,-4.043063521385192871e-01,4.486448287963867188e+00,7.430886745452880859e+00,5.853069782257080078e+00,4.043258666992187500e+00,4.774059355258941650e-01,2.137691974639892578e+00,3.925277948379516602e+00,5.899847507476806641e+00,5.550115585327148438e+00,3.107941627502441406e+00,2.326941013336181641e+00,3.603401660919189453e+00,6.585345268249511719e+00,5.405177593231201172e+00,5.395285606384277344e+00,4.591257095336914062e+00,5.773200511932373047e+00,3.935125112533569336e+00,5.561181545257568359e+00,5.288740158081054688e+00,2.516530275344848633e+00,-6.547583937644958496e-01,2.995327711105346680e-01,2.700016260147094727e+00,3.193089008331298828e+00,4.301102638244628906e+00,3.892819643020629883e+00,-8.357295036315917969e+00
2.012936353683471680e+00,1.215367674827575684e+00,-7.039315223693847656e+00,-3.460543155670166016e+00,7.205446720123291016e+00,8.490744590759277344e+00,2.128716707229614258e+00,1.274980187416076660e+00,-5.123105049133300781e-01,-2.249330759048461914e+00,-2.388802766799926758e+00,-3.311417579650878906e+00,8.679564297199249268e-02,1.667416095733642578e+00,2.391685962677001953e+00,-1.354092240333557129e+00,-1.502110719680786133e+00,1.649877667427062988e+00,1.330231785774230957e+00,1.021054863929748535e+00,-7.104985713958740234e-01,-1.073971748352050781e+00,-9.447014331817626953e-01,-6.171331882476806641e+00,-6.061134815216064453e+00,-2.945598125457763672e+00,7.834962010383605957e-01,-1.710745543241500854e-01,5.637089729309082031e+00,7.758364200592041016e+00,3.852893114089965820e+00,-7.820063114166259766e+00
-4.577353000640869141e+00,-2.383297920227050781e+00,-7.101756095886230469e+00,-5.958900928497314453e+00,3.745066642761230469e+00,-6.846333146095275879e-01,-1.810070514678955078e+00,-2.846561193466186523e+00,-1.703774571418762207e+00,-8.693628311157226562e+00,-7.762466907501220703e+00,-9.159764289855957031e+00,-8.768932342529296875e+00,-7.394461154937744141e+00,-6.605370044708251953e+00,-6.803163528442382812e+00,-7.902477264404296875e+00,-3.882134675979614258e+00,-5.742718696594238281e+00,-7.905967712402343750e+00,-9.723710060119628906e+00,-8.864594459533691406e+00,-8.712983131408691406e+00,-8.189605712890625000e+00,-5.586578369140625000e+00,-1.828801393508911133e+00,-2.609263181686401367e+00,-4.380764961242675781e+00,6.758971214294433594e-01,4.060642719268798828e+00,-2.039973884820938110e-01,-1.039856338500976562e+01
2.061163634061813354e-01,4.507531642913818359e+00,6.205802783370018005e-02,-3.890733003616333008e+00,-4.404117465019226074e-01,-1.037034630775451660e+00,2.144691199064254761e-01,5.595247745513916016e-01,-6.324194669723510742e-01,-4.138807773590087891e+00,-2.220447063446044922e+00,1.626234292984008789e+00,-1.890926957130432129e+00,-4.637049674987792969e+00,-5.407525062561035156e+00,-5.582025647163391113e-01,1.021176218986511230e+00,1.221741914749145508e+00,-2.483017444610595703e+00,-5.090199470520019531e+00,-5.675227642059326172e+00,-2.995914220809936523e+00,3.437220454216003418e-01,5.511257171630859375e+00,5.395493030548095703e+00,4.336051940917968750e+00,5.321723818778991699e-01,-5.451107025146484375e-01,1.820818901062011719e+00,3.520280838012695312e+00,7.188507318496704102e-01,-9.812925338745117188e+00
8.982684016227722168e-01,2.279617309570312500e+00,-2.217902421951293945e+00,-4.184915065765380859e+00,-2.892910480499267578e+00,-6.869203448295593262e-01,-4.234509468078613281e+00,-1.377787351608276367e+00,-2.376341104507446289e+00,-7.971119880676269531e-01,-9.230506420135498047e-01,4.447975635528564453e+00,5.809313297271728516e+00,4.080782890319824219e+00,3.276325941085815430e+00,4.560021877288818359e+00,6.604391574859619141e+00,5.813052654266357422e+00,2.832029819488525391e+00,-1.650664210319519043e+00,-2.848416566848754883e+00,1.701889634132385254e-01,2.521018505096435547e+00,5.194659233093261719e+00,5.090781688690185547e+00,3.529959678649902344e+00,8.405359983444213867e-01,7.955829501152038574e-01,1.643435716629028320e+00,2.463891506195068359e+00,5.790858268737792969e-01,-1.127463912963867188e+01
-6.909469127655029297e+00,-1.038802337646484375e+01,-1.066675186157226562e+01,-5.192554950714111328e+00,-1.335247159004211426e+00,-4.338880538940429688e+00,-1.206084823608398438e+01,-1.116475582122802734e+01,-7.899002075195312500e+00,-4.809899806976318359e+00,-6.201494693756103516e+00,-6.075158119201660156e+00,-2.596114873886108398e+00,1.270032048225402832e+00,3.548324823379516602e+00,2.094739675521850586e+00,6.081097126007080078e-01,1.135490298271179199e+00,1.002855300903320312e+00,-3.885815858840942383e+00,-6.289371490478515625e+00,-5.786556720733642578e+00,-6.387978553771972656e+00,-8.815866470336914062e+00,-7.292213439941406250e+00,-4.294649600982666016e+00,-2.245772838592529297e+00,-3.337408542633056641e+00,-4.410059452056884766e+00,-1.843637108802795410e+00,-2.974825859069824219e+00,-1.720728683471679688e+01
-2.167240142822265625e+00,-6.703135490417480469e+00,-8.678048133850097656e+00,-4.120984554290771484e+00,1.887167096138000488e+00,3.896292448043823242e-01,-4.327558517456054688e+00,-6.083168029785156250e+00,-4.507338523864746094e+00,-1.426114916801452637e+00,-1.994427591562271118e-01,-2.234516143798828125e+00,-3.150329113006591797e+00,9.769350290298461914e-01,3.664446353912353516e+00,4.777430057525634766e+00,2.778982162475585938e+00,3.177984714508056641e+00,3.471778869628906250e+00,2.859048128128051758e+00,1.573914647102355957e+00,2.332348108291625977e+00,1.804330825805664062e+00,-2.446505784988403320e+00,-2.989350557327270508e+00,-5.980214476585388184e-01,4.488451957702636719e+00,2.876795530319213867e+00,3.493785262107849121e-01,2.536330223083496094e-01,-5.901006460189819336e-01,-1.275414657592773438e+01
6.524768352508544922e+00,2.099167823791503906e+00,-5.966525554656982422e+00,-7.634333133697509766e+00,1.613456010818481445e+00,6.405365467071533203e+00,8.034310340881347656e+00,5.733772754669189453e+00,3.267583131790161133e+00,3.438251256942749023e+00,7.018774032592773438e+00,7.729311943054199219e+00,7.262521266937255859e+00,6.803515911102294922e+00,6.472035408020019531e+00,8.591755867004394531e+00,9.368609428405761719e+00,9.456159591674804688e+00,9.372386932373046875e+00,9.681480407714843750e+00,8.334553718566894531e+00,1.069434833526611328e+01,1.151870822906494141e+01,1.223733234405517578e+01,1.186380386352539062e+01,1.066510581970214844e+01,1.128922653198242188e+01,1.115887737274169922e+01,6.897301197052001953e+00,3.046948432922363281e+00,2.348342418670654297e+00,-1.804476618766784668e+00
-9.250657558441162109e-01,-9.378086090087890625e+00,-1.756579017639160156e+01,-1.731741333007812500e+01,-5.386834621429443359e+00,-1.775814533233642578e+00,2.091315686702728271e-01,-1.796133756637573242e+00,-2.735067129135131836e+00,-1.607573509216308594e+00,1.465238094329833984e+00,1.897717833518981934e+00,2.082914829254150391e+00,1.438105344772338867e+00,2.997793912887573242e+00,3.936042785644531250e+00,3.479045152664184570e+00,1.846436262130737305e+00,5.251158237457275391e+00,2.222347021102905273e+00,-7.442238926887512207e-01,-2.917641878128051758e+00,-5.757303237915039062e-01,3.307534456253051758e+00,5.956332683563232422e+00,5.547595977783203125e+00,3.021099090576171875e+00,2.644564151763916016e+00,-6.979699730873107910e-01,-2.285773754119873047e+00,-3.659612417221069336e+00,-8.532536506652832031e+00
-6.610173225402832031e+00,-1.949096679687500000e+01,-2.036550903320312500e+01,-1.620182418823242188e+01,-1.119265556335449219e+01,-1.163837814331054688e+01,-1.120074462890625000e+01,-9.774432182312011719e+00,-8.739987373352050781e+00,-4.079142570495605469e+00,-3.581361055374145508e+00,-4.644600868225097656e+00,-5.859884262084960938e+00,-2.770616292953491211e+00,2.353842496871948242e+00,2.482391357421875000e+00,-6.544800996780395508e-01,-5.227080345153808594e+00,3.585519790649414062e-01,-1.430671453475952148e+00,-3.034846782684326172e+00,-7.914882659912109375e+00,-5.535513401031494141e+00,-7.458062648773193359e+00,-7.291216850280761719e+00,-6.886559963226318359e+00,-4.630159854888916016e+00,-7.403641700744628906e+00,-6.888416290283203125e+00,-3.525003433227539062e+00,-3.613985776901245117e+00,-2.254821968078613281e+01
2.454522132873535156e+00,-7.264957904815673828e+00,-4.712801456451416016e+00,-4.690507411956787109e+00,-6.445280551910400391e+00,-5.749196529388427734e+00,-9.757512807846069336e-01,9.660542607307434082e-01,5.357956886291503906e-01,2.225890398025512695e+00,1.984907150268554688e+00,6.935557723045349121e-01,1.716921806335449219e+00,5.372758865356445312e+00,7.839159488677978516e+00,8.383158683776855469e+00,7.501299381256103516e+00,5.676148891448974609e+00,7.333379268646240234e+00,7.340999603271484375e+00,7.091855049133300781e+00,7.239730834960937500e+00,7.115845680236816406e+00,1.219954729080200195e+00,-2.068871736526489258e+00,-3.480299949645996094e+00,3.533584177494049072e-01,-3.028699874877929688e+00,-1.870499014854431152e+00,1.315122365951538086e+00,1.121979832649230957e+00,-2.210365867614746094e+01
3.372325420379638672e+00,-2.064322710037231445e+00,-2.583637952804565430e+00,-2.918032407760620117e+00,-6.827950477600097656e-01,-7.025541663169860840e-01,3.303333044052124023e+00,1.503156661987304688e+00,2.285459995269775391e+00,1.659157276153564453e+00,3.473254203796386719e+00,-1.425828337669372559e-01,1.207060813903808594e+00,4.565378189086914062e+00,4.301591396331787109e+00,6.635092258453369141e+00,6.773224830627441406e+00,9.405309677124023438e+00,9.713126182556152344e+00,6.147436618804931641e+00,3.066832304000854492e+00,3.164724349975585938e+00,3.481424570083618164e+00,9.183951467275619507e-02,4.264158606529235840e-01,6.834136247634887695e-01,1.447041153907775879e+00,-3.966705501079559326e-01,-1.505263805389404297e+00,-2.141307115554809570e+00,-5.534029483795166016e+00,-1.338356018066406250e+01
-7.945284366607666016e+00,-1.264928340911865234e+01,-1.460269641876220703e+01,-9.871332168579101562e+00,-5.346556186676025391e+00,-8.288763046264648438e+00,-1.105106735229492188e+01,-1.078706836700439453e+01,-7.895577907562255859e+00,-4.942179679870605469e+00,-4.346444129943847656e+00,-8.334162712097167969e+00,-1.082491207122802734e+01,-5.363341808319091797e+00,-5.118120193481445312e+00,-3.553033828735351562e+00,-5.630743026733398438e+00,-3.271519422531127930e+00,-7.908616662025451660e-01,-6.295727729797363281e+00,-1.018677234649658203e+01,-1.284968376159667969e+01,-1.039809608459472656e+01,-1.079874610900878906e+01,-8.637079238891601562e+00,-7.498270034790039062e+00,-8.515151977539062500e+00,-8.056303024291992188e+00,-9.554521560668945312e+00,-1.136248779296875000e+01,-1.326507091522216797e+01,-1.014686965942382812e+01
-1.067747783660888672e+01,-9.958657264709472656e+00,-7.415602684020996094e+00,-3.691098690032958984e+00,-6.680464267730712891e+00,-8.000888824462890625e+00,-9.963669776916503906e+00,-6.570166587829589844e+00,-7.101598739624023438e+00,-6.204229354858398438e+00,-8.434161186218261719e+00,-7.259857177734375000e+00,-8.776578903198242188e+00,-5.765503883361816406e+00,-6.637003421783447266e+00,-5.067443370819091797e+00,-4.118394851684570312e+00,-3.382922172546386719e+00,-3.879010438919067383e+00,-8.045132637023925781e+00,-8.273587226867675781e+00,-6.285148143768310547e+00,-7.216974735260009766e+00,-4.637572288513183594e+00,-4.608487129211425781e+00,-6.506257057189941406e+00,-1.099328804016113281e+01,-9.219980239868164062e+00,-1.140771389007568359e+01,-1.238103008270263672e+01,-9.472788810729980469e+00,-4.858923912048339844e+00
-2.243136882781982422e+00,7.547694444656372070e-01,2.580024957656860352e+00,3.540752172470092773e+00,1.131163120269775391e+00,3.591490745544433594e+00,3.407486438751220703e+00,3.561741590499877930e+00,4.599596261978149414e-01,-2.659783601760864258e+00,-5.075900554656982422e+00,-1.592687726020812988e+00,2.220455408096313477e+00,1.313206553459167480e+00,6.627702713012695312e-01,3.766116142272949219e+00,8.444527626037597656e+00,7.647254943847656250e+00,4.985420703887939453e+00,-9.340690374374389648e-01,-1.515462875366210938e+00,2.263903141021728516e+00,-4.210115671157836914e-01,-3.047479130327701569e-02,5.474423170089721680e-01,6.286512613296508789e-01,-1.859649300575256348e+00,-1.841549277305603027e+00,-5.186199188232421875e+00,-7.783070087432861328e+00,-6.013750553131103516e+00,4.516679763793945312e+00
-1.508195549249649048e-01,1.336752176284790039e-01,-1.051994085311889648e+00,1.339875161647796631e-01,2.856578826904296875e+00,4.576834201812744141e+00,2.457886934280395508e+00,1.778926849365234375e+00,1.191940307617187500e+00,1.276604890823364258e+00,-9.986565709114074707e-01,-9.808958172798156738e-01,3.721544265747070312e+00,5.177964687347412109e+00,5.478744983673095703e+00,5.627130985260009766e+00,7.224308967590332031e+00,5.433582305908203125e+00,6.904674530029296875e+00,7.297139763832092285e-01,-3.039794206619262695e+00,-3.666371583938598633e+00,-3.155416488647460938e+00,-6.985076904296875000e+00,-6.748127937316894531e+00,-2.576944112777709961e+00,8.806633949279785156e-01,-8.065627217292785645e-01,-2.191841840744018555e+00,-3.744432926177978516e+00,-3.055118799209594727e+00,7.607103347778320312e+00
-3.761219739913940430e+00,1.985551834106445312e+00,5.968045711517333984e+00,3.372906446456909180e+00,-2.296532392501831055e+00,-2.702508211135864258e+00,-1.293855011463165283e-01,2.238135337829589844e+00,2.073173046112060547e+00,3.188719749450683594e+00,1.768064022064208984e+00,1.048126459121704102e+00,1.360841691493988037e-01,2.672950267791748047e+00,1.457975745201110840e+00,1.051497101783752441e+00,5.322834849357604980e-01,2.023597061634063721e-01,2.329081773757934570e+00,-6.593759655952453613e-01,-3.775542974472045898e+00,-3.695281028747558594e+00,-3.833628654479980469e+00,-1.772482395172119141e+00,-3.811673164367675781e+00,-3.010758161544799805e+00,-3.929715871810913086e+00,-3.104859352111816406e+00,-2.079278230667114258e+00,1.739904522895812988e+00,6.633266925811767578e+00,6.181939601898193359e+00
-3.774496793746948242e+00,1.120715332031250000e+01,1.794990921020507812e+01,1.040199565887451172e+01,-3.586923360824584961e+00,-2.777359962463378906e+00,2.706162452697753906e+00,3.140812873840332031e+00,2.128305912017822266e+00,1.288335323333740234e+00,1.112413525581359863e+00,1.679043769836425781e-01,-3.452991485595703125e+00,-3.122790813446044922e+00,-2.178983211517333984e+00,1.330719113349914551e+00,1.394831895828247070e+00,1.166306614875793457e+00,4.985068738460540771e-01,-6.050410270690917969e-01,-1.713742971420288086e+00,4.503716230392456055e-01,-2.172389507293701172e+00,3.208219289779663086e+00,1.446345806121826172e+00,-1.417274951934814453e+00,-5.236950397491455078e+00,-2.496459484100341797e+00,9.858490824699401855e-01,4.142441272735595703e+00,7.011060237884521484e+00,9.609267234802246094e+00
-2.001088619232177734e+00,-6.114397525787353516e+00,-8.772920608520507812e+00,-6.867684841156005859e+00,-3.635901212692260742e+00,-3.352557659149169922e+00,-4.643439769744873047e+00,-4.338645458221435547e+00,-2.988336086273193359e+00,-3.020184516906738281e+00,-3.400751829147338867e+00,-3.853712320327758789e+00,-3.842948198318481445e+00,-2.770746946334838867e+00,-5.407519340515136719e-01,3.746734261512756348e-01,-2.015730179846286774e-02,8.150182664394378662e-02,-6.369081139564514160e-02,-2.495205402374267578e-01,-2.360632896423339844e+00,-5.658778190612792969e+00,-5.643579959869384766e+00,-9.976871490478515625e+00,-1.111327171325683594e+01,-1.131386375427246094e+01,-6.351649761199951172e+00,-6.399752616882324219e+00,-4.445883274078369141e+00,-6.993397712707519531e+00,-1.169796180725097656e+01,-7.318342685699462891e+00
-4.788620948791503906e+00,-1.457023429870605469e+01,-1.905180931091308594e+01,-1.125649261474609375e+01,4.260932505130767822e-01,-3.439806938171386719e+00,-6.163799285888671875e+00,-1.760669112205505371e+00,-6.768414378166198730e-02,-2.634963274002075195e+00,-4.824041366577148438e+00,-5.010075092315673828e+00,-3.094328403472900391e+00,1.676663398742675781e+00,1.428014874458312988e+00,-5.005064010620117188e+00,-6.453475952148437500e+00,-4.525165081024169922e+00,-1.418557405471801758e+00,3.201018571853637695e-01,-2.776870489120483398e+00,-9.923386573791503906e+00,-8.575539588928222656e+00,-1.149591827392578125e+01,-1.139171314239501953e+01,-9.646248817443847656e+00,-5.688307762145996094e+00,-7.170487403869628906e+00,-7.508996963500976562e+00,-8.653027534484863281e+00,-1.194793128967285156e+01,-1.222003746032714844e+01
-6.459140777587890625e+00,-8.565654754638671875e+00,-7.640505313873291016e+00,-6.125465393066406250e+00,-3.712439060211181641e+00,-6.282542705535888672e+00,-4.731383323669433594e+00,-1.301643371582031250e+00,-1.953339725732803345e-01,-2.589626073837280273e+00,-5.689655780792236328e+00,-6.108429908752441406e+00,-4.837890148162841797e+00,-1.211316704750061035e+00,-6.652156114578247070e-01,-7.014270782470703125e+00,-6.927556037902832031e+00,-8.436017036437988281e+00,-6.595205307006835938e+00,-2.736287117004394531e+00,-3.359417676925659180e+00,-8.974136352539062500e+00,-9.678342819213867188e+00,-1.036422371864318848e+00,2.526920080184936523e+00,1.143745064735412598e+00,-5.056732654571533203e+00,-2.955224514007568359e+00,-2.717076778411865234e+00,-2.378363132476806641e+00,-4.975154876708984375e+00,-1.343847942352294922e+01
-4.677686691284179688e+00,-1.503649997711181641e+01,-1.603644371032714844e+01,-1.653076934814453125e+01,-1.390251445770263672e+01,-1.160798835754394531e+01,-1.196410655975341797e+01,-1.158229732513427734e+01,-7.535974025726318359e+00,-4.641803741455078125e+00,-8.213149070739746094e+00,-9.352521896362304688e+00,-8.423779487609863281e+00,-6.946886062622070312e+00,-2.387088298797607422e+00,-5.479698657989501953e+00,-4.834330558776855469e+00,-8.068012237548828125e+00,-9.149291992187500000e+00,-6.254812717437744141e+00,-5.848876953125000000e+00,-1.036800765991210938e+01,-1.036722278594970703e+01,-3.233044624328613281e+00,9.658184051513671875e-01,-2.177684068679809570e+00,-6.920190811157226562e+00,-3.360812187194824219e+00,-1.481683969497680664e+00,-4.618899345397949219e+00,-1.299061489105224609e+01,-2.603246498107910156e+01
3.637994080781936646e-02,-1.852635765075683594e+01,-2.672016716003417969e+01,-2.379368400573730469e+01,-8.140205383300781250e+00,-6.099886417388916016e+00,-7.252676010131835938e+00,-6.101190567016601562e+00,-1.653711199760437012e+00,-9.724048972129821777e-01,-4.524739742279052734e+00,-7.519960880279541016e+00,-8.714715957641601562e+00,-2.848975658416748047e+00,7.386816143989562988e-01,-3.478400707244873047e+00,-5.215383052825927734e+00,-2.576794385910034180e+00,-2.317173182964324951e-01,-3.384979963302612305e-01,-2.688529729843139648e+00,-6.522614479064941406e+00,-6.106214523315429688e+00,-3.724715709686279297e+00,-2.461021184921264648e+00,-3.603522062301635742e+00,-3.825293064117431641e+00,-4.105488300323486328e+00,-4.380007266998291016e+00,-6.258924961090087891e+00,-1.626529884338378906e+01,-3.845785903930664062e+01
1.177812695503234863e+00,-5.635230541229248047e+00,-1.178685379028320312e+01,-1.119841957092285156e+01,9.463852643966674805e-02,1.534621357917785645e+00,2.734764814376831055e+00,3.410353660583496094e+00,4.844704627990722656e+00,3.997123718261718750e+00,2.718993186950683594e+00,3.111551105976104736e-01,-2.583479404449462891e+00,6.295096874237060547e+00,6.877433300018310547e+00,2.288558959960937500e+00,-7.191178202629089355e-01,3.469089746475219727e+00,6.661782264709472656e+00,4.275179386138916016e+00,1.135424599051475525e-01,-2.995017766952514648e-01,-1.328139066696166992e+00,4.677006244659423828e+00,5.800954818725585938e+00,5.898968219757080078e+00,-8.216170668601989746e-01,-3.531211137771606445e+00,-4.855522632598876953e+00,-4.417055606842041016e+00,-9.189955711364746094e+00,-2.210363388061523438e+01
-4.991830348968505859e+00,-2.004134416580200195e+00,-2.231215476989746094e+00,-3.604540348052978516e+00,-4.918753147125244141e+00,-3.364403724670410156e+00,-2.969578027725219727e+00,-2.713153839111328125e+00,-4.030250549316406250e+00,-4.071862995624542236e-01,-6.338579654693603516e-01,-5.712572932243347168e-01,1.272238612174987793e+00,7.173820972442626953e+00,6.219721794128417969e+00,2.142644643783569336e+00,1.177433729171752930e+00,-9.399265646934509277e-01,1.945701837539672852e-01,-1.994692325592041016e+00,-4.109024524688720703e+00,-1.858012557029724121e+00,-2.337379217147827148e+00,9.173784852027893066e-01,3.051058053970336914e+00,2.060943126678466797e+00,-6.159440994262695312e+00,-7.119968891143798828e+00,-6.952457427978515625e+00,-7.636739253997802734e+00,-6.532414913177490234e+00,-3.744705915451049805e+00
-1.235186386108398438e+01,2.549965381622314453e-01,6.003244400024414062e+00,6.216945171356201172e+00,-5.541292190551757812e+00,-5.160338878631591797e+00,-3.669200897216796875e+00,-2.817201852798461914e+00,-6.876869201660156250e+00,-4.012689113616943359e+00,-9.766013026237487793e-01,1.082249641418457031e+00,2.200461626052856445e+00,1.722397685050964355e+00,-2.832921743392944336e+00,-3.470040559768676758e+00,-2.374720573425292969e+00,-3.908428192138671875e+00,-4.406696319580078125e+00,-3.525415420532226562e+00,-3.907966136932373047e+00,2.719423472881317139e-01,1.325106024742126465e+00,-6.039006710052490234e+00,-1.063927555084228516e+01,-9.886425018310546875e+00,-2.972853899002075195e+00,-2.741217851638793945e+00,-6.035049438476562500e+00,-4.758515834808349609e+00,5.951246738433837891e+00,1.451741313934326172e+01
-8.476556777954101562e+00,8.518349647521972656e+00,1.491911411285400391e+01,1.516174888610839844e+01,4.473856449127197266e+00,3.353133678436279297e+00,5.627310752868652344e+00,3.564458608627319336e+00,5.590648055076599121e-01,-8.983007073402404785e-01,4.608359813690185547e+00,6.622670650482177734e+00,4.311060428619384766e+00,-1.369419336318969727e+00,-6.912540435791015625e+00,-3.837398290634155273e+00,-2.807448863983154297e+00,-1.810006976127624512e+00,-6.147496700286865234e+00,-4.419111013412475586e-01,3.659605264663696289e+00,7.963100433349609375e+00,8.469026565551757812e+00,-3.893416643142700195e+00,-1.111469745635986328e+01,-5.731358528137207031e+00,9.079319000244140625e+00,6.239866733551025391e+00,3.771704196929931641e+00,7.771740913391113281e+00,1.852913284301757812e+01,2.350564765930175781e+01
4.028951644897460938e+00,2.499617958068847656e+01,2.968776321411132812e+01,2.690037536621093750e+01,1.805624389648437500e+01,1.528242588043212891e+01,1.517851638793945312e+01,8.501103401184082031e+00,4.957461357116699219e+00,6.443656086921691895e-01,6.526628971099853516e+00,7.038521766662597656e+00,7.991039752960205078e+00,1.339768648147583008e+00,-3.679277896881103516e+00,-3.784397840499877930e+00,-3.422177791595458984e+00,-6.941761970520019531e+00,-1.180016994476318359e+01,-1.098023176193237305e+00,8.717135429382324219e+00,1.281612873077392578e+01,1.281385517120361328e+01,7.838481903076171875e+00,5.222208499908447266e+00,9.071022987365722656e+00,1.505282688140869141e+01,1.328616809844970703e+01,1.851742744445800781e+01,1.801885414123535156e+01,2.028759956359863281e+01,3.451963043212890625e+01
1.002858734130859375e+01,2.582583045959472656e+01,3.235503387451171875e+01,2.992167663574218750e+01,1.692571640014648438e+01,1.408257484436035156e+01,1.579773807525634766e+01,1.332836151123046875e+01,8.371394157409667969e+00,1.603389263153076172e+00,5.388568878173828125e+00,8.059313774108886719e+00,1.137648487091064453e+01,4.617040157318115234e+00,-1.317412614822387695e+00,-6.380738735198974609e+00,-5.769146919250488281e+00,-7.334009647369384766e+00,-9.044152259826660156e+00,1.235806822776794434e+00,9.341238021850585938e+00,1.096527290344238281e+01,1.004580497741699219e+01,1.727622413635253906e+01,1.841751289367675781e+01,1.383971309661865234e+01,8.481008529663085938e+00,1.269721984863281250e+01,1.538444900512695312e+01,1.223237991333007812e+01,1.806952476501464844e+01,4.676319885253906250e+01
7.780552864074707031e+00,5.864740371704101562e+00,4.578076839447021484e+00,3.918637752532958984e+00,2.820805311203002930e+00,4.554954051971435547e+00,4.986657619476318359e+00,6.891211509704589844e+00,8.107489585876464844e+00,8.339736938476562500e+00,6.683410644531250000e+00,9.246232986450195312e+00,7.321578979492187500e+00,-1.902114152908325195e-01,-3.345521450042724609e+00,-4.529682159423828125e+00,-4.472120285034179688e+00,1.061808466911315918e-01,-8.374269008636474609e-01,5.854381561279296875e+00,9.499722480773925781e+00,8.755672454833984375e+00,6.876718044281005859e+00,1.085708236694335938e+01,1.239807605743408203e+01,8.755998611450195312e+00,4.520805835723876953e+00,7.535882949829101562e+00,5.275236129760742188e+00,4.437159538269042969e+00,7.351506710052490234e+00,1.360651302337646484e+01
6.166233062744140625e+00,2.349785804748535156e+01,2.443554878234863281e+01,1.816144180297851562e+01,9.893609046936035156e+00,1.243007659912109375e+01,4.677609443664550781e+00,-2.745355844497680664e+00,1.951133847236633301e+00,1.106503200531005859e+01,1.244142532348632812e+01,1.090756988525390625e+01,3.072726964950561523e+00,-4.101658344268798828e+00,-3.964536666870117188e+00,7.958809137344360352e-01,-2.244037240743637085e-01,1.190092802047729492e+00,-5.546796321868896484e-01,6.766688823699951172e+00,1.132012653350830078e+01,1.455681514739990234e+01,1.463916206359863281e+01,4.555802345275878906e+00,1.816269040107727051e+00,6.105047702789306641e+00,1.493574523925781250e+01,1.312657165527343750e+01,1.727754783630371094e+01,1.524954223632812500e+01,1.059668922424316406e+01,2.651267814636230469e+01
1.234477996826171875e+01,2.894254684448242188e+01,3.366614913940429688e+01,2.809473037719726562e+01,1.688743209838867188e+01,1.639645385742187500e+01,1.534408473968505859e+01,6.484536170959472656e+00,4.974925041198730469e+00,4.084682464599609375e+00,8.567525863647460938e+00,9.572145462036132812e+00,9.075100898742675781e+00,3.730240345001220703e+00,3.644578695297241211e+00,4.867063522338867188e+00,6.221024990081787109e+00,3.707838773727416992e+00,4.448260784149169922e+00,8.917875289916992188e+00,1.113214588165283203e+01,1.578459548950195312e+01,1.685298538208007812e+01,1.336819553375244141e+01,1.056736183166503906e+01,1.062286949157714844e+01,1.374074268341064453e+01,1.470408821105957031e+01,1.995638656616210938e+01,1.912710380554199219e+01,1.736847114562988281e+01,3.440027999877929688e+01
1.044864940643310547e+01,1.250382804870605469e+01,1.482326889038085938e+01,1.630896568298339844e+01,1.058203125000000000e+01,9.648201942443847656e+00,1.690934944152832031e+01,1.361987304687500000e+01,9.962113380432128906e+00,2.121708393096923828e+00,6.484592914581298828e+00,9.433807373046875000e+00,1.153034877777099609e+01,7.735085964202880859e+00,4.988389968872070312e+00,3.631705522537231445e+00,7.020308971405029297e+00,5.255686283111572266e+00,5.928391933441162109e+00,8.493804931640625000e+00,6.971749305725097656e+00,1.056051158905029297e+01,8.961208343505859375e+00,1.861585617065429688e+01,1.616136932373046875e+01,1.088013362884521484e+01,4.150952816009521484e+00,1.073288440704345703e+01,9.832104682922363281e+00,8.732340812683105469e+00,1.527370071411132812e+01,2.506563186645507812e+01
-7.065776348114013672e+00,-9.699479937553405762e-01,-7.672775983810424805e-01,1.791008114814758301e+00,-6.147512793540954590e-01,3.840587437152862549e-01,-1.113050222396850586e+00,1.517342686653137207e+00,-5.966827869415283203e-01,7.280052304267883301e-01,2.029952049255371094e+00,3.190385580062866211e+00,6.773534417152404785e-01,1.504921674728393555e+00,-1.763682484626770020e+00,-3.620213508605957031e+00,-3.949682235717773438e+00,-3.504991054534912109e+00,-3.387554407119750977e+00,1.930238842964172363e+00,7.100422382354736328e-01,1.056329965591430664e+00,-5.094528198242187500e-01,-6.553831100463867188e-01,-1.443979501724243164e+00,-1.881067156791687012e+00,-2.768992185592651367e-01,9.799056649208068848e-01,-1.290588974952697754e+00,-2.698971033096313477e+00,1.626183986663818359e+00,8.313349723815917969e+00
