Fp1,Fp2,F7,F3,Fz,F4,F8,FT7,FC3,FCz,FC4,FT8,T3,C3,Cz,C4,T4,TP7,CP3,CPz,CP4,TP8,T5,P3,Pz,P4,T6,O1,Oz,O2,A1,A2
-4.959008216857910156e+00,-5.218342304229736328e+00,-4.767210960388183594e+00,-5.699118137359619141e+00,-6.299721717834472656e+00,-3.358174324035644531e+00,-5.234236642718315125e-02,-3.396141827106475830e-01,-6.247964859008789062e+00,-9.137657165527343750e+00,-3.008156299591064453e+00,-9.953271597623825073e-02,-1.828631639480590820e+00,-3.505522489547729492e+00,-2.838080167770385742e+00,-1.288053035736083984e+00,-2.951635420322418213e-02,2.468601226806640625e+00,2.981596231460571289e+00,3.842944860458374023e+00,5.714880943298339844e+00,6.647386074066162109e+00,5.454405307769775391e+00,-1.808928728103637695e+00,-4.250537395477294922e+00,-3.200052976608276367e+00,-4.058361947536468506e-01,-1.401123046875000000e+00,-3.370751380920410156e+00,-2.804249763488769531e+00,-1.715137481689453125e+00,1.174565196037292480e+00
5.016151905059814453e+00,9.078318595886230469e+00,8.848454475402832031e+00,7.417703151702880859e+00,5.877702236175537109e+00,4.234400749206542969e+00,5.733716964721679688e+00,6.073698520660400391e+00,6.000201702117919922e+00,1.217579245567321777e+00,4.827893733978271484e+00,6.722446918487548828e+00,4.892900466918945312e+00,-9.353178143501281738e-01,1.713403344154357910e+00,8.007439613342285156e+00,1.144371986389160156e+01,1.230194950103759766e+01,1.038340091705322266e+01,1.233627033233642578e+01,1.574240112304687500e+01,1.753508758544921875e+01,1.075180912017822266e+01,8.303311347961425781e+00,1.067692184448242188e+01,1.052273464202880859e+01,8.187974929809570312e+00,9.819533348083496094e+00,1.107084560394287109e+01,1.264495849609375000e+01,1.198771667480468750e+01,8.267747879028320312e+00
-5.305945873260498047e+00,-5.708420753479003906e+00,-5.115498065948486328e+00,-4.580869197845458984e+00,-5.595598697662353516e+00,-6.257577896118164062e+00,-6.936681270599365234e+00,-5.892654895782470703e+00,-4.494122982025146484e+00,-5.953715801239013672e+00,-5.704457759857177734e+00,-6.990243911743164062e+00,-9.291377067565917969e+00,-1.166341209411621094e+01,-8.962039947509765625e+00,-3.528296232223510742e+00,-3.165805578231811523e+00,-4.430643558502197266e+00,-5.147616863250732422e+00,-1.527984499931335449e+00,2.779386043548583984e+00,3.908513069152832031e+00,-2.204847574234008789e+00,-4.548650741577148438e+00,-3.211109638214111328e+00,-5.754035472869873047e+00,-7.013641357421875000e+00,-7.902808666229248047e+00,-8.241691589355468750e+00,-8.705540657043457031e+00,-8.653054237365722656e+00,-1.473762702941894531e+01
-1.439242076873779297e+01,-1.416728687286376953e+01,-1.387265968322753906e+01,-1.355533885955810547e+01,-1.412004184722900391e+01,-1.203873157501220703e+01,-1.102305221557617188e+01,-8.510227203369140625e+00,-1.264692497253417969e+01,-1.529390811920166016e+01,-1.291216945648193359e+01,-1.090685367584228516e+01,-1.377185726165771484e+01,-1.222827148437500000e+01,-1.139288806915283203e+01,-1.364315605163574219e+01,-1.454261016845703125e+01,-1.420611381530761719e+01,-1.102071094512939453e+01,-1.239790630340576172e+01,-9.173509597778320312e+00,-6.335439682006835938e+00,-6.804280757904052734e+00,-1.521422386169433594e+01,-1.711975669860839844e+01,-1.602442741394042969e+01,-1.055405139923095703e+01,-1.443758010864257812e+01,-1.683072090148925781e+01,-1.928494262695312500e+01,-1.981504440307617188e+01,-2.328144264221191406e+01
-1.855300307273864746e+00,-5.683555603027343750e+00,-7.317905902862548828e+00,-6.155641555786132812e+00,-3.097582817077636719e+00,-2.358199834823608398e+00,-8.157039284706115723e-01,-4.923304915428161621e-01,-2.146820783615112305e+00,-6.146213054656982422e+00,-3.790355920791625977e+00,-1.704680919647216797e+00,2.046432733535766602e+00,3.443197965621948242e+00,4.473532199859619141e+00,1.266076266765594482e-01,3.354838192462921143e-01,2.321119785308837891e+00,6.292436599731445312e+00,2.821835279464721680e+00,1.574895262718200684e+00,-7.328357696533203125e-01,-1.853468060493469238e+00,-2.151939630508422852e+00,-8.491040766239166260e-02,-1.033151745796203613e+00,-2.473321914672851562e+00,-2.381503582000732422e+00,-1.601719379425048828e+00,-3.304274320602416992e+00,-6.759109973907470703e+00,-8.304176330566406250e+00
-4.496068477630615234e+00,-1.012456989288330078e+01,-1.055807781219482422e+01,-9.478085517883300781e+00,-6.954708099365234375e+00,-7.989452362060546875e+00,-9.054026603698730469e+00,-8.594384193420410156e+00,-4.117134094238281250e+00,-3.700339078903198242e+00,-7.383819103240966797e+00,-1.048354816436767578e+01,-4.394934177398681641e+00,2.283797711133956909e-01,4.645661354064941406e+00,2.879104375839233398e+00,3.793525099754333496e-01,1.942932367324829102e+00,5.728631019592285156e+00,6.321047306060791016e+00,2.130661010742187500e+00,-6.422728061676025391e+00,-8.855817794799804688e+00,-3.620785713195800781e+00,1.511927042156457901e-02,-4.798298358917236328e+00,-1.001104831695556641e+01,-8.540276527404785156e+00,-6.564767360687255859e+00,-5.840096950531005859e+00,-8.289426803588867188e+00,-7.967542648315429688e+00
-1.469536590576171875e+01,-1.610510444641113281e+01,-1.162232875823974609e+01,-1.224331760406494141e+01,-1.519721889495849609e+01,-1.816046333312988281e+01,-1.780662918090820312e+01,-1.261434364318847656e+01,-9.664505958557128906e+00,-7.381376266479492188e+00,-1.112136459350585938e+01,-1.278554248809814453e+01,-1.207823848724365234e+01,-1.102345561981201172e+01,-1.216464614868164062e+01,-1.135301303863525391e+01,-1.284884166717529297e+01,-1.196035957336425781e+01,-9.690356254577636719e+00,-6.178439617156982422e+00,-6.065455913543701172e+00,-1.122708320617675781e+01,-1.086176204681396484e+01,-1.474538040161132812e+01,-1.403845405578613281e+01,-1.553522491455078125e+01,-1.193968296051025391e+01,-1.536541461944580078e+01,-1.687183952331542969e+01,-1.454930019378662109e+01,-1.322056102752685547e+01,-1.740743255615234375e+01
3.012790918350219727e+00,2.001145124435424805e+00,5.149454116821289062e+00,4.998731136322021484e+00,1.849684000015258789e+00,6.314976215362548828e-01,1.918991446495056152e+00,5.167515277862548828e+00,5.170876026153564453e+00,7.368187427520751953e+00,7.318934917449951172e+00,7.635746955871582031e+00,5.600749015808105469e+00,1.016449332237243652e+00,-4.786195755004882812e+00,-3.742282152175903320e+00,-4.957914650440216064e-01,8.694619536399841309e-01,2.936852693557739258e+00,5.220951557159423828e+00,6.634864807128906250e+00,3.848926067352294922e+00,4.435967445373535156e+00,3.209861993789672852e+00,7.040654659271240234e+00,5.628797531127929688e+00,6.354096412658691406e+00,2.212337017059326172e+00,1.555550813674926758e+00,3.734197854995727539e+00,5.960764884948730469e+00,-1.180039271712303162e-01
1.331299972534179688e+01,1.002672004699707031e+01,8.518064498901367188e+00,9.321757316589355469e+00,9.906661987304687500e+00,1.212450599670410156e+01,1.152434062957763672e+01,9.882503509521484375e+00,9.748874664306640625e+00,8.836817741394042969e+00,9.509939193725585938e+00,8.320059776306152344e+00,9.266814231872558594e+00,7.802295207977294922e+00,8.977636337280273438e+00,9.411828994750976562e+00,1.013645076751708984e+01,9.555122375488281250e+00,1.132648658752441406e+01,1.307086563110351562e+01,1.038283729553222656e+01,6.448737144470214844e+00,5.569224834442138672e+00,1.091969490051269531e+01,1.407880687713623047e+01,1.369281768798828125e+01,9.445547103881835938e+00,1.002944755554199219e+01,1.234067153930664062e+01,1.267228412628173828e+01,1.215473842620849609e+01,1.258170700073242188e+01
-2.097131490707397461e+00,-5.594874382019042969e+00,-5.022155761718750000e+00,-5.216146945953369141e+00,-5.937634944915771484e+00,-5.380519866943359375e+00,-5.538044929504394531e+00,-6.029281139373779297e+00,-4.971680164337158203e+00,-6.570508003234863281e+00,-8.448896408081054688e+00,-1.296085071563720703e+01,-8.341886520385742188e+00,-5.142266750335693359e+00,-2.753068685531616211e+00,-3.647047519683837891e+00,-6.637253284454345703e+00,-8.690051078796386719e+00,-6.703492641448974609e+00,-7.289731502532958984e+00,-1.015311527252197266e+01,-1.169733047485351562e+01,-1.300635528564453125e+01,-8.006268501281738281e+00,-6.461012840270996094e+00,-6.125373363494873047e+00,-1.005393886566162109e+01,-6.110507965087890625e+00,-6.397658348083496094e+00,-8.436009407043457031e+00,-9.889982223510742188e+00,-2.320443391799926758e+00
-9.384695053100585938e+00,-1.558776760101318359e+01,-1.373900318145751953e+01,-1.286548995971679688e+01,-1.214519309997558594e+01,-1.416934776306152344e+01,-1.412168407440185547e+01,-1.305208969116210938e+01,-1.024009609222412109e+01,-1.066397094726562500e+01,-1.253471374511718750e+01,-1.445789337158203125e+01,-1.335500717163085938e+01,-1.139164638519287109e+01,-1.193522930145263672e+01,-1.140136337280273438e+01,-1.281753921508789062e+01,-1.461675643920898438e+01,-1.403886795043945312e+01,-1.387171459197998047e+01,-1.346158218383789062e+01,-1.460263156890869141e+01,-1.580821228027343750e+01,-1.829791831970214844e+01,-1.856851959228515625e+01,-1.721917152404785156e+01,-1.643034744262695312e+01,-1.470492553710937500e+01,-1.552702808380126953e+01,-1.684020233154296875e+01,-2.015916824340820312e+01,-2.334515380859375000e+01
-8.622943878173828125e+00,-2.149886322021484375e+01,-2.072019767761230469e+01,-1.943455886840820312e+01,-1.780286026000976562e+01,-1.754014968872070312e+01,-1.536636257171630859e+01,-1.185604763031005859e+01,-1.053959655761718750e+01,-8.658057212829589844e+00,-1.134616947174072266e+01,-1.227851963043212891e+01,-6.691508293151855469e+00,1.703233838081359863e+00,1.983307838439941406e+00,-7.627505064010620117e-01,-5.174217700958251953e+00,-2.934141874313354492e+00,-7.480627894401550293e-01,-7.270088195800781250e+00,-1.113750457763671875e+01,-1.120328521728515625e+01,-1.112608528137207031e+01,-1.279901790618896484e+01,-1.091787624359130859e+01,-1.364538860321044922e+01,-1.649293899536132812e+01,-1.675751113891601562e+01,-1.627333259582519531e+01,-1.705379104614257812e+01,-1.975407791137695312e+01,-2.932712173461914062e+01
-1.180480957031250000e+01,-2.808756256103515625e+01,-2.992144393920898438e+01,-2.709581947326660156e+01,-2.213702392578125000e+01,-2.237452507019042969e+01,-2.212827682495117188e+01,-1.696835708618164062e+01,-1.604993247985839844e+01,-1.608816146850585938e+01,-1.920748138427734375e+01,-1.838884544372558594e+01,-1.126928138732910156e+01,5.327787399291992188e+00,1.113777542114257812e+01,1.908240675926208496e+00,-7.552815437316894531e+00,-5.740471839904785156e+00,-6.361040592193603516e+00,-1.768844223022460938e+01,-2.147761344909667969e+01,-1.777920722961425781e+01,-1.721634674072265625e+01,-2.356603431701660156e+01,-2.267764472961425781e+01,-2.298261833190917969e+01,-2.357861137390136719e+01,-2.290611457824707031e+01,-2.187842178344726562e+01,-2.343713188171386719e+01,-2.677213478088378906e+01,-3.157260894775390625e+01
3.513290166854858398e+00,-6.244919300079345703e+00,-3.619434118270874023e+00,-3.640846490859985352e+00,-4.330957889556884766e+00,-5.177258491516113281e+00,-4.044726371765136719e+00,-3.625960588455200195e+00,-2.378429174423217773e+00,-1.685035109519958496e+00,-2.142208576202392578e+00,5.277342200279235840e-01,3.562502145767211914e+00,1.172181510925292969e+01,1.387306785583496094e+01,1.145144462585449219e+01,8.281762123107910156e+00,1.046731281280517578e+01,1.173085594177246094e+01,4.494973182678222656e+00,3.180709123611450195e+00,4.850708961486816406e+00,4.078055858612060547e+00,-2.829990386962890625e+00,-1.191108465194702148e+00,-3.458641529083251953e+00,-4.861686229705810547e+00,-3.911025285720825195e+00,-4.195439338684082031e+00,-5.006679534912109375e+00,-6.556660652160644531e+00,-8.620075225830078125e+00
1.704661941528320312e+01,1.873369407653808594e+01,2.144181823730468750e+01,1.974711036682128906e+01,1.065879726409912109e+01,1.320701503753662109e+01,1.460183048248291016e+01,1.089463710784912109e+01,1.029475498199462891e+01,1.151209163665771484e+01,1.358679676055908203e+01,1.636193084716796875e+01,1.650119781494140625e+01,1.773111724853515625e+01,1.752038764953613281e+01,2.287095069885253906e+01,2.202930450439453125e+01,2.310063171386718750e+01,2.600859069824218750e+01,2.363128471374511719e+01,2.283042907714843750e+01,2.081302833557128906e+01,1.928944969177246094e+01,1.584873867034912109e+01,1.934165191650390625e+01,1.701133346557617188e+01,1.364907169342041016e+01,1.547667694091796875e+01,1.516642093658447266e+01,1.486075305938720703e+01,1.650446510314941406e+01,1.847739410400390625e+01
3.362884044647216797e+00,5.585966110229492188e+00,8.130375862121582031e+00,6.966224670410156250e+00,4.593533992767333984e+00,4.455314159393310547e+00,3.718077182769775391e+00,3.972246885299682617e+00,4.196245193481445312e+00,4.597792625427246094e+00,5.170029163360595703e+00,4.111970901489257812e+00,4.917628288269042969e+00,5.784152984619140625e+00,4.590725898742675781e+00,8.907357215881347656e+00,8.469032287597656250e+00,8.650467872619628906e+00,1.375326061248779297e+01,1.442247581481933594e+01,1.221712875366210938e+01,6.579158306121826172e+00,4.791729450225830078e+00,5.697678089141845703e+00,8.789740562438964844e+00,5.835483074188232422e+00,3.425374031066894531e+00,3.941290855407714844e+00,4.986845493316650391e+00,5.284229278564453125e+00,5.357286453247070312e+00,1.147320175170898438e+01
-1.079360961914062500e+01,-9.697188377380371094e+00,-8.827178001403808594e+00,-6.564655303955078125e+00,-4.519136905670166016e+00,-5.658694267272949219e+00,-4.994183063507080078e+00,-4.022184371948242188e+00,-4.740674972534179688e+00,-4.585638999938964844e+00,-3.100200891494750977e+00,-5.626718997955322266e+00,-6.878754138946533203e+00,-2.242001056671142578e+00,-1.870766520500183105e+00,-6.924080371856689453e+00,-8.770502090454101562e+00,-7.757975101470947266e+00,-3.031911849975585938e+00,-1.790295004844665527e+00,-2.622055292129516602e+00,-8.385342597961425781e+00,-1.065253829956054688e+01,-1.152503490447998047e+01,-8.884842872619628906e+00,-7.516448974609375000e+00,-5.303825378417968750e+00,-5.238018035888671875e+00,-5.207950592041015625e+00,-4.436615467071533203e+00,-5.494677066802978516e+00,-2.725145339965820312e+00
-4.339019775390625000e+00,1.325436949729919434e+00,4.136376380920410156e+00,2.616686582565307617e+00,-1.807791113853454590e+00,-2.391648441553115845e-01,3.240601420402526855e-01,-6.061238422989845276e-02,-3.677474260330200195e-01,2.139769315719604492e+00,2.994169712066650391e+00,-6.887859106063842773e-01,-2.214433401823043823e-01,3.031821250915527344e+00,7.586804866790771484e+00,1.057842612266540527e+00,1.885298490524291992e+00,1.611899137496948242e+00,8.951749801635742188e+00,1.303523063659667969e+01,9.984728813171386719e+00,5.647362470626831055e-01,-1.873058199882507324e+00,2.528141021728515625e+00,5.408001422882080078e+00,1.504735946655273438e+00,-1.800513982772827148e+00,-9.478084444999694824e-01,-4.981786757707595825e-02,6.360922008752822876e-02,-7.183589935302734375e-01,2.171733602881431580e-02
-2.533164322376251221e-01,3.192978858947753906e+00,2.555233001708984375e+00,3.089971065521240234e+00,3.033113479614257812e+00,1.185510656796395779e-03,-2.114847898483276367e+00,2.392671823501586914e+00,5.898352622985839844e+00,3.660046339035034180e+00,-9.028756618499755859e-01,-2.135136842727661133e+00,-1.775235831737518311e-01,2.138590335845947266e+00,4.281239032745361328e+00,3.647778511047363281e+00,3.612310409545898438e+00,7.239445447921752930e-01,5.759674072265625000e+00,8.489534378051757812e+00,6.663139343261718750e+00,-2.999399006366729736e-01,-9.145918488502502441e-01,4.367818355560302734e+00,9.963494300842285156e+00,7.848200321197509766e+00,2.125119686126708984e+00,8.400189876556396484e-01,1.588999271392822266e+00,5.659831166267395020e-01,-2.045282162725925446e-02,-2.596240043640136719e+00
-6.237728595733642578e+00,-5.322543621063232422e+00,-1.043965911865234375e+01,-7.359069347381591797e+00,1.843055605888366699e+00,-1.445504903793334961e+00,-4.024264335632324219e+00,-1.592498064041137695e+00,-3.343576192855834961e+00,-5.942023277282714844e+00,-7.352248668670654297e+00,-5.289807319641113281e+00,-4.447739124298095703e+00,-3.035188674926757812e+00,-7.036674499511718750e+00,-8.383067131042480469e+00,-8.554664611816406250e+00,-9.858397483825683594e+00,-1.078116989135742188e+01,-9.382784843444824219e+00,-7.228399276733398438e+00,-9.207940101623535156e+00,-9.367995262145996094e+00,-9.208323478698730469e+00,-5.249176025390625000e+00,-2.102356433868408203e+00,-1.457269668579101562e+00,-1.956322193145751953e+00,-4.722595214843750000e+00,-5.870297431945800781e+00,-5.803012847900390625e+00,-7.163401126861572266e+00
-9.469470024108886719e+00,-4.363111019134521484e+00,-7.739481449127197266e+00,-7.893083095550537109e+00,-3.882590770721435547e+00,-2.105581045150756836e+00,-2.372273206710815430e+00,-5.566748619079589844e+00,-1.189393711090087891e+01,-9.377076148986816406e+00,-7.856926441192626953e+00,-6.171402931213378906e+00,-4.821957111358642578e+00,-2.437963247299194336e+00,-6.966104984283447266e+00,-9.291297912597656250e+00,-9.741225242614746094e+00,-8.456952095031738281e+00,-8.785271644592285156e+00,-7.071280956268310547e+00,-7.569017887115478516e+00,-1.042744731903076172e+01,-1.198798274993896484e+01,-9.022195816040039062e+00,-8.424727439880371094e+00,-8.840467453002929688e+00,-9.980071067810058594e+00,-8.866595268249511719e+00,-1.101005077362060547e+01,-1.153927803039550781e+01,-9.625516891479492188e+00,-6.944816112518310547e+00
-1.235658049583435059e+00,2.275058746337890625e+00,-2.681071162223815918e-01,-2.289349555969238281e+00,-6.688882708549499512e-01,1.740168631076812744e-01,1.051609516143798828e+00,-1.842888593673706055e+00,-3.085352182388305664e+00,-1.405189037322998047e+00,-1.997672200202941895e+00,-2.396588325500488281e+00,-2.247816801071166992e+00,1.424704551696777344e+00,1.360957264900207520e+00,3.109676361083984375e+00,6.058782339096069336e-01,1.314322471618652344e+00,4.177089214324951172e+00,6.929123401641845703e+00,4.056286811828613281e+00,-1.401011824607849121e+00,-2.471861839294433594e+00,4.200331687927246094e+00,5.788463115692138672e+00,1.347957968711853027e+00,-5.295159816741943359e+00,-2.616695880889892578e+00,-1.878462195396423340e+00,-4.364943981170654297e+00,-4.732255935668945312e+00,-1.683455467224121094e+00
7.601101398468017578e+00,5.817919731140136719e+00,-2.395602941513061523e+00,-2.760223865509033203e+00,8.092121124267578125e+00,8.180138587951660156e+00,8.076391220092773438e+00,4.689400196075439453e+00,6.034204006195068359e+00,5.336838245391845703e+00,5.461900711059570312e+00,4.221177577972412109e+00,4.171561241149902344e+00,7.165400505065917969e+00,8.361829757690429688e+00,9.189761161804199219e+00,6.703371047973632812e+00,7.449066638946533203e+00,8.346976280212402344e+00,9.242667198181152344e+00,7.881337642669677734e+00,6.120992183685302734e+00,7.139910697937011719e+00,8.198650360107421875e+00,6.364995956420898438e+00,5.687356472015380859e+00,4.749395370483398438e+00,1.064694309234619141e+01,9.236950874328613281e+00,4.479828834533691406e+00,1.170021176338195801e+00,5.508465290069580078e+00
7.780430793762207031e+00,7.607035636901855469e+00,-2.965056419372558594e+00,-4.093515396118164062e+00,7.102695941925048828e+00,1.036590480804443359e+01,9.970600128173828125e+00,4.185975551605224609e+00,7.251567244529724121e-01,5.765707492828369141e-01,2.904034137725830078e+00,5.548553466796875000e+00,7.755258083343505859e+00,7.398538589477539062e+00,6.071504592895507812e+00,5.777977466583251953e+00,6.666543483734130859e+00,7.504800319671630859e+00,5.870769500732421875e+00,2.987427949905395508e+00,1.987376093864440918e+00,4.005143165588378906e+00,6.552282333374023438e+00,3.154131889343261719e+00,-2.683390617370605469e+00,-7.404297590255737305e-01,4.176184177398681641e+00,1.081462192535400391e+01,8.443624496459960938e+00,4.303893566131591797e+00,1.574501514434814453e+00,2.856107711791992188e+00
6.648472309112548828e+00,8.541711807250976562e+00,3.104719400405883789e+00,1.210218191146850586e+00,5.537093162536621094e+00,5.343960762023925781e+00,6.310446262359619141e+00,1.929459691047668457e+00,-2.598407030105590820e+00,-5.076828002929687500e+00,-1.867255210876464844e+00,4.730623722076416016e+00,5.166656494140625000e+00,2.236996412277221680e+00,1.473361402750015259e-01,2.484422683715820312e+00,5.679550647735595703e+00,5.136353492736816406e+00,3.023097991943359375e+00,-1.504514336585998535e+00,-1.988341689109802246e+00,4.377807676792144775e-01,3.252973079681396484e+00,3.001800298690795898e+00,-1.482486486434936523e+00,1.319766640663146973e-01,1.677192926406860352e+00,7.984827995300292969e+00,9.266515731811523438e+00,7.921244144439697266e+00,4.842483043670654297e+00,-5.289205074310302734e+00
8.739591598510742188e+00,6.989181518554687500e+00,3.232322037220001221e-01,1.440060257911682129e+00,1.046972656250000000e+01,6.633563518524169922e+00,7.337834358215332031e+00,5.108801841735839844e+00,5.727179050445556641e+00,4.293389320373535156e+00,6.313694477081298828e+00,8.827353477478027344e+00,8.290488243103027344e+00,8.190408706665039062e+00,6.166851520538330078e+00,7.325264930725097656e+00,6.787871837615966797e+00,6.096401691436767578e+00,2.312752008438110352e+00,-6.157563328742980957e-01,9.021449089050292969e-01,5.655418872833251953e+00,8.072248458862304688e+00,8.606187820434570312e+00,1.978436946868896484e+00,1.736322879791259766e+00,1.854428768157958984e+00,1.120781898498535156e+01,1.266521263122558594e+01,1.006572723388671875e+01,7.092346191406250000e+00,-3.378530979156494141e+00
1.193018531799316406e+01,6.478127479553222656e+00,-4.116467952728271484e+00,-1.450202465057373047e+00,1.100189876556396484e+01,1.221147441864013672e+01,8.536588668823242188e+00,5.864163398742675781e+00,9.722052574157714844e+00,1.426590347290039062e+01,1.540781307220458984e+01,1.202431201934814453e+01,1.226003646850585938e+01,1.188108825683593750e+01,7.168819427490234375e+00,1.061043262481689453e+01,1.029777431488037109e+01,1.063366794586181641e+01,3.158611297607421875e+00,1.059060931205749512e+00,2.923700094223022461e+00,1.122374057769775391e+01,1.197058582305908203e+01,9.092282295227050781e+00,2.377566576004028320e+00,6.449166685342788696e-02,-2.198870629072189331e-01,8.334091186523437500e+00,9.171900749206542969e+00,2.333503723144531250e+00,-2.049663364887237549e-01,5.153912544250488281e+00
1.408982467651367188e+01,9.025079727172851562e+00,3.987931251525878906e+00,3.528728008270263672e+00,6.090278625488281250e+00,1.121166706085205078e+01,1.007007884979248047e+01,7.906382083892822266e+00,7.401192665100097656e+00,1.084844970703125000e+01,1.478074359893798828e+01,1.572570800781250000e+01,1.079089546203613281e+01,1.102314472198486328e+00,-6.188682556152343750e+00,6.224848270416259766e+00,1.412524509429931641e+01,1.379161262512207031e+01,4.905073165893554688e+00,3.944904088973999023e+00,7.437535762786865234e+00,1.448044776916503906e+01,1.258548736572265625e+01,1.106815433502197266e+01,8.959197044372558594e+00,5.455799579620361328e+00,6.954249739646911621e-01,7.372495174407958984e+00,1.032398033142089844e+01,1.748201012611389160e+00,-2.968858242034912109e+00,1.075546550750732422e+01
1.505402755737304688e+01,1.348442649841308594e+01,1.409626960754394531e+01,1.071278858184814453e+01,9.958639144897460938e+00,1.346848297119140625e+01,1.662033271789550781e+01,1.458825874328613281e+01,9.869216918945312500e+00,8.503049850463867188e+00,1.417485332489013672e+01,1.929987144470214844e+01,1.335842323303222656e+01,1.245926141738891602e+00,-6.180046081542968750e+00,8.234442710876464844e+00,1.667189407348632812e+01,1.447729396820068359e+01,4.580424308776855469e+00,5.414036273956298828e+00,1.178843307495117188e+01,1.815678787231445312e+01,1.626249694824218750e+01,1.767604827880859375e+01,1.592534828186035156e+01,1.357266521453857422e+01,8.411613464355468750e+00,1.768706512451171875e+01,1.823959732055664062e+01,1.259430789947509766e+01,7.449318885803222656e+00,1.851640701293945312e+01
7.915984153747558594e+00,9.416185379028320312e+00,7.778690814971923828e+00,6.210383892059326172e+00,1.134949207305908203e+01,1.253227233886718750e+01,1.085963916778564453e+01,9.117281913757324219e+00,6.943919181823730469e+00,5.203433990478515625e+00,6.664489746093750000e+00,7.376743793487548828e+00,9.526259422302246094e+00,7.511943817138671875e+00,2.564853191375732422e+00,7.710953712463378906e+00,8.084703445434570312e+00,7.197154998779296875e+00,-1.035504817962646484e+00,-2.315815448760986328e+00,1.139073491096496582e+00,1.049966335296630859e+01,1.194923877716064453e+01,7.796374320983886719e+00,1.052761435508728027e+00,2.992784023284912109e+00,5.775230407714843750e+00,1.373293113708496094e+01,1.078267669677734375e+01,9.266978263854980469e+00,9.424768447875976562e+00,1.832002258300781250e+01
-1.731448888778686523e+00,-2.488169670104980469e+00,-1.260069131851196289e+00,-6.838834881782531738e-01,2.140712440013885498e-01,-8.956737518310546875e-01,-3.970774412155151367e+00,-2.584374666213989258e+00,-2.033015966415405273e+00,-4.539986133575439453e+00,-6.724719524383544922e+00,-6.813918590545654297e+00,-5.447728157043457031e+00,-3.619443893432617188e+00,-6.227795124053955078e+00,-4.398219108581542969e+00,-4.714534282684326172e+00,-2.660911560058593750e+00,-6.817833900451660156e+00,-1.005198001861572266e+01,-9.815391540527343750e+00,-1.744392395019531250e+00,3.593054413795471191e-01,-8.914397239685058594e+00,-1.700140953063964844e+01,-1.118855953216552734e+01,-4.249123573303222656e+00,7.191178202629089355e-01,6.345191597938537598e-02,-3.972031176090240479e-01,3.747130334377288818e-01,6.991482734680175781e+00
-1.378537863492965698e-01,-4.303639888763427734e+00,2.178707122802734375e+00,1.840948581695556641e+00,-2.745177984237670898e+00,-3.796323776245117188e+00,-2.829716205596923828e+00,-1.174562335014343262e+00,7.258578203618526459e-03,-1.412998676300048828e+00,-2.225788116455078125e+00,-1.589217901229858398e+00,-5.591861248016357422e+00,-8.331131935119628906e+00,-1.264113807678222656e+01,-6.600702762603759766e+00,-2.763015270233154297e+00,-7.598508000373840332e-01,-5.532266139984130859e+00,-6.263690471649169922e+00,-2.441648006439208984e+00,3.859689474105834961e+00,2.284198522567749023e+00,-3.984505414962768555e+00,-1.111744308471679688e+01,-8.279013633728027344e+00,-6.372575759887695312e+00,3.336814880371093750e+00,3.421351909637451172e+00,-7.815687656402587891e-01,-6.501192092895507812e+00,1.704394102096557617e+00
5.027332782745361328e+00,-8.882275223731994629e-01,3.686898231506347656e+00,4.240051746368408203e+00,1.754671335220336914e+00,2.743260860443115234e+00,3.441430091857910156e+00,2.543382644653320312e+00,5.336515903472900391e+00,8.439267158508300781e+00,8.574933052062988281e+00,5.879152297973632812e+00,5.515757560729980469e+00,2.811888933181762695e+00,-2.303925752639770508e+00,2.167697429656982422e+00,3.822778701782226562e+00,3.899790525436401367e+00,-3.572700023651123047e+00,-4.410889148712158203e+00,6.006459593772888184e-01,8.986702919006347656e+00,7.009729862213134766e+00,5.611229896545410156e+00,-7.803356051445007324e-01,-2.980868816375732422e+00,-6.686721801757812500e+00,4.971386909484863281e+00,3.460793495178222656e+00,-2.916934728622436523e+00,-8.534700393676757812e+00,3.724586963653564453e+00
-2.962782859802246094e+00,-5.326242923736572266e+00,5.255922079086303711e-01,2.640294075012207031e+00,-3.498461246490478516e+00,-3.282376527786254883e+00,-4.085713386535644531e+00,-9.759836196899414062e-01,1.943188786506652832e+00,3.426709890365600586e+00,1.287090659141540527e+00,-6.174103617668151855e-01,-9.151619672775268555e-02,1.989405632019042969e+00,1.976237654685974121e+00,2.591589689254760742e+00,-5.874469876289367676e-01,-8.033052682876586914e-01,-5.901648998260498047e+00,-1.040823364257812500e+01,-8.015720367431640625e+00,-7.646949887275695801e-01,-1.746607303619384766e+00,-3.920254230499267578e+00,-7.335635185241699219e+00,-8.024256706237792969e+00,-1.241455173492431641e+01,-7.037707805633544922e+00,-6.549798965454101562e+00,-1.094065189361572266e+01,-1.285113334655761719e+01,1.295890092849731445e+00
-2.194435596466064453e+00,7.514046669006347656e+00,1.452406501770019531e+01,1.291050148010253906e+01,5.753045082092285156e-01,-1.084098696708679199e+00,-2.010643184185028076e-01,4.010019302368164062e+00,1.711788892745971680e+00,-1.202375069260597229e-01,-1.182617545127868652e+00,6.281543970108032227e-01,-3.511816740036010742e+00,-2.137205362319946289e+00,7.094289064407348633e-01,2.085618972778320312e+00,2.259755879640579224e-01,4.359494447708129883e-01,-3.361283540725708008e+00,-6.218435287475585938e+00,-3.479303121566772461e+00,1.282952427864074707e+00,-4.457879438996315002e-02,-6.568756580352783203e+00,-1.515690612792968750e+01,-1.456109809875488281e+01,-9.964962959289550781e+00,-2.642636537551879883e+00,-1.139991641044616699e+00,-8.937908172607421875e+00,-1.489762687683105469e+01,7.146164894104003906e+00
5.066653251647949219e+00,1.470161819458007812e+01,1.742446899414062500e+01,1.524662399291992188e+01,8.569251060485839844e+00,8.162570953369140625e+00,9.205127716064453125e+00,7.622984886169433594e+00,4.196683406829833984e+00,4.858310699462890625e+00,5.422321796417236328e+00,5.999048709869384766e+00,6.564949512481689453e+00,5.998176097869873047e+00,4.488817691802978516e+00,5.442773342132568359e+00,6.759345054626464844e+00,5.425362586975097656e+00,-1.507751941680908203e+00,-8.320367336273193359e-01,1.977918386459350586e+00,6.228500843048095703e+00,5.117173194885253906e+00,-7.113479971885681152e-01,-1.566219234466552734e+01,-1.832912826538085938e+01,-8.613486289978027344e+00,5.275481224060058594e+00,4.979056835174560547e+00,-8.187804222106933594e+00,-1.963767623901367188e+01,3.236687660217285156e+00
-6.926955699920654297e+00,1.492058157920837402e+00,6.822555541992187500e+00,8.755492210388183594e+00,7.635748982429504395e-01,-2.192986011505126953e+00,-1.219742178916931152e+00,-2.151282072067260742e+00,-1.537954688072204590e+00,-2.681041955947875977e+00,-2.817823171615600586e+00,-3.611944675445556641e+00,2.198824405670166016e+00,3.883256435394287109e+00,8.519113063812255859e-01,-1.030179023742675781e+00,-1.288868904113769531e+00,-4.687796115875244141e+00,-1.188570308685302734e+01,-1.383383083343505859e+01,-1.277567577362060547e+01,-9.255701065063476562e+00,-1.085765266418457031e+01,-7.888884067535400391e+00,-1.237242126464843750e+01,-1.733798027038574219e+01,-1.889385032653808594e+01,-1.228944683074951172e+01,-1.109056949615478516e+01,-1.893471145629882812e+01,-2.240984535217285156e+01,2.530670642852783203e+00
-1.823597908020019531e+01,-1.459735482931137085e-01,8.961224555969238281e+00,8.371874809265136719e+00,-8.597137451171875000e+00,-1.526053142547607422e+01,-1.197993087768554688e+01,-7.957426548004150391e+00,-7.158604145050048828e+00,-1.329270362854003906e+01,-1.554966735839843750e+01,-1.615176963806152344e+01,-1.418405914306640625e+01,-1.054000568389892578e+01,-9.878713607788085938e+00,-1.203526401519775391e+01,-1.424770069122314453e+01,-1.637394332885742188e+01,-1.812636566162109375e+01,-2.205333518981933594e+01,-2.209343719482421875e+01,-2.060148239135742188e+01,-2.152069854736328125e+01,-1.613627433776855469e+01,-4.396541595458984375e+00,-3.576953649520874023e+00,-1.275691890716552734e+01,-2.184303283691406250e+01,-1.976898384094238281e+01,-1.619140434265136719e+01,-6.257178306579589844e+00,2.068132209777832031e+01
-5.676532268524169922e+00,1.287898159027099609e+01,2.080443000793457031e+01,1.734210205078125000e+01,-2.576802074909210205e-01,-3.851102352142333984e+00,-3.177038908004760742e+00,-1.013537168502807617e+00,-5.173192620277404785e-01,-3.305871248245239258e+00,-5.998556137084960938e+00,-9.159132003784179688e+00,-1.034893321990966797e+01,-1.009320163726806641e+01,-1.041248893737792969e+01,-1.025968360900878906e+01,-9.802408218383789062e+00,-9.132492065429687500e+00,-1.001210498809814453e+01,-1.208088207244873047e+01,-1.164010429382324219e+01,-7.593330383300781250e+00,-5.102598190307617188e+00,-1.286876201629638672e+01,-9.189830780029296875e+00,-1.442131519317626953e+00,3.963382244110107422e+00,-1.550674319267272949e+00,-1.863129496574401855e+00,-1.198716998100280762e+00,5.851782321929931641e+00,2.606955909729003906e+01
3.963701963424682617e+00,1.288041877746582031e+01,1.602052879333496094e+01,1.609109878540039062e+01,6.471544742584228516e+00,6.383662700653076172e+00,3.769426822662353516e+00,4.613245487213134766e+00,7.145904064178466797e+00,6.208555698394775391e+00,4.687608718872070312e+00,6.616086959838867188e-01,9.024150371551513672e-01,-1.965028882026672363e+00,-4.647799968719482422e+00,-4.166030883789062500e+00,-2.162711143493652344e+00,-1.026166304945945740e-01,-3.229030132293701172e+00,-4.283153533935546875e+00,-4.363614082336425781e+00,1.063320517539978027e+00,4.519397735595703125e+00,-2.814759731292724609e+00,-5.915849685668945312e+00,-8.919781446456909180e-01,6.398589134216308594e+00,7.392773628234863281e+00,7.300019741058349609e+00,4.047561645507812500e+00,4.723361968994140625e+00,8.857742309570312500e+00
-2.971119642257690430e+00,-1.862659335136413574e+00,3.169558525085449219e+00,4.400336742401123047e+00,-3.807756423950195312e+00,-3.262662172317504883e+00,-3.183382511138916016e+00,-1.081815481185913086e+00,1.293045878410339355e+00,-1.468095302581787109e+00,-1.476860880851745605e+00,-2.784503936767578125e+00,-3.458172321319580078e+00,-4.602693557739257812e+00,-3.977704763412475586e+00,-4.912487506866455078e+00,-5.931147098541259766e+00,-5.007761478424072266e+00,-4.709247112274169922e+00,-4.372809410095214844e+00,-4.509935379028320312e+00,-6.101969242095947266e+00,-6.138990402221679688e+00,-1.140578031539916992e+00,2.498027086257934570e+00,-9.848908521234989166e-03,-3.968787431716918945e+00,-6.070980072021484375e+00,-5.044413089752197266e+00,-6.384232997894287109e+00,-3.016687631607055664e+00,-2.981540441513061523e+00
-2.915274858474731445e+00,-1.067745494842529297e+01,-7.859061241149902344e+00,-7.700854778289794922e+00,-1.357575130462646484e+01,-9.120841979980468750e+00,-7.895573139190673828e+00,-9.643486022949218750e+00,-8.150822639465332031e+00,-6.241928100585937500e+00,-4.081607818603515625e+00,-4.180442810058593750e+00,-6.005823135375976562e+00,-7.813041687011718750e+00,-7.631013393402099609e+00,-5.744935512542724609e+00,-5.842206478118896484e+00,-5.930922985076904297e+00,-5.204597949981689453e+00,-3.561256408691406250e+00,-2.857721328735351562e+00,-6.662642955780029297e+00,-8.591610908508300781e+00,-5.556588172912597656e+00,3.750715255737304688e-01,-2.348400592803955078e+00,-4.335019111633300781e+00,-9.183037757873535156e+00,-9.725090026855468750e+00,-9.635499000549316406e+00,-2.414728403091430664e+00,-2.942846298217773438e+00
-4.577660560607910156e+00,-1.259170532226562500e+01,-1.587178802490234375e+01,-1.552250099182128906e+01,-1.538599586486816406e+01,-1.155138874053955078e+01,-1.249820899963378906e+01,-1.295679473876953125e+01,-1.027148056030273438e+01,-5.352653503417968750e+00,-6.457626819610595703e+00,-6.858049869537353516e+00,-5.245764732360839844e+00,-5.546415328979492188e+00,-8.541148185729980469e+00,-7.819271087646484375e+00,-6.205235958099365234e+00,-5.512385368347167969e+00,-7.133593082427978516e+00,-6.177456855773925781e+00,-4.438964843750000000e+00,-3.921802759170532227e+00,-3.386791944503784180e+00,-3.598808288574218750e+00,6.279332160949707031e+00,5.795641422271728516e+00,5.005919933319091797e+00,-5.595458030700683594e+00,-6.726877212524414062e+00,-3.035752773284912109e+00,7.537597179412841797e+00,-1.052927112579345703e+01
-8.365068435668945312e+00,-9.793811798095703125e+00,-1.088582515716552734e+01,-1.151955318450927734e+01,-1.120824432373046875e+01,-1.240943622589111328e+01,-1.208021163940429688e+01,-7.938825607299804688e+00,-7.632816791534423828e+00,-7.624833106994628906e+00,-1.002850818634033203e+01,-7.269561290740966797e+00,-4.109461307525634766e+00,-8.254331946372985840e-01,1.824623793363571167e-01,-3.571142435073852539e+00,-4.995524406433105469e+00,-4.148725509643554688e+00,-1.801688075065612793e+00,-1.624484539031982422e+00,-6.724672913551330566e-01,-8.483467698097229004e-01,1.273482084274291992e+00,4.128685951232910156e+00,1.664975357055664062e+01,1.592970848083496094e+01,1.272283649444580078e+01,-5.266753435134887695e-01,-2.142758846282958984e+00,2.681182861328125000e+00,1.468400001525878906e+01,-1.169846343994140625e+01
-8.740372657775878906e-01,-5.505502223968505859e+00,-4.362691879272460938e+00,-4.448767185211181641e+00,-3.753679513931274414e+00,-6.227811813354492188e+00,-4.027355670928955078e+00,-1.820184111595153809e+00,-2.719443559646606445e+00,-1.999558806419372559e+00,-2.789747714996337891e+00,-6.790719032287597656e-01,7.223163247108459473e-01,5.170629024505615234e+00,1.006887531280517578e+01,8.094948768615722656e+00,4.896354675292968750e+00,3.901432514190673828e+00,9.279453277587890625e+00,1.051995944976806641e+01,9.496011734008789062e+00,4.859290122985839844e+00,4.090492248535156250e+00,5.126467227935791016e+00,1.938066864013671875e+01,1.989807128906250000e+01,1.772669792175292969e+01,3.039982557296752930e+00,4.568401873111724854e-01,4.951773643493652344e+00,1.857648658752441406e+01,-6.041583538055419922e+00
-2.383846521377563477e+00,-9.465740203857421875e+00,-8.706933975219726562e+00,-6.541927814483642578e+00,-4.615042686462402344e+00,-5.425909996032714844e+00,-4.730191707611083984e+00,-4.028239250183105469e+00,-3.788911104202270508e-01,4.549581527709960938e+00,7.955838441848754883e-01,-3.099313020706176758e+00,-1.010356068611145020e+00,2.474760293960571289e+00,3.659656524658203125e+00,2.884150505065917969e+00,1.801297068595886230e+00,-1.770190596580505371e-01,9.619246721267700195e-01,3.514416813850402832e-01,-1.618130922317504883e+00,-3.718850612640380859e+00,-4.824646472930908203e+00,-8.022041320800781250e+00,6.658792972564697266e+00,1.071846866607666016e+01,9.432839393615722656e+00,-6.700517177581787109e+00,-7.847328662872314453e+00,-2.215664625167846680e+00,1.069809436798095703e+01,-1.433310604095458984e+01
-1.413323497772216797e+01,-2.004948234558105469e+01,-2.109400558471679688e+01,-1.899216270446777344e+01,-1.297303104400634766e+01,-1.418743801116943359e+01,-1.373840999603271484e+01,-1.009689903259277344e+01,-6.885269641876220703e+00,-4.424810409545898438e+00,-9.380773544311523438e+00,-1.377430343627929688e+01,-1.073614788055419922e+01,-6.872077465057373047e+00,-7.920894145965576172e+00,-1.054530334472656250e+01,-1.262913227081298828e+01,-1.406983184814453125e+01,-1.494121932983398438e+01,-1.715630912780761719e+01,-1.890962409973144531e+01,-1.767879104614257812e+01,-1.702063751220703125e+01,-1.814512634277343750e+01,-7.331597328186035156e+00,-3.666118860244750977e+00,-5.591551303863525391e+00,-1.845202445983886719e+01,-1.803089714050292969e+01,-1.420221138000488281e+01,-4.379571914672851562e+00,-2.524062156677246094e+01
-8.904760360717773438e+00,-1.524682331085205078e+01,-1.768091964721679688e+01,-1.644479942321777344e+01,-7.359764099121093750e+00,-1.047599124908447266e+01,-8.890851974487304688e+00,-6.612293243408203125e+00,-8.107713699340820312e+00,-8.081518173217773438e+00,-8.258258819580078125e+00,-8.550255775451660156e+00,-8.009088516235351562e+00,-7.702944755554199219e+00,-9.002886772155761719e+00,-8.197812080383300781e+00,-9.107200622558593750e+00,-8.969758987426757812e+00,-7.461416721343994141e+00,-7.280918121337890625e+00,-8.889789581298828125e+00,-1.040611553192138672e+01,-1.076376056671142578e+01,-8.478808403015136719e+00,-1.608792841434478760e-01,-7.025311589241027832e-01,-9.585599899291992188e-01,-9.649305343627929688e+00,-9.563132286071777344e+00,-9.168483734130859375e+00,8.737753033638000488e-01,-1.481018066406250000e+01
6.545152664184570312e+00,1.114323139190673828e+00,-2.237833023071289062e+00,-2.620674669742584229e-01,8.854454994201660156e+00,7.318183898925781250e+00,7.557961463928222656e+00,6.841324329376220703e+00,5.779100894927978516e+00,5.368253707885742188e+00,6.651115417480468750e+00,7.243356704711914062e+00,4.971675395965576172e+00,-5.291705727577209473e-01,-3.157310485839843750e+00,1.285528302192687988e+00,5.869609832763671875e+00,6.406974792480468750e+00,7.812678337097167969e+00,7.786655426025390625e+00,7.120399475097656250e+00,5.075192451477050781e+00,5.181247711181640625e+00,5.300023078918457031e+00,1.317644596099853516e+01,1.230352401733398438e+01,1.446489143371582031e+01,7.407525539398193359e+00,7.721765995025634766e+00,7.782800197601318359e+00,1.961776924133300781e+01,3.822134971618652344e+00
6.441434383392333984e+00,7.599527359008789062e+00,5.232885837554931641e+00,5.348933696746826172e+00,1.066893959045410156e+01,1.113071823120117188e+01,1.129784870147705078e+01,1.073772525787353516e+01,8.329749107360839844e+00,6.353649139404296875e+00,7.798460960388183594e+00,8.373457908630371094e+00,6.154630661010742188e+00,3.054275512695312500e+00,1.660875201225280762e+00,3.207105875015258789e+00,4.734610080718994141e+00,4.695139884948730469e+00,3.970267534255981445e+00,3.668388366699218750e+00,3.310064792633056641e+00,4.108421802520751953e+00,4.021018028259277344e+00,4.123818874359130859e+00,1.091117191314697266e+01,1.127198600769042969e+01,1.175568580627441406e+01,5.932187557220458984e+00,7.284851074218750000e+00,6.835431098937988281e+00,1.705374336242675781e+01,1.761667013168334961e+00
-1.637634992599487305e+00,-2.707722187042236328e+00,-7.040189743041992188e+00,-8.612293243408203125e+00,-3.276406288146972656e+00,-1.915304660797119141e+00,-2.531094789505004883e+00,-4.061448574066162109e+00,-7.565220832824707031e+00,-8.208113670349121094e+00,-5.039535045623779297e+00,-4.586142063140869141e+00,-5.344148635864257812e+00,-4.540540218353271484e+00,-5.031196594238281250e+00,-5.713895797729492188e+00,-8.828837394714355469e+00,-8.222866058349609375e+00,-9.623593330383300781e+00,-6.680557727813720703e+00,-7.805854797363281250e+00,-5.992647171020507812e+00,-7.422639369964599609e+00,-3.661353349685668945e+00,4.094645977020263672e+00,3.751531839370727539e+00,1.049984097480773926e+00,-6.191390991210937500e+00,-4.591549873352050781e+00,-3.814757347106933594e+00,4.219369411468505859e+00,-1.293816184997558594e+01
-2.932123661041259766e+00,-5.447670459747314453e+00,-1.256718635559082031e+01,-1.476519775390625000e+01,-7.656344890594482422e+00,-5.012544631958007812e+00,-7.036340713500976562e+00,-7.923468589782714844e+00,-7.956068038940429688e+00,-7.360599040985107422e+00,-7.683106899261474609e+00,-9.154634475708007812e+00,-7.966039180755615234e+00,-6.705657482147216797e+00,-7.501940250396728516e+00,-7.999915122985839844e+00,-9.036458969116210938e+00,-8.141501426696777344e+00,-7.011538505554199219e+00,-4.068774223327636719e+00,-3.882458686828613281e+00,-3.610003709793090820e+00,-1.805734634399414062e+00,-1.236346960067749023e+00,3.236059665679931641e+00,6.223013401031494141e-01,2.568386554718017578e+00,-4.331290245056152344e+00,-3.861991882324218750e+00,-4.296219825744628906e+00,1.731619477272033691e+00,-1.468622303009033203e+01
8.562188744544982910e-01,1.907612204551696777e+00,-2.131638526916503906e+00,-3.685190916061401367e+00,1.370410084724426270e+00,4.632740974426269531e+00,3.924099683761596680e+00,4.422204017639160156e+00,3.871402740478515625e+00,2.341169118881225586e+00,4.029753208160400391e-01,8.180611133575439453e-01,2.283360481262207031e+00,4.485262870788574219e+00,5.875453948974609375e+00,3.923944711685180664e+00,2.630425453186035156e+00,3.155852317810058594e+00,6.804404258728027344e+00,6.230399131774902344e+00,6.784311771392822266e+00,5.317667961120605469e+00,9.723243713378906250e+00,7.355976104736328125e+00,7.509541511535644531e+00,5.231486797332763672e+00,1.239845848083496094e+01,8.780570983886718750e+00,5.599050998687744141e+00,3.997938394546508789e+00,8.228498458862304688e+00,-7.832323074340820312e+00
6.080756187438964844e+00,3.294846296310424805e+00,-5.254079699516296387e-01,1.608114242553710938e-01,7.328214168548583984e+00,1.065362930297851562e+01,1.015946769714355469e+01,5.720480442047119141e+00,2.746727228164672852e+00,2.043526887893676758e+00,6.448929309844970703e+00,8.743799209594726562e+00,7.464275836944580078e+00,8.366328239440917969e+00,1.022534751892089844e+01,9.187890052795410156e+00,5.797799110412597656e+00,7.764876365661621094e+00,8.095167160034179688e+00,6.462311744689941406e+00,5.393455505371093750e+00,7.115711688995361328e+00,7.629981040954589844e+00,6.418019771575927734e+00,6.592606544494628906e+00,5.288273811340332031e+00,1.051956748962402344e+01,1.070660781860351562e+01,8.456881523132324219e+00,6.125616550445556641e+00,6.383878231048583984e+00,-9.850262641906738281e+00
7.392718791961669922e+00,2.507316350936889648e+00,-1.383609533309936523e+00,4.991372525691986084e-01,7.351135253906250000e+00,1.030355739593505859e+01,7.975663661956787109e+00,8.407977819442749023e-01,1.770691573619842529e-01,1.029577970504760742e+00,6.653244972229003906e+00,7.855035781860351562e+00,4.569055080413818359e+00,1.190176367759704590e+00,6.542546153068542480e-01,3.141599655151367188e+00,4.961973667144775391e+00,7.724351406097412109e+00,4.930583477020263672e+00,2.627723932266235352e+00,3.841892004013061523e+00,8.303472518920898438e+00,5.621113777160644531e+00,3.551572084426879883e+00,6.349068164825439453e+00,3.822433710098266602e+00,3.283044338226318359e+00,4.116891860961914062e+00,7.456965923309326172e+00,3.535823106765747070e+00,-1.280940771102905273e+00,-9.911416053771972656e+00
5.925065517425537109e+00,6.401628017425537109e+00,8.009467124938964844e+00,7.513470172882080078e+00,6.604413032531738281e+00,8.264244079589843750e+00,6.709529876708984375e+00,3.321779251098632812e+00,5.398819923400878906e+00,5.351994037628173828e+00,5.664328098297119141e+00,5.374309539794921875e+00,3.610767126083374023e+00,1.431507587432861328e+00,2.430582046508789062e+00,3.822751283645629883e+00,8.314393997192382812e+00,9.543784141540527344e+00,1.066548442840576172e+01,7.686401367187500000e+00,1.012744998931884766e+01,1.033451747894287109e+01,8.890952110290527344e+00,8.913357734680175781e+00,1.472723770141601562e+01,1.116769886016845703e+01,5.219407081604003906e+00,4.404815673828125000e+00,8.584005355834960938e+00,5.132204532623291016e+00,-1.023034095764160156e+00,1.468048214912414551e+00
-4.366327822208404541e-01,4.517317116260528564e-01,4.790126800537109375e+00,4.074006080627441406e+00,1.427782773971557617e+00,1.118303656578063965e+00,-8.801440596580505371e-01,-7.551028132438659668e-01,2.890946388244628906e+00,3.368627548217773438e+00,1.075155258178710938e+00,1.649482369422912598e+00,3.905066251754760742e+00,7.024148464202880859e+00,1.144640445709228516e+01,8.840250015258789062e+00,7.799597263336181641e+00,7.590255260467529297e+00,1.167870903015136719e+01,8.121724128723144531e+00,5.831471443176269531e+00,2.367815494537353516e+00,1.013496279716491699e+00,5.728990077972412109e+00,1.092742443084716797e+01,8.389880180358886719e+00,2.106200933456420898e+00,2.218061923980712891e+00,3.067278861999511719e+00,2.495712995529174805e+00,3.725938498973846436e-01,3.241399765014648438e+00
-1.098197174072265625e+01,-1.609251403808593750e+01,-1.255086994171142578e+01,-1.082067584991455078e+01,-1.246906566619873047e+01,-1.178634452819824219e+01,-1.322771072387695312e+01,-1.019761562347412109e+01,-7.925705909729003906e+00,-7.822306632995605469e+00,-8.629768371582031250e+00,-4.935076236724853516e+00,-1.018076062202453613e+00,2.282759189605712891e+00,7.338756561279296875e+00,3.560967922210693359e+00,1.855643630027770996e+00,5.790241956710815430e-01,3.379453897476196289e+00,-1.612500429153442383e+00,-5.858395576477050781e+00,-9.841983795166015625e+00,-1.164126873016357422e+01,-9.125570297241210938e+00,-4.730781078338623047e+00,-4.740682601928710938e+00,-7.825640678405761719e+00,-9.739050865173339844e+00,-1.040841960906982422e+01,-8.189834594726562500e+00,-5.805692195892333984e+00,-5.805181026458740234e+00
-1.226681423187255859e+01,-1.514768505096435547e+01,-1.229219818115234375e+01,-1.077371597290039062e+01,-1.333495140075683594e+01,-1.188331985473632812e+01,-1.134583377838134766e+01,-8.529500961303710938e+00,-1.223306560516357422e+01,-1.301252460479736328e+01,-1.112754440307617188e+01,-5.573945522308349609e+00,-5.259370803833007812e+00,-4.488886356353759766e+00,-1.964514017105102539e+00,-3.932355403900146484e+00,-3.618888378143310547e+00,-5.861902236938476562e+00,-3.776288986206054688e+00,-7.210685253143310547e+00,-8.395784378051757812e+00,-1.141277980804443359e+01,-1.116535091400146484e+01,-1.384085178375244141e+01,-1.146424674987792969e+01,-1.050784206390380859e+01,-9.464499473571777344e+00,-1.414098548889160156e+01,-1.447005271911621094e+01,-1.227508258819580078e+01,-9.000820159912109375e+00,-9.469673156738281250e+00
-5.927693843841552734e+00,-3.478194713592529297e+00,-2.170723676681518555e+00,-2.900469779968261719e+00,-4.337979793548583984e+00,-3.174839973449707031e+00,-3.408626794815063477e+00,-4.102394104003906250e+00,-6.580780982971191406e+00,-4.744664669036865234e+00,-3.416110038757324219e+00,-1.633065938949584961e+00,-4.384319782257080078e+00,-5.231273174285888672e+00,-6.003560543060302734e+00,-5.741957664489746094e+00,-6.468439102172851562e+00,-7.813949584960937500e+00,-6.696514129638671875e+00,-5.281653404235839844e+00,-5.734097480773925781e+00,-6.405211925506591797e+00,-6.796100139617919922e+00,-6.617683887481689453e+00,-6.704576015472412109e+00,-5.726775169372558594e+00,-4.278427124023437500e+00,-6.120570182800292969e+00,-6.083737373352050781e+00,-4.126062393188476562e+00,-3.088668823242187500e+00,-7.134442329406738281e+00
-3.935752630233764648e+00,-2.193469762802124023e+00,-5.042903423309326172e+00,-6.265642642974853516e+00,-4.181418895721435547e+00,-3.021964788436889648e+00,-3.977654695510864258e+00,-5.152625560760498047e+00,-1.387639760971069336e+00,2.781275749206542969e+00,1.103494048118591309e+00,-2.442624330520629883e+00,-2.613777160644531250e+00,-1.519160509109497070e+00,-1.141442656517028809e+00,-7.904488444328308105e-01,-1.902734041213989258e+00,-1.152005553245544434e+00,-1.133735775947570801e+00,1.852754116058349609e+00,-1.602584481239318848e+00,-2.922483682632446289e+00,-4.058319568634033203e+00,-1.694443345069885254e+00,-2.899550437927246094e+00,-1.971097350120544434e+00,-2.279050827026367188e+00,-1.758683681488037109e+00,-1.668251276016235352e+00,6.454588770866394043e-01,3.684378862380981445e-01,-6.207384586334228516e+00
-1.234026670455932617e+00,-2.683519124984741211e+00,-4.541355133056640625e+00,-4.707577228546142578e+00,-2.865454912185668945e+00,-3.943359375000000000e+00,-2.736640930175781250e+00,-1.169915914535522461e+00,7.086328864097595215e-01,1.306373953819274902e+00,3.504995405673980713e-01,-3.109362602233886719e+00,-9.457381367683410645e-01,1.990064501762390137e+00,4.215047359466552734e+00,2.501844406127929688e+00,2.197890996932983398e+00,4.634823322296142578e+00,6.307681560516357422e+00,9.736997604370117188e+00,6.340978145599365234e+00,2.271526336669921875e+00,2.733172416687011719e+00,3.423449993133544922e+00,2.699923515319824219e+00,8.184621334075927734e-01,-7.636541724205017090e-01,-1.984002292156219482e-01,-8.512871265411376953e-01,-5.794626474380493164e-01,1.743174344301223755e-01,-2.070394277572631836e+00
7.782228946685791016e+00,2.290502548217773438e+00,4.648835182189941406e+00,6.354270935058593750e+00,5.605409145355224609e+00,2.243175983428955078e+00,3.264641761779785156e+00,3.944563865661621094e+00,2.787678956985473633e+00,1.789421439170837402e+00,2.637108325958251953e+00,1.024933457374572754e+00,1.263085484504699707e+00,1.532028913497924805e-01,-8.757717609405517578e-01,-3.176965475082397461e+00,-3.228550195693969727e+00,-1.047988891601562500e+00,2.674588933587074280e-02,7.344699382781982422e+00,9.056355476379394531e+00,8.425632476806640625e+00,5.720773220062255859e+00,9.191455841064453125e+00,7.876724243164062500e+00,4.519539833068847656e+00,5.845208764076232910e-01,3.475281238555908203e+00,3.141096591949462891e+00,2.796044349670410156e+00,3.171914100646972656e+00,1.706571102142333984e+00
8.709536552429199219e+00,6.247275352478027344e+00,9.528028488159179688e+00,1.184315109252929688e+01,9.131565093994140625e+00,6.474358081817626953e+00,8.487523078918457031e+00,8.845809936523437500e+00,7.484386444091796875e+00,6.540326118469238281e+00,5.409499168395996094e+00,3.613111972808837891e+00,1.691421985626220703e+00,4.061775803565979004e-01,-1.470231652259826660e+00,-1.959110379219055176e+00,-2.753268241882324219e+00,-2.883362054824829102e+00,-4.271496772766113281e+00,3.119534552097320557e-01,5.034233093261718750e+00,7.638353347778320312e+00,5.203970909118652344e+00,6.954722881317138672e+00,5.580055713653564453e+00,6.208987712860107422e+00,4.249097347259521484e+00,6.778643131256103516e+00,6.131238937377929688e+00,7.576346874237060547e+00,7.292397022247314453e+00,4.588930606842041016e+00
4.977593421936035156e+00,1.093921947479248047e+01,1.394061374664306641e+01,1.278631019592285156e+01,6.984033107757568359e+00,6.099214076995849609e+00,1.088586330413818359e+01,1.149022769927978516e+01,8.225570678710937500e+00,5.422418117523193359e+00,4.971801280975341797e+00,5.000773906707763672e+00,4.101942062377929688e+00,6.527026653289794922e+00,8.468207359313964844e+00,7.441845417022705078e+00,6.249316215515136719e+00,6.283469200134277344e+00,8.030173301696777344e+00,3.300863027572631836e+00,4.148402214050292969e+00,5.324193000793457031e+00,1.025749015808105469e+01,4.445814609527587891e+00,2.656462907791137695e+00,6.123253822326660156e+00,1.009709358215332031e+01,9.628515243530273438e+00,8.476658821105957031e+00,9.198746681213378906e+00,1.036725616455078125e+01,1.586161041259765625e+01
9.071798324584960938e+00,1.864016342163085938e+01,1.817922210693359375e+01,1.405621337890625000e+01,9.088582992553710938e+00,8.646588325500488281e+00,8.656456947326660156e+00,6.749652385711669922e+00,5.964250087738037109e+00,5.955204486846923828e+00,7.213593959808349609e+00,9.129626274108886719e+00,9.721947669982910156e+00,9.165520668029785156e+00,1.159912109375000000e+01,1.038064670562744141e+01,1.133715534210205078e+01,1.318708229064941406e+01,1.514806842803955078e+01,9.823280334472656250e+00,8.233677864074707031e+00,1.016373538970947266e+01,1.328104019165039062e+01,8.365448951721191406e+00,4.289865493774414062e+00,6.669952869415283203e+00,1.097879600524902344e+01,1.224718856811523438e+01,1.132880496978759766e+01,1.063623332977294922e+01,1.251162433624267578e+01,2.109835243225097656e+01
1.404893493652343750e+01,1.762609100341796875e+01,1.245570659637451172e+01,1.122602748870849609e+01,1.193518161773681641e+01,1.221483898162841797e+01,6.452170848846435547e+00,4.679211139678955078e+00,9.360591888427734375e+00,1.169248104095458984e+01,1.197585010528564453e+01,1.399286842346191406e+01,1.195139884948730469e+01,6.068020820617675781e+00,5.601883411407470703e+00,1.002036094665527344e+01,1.470649814605712891e+01,1.355869483947753906e+01,8.807839393615722656e+00,8.999589920043945312e+00,1.213034629821777344e+01,1.545497894287109375e+01,1.133451843261718750e+01,1.024032974243164062e+01,7.024996280670166016e+00,8.387917518615722656e+00,8.657394409179687500e+00,1.196960926055908203e+01,1.128376770019531250e+01,1.006448554992675781e+01,9.421545028686523438e+00,1.506017017364501953e+01
1.266894817352294922e+01,1.236148834228515625e+01,9.383720397949218750e+00,1.042805957794189453e+01,1.216406250000000000e+01,1.300216388702392578e+01,1.165533256530761719e+01,1.089354324340820312e+01,1.209312152862548828e+01,9.930391311645507812e+00,1.241560649871826172e+01,1.554125308990478516e+01,9.641990661621093750e+00,2.730312585830688477e+00,-6.713542342185974121e-01,6.453399658203125000e+00,1.109520339965820312e+01,7.909989833831787109e+00,2.750677108764648438e+00,4.531056880950927734e+00,7.966936111450195312e+00,9.325441360473632812e+00,9.687412261962890625e+00,8.844342231750488281e+00,7.843876361846923828e+00,8.082816123962402344e+00,7.602380275726318359e+00,9.961495399475097656e+00,9.754351615905761719e+00,8.431765556335449219e+00,7.408768653869628906e+00,1.423907375335693359e+01
1.030324935913085938e+01,1.161259651184082031e+01,1.521138572692871094e+01,1.442230892181396484e+01,1.054564476013183594e+01,9.723980903625488281e+00,1.089176177978515625e+01,1.079447746276855469e+01,5.854206085205078125e+00,1.271270275115966797e+00,4.199265956878662109e+00,8.882707595825195312e+00,7.806603908538818359e+00,4.458703517913818359e+00,7.208363413810729980e-01,3.143079042434692383e+00,2.897761344909667969e+00,6.455194205045700073e-02,-2.544055223464965820e+00,-1.141634583473205566e+00,-1.128126382827758789e+00,7.350913882255554199e-01,4.348495960235595703e+00,2.984984159469604492e+00,5.385511517524719238e-01,1.167118906974792480e+00,2.848032474517822266e+00,6.566179752349853516e+00,8.209768295288085938e+00,7.142244815826416016e+00,7.278877258300781250e+00,1.147209262847900391e+01
7.064805984497070312e+00,1.163830947875976562e+01,1.449869346618652344e+01,1.152600860595703125e+01,6.547288894653320312e+00,6.650217056274414062e+00,4.784094810485839844e+00,4.659386157989501953e+00,7.377148270606994629e-01,-2.087902307510375977e+00,-2.588635444641113281e+00,1.481296658515930176e+00,5.089434623718261719e+00,1.759989976882934570e+00,-2.235166877508163452e-01,1.583932280540466309e+00,1.965713143348693848e+00,-2.998534679412841797e+00,-7.642545700073242188e+00,-5.405387878417968750e+00,-2.288364410400390625e+00,1.456573367118835449e+00,-2.596618235111236572e-01,-1.329443573951721191e+00,-3.579887390136718750e+00,3.663166761398315430e-01,2.706210851669311523e+00,5.958440780639648438e+00,7.145543098449707031e+00,6.625065326690673828e+00,6.895171165466308594e+00,9.646038055419921875e+00
4.215516090393066406e+00,8.428054809570312500e+00,6.618409633636474609e+00,2.857581377029418945e+00,2.972809076309204102e+00,5.239794731140136719e+00,4.364937782287597656e+00,1.262563228607177734e+00,-7.249641418457031250e-01,-1.345657706260681152e+00,9.896690845489501953e-01,3.014971733093261719e+00,9.553508162498474121e-01,-4.747007846832275391e+00,-6.593495368957519531e+00,-6.164878010749816895e-01,1.994660735130310059e+00,-9.381029009819030762e-01,-6.601925849914550781e+00,-2.594436407089233398e+00,2.802818775177001953e+00,5.717985630035400391e+00,5.253081321716308594e+00,1.249771475791931152e+00,3.860428333282470703e-01,4.861835956573486328e+00,9.157345771789550781e+00,8.527368545532226562e+00,7.848375320434570312e+00,8.435000419616699219e+00,1.005537128448486328e+01,1.752258682250976562e+01
4.153664588928222656e+00,5.418986678123474121e-01,-1.107983469963073730e+00,-3.045610189437866211e+00,-5.422972440719604492e-01,1.713571995496749878e-01,-1.355183124542236328e-01,-3.306507110595703125e+00,-2.903692007064819336e+00,-1.283954381942749023e+00,3.000292778015136719e+00,3.865930318832397461e+00,1.144501090049743652e+00,-7.948479652404785156e-01,-5.050190925598144531e+00,-1.737915158271789551e+00,-2.389754056930541992e+00,1.634004414081573486e-01,-4.472514629364013672e+00,1.863216519355773926e+00,5.209532737731933594e+00,7.889689445495605469e+00,1.003759765625000000e+01,5.007432460784912109e+00,1.306402087211608887e+00,1.165330648422241211e+00,6.372669696807861328e+00,7.210659027099609375e+00,6.190515995025634766e+00,7.598466396331787109e+00,1.047347259521484375e+01,1.220239353179931641e+01
6.653565883636474609e+00,-2.430209159851074219e+00,-2.083918809890747070e+00,-2.745725154876708984e+00,-3.419002056121826172e+00,-3.358595371246337891e+00,-4.584190845489501953e+00,-4.225955486297607422e+00,-1.173302173614501953e+00,1.598945111036300659e-01,5.107585191726684570e-01,2.846966028213500977e+00,4.036495208740234375e+00,6.546884536743164062e+00,2.952361106872558594e+00,4.634557247161865234e+00,3.779146194458007812e+00,5.525039196014404297e+00,-3.263391926884651184e-02,3.833725214004516602e+00,8.109692573547363281e+00,1.064606761932373047e+01,8.393255233764648438e+00,8.931221961975097656e+00,7.430958271026611328e+00,3.335948467254638672e+00,2.240139245986938477e+00,4.895290851593017578e+00,3.111485958099365234e+00,2.431694984436035156e+00,4.350260257720947266e+00,-4.565337181091308594e+00
4.561296939849853516e+00,-3.373919963836669922e+00,-3.843005418777465820e+00,-4.981101989746093750e+00,-4.472990036010742188e+00,-1.818004250526428223e+00,-2.030164957046508789e+00,-2.559341192245483398e+00,-2.627194166183471680e+00,-2.234754323959350586e+00,-1.865142881870269775e-01,6.036243438720703125e+00,5.194802761077880859e+00,8.286157608032226562e+00,8.597760200500488281e+00,1.413208198547363281e+01,1.462322235107421875e+01,1.356020736694335938e+01,8.413619041442871094e+00,7.060873031616210938e+00,1.163389396667480469e+01,1.287878894805908203e+01,1.013781452178955078e+01,9.447230339050292969e+00,1.210766601562500000e+01,8.157588958740234375e+00,3.898394107818603516e+00,3.380514383316040039e+00,1.496246576309204102e+00,-1.804296851158142090e+00,-2.406502485275268555e+00,-9.585587501525878906e+00
3.246540307998657227e+00,-6.209718704223632812e+00,-3.424488782882690430e+00,-2.644306898117065430e+00,-5.674910545349121094e-01,5.540959537029266357e-02,1.672248840332031250e-01,-9.794247150421142578e-01,-3.389828920364379883e+00,-2.048041582107543945e+00,2.734875202178955078e+00,6.843519687652587891e+00,5.435727596282958984e+00,5.971014976501464844e+00,4.357987880706787109e+00,6.294093132019042969e+00,6.908203601837158203e+00,8.584394454956054688e+00,6.585435390472412109e+00,3.864427328109741211e+00,4.668560028076171875e+00,8.661405563354492188e+00,1.135215854644775391e+01,-2.950479090213775635e-01,-2.807671785354614258e+00,-9.712093472480773926e-01,3.604163408279418945e+00,1.120545268058776855e+00,1.042357683181762695e-01,-1.730857491493225098e+00,-3.687532901763916016e+00,-5.807922363281250000e+00
8.046030402183532715e-01,-7.808101654052734375e+00,-1.050474047660827637e+00,-4.862294495105743408e-01,-4.187315940856933594e+00,-4.919889926910400391e+00,-3.359263420104980469e+00,6.284045428037643433e-02,2.601207017898559570e+00,5.873777389526367188e+00,4.590389728546142578e+00,1.924197435379028320e+00,4.774668693542480469e+00,4.610415458679199219e+00,-1.988454222679138184e+00,-5.955368518829345703e+00,-1.719231963157653809e+00,1.840944647789001465e+00,1.583388686180114746e+00,-1.282251477241516113e+00,-3.836137950420379639e-01,3.707684755325317383e+00,5.741686344146728516e+00,-8.636716842651367188e+00,-1.201510810852050781e+01,-7.423516750335693359e+00,-1.843890249729156494e-01,-3.458869457244873047e+00,-5.518838882446289062e+00,-5.128786087036132812e+00,-5.433939933776855469e+00,-1.262754821777343750e+01
3.491665601730346680e+00,-2.552167415618896484e+00,3.522606849670410156e+00,3.740563154220581055e+00,-1.526247978210449219e+00,-1.740291953086853027e+00,1.258311748504638672e+00,6.507425785064697266e+00,9.973099708557128906e+00,1.044504642486572266e+01,8.965121269226074219e+00,5.617848396301269531e+00,3.970010042190551758e+00,2.910546302795410156e+00,3.640205562114715576e-01,7.440347671508789062e-01,6.072430610656738281e+00,8.150193214416503906e+00,8.735889434814453125e+00,5.429198265075683594e+00,6.968580245971679688e+00,6.432442188262939453e+00,4.553894996643066406e+00,1.234679460525512695e+00,4.171736717224121094e+00,3.208766460418701172e+00,1.812868416309356689e-01,-6.667677760124206543e-01,-2.482841730117797852e+00,-4.625126361846923828e+00,-6.388401985168457031e+00,-1.318158054351806641e+01
-1.691780209541320801e+00,-9.210591316223144531e+00,-5.370369911193847656e+00,-4.657120704650878906e+00,-4.235527992248535156e+00,-5.790494441986083984e+00,-6.719409465789794922e+00,-3.448287010192871094e+00,-1.965217947959899902e+00,-4.520478725433349609e+00,-3.679628133773803711e+00,-1.569273114204406738e+00,-3.660917520523071289e+00,-3.145598411560058594e+00,2.377592086791992188e+00,4.532266139984130859e+00,5.023520946502685547e+00,5.854415416717529297e+00,7.538759231567382812e+00,6.130406379699707031e+00,4.586146831512451172e+00,2.707154512405395508e+00,-1.420152664184570312e+00,1.164108037948608398e+00,2.870850801467895508e+00,-1.978888630867004395e+00,-8.441855430603027344e+00,-6.649663925170898438e+00,-6.872544288635253906e+00,-8.932772636413574219e+00,-1.099730300903320312e+01,-1.802420997619628906e+01
-1.530271244049072266e+01,-2.276198196411132812e+01,-1.915159034729003906e+01,-2.056210136413574219e+01,-2.031213569641113281e+01,-2.282337760925292969e+01,-2.477948379516601562e+01,-2.055013465881347656e+01,-1.626178359985351562e+01,-1.716316413879394531e+01,-1.996100044250488281e+01,-1.987527465820312500e+01,-1.490177345275878906e+01,-1.107134532928466797e+01,-5.262445449829101562e+00,-9.562168121337890625e+00,-1.137971973419189453e+01,-1.076943778991699219e+01,-8.320395469665527344e+00,-7.386786937713623047e+00,-7.895125865936279297e+00,-8.156677246093750000e+00,-1.212685585021972656e+01,-1.258582496643066406e+01,-1.186169528961181641e+01,-1.461819362640380859e+01,-1.708974838256835938e+01,-1.936917686462402344e+01,-1.985863304138183594e+01,-1.784790611267089844e+01,-1.574959373474121094e+01,-2.762056159973144531e+01
-7.381466388702392578e+00,-1.455331134796142578e+01,-1.555915164947509766e+01,-1.846679306030273438e+01,-1.727383804321289062e+01,-1.549114704132080078e+01,-1.464445781707763672e+01,-1.297452735900878906e+01,-1.131644344329833984e+01,-9.993681907653808594e+00,-1.076411724090576172e+01,-8.660534858703613281e+00,-8.148967742919921875e+00,-7.792093276977539062e+00,-4.633018493652343750e+00,-7.182732105255126953e+00,-7.589382648468017578e+00,-6.119258403778076172e+00,-2.455504655838012695e+00,-1.434936881065368652e+00,1.166996240615844727e+00,1.530652642250061035e+00,7.703790068626403809e-01,-2.761167287826538086e-01,2.638955831527709961e+00,-7.245572209358215332e-01,-3.627516746520996094e+00,-6.847644329071044922e+00,-7.477999210357666016e+00,-7.047962665557861328e+00,-5.543440818786621094e+00,-1.410222053527832031e+01
1.254145240783691406e+01,-1.765974044799804688e+00,-1.376426315307617188e+01,-1.578259563446044922e+01,-4.645472526550292969e+00,3.787101030349731445e+00,1.497650146484375000e+00,-3.917504787445068359e+00,-7.592143058776855469e+00,-4.180850982666015625e+00,4.034188270568847656e+00,1.164321613311767578e+01,7.903316497802734375e+00,4.600966453552246094e+00,7.626467227935791016e+00,1.032437896728515625e+01,8.810871124267578125e+00,1.083798027038574219e+01,1.302649879455566406e+01,1.380106925964355469e+01,1.502792263031005859e+01,1.699318122863769531e+01,1.675314712524414062e+01,1.096997737884521484e+01,8.288565635681152344e+00,8.419222831726074219e+00,9.386119842529296875e+00,1.146235370635986328e+01,1.011923313140869141e+01,6.764373302459716797e+00,3.397397041320800781e+00,-6.874721527099609375e+00
5.003005981445312500e+00,-5.145427227020263672e+00,-9.554615020751953125e+00,-1.070711994171142578e+01,-6.137075424194335938e+00,-2.698829412460327148e+00,-5.374225139617919922e+00,-7.840127944946289062e+00,-8.834329605102539062e+00,-8.295435905456542969e+00,-6.214108943939208984e+00,6.014962792396545410e-01,1.470328450202941895e+00,5.835649371147155762e-01,2.865115404129028320e+00,1.326511025428771973e+00,-1.664913296699523926e+00,-1.713257670402526855e+00,-1.623462080955505371e+00,-2.612197875976562500e+00,-4.002059459686279297e+00,-6.030153632164001465e-01,5.700970888137817383e-01,-6.879979133605957031e+00,-1.503043079376220703e+01,-1.212846755981445312e+01,-1.984201908111572266e+00,1.796181797981262207e+00,-6.168435811996459961e-01,-3.503338098526000977e+00,-7.371473312377929688e+00,-1.676633262634277344e+01
-1.579222774505615234e+01,-1.751609039306640625e+01,-8.661490440368652344e+00,-9.436813354492187500e+00,-1.546864414215087891e+01,-2.046316146850585938e+01,-1.688821792602539062e+01,-1.275039672851562500e+01,-1.193148612976074219e+01,-1.379486274719238281e+01,-1.631805419921875000e+01,-1.771137237548828125e+01,-1.412314224243164062e+01,-1.129714775085449219e+01,-1.112626934051513672e+01,-1.571997070312500000e+01,-1.864748764038085938e+01,-1.968377876281738281e+01,-2.091974639892578125e+01,-2.408860206604003906e+01,-2.556165504455566406e+01,-2.232419776916503906e+01,-1.974350166320800781e+01,-2.560396957397460938e+01,-3.143658065795898438e+01,-2.702586936950683594e+01,-1.816666793823242188e+01,-1.780781936645507812e+01,-1.791764640808105469e+01,-2.042929649353027344e+01,-1.975840568542480469e+01,-1.159791088104248047e+01
-1.080598831176757812e+01,-9.539555549621582031e+00,1.070957064628601074e+00,2.159377098083496094e+00,-3.923545837402343750e+00,-1.227449893951416016e+01,-9.459084510803222656e+00,-4.053047180175781250e+00,-3.982656002044677734e+00,-5.456265449523925781e+00,-6.775096893310546875e+00,-8.913761138916015625e+00,-8.249100685119628906e+00,-7.912105083465576172e+00,-8.692960739135742188e+00,-9.795057296752929688e+00,-1.124272727966308594e+01,-1.090843391418457031e+01,-1.141598415374755859e+01,-1.560931110382080078e+01,-1.665208244323730469e+01,-1.413240242004394531e+01,-1.297261047363281250e+01,-1.471271800994873047e+01,-1.835478591918945312e+01,-1.676883697509765625e+01,-1.979824066162109375e+01,-1.471613025665283203e+01,-1.221895027160644531e+01,-1.708623123168945312e+01,-1.549795341491699219e+01,5.818887233734130859e+00
-1.039963245391845703e+00,4.848572254180908203e+00,7.680154323577880859e+00,6.638458728790283203e+00,6.266008853912353516e+00,2.707990407943725586e-01,2.035988807678222656e+00,2.649604082107543945e+00,2.505843400955200195e+00,2.821811914443969727e+00,2.093931674957275391e+00,1.411064624786376953e+00,2.136442661285400391e+00,9.095850586891174316e-01,4.165412187576293945e-01,-6.112399697303771973e-01,-6.660664677619934082e-01,-1.619240790605545044e-01,-1.752821207046508789e+00,-6.803360462188720703e+00,-7.542170047760009766e+00,-4.490554332733154297e+00,-5.342168807983398438e+00,-1.747235298156738281e+00,-4.173443794250488281e+00,-6.721756458282470703e+00,-1.244047451019287109e+01,-5.603045940399169922e+00,-3.396300792694091797e+00,-8.433125495910644531e+00,-7.572168827056884766e+00,1.541819095611572266e+01
-1.305212259292602539e+00,9.267781257629394531e+00,9.209043502807617188e+00,5.749102115631103516e+00,8.111824035644531250e+00,3.379007816314697266e+00,8.866758346557617188e+00,7.943258285522460938e+00,7.856730937957763672e+00,8.362940788269042969e+00,6.683187007904052734e+00,2.793231964111328125e+00,2.822750091552734375e+00,2.266523122787475586e+00,1.065302014350891113e+00,-1.351118683815002441e+00,-7.088227272033691406e-01,-1.460463762283325195e+00,-4.652872085571289062e+00,-1.039379310607910156e+01,-1.089190864562988281e+01,-7.280531406402587891e+00,-4.661164283752441406e+00,-7.718669414520263672e+00,-1.136937999725341797e+01,-1.022245788574218750e+01,-7.871371746063232422e+00,-2.125311136245727539e+00,1.318679451942443848e+00,-4.836666584014892578e+00,-9.281819343566894531e+00,7.877020835876464844e+00
-1.219677209854125977e+00,1.380847835540771484e+01,2.084258270263671875e+01,1.777162361145019531e+01,1.168268585205078125e+01,5.063970088958740234e+00,9.917022705078125000e+00,1.056116676330566406e+01,1.026786994934082031e+01,9.258698463439941406e+00,5.912257671356201172e+00,1.828217148780822754e+00,6.808208227157592773e-01,-3.771894276142120361e-01,-3.413771629333496094e+00,-2.757189512252807617e+00,-1.938470959663391113e+00,-2.969085931777954102e+00,-5.528813362121582031e+00,-8.796859741210937500e+00,-7.712553977966308594e+00,-4.702362537384033203e+00,-2.772093772888183594e+00,-8.338382720947265625e+00,-1.510150432586669922e+01,-1.378692531585693359e+01,-7.444740772247314453e+00,-8.608222603797912598e-01,4.508204936981201172e+00,-4.719977855682373047e+00,-1.383849620819091797e+01,1.506880569458007812e+01
9.278432130813598633e-01,1.407335758209228516e+01,1.442237377166748047e+01,1.268169021606445312e+01,1.067059707641601562e+01,7.711042881011962891e+00,8.662470817565917969e+00,6.067711830139160156e+00,5.162671089172363281e+00,4.125735282897949219e+00,1.839709758758544922e+00,2.187900245189666748e-01,9.505257606506347656e-01,-1.421382188796997070e+00,-5.032807350158691406e+00,-1.070700764656066895e+00,1.924396514892578125e+00,2.445598363876342773e+00,1.199501037597656250e+00,9.069595336914062500e-01,2.672144889831542969e+00,3.066428661346435547e+00,1.489309072494506836e+00,2.685968875885009766e+00,-2.767008066177368164e+00,-5.000448703765869141e+00,-1.777976512908935547e+00,1.759016513824462891e+00,3.788565874099731445e+00,-4.531757354736328125e+00,-1.089266872406005859e+01,1.176241016387939453e+01
-2.689054250717163086e+00,9.360050201416015625e+00,4.905338764190673828e+00,4.874567031860351562e+00,8.624028205871582031e+00,6.787821292877197266e+00,8.842267036437988281e+00,6.071281909942626953e+00,5.086991786956787109e+00,3.844327688217163086e+00,1.049737453460693359e+00,-2.225660324096679688e+00,-9.562638401985168457e-01,-2.599292993545532227e+00,-2.588822603225708008e+00,-1.886274099349975586e+00,-3.455540835857391357e-01,5.071371197700500488e-01,2.863101720809936523e+00,4.417780399322509766e+00,5.096821308135986328e+00,1.847850799560546875e+00,1.581512331962585449e+00,5.732448101043701172e+00,5.061966896057128906e+00,1.864298939704895020e+00,8.511610031127929688e-01,1.353458046913146973e+00,2.068353414535522461e+00,-4.096559524536132812e+00,-6.102716445922851562e+00,4.403627395629882812e+00
-1.648855972290039062e+01,-2.633547782897949219e+00,-4.941657066345214844e+00,-5.691209316253662109e+00,-4.813080310821533203e+00,-7.870295047760009766e+00,-5.170085430145263672e+00,-5.266616821289062500e+00,-5.206048011779785156e+00,-5.472163200378417969e+00,-1.221501159667968750e+01,-1.812239837646484375e+01,-1.583903789520263672e+01,-9.475546836853027344e+00,-4.917233467102050781e+00,-1.106842899322509766e+01,-1.574024772644042969e+01,-1.575510215759277344e+01,-1.162045097351074219e+01,-9.872095108032226562e+00,-9.079607009887695312e+00,-1.560050582885742188e+01,-1.663433837890625000e+01,-1.526701068878173828e+01,-8.117902755737304688e+00,-6.976618289947509766e+00,-1.103034496307373047e+01,-1.603664970397949219e+01,-1.187545108795166016e+01,-1.192158412933349609e+01,-1.030662059783935547e+01,-3.409772872924804688e+00
-2.330834579467773438e+01,-9.518076896667480469e+00,-9.034968376159667969e+00,-1.066185474395751953e+01,-1.422599887847900391e+01,-1.813654518127441406e+01,-1.830954551696777344e+01,-1.640457916259765625e+01,-1.267394924163818359e+01,-1.155052471160888672e+01,-1.877075767517089844e+01,-2.642690658569335938e+01,-2.299211311340332031e+01,-1.153382778167724609e+01,-8.093429565429687500e+00,-1.759092330932617188e+01,-2.433976745605468750e+01,-2.338351631164550781e+01,-1.845356369018554688e+01,-1.637804794311523438e+01,-1.895988845825195312e+01,-2.501987838745117188e+01,-2.697998046875000000e+01,-2.421331787109375000e+01,-1.944124221801757812e+01,-1.785600090026855469e+01,-2.337104606628417969e+01,-2.705157279968261719e+01,-2.417734909057617188e+01,-2.196321678161621094e+01,-2.083415222167968750e+01,-1.379700469970703125e+01
-7.743493556976318359e+00,1.432610154151916504e+00,-4.393197536468505859e+00,-5.788744449615478516e+00,-2.628588914871215820e+00,-2.231024026870727539e+00,-2.303445339202880859e+00,-3.468083381652832031e+00,-7.095885276794433594e-01,1.149722933769226074e+00,-2.620352029800415039e+00,-7.855669975280761719e+00,-7.873600482940673828e+00,-3.146572113037109375e+00,-1.239498376846313477e+00,-5.759023666381835938e+00,-9.066736221313476562e+00,-7.209126949310302734e+00,-1.288281083106994629e+00,-1.745838671922683716e-01,-5.385441303253173828e+00,-8.396980285644531250e+00,-8.095386505126953125e+00,-7.008212089538574219e+00,-7.694739818572998047e+00,-6.992438793182373047e+00,-8.749996185302734375e+00,-7.879131317138671875e+00,-6.362646102905273438e+00,-7.548576354980468750e+00,-1.159514141082763672e+01,-1.240834617614746094e+01
8.737382888793945312e+00,1.561772537231445312e+01,1.423894119262695312e+01,1.317515945434570312e+01,1.427888679504394531e+01,1.299454879760742188e+01,1.340480899810791016e+01,1.269859409332275391e+01,1.217113590240478516e+01,1.052065944671630859e+01,1.015062046051025391e+01,8.913778305053710938e+00,4.983188152313232422e+00,1.735735058784484863e+00,1.621520400047302246e+00,2.351520538330078125e+00,2.119079589843750000e+00,9.539125561714172363e-01,4.217817306518554688e+00,8.816164016723632812e+00,8.470352172851562500e+00,8.744926452636718750e+00,9.212842941284179688e+00,5.857104301452636719e+00,5.316186904907226562e+00,7.907382488250732422e+00,8.532528877258300781e+00,1.057994174957275391e+01,1.319035243988037109e+01,1.252179718017578125e+01,8.317000389099121094e+00,6.386906623840332031e+00
4.985355854034423828e+00,1.022813129425048828e+01,1.566284656524658203e+01,1.376113986968994141e+01,8.065118789672851562e+00,5.274660587310791016e+00,4.642258167266845703e+00,3.999578475952148438e+00,2.759310483932495117e+00,7.062968611717224121e-01,2.723566591739654541e-01,2.177033424377441406e+00,-9.478867650032043457e-01,-6.595827102661132812e+00,-1.098580265045166016e+01,-7.204019546508789062e+00,-4.695916652679443359e+00,-8.459684371948242188e+00,-1.134669017791748047e+01,-2.278885602951049805e+00,1.247300505638122559e+00,4.393911361694335938e+00,4.062876224517822266e+00,4.060423374176025391e+00,6.467484474182128906e+00,7.736978530883789062e+00,4.905648708343505859e+00,4.230886459350585938e+00,5.541084289550781250e+00,7.560245990753173828e+00,9.126338958740234375e+00,7.323186397552490234e+00
2.439711838960647583e-01,3.911877632141113281e+00,2.910829067230224609e+00,1.570395827293395996e-01,7.152554988861083984e-01,1.590973973274230957e+00,9.630088806152343750e-01,-2.317588806152343750e+00,-4.154786586761474609e+00,-4.709403514862060547e+00,-3.757935047149658203e+00,-1.862121939659118652e+00,-4.861692905426025391e+00,-1.029087924957275391e+01,-1.428811931610107422e+01,-9.621819496154785156e+00,-5.690845012664794922e+00,-6.561308860778808594e+00,-7.958717346191406250e+00,-4.113777637481689453e+00,-3.354640245437622070e+00,-1.634018421173095703e+00,6.294955015182495117e-01,4.299602985382080078e+00,5.816400527954101562e+00,4.297579288482666016e+00,2.879213809967041016e+00,9.376167058944702148e-01,-3.718551099300384521e-01,5.289943814277648926e-01,1.293923258781433105e+00,-4.108118057250976562e+00
5.323219776153564453e+00,1.027434825897216797e+01,7.891876697540283203e+00,5.815791606903076172e+00,8.013130187988281250e+00,7.747247219085693359e+00,5.829859733581542969e+00,4.924256801605224609e+00,5.763017654418945312e+00,4.312905788421630859e+00,3.194005012512207031e+00,4.786431312561035156e+00,3.294425964355468750e+00,1.086655855178833008e+00,3.262650668621063232e-01,1.329045891761779785e+00,2.851238965988159180e+00,4.427491188049316406e+00,8.341285705566406250e+00,6.100162506103515625e+00,3.981309890747070312e+00,3.699591875076293945e+00,3.907612800598144531e+00,3.939387559890747070e+00,6.501493930816650391e+00,7.026866436004638672e+00,6.202033519744873047e+00,3.912636995315551758e+00,4.672360420227050781e+00,6.447175025939941406e+00,6.053494930267333984e+00,7.551278114318847656e+00
1.769795060157775879e+00,5.433135032653808594e+00,6.047366142272949219e+00,5.887501716613769531e+00,4.718120098114013672e+00,3.307947874069213867e+00,6.196310520172119141e-01,2.277417182922363281e+00,4.358854770660400391e+00,1.894622921943664551e+00,-2.064640760421752930e+00,-2.181023120880126953e+00,4.497982561588287354e-01,4.515438556671142578e+00,5.248920440673828125e+00,6.177170872688293457e-01,-3.848091959953308105e-01,-6.577289700508117676e-01,8.755536675453186035e-01,-3.321819067001342773e+00,-4.133893966674804688e+00,-2.671646356582641602e+00,-4.721123695373535156e+00,-3.164350748062133789e+00,2.822979927062988281e+00,5.114828109741210938e+00,2.121413469314575195e+00,-1.193757534027099609e+00,-1.142853870987892151e-01,5.134613037109375000e+00,5.424436569213867188e+00,9.446674346923828125e+00
-1.394008350372314453e+01,-1.614253807067871094e+01,-1.821557617187500000e+01,-1.855039405822753906e+01,-1.661129379272460938e+01,-1.537533378601074219e+01,-1.670404815673828125e+01,-1.578477573394775391e+01,-1.493746185302734375e+01,-1.515066432952880859e+01,-1.692070198059082031e+01,-1.569027328491210938e+01,-1.137546730041503906e+01,4.945676028728485107e-02,4.378756999969482422e+00,-5.667674064636230469e+00,-9.795570373535156250e+00,-9.244321823120117188e+00,-7.070235729217529297e+00,-1.751425361633300781e+01,-2.092763710021972656e+01,-1.791083145141601562e+01,-1.706259918212890625e+01,-1.255582332611083984e+01,-8.914599418640136719e+00,-1.031729698181152344e+01,-1.347839546203613281e+01,-1.495441246032714844e+01,-1.444134616851806641e+01,-9.777583122253417969e+00,-1.388343524932861328e+01,-1.829315185546875000e+01
-1.929092216491699219e+01,-2.705792236328125000e+01,-2.658165168762207031e+01,-2.616116523742675781e+01,-2.285541152954101562e+01,-2.185558128356933594e+01,-2.197313690185546875e+01,-2.008413696289062500e+01,-1.857052230834960938e+01,-1.486889839172363281e+01,-1.524190902709960938e+01,-1.509207630157470703e+01,-9.993920326232910156e+00,2.884140253067016602e+00,9.261136054992675781e+00,4.650768935680389404e-01,-4.214090347290039062e+00,-2.945152759552001953e+00,1.258682608604431152e+00,-5.536722660064697266e+00,-1.277907276153564453e+01,-1.442041683197021484e+01,-1.433654308319091797e+01,-1.612374305725097656e+01,-1.886103630065917969e+01,-2.119307136535644531e+01,-2.208855247497558594e+01,-2.255523872375488281e+01,-2.061071586608886719e+01,-1.987952041625976562e+01,-2.583378791809082031e+01,-3.815616226196289062e+01
2.778362631797790527e-01,-7.164845466613769531e+00,-2.663437366485595703e+00,-2.093952655792236328e+00,-3.113785028457641602e+00,-6.518394947052001953e-01,-1.092792391777038574e+00,-3.943207979202270508e+00,-4.353528499603271484e+00,1.204670190811157227e+00,6.510208129882812500e+00,7.282730579376220703e+00,1.063971805572509766e+01,1.449807071685791016e+01,1.469736862182617188e+01,1.544742393493652344e+01,1.843226432800292969e+01,1.829385948181152344e+01,1.726132202148437500e+01,1.838311004638671875e+01,1.382607460021972656e+01,1.063541984558105469e+01,1.048889255523681641e+01,6.247568130493164062e+00,2.052827835083007812e+00,-1.897369623184204102e+00,-1.414767026901245117e+00,-8.645407557487487793e-01,-1.828840494155883789e+00,-4.996286630630493164e-01,-2.082861900329589844e+00,-1.461663150787353516e+01
1.291949558258056641e+01,1.067289447784423828e+01,1.363210201263427734e+01,1.502928352355957031e+01,1.196707153320312500e+01,1.633486557006835938e+01,1.576844024658203125e+01,1.042080593109130859e+01,8.733284950256347656e+00,1.053570365905761719e+01,1.797552299499511719e+01,2.044226646423339844e+01,1.712675285339355469e+01,1.123848724365234375e+01,9.509563446044921875e+00,1.328712940216064453e+01,1.891463088989257812e+01,1.874990081787109375e+01,2.029896736145019531e+01,2.086977195739746094e+01,2.224756622314453125e+01,2.042744636535644531e+01,2.063814926147460938e+01,1.746984863281250000e+01,1.570229339599609375e+01,1.639060020446777344e+01,1.863714408874511719e+01,1.547167301177978516e+01,1.280601310729980469e+01,1.468214893341064453e+01,1.800356101989746094e+01,5.853245735168457031e+00
9.008289337158203125e+00,5.806385040283203125e+00,7.970206260681152344e+00,9.287995338439941406e+00,8.182655334472656250e+00,1.252459144592285156e+01,1.167446231842041016e+01,5.437877178192138672e+00,3.679543495178222656e+00,1.238821506500244141e+00,7.693354129791259766e+00,9.247019767761230469e+00,4.493093013763427734e+00,3.648673593997955322e-01,1.512412190437316895e+00,-5.713210701942443848e-01,-1.420153021812438965e+00,-1.022019743919372559e+00,-6.041463613510131836e-01,-6.215462088584899902e-02,3.936280727386474609e+00,7.944545269012451172e+00,6.670102596282958984e+00,2.298458099365234375e+00,-4.198639467358589172e-02,3.556243181228637695e+00,9.828115463256835938e+00,1.100838756561279297e+01,1.179035282135009766e+01,9.525081634521484375e+00,8.049343109130859375e+00,1.314413905143737793e+00
9.287683486938476562e+00,5.136316776275634766e+00,6.424182891845703125e+00,7.059381008148193359e+00,8.162739753723144531e+00,1.228711223602294922e+01,9.442145347595214844e+00,2.352674722671508789e+00,-3.769621253013610840e-01,-2.795299530029296875e+00,2.973252296447753906e+00,3.216846466064453125e+00,2.980823993682861328e+00,5.975689888000488281e+00,8.274218559265136719e+00,5.736248493194580078e+00,2.751850843429565430e+00,1.527237296104431152e+00,2.246328890323638916e-01,9.745886325836181641e-01,2.554582595825195312e+00,4.892392158508300781e+00,5.104856967926025391e+00,-5.664248466491699219e-01,-4.021470069885253906e+00,1.342867612838745117e+00,9.751529693603515625e+00,1.221860027313232422e+01,1.245084476470947266e+01,1.102973556518554688e+01,8.277706146240234375e+00,1.107612252235412598e+00
4.516731262207031250e+00,7.161894321441650391e+00,6.438361167907714844e+00,4.808385372161865234e+00,3.175933122634887695e+00,8.277775764465332031e+00,2.683905601501464844e+00,-2.425568819046020508e+00,-4.000851154327392578e+00,-5.152964591979980469e+00,-6.295139193534851074e-01,-1.769667029380798340e+00,-7.277144193649291992e-01,1.178357958793640137e+00,3.446158885955810547e+00,3.039279699325561523e+00,2.881429672241210938e+00,2.446870326995849609e+00,3.926040649414062500e+00,4.673080921173095703e+00,3.620497941970825195e+00,2.194513082504272461e+00,4.898711204528808594e+00,7.743534088134765625e+00,8.107846260070800781e+00,8.883609771728515625e+00,8.445723533630371094e+00,1.010861778259277344e+01,9.109559059143066406e+00,8.943573951721191406e+00,8.272687911987304688e+00,4.204211235046386719e+00
-4.064782619476318359e+00,-1.920341849327087402e+00,-7.192705869674682617e-01,-3.715791225433349609e+00,-8.846476554870605469e+00,-4.035893917083740234e+00,-9.186299324035644531e+00,-9.651380538940429688e+00,-7.864172935485839844e+00,-7.019643783569335938e+00,-3.170344352722167969e+00,-4.587177753448486328e+00,-4.723713397979736328e+00,-5.525537490844726562e+00,-4.816364765167236328e+00,-6.263679027557373047e+00,-7.413154125213623047e+00,-5.879549503326416016e+00,-3.910796880722045898e+00,-2.802572488784790039e+00,-3.824789047241210938e+00,-4.175052165985107422e+00,-5.710758209228515625e+00,6.224468350410461426e-01,6.872994899749755859e+00,5.741050243377685547e+00,-2.974121332168579102e+00,-3.486906766891479492e+00,-7.888939976692199707e-01,-1.580607056617736816e+00,-6.103163957595825195e-01,-9.236608147621154785e-01
2.018702983856201172e+00,-4.850068092346191406e+00,-7.425605297088623047e+00,-9.266061782836914062e+00,-1.017169284820556641e+01,5.612339824438095093e-02,-4.059093475341796875e+00,-6.673402786254882812e+00,-7.659413337707519531e+00,-2.867761850357055664e+00,4.799303531646728516e+00,4.458186149597167969e+00,3.913425445556640625e+00,3.342231035232543945e+00,2.780903577804565430e+00,2.676461935043334961e+00,2.891649246215820312e+00,2.611119031906127930e+00,1.166041254997253418e+00,-2.027583867311477661e-01,5.057387351989746094e-01,1.052237629890441895e+00,-5.058832168579101562e-01,3.643739819526672363e-01,3.770885705947875977e+00,1.455801606178283691e+00,-3.041678190231323242e+00,-3.500933170318603516e+00,-8.901408314704895020e-01,-9.333670735359191895e-01,2.649887323379516602e+00,-4.564851760864257812e+00
1.417930889129638672e+01,6.091339588165283203e+00,-2.056280708312988281e+01,-1.980184936523437500e+01,-1.052609920501708984e+01,1.463806724548339844e+01,1.129186058044433594e+01,-5.441350936889648438e+00,-1.370184135437011719e+01,-8.063762664794921875e+00,1.198643779754638672e+01,1.575402069091796875e+01,1.332465934753417969e+01,9.598759651184082031e+00,8.249219894409179688e+00,1.149668884277343750e+01,1.760074234008789062e+01,1.733526611328125000e+01,1.714000129699707031e+01,1.687985992431640625e+01,1.880786132812500000e+01,1.754074478149414062e+01,2.036146545410156250e+01,2.028706550598144531e+01,2.108258438110351562e+01,1.770958137512207031e+01,1.807684516906738281e+01,1.706224250793457031e+01,1.432424163818359375e+01,1.796763229370117188e+01,2.304492568969726562e+01,-5.409320831298828125e+00
1.514028930664062500e+01,1.307112312316894531e+01,-1.570111846923828125e+01,-1.502768039703369141e+01,-1.093080425262451172e+01,1.499663734436035156e+01,1.202405738830566406e+01,-9.625243186950683594e+00,-1.499469566345214844e+01,-1.153125476837158203e+01,1.016202259063720703e+01,1.475474834442138672e+01,1.275134277343750000e+01,1.062209987640380859e+01,9.927937507629394531e+00,1.187796306610107422e+01,1.461982440948486328e+01,1.517153263092041016e+01,1.543684673309326172e+01,1.625820541381835938e+01,1.697365570068359375e+01,1.759290504455566406e+01,1.711967086791992188e+01,1.618130683898925781e+01,1.730978584289550781e+01,1.779772949218750000e+01,1.716171073913574219e+01,1.814197921752929688e+01,1.695534896850585938e+01,1.861070632934570312e+01,1.852664756774902344e+01,-7.236599445343017578e+00
9.305797576904296875e+00,1.106732845306396484e+01,-6.870516777038574219e+00,-8.523354530334472656e+00,-7.144959449768066406e+00,6.770401954650878906e+00,5.569832324981689453e+00,-8.744404792785644531e+00,-1.035464096069335938e+01,-4.715142726898193359e+00,4.114109516143798828e+00,4.892587184906005859e+00,5.611004352569580078e+00,8.622872352600097656e+00,1.150051498413085938e+01,9.423730850219726562e+00,5.471344947814941406e+00,4.512448787689208984e+00,4.820228576660156250e+00,6.921741962432861328e+00,7.617145061492919922e+00,7.352466583251953125e+00,3.669144392013549805e+00,5.440635204315185547e+00,9.347144126892089844e+00,1.107198905944824219e+01,6.452089309692382812e+00,6.268450736999511719e+00,8.230414390563964844e+00,9.519877433776855469e+00,7.997942924499511719e+00,5.495399475097656250e+00
2.723465442657470703e+00,1.184894466400146484e+01,1.324334383010864258e+00,2.041436910629272461e+00,-2.070471286773681641e+00,3.781667470932006836e+00,5.290236473083496094e+00,-2.853019833564758301e-01,-3.173377513885498047e+00,1.668766379356384277e+00,2.997286558151245117e+00,2.434807538986206055e+00,2.221411466598510742e+00,1.108700394630432129e+00,3.566335201263427734e+00,3.761761188507080078e+00,5.086203098297119141e+00,4.978627681732177734e+00,5.483840465545654297e+00,5.282113075256347656e+00,5.626368522644042969e+00,4.765792846679687500e+00,6.546597003936767578e+00,6.444416999816894531e+00,4.977120876312255859e+00,3.279179096221923828e+00,4.555700778961181641e+00,5.956212997436523438e+00,5.385212421417236328e+00,4.235157966613769531e+00,6.716424465179443359e+00,3.081322097778320312e+01
4.722285270690917969e+00,1.314547824859619141e+01,8.456264495849609375e+00,7.975275039672851562e+00,3.791295051574707031e+00,7.863105297088623047e+00,9.434859275817871094e+00,6.388999462127685547e+00,-5.912022590637207031e-01,3.025751829147338867e+00,8.175469398498535156e+00,1.315714263916015625e+01,9.222064018249511719e+00,2.432489633560180664e+00,2.374864816665649414e+00,6.733206272125244141e+00,1.151125717163085938e+01,1.371820926666259766e+01,1.181150817871093750e+01,1.052118015289306641e+01,1.097865676879882812e+01,1.402776527404785156e+01,1.521740722656250000e+01,8.308855056762695312e+00,5.386294364929199219e+00,6.964255809783935547e+00,1.341404342651367188e+01,1.306575679779052734e+01,1.034327507019042969e+01,9.978306770324707031e+00,1.558695125579833984e+01,3.395100021362304688e+01
8.227390289306640625e+00,1.557722091674804688e+01,1.655982589721679688e+01,1.389789199829101562e+01,1.054954051971435547e+01,9.806711196899414062e+00,9.406563758850097656e+00,5.876425743103027344e+00,1.914576172828674316e+00,6.308640480041503906e+00,7.674886703491210938e+00,1.076811695098876953e+01,9.634119987487792969e+00,9.781432151794433594e+00,1.136372852325439453e+01,1.150211715698242188e+01,1.023740005493164062e+01,9.516501426696777344e+00,6.469776630401611328e+00,9.167441368103027344e+00,1.236450576782226562e+01,1.386050510406494141e+01,9.664903640747070312e+00,9.933044433593750000e+00,1.339274978637695312e+01,1.517426681518554688e+01,1.316650104522705078e+01,1.143861961364746094e+01,1.198532009124755859e+01,1.389145088195800781e+01,1.523003959655761719e+01,1.971844100952148438e+01
3.465465903282165527e-01,8.038838386535644531e+00,1.672881698608398438e+01,1.461301040649414062e+01,9.832673072814941406e+00,-1.595183610916137695e+00,-3.596603870391845703e-01,3.795204162597656250e+00,3.798285245895385742e+00,4.448180675506591797e+00,-3.838251590728759766e+00,-5.546706676483154297e+00,-3.056264400482177734e+00,6.879413127899169922e-01,2.143838405609130859e+00,1.544393301010131836e+00,-3.439192473888397217e-01,-3.543792247772216797e+00,-5.434711456298828125e+00,-2.362626552581787109e+00,9.675323367118835449e-01,-2.986390888690948486e-01,-1.471062302589416504e+00,6.821021080017089844e+00,1.030723857879638672e+01,6.387989997863769531e+00,-2.324075847864151001e-01,3.802469670772552490e-01,2.246105194091796875e+00,3.518287420272827148e+00,2.940818548202514648e+00,1.247793483734130859e+01
-7.995967864990234375e+00,-1.045374965667724609e+01,1.837568879127502441e+00,1.939538955688476562e+00,3.293009281158447266e+00,-1.319605731964111328e+01,-7.593489170074462891e+00,1.899340987205505371e+00,-3.081571102142333984e+00,-2.820052146911621094e+00,-1.082349014282226562e+01,-9.540083885192871094e+00,-9.552587509155273438e+00,-9.879688262939453125e+00,-1.124184322357177734e+01,-9.545387268066406250e+00,-7.286674022674560547e+00,-6.430825233459472656e+00,-5.600636482238769531e+00,-6.952552795410156250e+00,-8.332839012145996094e+00,-8.544079780578613281e+00,-6.646267890930175781e+00,-6.649186134338378906e+00,-8.654519081115722656e+00,-1.046411895751953125e+01,-9.747426986694335938e+00,-8.856253623962402344e+00,-1.088047409057617188e+01,-1.079761314392089844e+01,-1.135467052459716797e+01,-1.317194819450378418e+00
-2.437363147735595703e+00,-1.888157486915588379e+00,9.525066375732421875e+00,9.658396720886230469e+00,8.306768417358398438e+00,-1.274411797523498535e+00,2.204191207885742188e+00,5.809422969818115234e+00,-1.564874649047851562e+00,1.518412709236145020e+00,-1.505472958087921143e-01,8.718287348747253418e-01,1.059586048126220703e+00,9.760701060295104980e-01,-7.449612021446228027e-01,-1.960151314735412598e+00,-1.794961333274841309e+00,2.758265733718872070e-01,2.534355640411376953e+00,-2.597899734973907471e-01,-4.028831958770751953e+00,-4.040413379669189453e+00,-3.355059146881103516e+00,-1.082771968841552734e+01,-1.504633903503417969e+01,-1.044825267791748047e+01,-4.082947254180908203e+00,-4.208995342254638672e+00,-6.715081691741943359e+00,-8.181976318359375000e+00,-8.711934089660644531e+00,7.160874366760253906e+00
5.826064348220825195e-01,1.040789890289306641e+01,2.949637985229492188e+01,2.791651535034179688e+01,1.605992698669433594e+01,5.903256416320800781e+00,8.860171318054199219e+00,1.437190246582031250e+01,1.524148178100585938e+01,1.615955543518066406e+01,8.614662170410156250e+00,1.332661151885986328e+00,3.983452081680297852e+00,6.702921390533447266e+00,6.423519134521484375e+00,2.574520587921142578e+00,-2.212538480758666992e+00,-1.932769060134887695e+00,1.020389795303344727e+00,-3.960355222225189209e-01,-3.704354763031005859e+00,-6.429585456848144531e+00,-4.037430763244628906e+00,-6.149585723876953125e+00,-6.742726802825927734e+00,-3.972308158874511719e+00,-1.405696511268615723e+00,-3.053637742996215820e+00,-1.610096693038940430e+00,-2.779956817626953125e+00,-2.774731874465942383e+00,1.959065246582031250e+01
-8.916710019111633301e-01,6.188443660736083984e+00,2.814313888549804688e+01,2.618595695495605469e+01,1.197963333129882812e+01,7.582105994224548340e-01,4.610231399536132812e+00,1.402001762390136719e+01,1.639499664306640625e+01,1.408173084259033203e+01,5.304858684539794922e+00,-1.266254782676696777e+00,-1.741284132003784180e+00,-3.497797250747680664e+00,-3.611456632614135742e+00,-4.380403518676757812e+00,-7.261020183563232422e+00,-6.378452777862548828e+00,-6.373536586761474609e+00,-7.142689228057861328e+00,-8.918746948242187500e+00,-9.754306793212890625e+00,-8.879163742065429688e+00,-6.712670803070068359e+00,-5.706417083740234375e+00,-7.391346931457519531e+00,-9.547778129577636719e+00,-1.073095512390136719e+01,-6.982809066772460938e+00,-9.141889572143554688e+00,-8.556899070739746094e+00,1.254923057556152344e+01
-1.767703741788864136e-01,-3.272311449050903320e+00,5.674231052398681641e+00,4.790839195251464844e+00,6.282628059387207031e+00,2.464344501495361328e+00,3.124766111373901367e+00,6.260857105255126953e+00,5.272023677825927734e-01,2.900810718536376953e+00,1.891608238220214844e+00,2.286292076110839844e+00,-1.061428070068359375e+00,-7.668560028076171875e+00,-1.084467029571533203e+01,-8.230700492858886719e+00,-6.168284416198730469e+00,-6.858983516693115234e+00,-1.007617282867431641e+01,-9.367663383483886719e+00,-8.009722709655761719e+00,-6.325857639312744141e+00,-8.843493461608886719e+00,-5.957612514495849609e+00,-4.830734252929687500e+00,-6.927925586700439453e+00,-1.054656410217285156e+01,-1.172303962707519531e+01,-9.304681777954101562e+00,-1.126826858520507812e+01,-1.116923713684082031e+01,-7.824874401092529297e+00
-2.126933336257934570e+00,-1.321005249023437500e+01,-5.736599922180175781e+00,1.899200677871704102e+00,1.114326858520507812e+01,3.114376962184906006e-01,-9.520997405052185059e-01,7.722278594970703125e+00,4.242796897888183594e+00,5.931877613067626953e+00,-1.243364214897155762e+00,-2.870428085327148438e+00,-3.889008998870849609e+00,-8.340606689453125000e+00,-1.419425487518310547e+01,-1.320508098602294922e+01,-1.019626998901367188e+01,-1.135057258605957031e+01,-1.344479370117187500e+01,-1.368939876556396484e+01,-1.211256027221679688e+01,-1.059186840057373047e+01,-1.034792423248291016e+01,-7.600685119628906250e+00,-9.750419616699218750e+00,-1.115834236145019531e+01,-1.167522907257080078e+01,-8.150938987731933594e+00,-7.216125011444091797e+00,-9.438850402832031250e+00,-1.496075057983398438e+01,-2.104545211791992188e+01
-4.926259994506835938e+00,-1.382348632812500000e+01,-1.929958701133728027e+00,5.831833839416503906e+00,7.219016551971435547e+00,-8.219366073608398438e+00,-8.896444320678710938e+00,6.255157470703125000e+00,8.505865097045898438e+00,6.730000019073486328e+00,-5.807417392730712891e+00,-9.296327590942382812e+00,-8.032796859741210938e+00,-6.305052280426025391e+00,-6.958994388580322266e+00,-8.106834411621093750e+00,-1.087565612792968750e+01,-1.017841815948486328e+01,-9.331896781921386719e+00,-1.057784748077392578e+01,-1.049279499053955078e+01,-1.038435459136962891e+01,-8.320576667785644531e+00,-9.971406936645507812e+00,-1.275026035308837891e+01,-1.095164680480957031e+01,-4.819587707519531250e+00,-1.845606446266174316e+00,-3.205258846282958984e+00,-4.738337993621826172e+00,-9.878398895263671875e+00,-1.491632080078125000e+01
-3.855932712554931641e+00,-4.135304450988769531e+00,7.299491882324218750e+00,7.958439350128173828e+00,2.926027774810791016e-01,-8.394069671630859375e+00,-9.141555786132812500e+00,4.658944129943847656e+00,6.034396648406982422e+00,6.140887737274169922e+00,-6.397030830383300781e+00,-4.475343227386474609e+00,-3.338032484054565430e+00,2.068090677261352539e+00,7.182351589202880859e+00,6.831712245941162109e+00,3.163832187652587891e+00,3.159435272216796875e+00,3.115210056304931641e+00,1.784409046173095703e+00,1.258415579795837402e+00,1.661747932434082031e+00,2.366526603698730469e+00,-3.220832586288452148e+00,-5.331515312194824219e+00,-2.416809558868408203e+00,4.794360637664794922e+00,4.083461761474609375e+00,2.017481327056884766e+00,1.551789879798889160e+00,1.193877339363098145e+00,-5.328767299652099609e+00
-4.817638397216796875e+00,-4.066722691059112549e-01,8.401928901672363281e+00,6.993414402008056641e+00,-1.975122392177581787e-01,-6.187854766845703125e+00,-7.304857730865478516e+00,4.525362968444824219e+00,4.222399234771728516e+00,5.275629043579101562e+00,-7.038776397705078125e+00,-2.677098274230957031e+00,-5.277661681175231934e-01,3.092293024063110352e+00,5.582589626312255859e+00,6.478602886199951172e+00,8.562097549438476562e+00,8.225181579589843750e+00,7.200276851654052734e+00,7.396282672882080078e+00,5.595361232757568359e+00,5.711647987365722656e+00,5.385470867156982422e+00,6.204959392547607422e+00,7.873171806335449219e+00,6.723330974578857422e+00,2.426172494888305664e+00,2.840965986251831055e-02,-1.015811443328857422e+00,1.972269773483276367e+00,6.594653606414794922e+00,-2.932732820510864258e+00
-1.267875480651855469e+01,-1.482032489776611328e+01,-6.592962265014648438e+00,-4.650758266448974609e+00,-5.960348606109619141e+00,-1.394185352325439453e+01,-1.103585815429687500e+01,-1.470511674880981445e+00,-1.641418337821960449e+00,-2.529981851577758789e+00,-1.071341991424560547e+01,-1.092732524871826172e+01,-8.666371345520019531e+00,-6.391378402709960938e+00,-8.193762779235839844e+00,-1.113311100006103516e+01,-1.070216846466064453e+01,-9.725412368774414062e+00,-7.597058773040771484e+00,-8.496891975402832031e+00,-1.091590213775634766e+01,-1.304398632049560547e+01,-1.514489078521728516e+01,-7.267770290374755859e+00,-3.307412147521972656e+00,-6.901976108551025391e+00,-1.749191093444824219e+01,-1.867471694946289062e+01,-1.846918296813964844e+01,-1.529399585723876953e+01,-1.470125293731689453e+01,-2.339057159423828125e+01
-1.238759136199951172e+01,-2.097103309631347656e+01,-2.150954818725585938e+01,-1.432002735137939453e+01,-6.827818870544433594e+00,-1.137512111663818359e+01,-1.108222103118896484e+01,-3.509496927261352539e+00,-5.791708946228027344e+00,-6.750477790832519531e+00,-1.108020782470703125e+01,-1.011677455902099609e+01,-9.605687141418457031e+00,-9.698038101196289062e+00,-1.265566539764404297e+01,-1.377869129180908203e+01,-1.528343772888183594e+01,-1.669231986999511719e+01,-1.710355567932128906e+01,-1.953242111206054688e+01,-1.743697357177734375e+01,-1.623714447021484375e+01,-1.809905624389648438e+01,-1.752431106567382812e+01,-1.731388092041015625e+01,-1.722085952758789062e+01,-1.818838310241699219e+01,-1.859399414062500000e+01,-1.725534057617187500e+01,-1.631610488891601562e+01,-2.181440162658691406e+01,-3.305119323730468750e+01
-1.000324726104736328e+01,-1.504249858856201172e+01,-1.934767532348632812e+01,-1.149891757965087891e+01,-7.386007308959960938e+00,-7.663628101348876953e+00,-9.055839538574218750e+00,-2.203252315521240234e+00,-2.344329833984375000e+00,-2.740672349929809570e+00,-8.713439941406250000e+00,-8.466999053955078125e+00,-7.409948825836181641e+00,-8.102231979370117188e+00,-1.012875843048095703e+01,-8.974644660949707031e+00,-8.957485198974609375e+00,-1.106105422973632812e+01,-1.376637172698974609e+01,-1.424712276458740234e+01,-1.356781482696533203e+01,-1.186900138854980469e+01,-1.131068611145019531e+01,-1.460617828369140625e+01,-1.793361854553222656e+01,-1.641733741760253906e+01,-1.226864242553710938e+01,-1.188147735595703125e+01,-9.903400421142578125e+00,-9.688090324401855469e+00,-1.372986602783203125e+01,-2.124886322021484375e+01
-8.189314842224121094e+00,-3.905125856399536133e+00,-1.531824946403503418e+00,1.130817681550979614e-01,-9.901559829711914062e+00,-9.480862617492675781e+00,-6.958513259887695312e+00,-1.877780079841613770e+00,2.034254789352416992e+00,2.047511100769042969e+00,-4.336309432983398438e+00,-7.554085254669189453e+00,-5.036971569061279297e+00,-1.865388274192810059e+00,-1.695259451866149902e+00,-3.803075313568115234e+00,-5.414259433746337891e+00,-3.329765558242797852e+00,-2.685365915298461914e+00,-4.060461521148681641e+00,-8.964719772338867188e+00,-1.043387889862060547e+01,-8.665059089660644531e+00,-7.461469650268554688e+00,-8.479161262512207031e+00,-8.056799888610839844e+00,-7.655422687530517578e+00,-7.938350200653076172e+00,-8.610630035400390625e+00,-9.212833404541015625e+00,-8.368473052978515625e+00,-4.453539371490478516e+00
-1.588457822799682617e+00,7.572709918022155762e-01,-1.145154476165771484e+00,-8.038903474807739258e-01,-7.114273548126220703e+00,-4.436048030853271484e+00,-3.168617248535156250e+00,-1.345623731613159180e+00,2.547168731689453125e+00,2.167804718017578125e+00,-3.131438970565795898e+00,-5.917726516723632812e+00,-4.965372085571289062e+00,-1.424656987190246582e+00,5.982252955436706543e-01,-5.790533423423767090e-01,-3.162171602249145508e+00,-2.101108074188232422e+00,-1.310943603515625000e+00,-3.375126838684082031e+00,-3.926529169082641602e+00,-3.820658445358276367e+00,-2.504961490631103516e+00,-1.922309637069702148e+00,-6.078413128852844238e-01,1.702123582363128662e-01,2.548743486404418945e-01,-8.720536828041076660e-01,-2.196478605270385742e+00,-4.267730236053466797e+00,-2.749505519866943359e+00,4.030480384826660156e+00
4.322446346282958984e+00,-1.923435211181640625e+00,-9.761950492858886719e+00,-2.766769647598266602e+00,4.504137039184570312e-01,4.827871322631835938e+00,3.812243938446044922e+00,2.468690633773803711e+00,3.098045825958251953e+00,1.301440358161926270e+00,-7.112939953804016113e-01,-1.977332711219787598e+00,-3.961789608001708984e+00,-6.129728317260742188e+00,-5.333672523498535156e+00,-1.867867112159729004e+00,-2.841180801391601562e+00,-5.598849773406982422e+00,-7.949214935302734375e+00,-6.936499118804931641e+00,-4.176378250122070312e+00,-6.493449807167053223e-01,-8.391792774200439453e-01,-1.563162803649902344e+00,-3.224392414093017578e+00,-3.197957277297973633e+00,-3.821790218353271484e+00,-1.530176401138305664e+00,1.005516409873962402e+00,-7.745137810707092285e-01,-3.155861616134643555e+00,1.561773657798767090e+00
1.839461684226989746e+00,-4.256406307220458984e+00,-1.321512222290039062e+01,-2.583096504211425781e+00,4.649989306926727295e-01,3.171487569808959961e+00,1.749933242797851562e+00,1.598321437835693359e+00,2.783444643020629883e+00,2.969331741333007812e-01,8.126029968261718750e-01,6.122975349426269531e-01,-8.566095232963562012e-01,-4.748983383178710938e+00,-6.578503131866455078e+00,-5.102777957916259766e+00,-3.863722801208496094e+00,-4.330214500427246094e+00,-6.610918045043945312e+00,-5.659971714019775391e+00,-6.509676933288574219e+00,-4.567757606506347656e+00,-5.113239765167236328e+00,-5.199598312377929688e+00,-7.410208225250244141e+00,-7.024575710296630859e+00,-8.872933387756347656e+00,-7.178584575653076172e+00,-5.182789802551269531e+00,-2.867918252944946289e+00,-3.636616706848144531e+00,-1.179121732711791992e+00
-2.452639341354370117e+00,6.285126686096191406e+00,-2.791442871093750000e+00,8.871871232986450195e-01,-5.339137077331542969e+00,2.146421968936920166e-01,3.983083367347717285e-01,2.624114513397216797e+00,5.443134784698486328e+00,3.564601898193359375e+00,6.245045065879821777e-01,1.920774698257446289e+00,3.324221611022949219e+00,5.426956176757812500e+00,4.843076229095458984e+00,1.596040606498718262e+00,1.865782141685485840e+00,3.375877380371093750e+00,3.724561452865600586e+00,1.145409822463989258e+00,-3.443625271320343018e-01,-1.440783262252807617e+00,-9.537574052810668945e-01,-7.861679792404174805e-01,9.621294140815734863e-01,1.326401948928833008e+00,8.406274318695068359e-01,-5.696358680725097656e-01,-8.251413702964782715e-01,1.629353642463684082e+00,3.776044130325317383e+00,6.159780979156494141e+00
3.985943317413330078e+00,1.086587715148925781e+01,7.018652439117431641e+00,4.206268787384033203e+00,-3.638497829437255859e+00,3.609972715377807617e+00,7.324105739593505859e+00,7.162085533142089844e+00,6.387734413146972656e+00,8.301407814025878906e+00,6.489804744720458984e+00,8.847903251647949219e+00,1.030469512939453125e+01,1.307005214691162109e+01,1.407402610778808594e+01,1.270102214813232422e+01,1.229597854614257812e+01,1.305895996093750000e+01,1.470875072479248047e+01,1.411012840270996094e+01,1.464543819427490234e+01,1.196725749969482422e+01,1.121791648864746094e+01,1.272489452362060547e+01,1.556114482879638672e+01,1.372847366333007812e+01,1.349584484100341797e+01,1.288728141784667969e+01,1.190709400177001953e+01,9.747004508972167969e+00,8.673814773559570312e+00,5.963035583496093750e+00
3.706580638885498047e+00,-3.916217565536499023e+00,-1.032650852203369141e+01,-6.863549232482910156e+00,-2.247908592224121094e+00,-5.404917001724243164e-01,1.573227405548095703e+00,8.562712073326110840e-01,-1.278881907463073730e+00,1.369239211082458496e+00,5.019212722778320312e+00,6.250529289245605469e+00,5.227718353271484375e+00,2.452322006225585938e+00,3.266916990280151367e+00,4.332952976226806641e+00,5.831489562988281250e+00,5.723974227905273438e+00,7.449457645416259766e+00,1.077085113525390625e+01,1.019530487060546875e+01,7.779965877532958984e+00,6.351961135864257812e+00,6.125916957855224609e+00,5.708961486816406250e+00,4.621470928192138672e+00,6.849193572998046875e+00,6.063186168670654297e+00,4.077980518341064453e+00,5.694411396980285645e-01,-4.888177514076232910e-01,-5.041226863861083984e+00
-1.607461929321289062e+00,-1.089480686187744141e+01,-2.631419754028320312e+01,-1.901504135131835938e+01,-4.872441291809082031e+00,-3.282416343688964844e+00,-7.624742507934570312e+00,-6.449619293212890625e+00,-8.164779663085937500e+00,-3.710425853729248047e+00,-1.714901208877563477e+00,-3.747945427894592285e-01,-3.487804412841796875e+00,-6.669887065887451172e+00,-6.194249153137207031e+00,-2.800361394882202148e+00,-1.143306612968444824e+00,-1.592965602874755859e+00,-2.565975785255432129e-01,2.117287635803222656e+00,1.650475025177001953e+00,3.235407471656799316e-01,5.644493103027343750e-01,-2.899482965469360352e+00,-4.853684902191162109e+00,-5.630478382110595703e+00,-8.598470091819763184e-01,-2.455161571502685547e+00,-5.224633216857910156e+00,-7.939933300018310547e+00,-6.204845428466796875e+00,-1.029433631896972656e+01
3.306567907333374023e+00,-2.787672281265258789e+00,-1.590389347076416016e+01,-1.315835952758789062e+01,-5.002684116363525391e+00,-8.563212156295776367e-01,-5.077139854431152344e+00,-3.707900762557983398e+00,-4.132728099822998047e+00,1.545732140541076660e+00,-7.879325151443481445e-01,-1.120222568511962891e+00,-3.230647087097167969e+00,-3.876128673553466797e+00,-4.650237560272216797e+00,-4.830001890659332275e-01,4.599354565143585205e-01,1.378346920013427734e+00,2.210031986236572266e+00,4.948075294494628906e+00,7.442967891693115234e+00,6.803795814514160156e+00,6.008430480957031250e+00,7.637578964233398438e+00,9.831213951110839844e+00,4.662983894348144531e+00,2.552792072296142578e+00,3.504690408706665039e+00,3.311403036117553711e+00,3.274957537651062012e-01,1.451966404914855957e+00,-2.345863103866577148e+00
8.285272598266601562e+00,3.693680047988891602e+00,1.520009934902191162e-01,1.432876825332641602e+00,6.146503090858459473e-01,-5.047533661127090454e-02,6.558890640735626221e-02,1.557795643806457520e+00,3.029906511306762695e+00,4.662278652191162109e+00,4.190610408782958984e+00,1.981534957885742188e+00,2.874109983444213867e+00,2.596409320831298828e+00,1.585448741912841797e+00,3.016941070556640625e+00,4.923622131347656250e+00,6.449025630950927734e+00,6.068278312683105469e+00,9.345472335815429688e+00,1.220905303955078125e+01,1.151989746093750000e+01,9.155594825744628906e+00,1.350183391571044922e+01,1.639599990844726562e+01,1.343714618682861328e+01,8.526572227478027344e+00,9.954505920410156250e+00,9.476036071777343750e+00,9.164610862731933594e+00,9.901422500610351562e+00,6.094790935516357422e+00
4.617520868778228760e-01,6.197797298431396484e+00,3.842216253280639648e+00,4.423223972320556641e+00,8.692119121551513672e-01,-9.498461484909057617e-01,-4.513789713382720947e-01,2.364277601242065430e+00,8.259602189064025879e-01,1.665195822715759277e-01,6.771641373634338379e-01,1.872112303972244263e-01,1.719221591949462891e+00,2.940809726715087891e+00,4.124058246612548828e+00,4.777908325195312500e+00,5.870856761932373047e+00,3.911927938461303711e+00,3.519425868988037109e+00,4.304302692413330078e+00,5.711661815643310547e+00,4.868215560913085938e+00,6.406176567077636719e+00,3.054220438003540039e+00,6.454034447669982910e-01,4.139496326446533203e+00,8.488214492797851562e+00,8.007698059082031250e+00,6.285037994384765625e+00,9.886494636535644531e+00,1.077149772644042969e+01,9.170764088630676270e-01
-7.893574237823486328e+00,1.151858687400817871e+00,-2.758191108703613281e+00,-3.677221298217773438e+00,-7.453313827514648438e+00,-6.334801197052001953e+00,-6.673550605773925781e+00,-4.273211479187011719e+00,-9.044982910156250000e+00,-7.457733631134033203e+00,-9.515127182006835938e+00,-1.025389766693115234e+01,-8.399768829345703125e+00,-5.609502315521240234e+00,-6.774028778076171875e+00,-6.552207469940185547e+00,-6.973974704742431641e+00,-8.809343338012695312e+00,-6.150679588317871094e+00,-3.151371002197265625e+00,-3.751171827316284180e+00,-5.603932857513427734e+00,-2.021499633789062500e+00,-3.252567529678344727e+00,-5.336647033691406250e+00,-3.855913162231445312e+00,-6.699082851409912109e-01,-4.987671971321105957e-01,9.968856573104858398e-01,3.392309188842773438e+00,2.569939374923706055e+00,-9.270147323608398438e+00
-5.249882221221923828e+00,-4.807012557983398438e+00,-7.973300457000732422e+00,-7.627237796783447266e+00,-8.611735343933105469e+00,-8.058357238769531250e+00,-7.197226524353027344e+00,-6.212430953979492188e+00,-1.117565917968750000e+01,-8.876979827880859375e+00,-8.500643730163574219e+00,-1.068739604949951172e+01,-8.383975028991699219e+00,-8.102425575256347656e+00,-1.273791027069091797e+01,-1.418557167053222656e+01,-1.219304561614990234e+01,-9.636590957641601562e+00,-6.733579635620117188e+00,-1.338034749031066895e+00,-1.006442189216613770e+00,-3.097930192947387695e+00,-4.286493778228759766e+00,3.044413328170776367e+00,6.366683483123779297e+00,4.080241203308105469e+00,-2.919576644897460938e+00,-1.758802533149719238e+00,8.546625375747680664e-01,1.690677762031555176e+00,1.939845830202102661e-01,-1.065262126922607422e+01
-2.059832096099853516e+00,8.586760759353637695e-01,-2.844483852386474609e-01,7.276694774627685547e-01,1.021404743194580078e+00,1.083966046571731567e-01,-7.456493377685546875e-01,6.787416059523820877e-03,-5.895585536956787109e+00,-6.854629516601562500e+00,-4.125510692596435547e+00,-2.788071870803833008e+00,-2.627382040023803711e+00,-3.121611118316650391e+00,-2.629472255706787109e+00,-3.139487981796264648e+00,-2.746743917465209961e+00,-1.123958587646484375e+00,1.788182258605957031e+00,5.099552154541015625e+00,7.989263057708740234e+00,5.986765384674072266e+00,3.861692905426025391e+00,9.694750785827636719e+00,1.378084278106689453e+01,1.351558208465576172e+01,7.006995201110839844e+00,6.772242546081542969e+00,5.089107990264892578e+00,8.221405982971191406e+00,1.052269554138183594e+01,4.386715412139892578e+00
-7.719120979309082031e-01,9.064310073852539062e+00,1.264630126953125000e+01,1.183578681945800781e+01,6.382223129272460938e+00,3.799301862716674805e+00,6.192979812622070312e-01,1.717368245124816895e+00,-4.805501461029052734e+00,-5.687347888946533203e+00,-5.019198894500732422e+00,-1.758880019187927246e+00,-2.965352296829223633e+00,3.078344762325286865e-01,6.232898235321044922e+00,5.707165241241455078e+00,2.356785774230957031e+00,1.074185252189636230e+00,8.043114662170410156e+00,9.922492027282714844e+00,1.164881515502929688e+01,8.047688484191894531e+00,1.077054977416992188e+01,1.176678657531738281e+01,1.239041519165039062e+01,1.300372409820556641e+01,1.423465442657470703e+01,1.417649936676025391e+01,1.074124622344970703e+01,1.401937866210937500e+01,1.851190757751464844e+01,1.575448322296142578e+01
2.013916254043579102e+00,1.001328849792480469e+01,1.619989967346191406e+01,1.531634235382080078e+01,8.841213226318359375e+00,5.110956668853759766e+00,1.735685110092163086e+00,-3.619832396507263184e-01,-3.869755029678344727e+00,-1.474510073661804199e+00,6.710716485977172852e-01,-8.361752033233642578e-01,2.067629098892211914e-01,3.912932872772216797e+00,7.554769992828369141e+00,3.693021774291992188e+00,1.940905094146728516e+00,2.307010173797607422e+00,8.695695877075195312e+00,1.038874340057373047e+01,8.817088127136230469e+00,5.194645881652832031e+00,8.575830459594726562e+00,8.255004882812500000e+00,8.675018310546875000e+00,1.087321376800537109e+01,1.480795955657958984e+01,1.421459865570068359e+01,1.145317649841308594e+01,1.274282073974609375e+01,1.580264663696289062e+01,1.408759117126464844e+01
-1.000786304473876953e+00,6.495873451232910156e+00,9.726103782653808594e+00,1.039145374298095703e+01,8.927407264709472656e+00,7.904290199279785156e+00,5.519207954406738281e+00,2.816622257232666016e+00,1.144104242324829102e+00,4.123771667480468750e+00,7.469541072845458984e+00,2.647167444229125977e+00,4.308235168457031250e+00,3.970996379852294922e+00,3.889381647109985352e+00,1.569575518369674683e-01,9.371311664581298828e-01,1.264114737510681152e+00,1.527541399002075195e+00,5.802453756332397461e-01,4.459983706474304199e-01,1.440979719161987305e+00,1.808158397674560547e+00,-4.071988582611083984e+00,-3.178496837615966797e+00,2.840357780456542969e+00,6.052393436431884766e+00,4.326855182647705078e+00,1.773823261260986328e+00,3.326680660247802734e+00,5.078773021697998047e+00,6.723222255706787109e+00
-3.162948131561279297e+00,-1.554601430892944336e+00,2.652997255325317383e+00,4.552437782287597656e+00,4.220672607421875000e+00,2.445411682128906250e+00,2.009360790252685547e+00,1.691420912742614746e+00,-2.367177248001098633e+00,5.011881235986948013e-03,2.640310049057006836e+00,1.216275572776794434e+00,-9.683877825736999512e-01,-4.423470020294189453e+00,-5.784454822540283203e+00,-6.529148101806640625e+00,-7.073430061340332031e+00,-8.497133255004882812e+00,-8.756546974182128906e+00,-8.678050994873046875e+00,-7.750620365142822266e+00,-5.815131664276123047e+00,-6.934691429138183594e+00,-1.283472061157226562e+01,-1.198604869842529297e+01,-8.244095802307128906e+00,-7.629325389862060547e+00,-8.067166328430175781e+00,-7.119040966033935547e+00,-6.279642581939697266e+00,-6.785754203796386719e+00,1.912378311157226562e+00
6.484440326690673828e+00,-1.278831124305725098e+00,4.204811096191406250e+00,4.927618980407714844e+00,5.127853870391845703e+00,2.453484296798706055e+00,4.305602550506591797e+00,3.715713918209075928e-01,-7.042561531066894531e+00,-2.776623725891113281e+00,4.354306697845458984e+00,5.898512363433837891e+00,2.174696683883666992e+00,-2.145089387893676758e+00,-4.032639503479003906e+00,-3.300466060638427734e+00,-3.133428335189819336e+00,-3.637844085693359375e+00,-4.451364517211914062e+00,-1.593744397163391113e+00,-2.500222206115722656e+00,-2.653095483779907227e+00,-4.807245731353759766e+00,-4.198039174079895020e-01,1.264561057090759277e+00,-8.625465631484985352e-01,-6.031320095062255859e+00,-3.633737087249755859e+00,-1.907473206520080566e-01,-1.342814803123474121e+00,-4.761371135711669922e+00,6.495854854583740234e+00
1.392141723632812500e+01,9.688623428344726562e+00,1.212615299224853516e+01,9.345707893371582031e+00,9.940741539001464844e+00,1.204928970336914062e+01,1.475331306457519531e+01,8.574410438537597656e+00,1.633710861206054688e+00,6.928957939147949219e+00,1.568365001678466797e+01,1.634891700744628906e+01,1.454052066802978516e+01,1.179616165161132812e+01,9.853410720825195312e+00,1.166614532470703125e+01,1.434467601776123047e+01,1.503150272369384766e+01,1.046548748016357422e+01,1.053238010406494141e+01,1.043883609771728516e+01,1.010727405548095703e+01,7.933905124664306641e+00,1.505562496185302734e+01,1.647603225708007812e+01,1.219225311279296875e+01,6.653185844421386719e+00,8.629280090332031250e+00,9.419849395751953125e+00,7.686942100524902344e+00,5.923023223876953125e+00,1.400613689422607422e+01
6.034163475036621094e+00,3.975921154022216797e+00,7.395140647888183594e+00,3.775560617446899414e+00,2.510174989700317383e+00,4.560080528259277344e+00,7.662193298339843750e+00,5.706328868865966797e+00,4.016767442226409912e-01,1.473011016845703125e+00,6.185217380523681641e+00,8.333166122436523438e+00,8.774082183837890625e+00,8.900998115539550781e+00,8.538176536560058594e+00,1.085989475250244141e+01,1.149043273925781250e+01,1.214499664306640625e+01,7.933666229248046875e+00,4.611522674560546875e+00,4.693018436431884766e+00,4.834378719329833984e+00,3.999621868133544922e+00,3.113723993301391602e+00,2.810479164123535156e+00,-1.678980708122253418e+00,-1.588185548782348633e+00,-2.107629776000976562e+00,-1.745927810668945312e+00,-4.220485687255859375e+00,-3.650840759277343750e+00,3.044169187545776367e+00
