Fp1,Fp2,F7,F3,Fz,F4,F8,FT7,FC3,FCz,FC4,FT8,T3,C3,Cz,C4,T4,TP7,CP3,CPz,CP4,TP8,T5,P3,Pz,P4,T6,O1,Oz,O2,A1,A2
-1.368421912193298340e+00,-9.196169853210449219e+00,-1.167091846466064453e+01,-1.116210269927978516e+01,-7.623630523681640625e+00,-6.740928649902343750e+00,-5.475172042846679688e+00,-3.866182327270507812e+00,-1.261454105377197266e+00,4.163370281457901001e-02,-1.974897623062133789e+00,-2.580655336380004883e+00,-1.413315892219543457e+00,4.271009266376495361e-01,2.705287635326385498e-01,-1.250105261802673340e+00,-2.543920516967773438e+00,-1.208972334861755371e+00,-1.145109534263610840e+00,-3.632468283176422119e-01,3.774270415306091309e-01,-8.307832479476928711e-01,-2.487754344940185547e+00,-2.889120101928710938e+00,-1.707684397697448730e+00,-2.811195611953735352e+00,-5.510946512222290039e-01,3.151053935289382935e-02,-2.015935897827148438e+00,-7.192296504974365234e+00,-1.098817539215087891e+01,-1.636529541015625000e+01
-5.044439792633056641e+00,2.277799844741821289e+00,4.018549442291259766e+00,4.188180923461914062e+00,2.113626003265380859e+00,7.131458520889282227e-01,-1.813690364360809326e-01,1.946186572313308716e-01,-9.062403440475463867e-01,-2.274721860885620117e+00,-2.496766328811645508e+00,-3.299306154251098633e+00,-4.965510845184326172e+00,-6.366090774536132812e+00,-4.707513332366943359e+00,-3.611661195755004883e+00,-3.734834671020507812e+00,-4.645540237426757812e+00,-3.897064447402954102e+00,-5.722322940826416016e+00,-7.292849063873291016e+00,-6.497257232666015625e+00,-3.264511823654174805e+00,-2.678527593612670898e+00,-4.047195911407470703e+00,-2.582113265991210938e+00,-3.833275794982910156e+00,-4.159848690032958984e+00,-2.622246742248535156e+00,1.676309704780578613e+00,4.100265026092529297e+00,6.715373516082763672e+00
-4.407856941223144531e+00,-1.022085428237915039e+00,1.096172630786895752e-01,3.605400323867797852e-01,3.600445389747619629e-01,1.100976765155792236e-01,3.332813382148742676e-01,-5.507842898368835449e-01,-4.246079444885253906e+00,-5.408214092254638672e+00,-3.692730426788330078e+00,-2.266787052154541016e+00,-1.410577058792114258e+00,-2.811531543731689453e+00,-4.131465911865234375e+00,-4.447031974792480469e+00,-3.177905321121215820e+00,-3.322269678115844727e+00,-1.925138950347900391e+00,-1.650149822235107422e+00,-3.252951383590698242e+00,-3.930054664611816406e+00,-1.852936029434204102e+00,-7.820196151733398438e-01,-1.519910454750061035e+00,-2.226584672927856445e+00,-5.969120502471923828e+00,-8.359202384948730469e+00,-4.679421901702880859e+00,1.277872562408447266e+00,1.860849618911743164e+00,8.959793299436569214e-02
-5.964661598205566406e+00,-2.666611433029174805e+00,-2.348090887069702148e+00,-4.800976753234863281e+00,-6.009467124938964844e+00,-6.328931808471679688e+00,-6.118356704711914062e+00,-5.840600967407226562e+00,-4.327702522277832031e+00,-2.299975156784057617e+00,-1.865659236907958984e+00,-2.463313341140747070e+00,-1.676909208297729492e+00,-5.885311365127563477e-01,-2.193054914474487305e+00,-2.757296800613403320e+00,-3.104915857315063477e+00,-2.862835884094238281e+00,-2.278964042663574219e+00,1.384563684463500977e+00,2.281546354293823242e+00,1.081645011901855469e+00,3.159962594509124756e-01,1.164018154144287109e+00,3.553024530410766602e-01,-4.100102424621582031e+00,-4.131481647491455078e+00,-4.554056644439697266e+00,-1.499691486358642578e+00,-2.288883686065673828e+00,-4.956206321716308594e+00,-7.030410289764404297e+00
-4.458650112152099609e+00,-2.126588344573974609e+00,-1.763106107711791992e+00,-3.430680513381958008e+00,-4.737072467803955078e+00,-4.680088043212890625e+00,-3.112554788589477539e+00,-3.083166837692260742e+00,-1.515359878540039062e+00,1.430500984191894531e+00,2.541693687438964844e+00,1.701221913099288940e-01,-1.249290823936462402e+00,6.643424630165100098e-01,1.449799895286560059e+00,1.644656181335449219e+00,1.668532729148864746e+00,2.757850587368011475e-01,-5.083163976669311523e-01,3.047429025173187256e-01,1.113860249519348145e+00,9.091331958770751953e-01,1.892176456749439240e-02,-7.226423621177673340e-01,-1.445906400680541992e+00,-3.176954507827758789e+00,-8.377214074134826660e-01,4.369871318340301514e-01,1.043241024017333984e+00,-3.084592819213867188e+00,-4.438455581665039062e+00,-3.282521009445190430e+00
8.584368705749511719e+00,3.102326393127441406e+00,4.936524033546447754e-01,2.141932487487792969e+00,5.971690177917480469e+00,7.426757812500000000e+00,9.050415992736816406e+00,5.169045448303222656e+00,1.332969188690185547e+00,1.963773250579833984e+00,7.692365169525146484e+00,9.904175758361816406e+00,1.138439941406250000e+01,1.040930747985839844e+01,8.234675407409667969e+00,7.845884323120117188e+00,1.022720336914062500e+01,9.510813713073730469e+00,8.867274284362792969e+00,6.898592948913574219e+00,5.637392997741699219e+00,4.489250659942626953e+00,3.506904602050781250e+00,9.798523187637329102e-01,2.625096797943115234e+00,4.335883617401123047e+00,4.562782764434814453e+00,3.610403776168823242e+00,2.762522697448730469e+00,5.640515685081481934e-01,6.900430321693420410e-01,3.809917688369750977e+00
1.011306858062744141e+01,9.386543273925781250e+00,6.565438270568847656e+00,6.200889587402343750e+00,8.959020614624023438e+00,1.147240829467773438e+01,1.128110885620117188e+01,6.878401756286621094e+00,2.688505172729492188e+00,1.130631327629089355e+00,5.843218803405761719e+00,1.069964313507080078e+01,1.067684555053710938e+01,9.775238037109375000e+00,7.450862407684326172e+00,7.522909164428710938e+00,8.895949363708496094e+00,1.013617992401123047e+01,1.063076782226562500e+01,8.998386383056640625e+00,7.368800640106201172e+00,6.863365173339843750e+00,6.816934585571289062e+00,4.109007358551025391e+00,4.590656757354736328e+00,5.898642539978027344e+00,4.437604904174804688e+00,2.335733175277709961e+00,3.900805950164794922e+00,6.353195667266845703e+00,7.182816982269287109e+00,9.236948966979980469e+00
-1.117005586624145508e+00,5.625201702117919922e+00,6.521480083465576172e+00,3.457791805267333984e+00,1.552652716636657715e-01,2.417469501495361328e+00,2.534223794937133789e+00,2.525802850723266602e+00,1.310715675354003906e+00,-7.813408374786376953e-01,-2.033041238784790039e+00,-1.448480844497680664e+00,-1.575567841529846191e+00,-1.784505009651184082e+00,-1.521054744720458984e+00,9.330965876579284668e-01,2.050706386566162109e+00,1.336843490600585938e+00,3.081390559673309326e-01,-2.246580600738525391e+00,-2.044517755508422852e+00,1.695812463760375977e+00,2.437017679214477539e+00,2.145060300827026367e+00,2.228835225105285645e-01,1.710261225700378418e+00,-1.332988590002059937e-01,4.482527375221252441e-01,1.955620765686035156e+00,6.057678222656250000e+00,8.494200706481933594e+00,8.348707199096679688e+00
1.063809514045715332e+00,2.144601821899414062e+00,4.128376007080078125e+00,3.762646913528442383e+00,1.675710976123809814e-01,-9.643290936946868896e-02,-1.284155488014221191e+00,1.220717206597328186e-01,1.054986357688903809e+00,1.907278150320053101e-01,-1.973766088485717773e+00,-3.423439502716064453e+00,-3.904397249221801758e+00,-2.854937553405761719e+00,-2.930351495742797852e+00,-1.030222177505493164e+00,2.790242731571197510e-01,-1.260878205299377441e+00,-3.764560937881469727e+00,-3.819079160690307617e+00,-3.066389083862304688e+00,9.769150614738464355e-01,7.163695096969604492e-01,2.755267858505249023e+00,3.025233507156372070e+00,4.449758052825927734e+00,2.460476636886596680e+00,4.861225605010986328e+00,2.353832960128784180e+00,3.499936819076538086e+00,6.139374732971191406e+00,7.255541324615478516e+00
5.821370124816894531e+00,1.100602507591247559e+00,2.242960691452026367e+00,3.964899539947509766e+00,3.636518716812133789e+00,1.196013569831848145e+00,-7.378798127174377441e-01,6.063494086265563965e-01,4.052272319793701172e+00,4.430237770080566406e+00,2.024724245071411133e+00,1.903221845626831055e+00,3.277339696884155273e+00,4.427999019622802734e+00,7.810198068618774414e-01,-3.055206835269927979e-01,7.597724348306655884e-02,1.151923179626464844e+00,3.622859954833984375e+00,4.786195278167724609e+00,4.240046024322509766e+00,2.435066223144531250e+00,2.474274635314941406e+00,3.058115243911743164e+00,4.701038837432861328e+00,4.036166667938232422e+00,5.028731346130371094e+00,6.451024055480957031e+00,2.903949260711669922e+00,6.427502036094665527e-01,3.694692254066467285e-01,2.173401355743408203e+00
5.406502246856689453e+00,7.274159908294677734e+00,9.946325302124023438e+00,1.060974121093750000e+01,7.866608142852783203e+00,6.905842781066894531e+00,6.323397159576416016e+00,5.140717983245849609e+00,5.781691551208496094e+00,5.963124752044677734e+00,4.937925338745117188e+00,4.129499435424804688e+00,4.372935295104980469e+00,3.594539880752563477e+00,6.600434780120849609e-01,-6.164938583970069885e-02,2.432986497879028320e+00,3.710397481918334961e+00,5.110001087188720703e+00,5.589263916015625000e+00,6.226566314697265625e+00,4.249668598175048828e+00,2.902797937393188477e+00,2.106335878372192383e+00,1.818655252456665039e+00,1.649885654449462891e+00,3.969256639480590820e+00,4.355360031127929688e+00,3.974350452423095703e+00,4.002067565917968750e+00,5.815851211547851562e+00,1.194613265991210938e+01
6.301680564880371094e+00,1.034505462646484375e+01,1.348890972137451172e+01,1.505968952178955078e+01,1.191941928863525391e+01,1.127038002014160156e+01,1.118199157714843750e+01,7.846886157989501953e+00,5.753963470458984375e+00,4.435644626617431641e+00,6.182550430297851562e+00,4.248308181762695312e+00,4.027618408203125000e+00,2.505464553833007812e+00,1.726539134979248047e+00,2.370738983154296875e+00,5.209164142608642578e+00,4.217292308807373047e+00,1.446782588958740234e+00,2.887965679168701172e+00,5.537023544311523438e+00,7.716872215270996094e+00,4.761005878448486328e+00,5.749670982360839844e+00,6.229304313659667969e+00,6.978469371795654297e+00,4.560197830200195312e+00,3.829419136047363281e+00,4.302071571350097656e+00,8.258060455322265625e+00,1.309090709686279297e+01,1.923924827575683594e+01
6.783199310302734375e+00,1.224250984191894531e+01,1.226558303833007812e+01,1.169707298278808594e+01,1.039147663116455078e+01,9.231184005737304688e+00,7.640410900115966797e+00,5.151838779449462891e+00,4.671685218811035156e+00,3.512211084365844727e+00,5.837567806243896484e+00,6.114460945129394531e+00,5.316855430603027344e+00,3.467482805252075195e+00,2.654114484786987305e+00,3.633664846420288086e+00,3.264457941055297852e+00,3.242509841918945312e+00,1.967543959617614746e+00,4.406935214996337891e+00,5.961696624755859375e+00,7.526952743530273438e+00,5.328668117523193359e+00,8.351369857788085938e+00,1.126441001892089844e+01,1.213218402862548828e+01,8.140274047851562500e+00,7.153419494628906250e+00,7.460767745971679688e+00,1.185935497283935547e+01,1.496324062347412109e+01,1.540229797363281250e+01
4.190634250640869141e+00,4.665515899658203125e+00,3.405656814575195312e+00,3.184453248977661133e-01,-1.059195756912231445e+00,9.342711567878723145e-01,7.830976247787475586e-01,2.300754934549331665e-01,4.438178837299346924e-01,7.609174251556396484e-01,9.350962042808532715e-01,2.540471792221069336e+00,9.953860938549041748e-02,-2.713879108428955078e+00,-2.719062328338623047e+00,1.327588111162185669e-01,1.675181239843368530e-01,6.946640014648437500e-01,-6.731846332550048828e-01,-1.113871574401855469e+00,1.926572769880294800e-01,8.517657220363616943e-02,-6.808029413223266602e-01,1.047225117683410645e+00,3.919595241546630859e+00,4.372845649719238281e+00,5.141468524932861328e+00,5.014590740203857422e+00,5.074122428894042969e+00,3.714993238449096680e+00,3.566591262817382812e+00,4.580501079559326172e+00
3.873681545257568359e+00,-1.663924336433410645e+00,-1.116510987281799316e+00,-1.499580144882202148e-01,-6.156264990568161011e-02,1.066505074501037598e+00,-1.561089456081390381e-01,1.492378860712051392e-01,3.065995275974273682e-01,1.850046217441558838e-02,-1.257193803787231445e+00,-1.062677145004272461e+00,-2.761061906814575195e+00,-4.390874862670898438e+00,-2.671271085739135742e+00,-1.237026214599609375e+00,-9.746755361557006836e-01,-2.622245788574218750e+00,-4.614862918853759766e+00,-5.640584945678710938e+00,-4.113178253173828125e+00,-2.679153203964233398e+00,-2.257853746414184570e+00,-2.539657115936279297e+00,-2.541610956192016602e+00,-2.758166551589965820e+00,-1.570928812026977539e+00,-1.050316572189331055e+00,-1.825781822204589844e+00,-3.969287633895874023e+00,-4.007281780242919922e+00,1.365265846252441406e+00
4.989306926727294922e+00,2.949241638183593750e+00,3.243609428405761719e+00,6.009309291839599609e+00,8.964188575744628906e+00,7.486756801605224609e+00,5.206941604614257812e+00,5.102001667022705078e+00,5.795456409454345703e+00,5.014054775238037109e+00,4.200771808624267578e+00,2.960176706314086914e+00,3.522157192230224609e+00,4.645284652709960938e+00,7.179051399230957031e+00,4.195801258087158203e+00,1.320358753204345703e+00,-7.859358787536621094e-01,1.841613888740539551e+00,2.535017013549804688e+00,1.514147043228149414e+00,2.625998258590698242e+00,4.525284767150878906e+00,4.923911571502685547e+00,3.726061344146728516e+00,3.593642950057983398e+00,2.113333940505981445e+00,1.592921257019042969e+00,9.164691567420959473e-01,4.506987571716308594e+00,7.025786876678466797e+00,6.521426677703857422e+00
1.632768154144287109e+00,5.360913276672363281e+00,4.097439289093017578e+00,4.458576202392578125e+00,6.623858451843261719e+00,5.812438488006591797e+00,5.801650047302246094e+00,5.657694816589355469e+00,5.342003345489501953e+00,4.540864944458007812e+00,4.027493000030517578e+00,2.322479248046875000e+00,3.716521263122558594e+00,5.304169178009033203e+00,8.399289131164550781e+00,5.294610023498535156e+00,2.171514987945556641e+00,1.773875474929809570e+00,5.253205299377441406e+00,4.407409191131591797e+00,1.896081447601318359e+00,2.295602560043334961e+00,4.249199867248535156e+00,6.580831527709960938e+00,7.543098926544189453e+00,8.811358451843261719e+00,7.100082874298095703e+00,5.758709430694580078e+00,4.273047447204589844e+00,8.938249588012695312e+00,1.143283462524414062e+01,6.637039661407470703e+00
-5.927902698516845703e+00,-5.154462814331054688e+00,-7.459371566772460938e+00,-9.059233665466308594e+00,-8.650403022766113281e+00,-7.354891300201416016e+00,-6.339265823364257812e+00,-5.375330448150634766e+00,-3.830403566360473633e+00,-3.441275119781494141e+00,-5.991876602172851562e+00,-6.097235679626464844e+00,-4.651493549346923828e+00,-3.321791887283325195e+00,-6.650705933570861816e-01,-2.451503515243530273e+00,-4.183169841766357422e+00,-2.760702371597290039e+00,-2.939767837524414062e+00,-4.914210319519042969e+00,-4.658366203308105469e+00,-3.050297975540161133e+00,-3.588781833648681641e+00,-3.939376592636108398e+00,-3.015727519989013672e+00,-3.537008762359619141e+00,-3.028393030166625977e+00,-2.060402870178222656e+00,-3.685403347015380859e+00,-5.115063667297363281e+00,-7.757229328155517578e+00,-1.042885684967041016e+01
-7.941028594970703125e+00,-1.124881649017333984e+01,-8.782402038574218750e+00,-1.012059402465820312e+01,-1.293629169464111328e+01,-1.324988079071044922e+01,-1.118072414398193359e+01,-9.786623954772949219e+00,-7.800276279449462891e+00,-6.802775382995605469e+00,-6.262804985046386719e+00,-4.951002120971679688e+00,-2.938315868377685547e+00,-1.681526422500610352e+00,-1.839703679084777832e+00,-2.644192457199096680e+00,-3.127460956573486328e+00,-1.561120867729187012e+00,-2.692027330398559570e+00,-1.731594800949096680e+00,-1.595840811729431152e+00,-3.764171838760375977e+00,-4.657905101776123047e+00,-8.594393730163574219e+00,-1.130884170532226562e+01,-1.295685482025146484e+01,-1.091351890563964844e+01,-8.290656089782714844e+00,-6.490528583526611328e+00,-1.195180797576904297e+01,-1.583401298522949219e+01,-1.563279819488525391e+01
-1.637058615684509277e+00,-5.144888877868652344e+00,-2.883047580718994141e+00,-3.148936748504638672e+00,-4.813542842864990234e+00,-4.298033237457275391e+00,-1.743329405784606934e+00,-2.176768541336059570e+00,-3.407479286193847656e+00,-2.447560071945190430e+00,2.026927947998046875e+00,3.843434333801269531e+00,5.224217891693115234e+00,7.703803539276123047e+00,9.533938407897949219e+00,9.917413711547851562e+00,9.563389778137207031e+00,9.530198097229003906e+00,9.010715484619140625e+00,9.256073951721191406e+00,6.524915218353271484e+00,-2.988226711750030518e-01,-1.862510591745376587e-01,-4.519844055175781250e+00,-6.342000961303710938e+00,-6.415832042694091797e+00,-5.575457096099853516e+00,-5.099253177642822266e+00,-8.100627660751342773e-01,-5.495172977447509766e+00,-7.825835704803466797e+00,-7.052782058715820312e+00
2.677657365798950195e+00,2.194689273834228516e+00,3.761161327362060547e+00,4.407983303070068359e+00,1.446508288383483887e+00,2.775861024856567383e+00,3.321546316146850586e+00,2.331648826599121094e+00,-1.372102141380310059e+00,1.134294867515563965e+00,4.376059532165527344e+00,6.210170745849609375e+00,5.949816226959228516e+00,7.728213310241699219e+00,8.586314201354980469e+00,9.549160957336425781e+00,1.097153663635253906e+01,1.042698478698730469e+01,9.063864707946777344e+00,9.794527053833007812e+00,7.045627593994140625e+00,3.974906682968139648e+00,3.407986879348754883e+00,-1.137992739677429199e-01,-1.620781064033508301e+00,-2.204192876815795898e+00,-1.579915165901184082e+00,-2.737068414688110352e+00,-6.094679236412048340e-01,-2.544279813766479492e+00,-2.710813045501708984e+00,3.118324041366577148e+00
1.131939291954040527e+00,4.114422798156738281e+00,9.300692558288574219e+00,9.816781997680664062e+00,4.061264991760253906e+00,2.251429319381713867e+00,1.891232252120971680e+00,1.859029293060302734e+00,-1.520576715469360352e+00,-4.362721741199493408e-01,-3.605017364025115967e-01,2.107048273086547852e+00,5.866202116012573242e-01,-3.147000312805175781e+00,-4.047198772430419922e+00,-2.539240598678588867e+00,-1.368019819259643555e+00,-1.721063494682312012e+00,-1.887263894081115723e+00,-1.474761247634887695e+00,4.894198477268218994e-02,4.319998741149902344e+00,3.296605587005615234e+00,1.983449339866638184e+00,-1.937448382377624512e+00,-1.684145808219909668e+00,-8.079573512077331543e-01,-4.424035251140594482e-01,-7.787938714027404785e-01,-3.939583599567413330e-01,1.666961193084716797e+00,8.435166358947753906e+00
2.798450946807861328e+00,4.671046733856201172e+00,8.256022453308105469e+00,9.209228515625000000e+00,7.822471618652343750e+00,4.549154758453369141e+00,5.178516387939453125e+00,3.830228805541992188e+00,-8.374402523040771484e-01,-3.534523010253906250e+00,-4.752725958824157715e-01,1.611098408699035645e+00,-2.252689599990844727e+00,-7.741156101226806641e+00,-9.825372695922851562e+00,-8.151691436767578125e+00,-5.114076614379882812e+00,-4.038208007812500000e+00,-7.980679512023925781e+00,-7.276231765747070312e+00,-3.158410310745239258e+00,2.196208000183105469e+00,1.708102464675903320e+00,3.223469018936157227e+00,2.230453252792358398e+00,3.926937580108642578e+00,4.116080284118652344e+00,5.620151996612548828e+00,5.411006450653076172e+00,6.190450191497802734e+00,6.882551193237304688e+00,1.053053569793701172e+01
8.092354774475097656e+00,8.212826728820800781e+00,6.344371795654296875e+00,8.018568992614746094e+00,9.498540878295898438e+00,7.877986431121826172e+00,6.453017234802246094e+00,4.477077007293701172e+00,8.986616730690002441e-01,-1.897000074386596680e+00,2.567430734634399414e+00,3.131980657577514648e+00,-6.306228041648864746e-01,-1.708449006080627441e+00,-2.453065395355224609e+00,-3.146733939647674561e-01,1.156909346580505371e+00,1.578728437423706055e+00,-1.249938726425170898e+00,-8.533763885498046875e-01,2.997742176055908203e+00,3.656184673309326172e+00,2.605352401733398438e+00,3.834862947463989258e+00,5.871009826660156250e+00,6.953208446502685547e+00,7.423686027526855469e+00,7.093138694763183594e+00,7.118878841400146484e+00,8.720019340515136719e+00,9.388757705688476562e+00,1.167637634277343750e+01
3.232092857360839844e+00,8.107401847839355469e+00,8.514785766601562500e+00,8.790970802307128906e+00,5.921986579895019531e+00,4.229415893554687500e+00,8.052505850791931152e-01,1.646243214607238770e+00,2.348164081573486328e+00,5.538644194602966309e-01,-7.821673750877380371e-01,-1.430222034454345703e+00,-4.117052555084228516e-01,8.503000140190124512e-01,-3.627248108386993408e-01,-7.730852961540222168e-01,-4.004721045494079590e-01,-7.521028518676757812e-01,-5.702470541000366211e-01,2.462501764297485352e+00,5.488005161285400391e+00,4.288329601287841797e+00,2.703848838806152344e+00,1.428858876228332520e+00,2.246175855398178101e-01,2.227213859558105469e+00,4.474417686462402344e+00,3.138522624969482422e+00,2.865621089935302734e+00,5.410401821136474609e+00,8.733467102050781250e+00,8.495088577270507812e+00
-4.935932636260986328e+00,1.484271526336669922e+00,5.083957195281982422e+00,4.256896018981933594e+00,4.623669087886810303e-01,-1.686853170394897461e+00,-3.649205446243286133e+00,-2.440059423446655273e+00,-1.013634085655212402e+00,-1.798221826553344727e+00,-4.759786128997802734e+00,-6.070540428161621094e+00,-4.924001216888427734e+00,-5.858829975128173828e+00,-8.402155876159667969e+00,-6.393923759460449219e+00,-4.009211540222167969e+00,-4.027557373046875000e+00,-5.190901279449462891e+00,-2.874567031860351562e+00,-4.324491918087005615e-01,1.293237209320068359e+00,1.592183828353881836e+00,1.489781498908996582e+00,-1.474098324775695801e+00,-3.499196171760559082e-01,9.229986071586608887e-01,5.373760461807250977e-01,-1.433373987674713135e-01,1.312586545944213867e+00,3.933238744735717773e+00,2.743827342987060547e+00
-4.939950942993164062e+00,-4.074571132659912109e+00,-9.057288169860839844e+00,-1.086041736602783203e+01,-6.482053756713867188e+00,-4.799324989318847656e+00,-6.655067920684814453e+00,-8.108256340026855469e+00,-5.893295288085937500e+00,-3.293423891067504883e+00,-3.376516103744506836e+00,-4.714651584625244141e+00,-8.316451072692871094e+00,-9.915008544921875000e+00,-1.001855468750000000e+01,-5.093124389648437500e+00,-3.752862215042114258e+00,-2.232908964157104492e+00,-3.876019001007080078e+00,-3.743803977966308594e+00,-2.069952964782714844e+00,-8.162423968315124512e-01,5.716063380241394043e-01,2.711798667907714844e+00,2.981445550918579102e+00,1.941074728965759277e+00,-1.949585825204849243e-01,-1.582121491432189941e+00,-2.173940420150756836e+00,-2.324213981628417969e+00,-3.516024589538574219e+00,-3.350759506225585938e+00
-1.987617969512939453e+00,4.490128755569458008e-01,-8.096504211425781250e+00,-1.000584030151367188e+01,-4.636154651641845703e+00,-1.113339066505432129e+00,-3.673478841781616211e+00,-3.476132154464721680e+00,-1.774837970733642578e+00,9.835198521614074707e-01,-1.995952278375625610e-01,-5.940131545066833496e-01,-2.884190320968627930e+00,-2.134171724319458008e+00,-3.222061634063720703e+00,-2.161628723144531250e+00,-2.597854375839233398e+00,-4.353148639202117920e-01,1.075249910354614258e+00,1.739510893821716309e+00,7.118342518806457520e-01,-2.246690273284912109e+00,-1.106600284576416016e+00,3.654867172241210938e+00,5.017189025878906250e+00,4.789427757263183594e+00,2.515128374099731445e+00,4.303778707981109619e-01,-3.091295063495635986e-01,9.938947558403015137e-01,7.803029417991638184e-01,-5.229895114898681641e-01
-3.814197063446044922e+00,6.091695308685302734e+00,4.570815086364746094e+00,3.745243072509765625e+00,3.560852766036987305e+00,4.644343852996826172e+00,3.945266485214233398e+00,6.620863437652587891e+00,5.162770271301269531e+00,4.224678993225097656e+00,2.846273183822631836e+00,3.311533689498901367e+00,4.770158290863037109e+00,4.449156761169433594e+00,1.985369682312011719e+00,-4.350821375846862793e-01,4.128225147724151611e-01,2.587924599647521973e-01,-2.911732196807861328e-01,5.602313876152038574e-01,5.662890672683715820e-01,-5.008341073989868164e-01,-5.348082780838012695e-01,4.225777626037597656e+00,5.052172660827636719e+00,6.828671932220458984e+00,6.264543056488037109e+00,6.233666896820068359e+00,4.701574325561523438e+00,6.611635684967041016e+00,8.002611160278320312e+00,2.476307153701782227e+00
-3.616956710815429688e+00,4.245175421237945557e-01,-8.527550101280212402e-01,-7.085941433906555176e-01,1.412494301795959473e+00,2.310956954956054688e+00,1.313691973686218262e+00,1.458114743232727051e+00,1.655803680419921875e+00,1.652213931083679199e+00,2.527304172515869141e+00,2.817274808883666992e+00,4.767850399017333984e+00,2.930698156356811523e+00,1.388873934745788574e+00,1.468281865119934082e+00,2.924665689468383789e+00,9.612255096435546875e-01,-3.630968809127807617e+00,-2.615821361541748047e+00,1.492019176483154297e+00,3.335070610046386719e+00,2.423797369003295898e+00,1.314083099365234375e+00,1.327749967575073242e+00,7.169784307479858398e-01,1.758757591247558594e+00,2.875038623809814453e+00,1.025730252265930176e+00,2.490715086460113525e-01,6.844562292098999023e-01,-4.866613388061523438e+00
-3.607865810394287109e+00,-9.878917694091796875e+00,-1.494832515716552734e+01,-1.463802814483642578e+01,-7.996520996093750000e+00,-5.421616554260253906e+00,-6.286941528320312500e+00,-7.590541362762451172e+00,-3.520392179489135742e+00,-1.180886983871459961e+00,-2.479523420333862305e+00,-4.232511997222900391e+00,-2.426672935485839844e+00,-2.123977184295654297e+00,-3.309083700180053711e+00,-1.446422576904296875e+00,2.068818807601928711e-01,-8.679164201021194458e-02,-5.519482493400573730e-01,4.712075293064117432e-01,1.200722336769104004e+00,-1.686783790588378906e+00,-8.532708883285522461e-01,-4.764430046081542969e+00,-5.991711139678955078e+00,-8.811369895935058594e+00,-5.393441200256347656e+00,-6.227514743804931641e+00,-7.486974239349365234e+00,-9.753498077392578125e+00,-9.038832664489746094e+00,-1.172104740142822266e+01
-8.694375991821289062e+00,-1.084108924865722656e+01,-1.181910514831542969e+01,-1.199880313873291016e+01,-1.003972530364990234e+01,-8.956521987915039062e+00,-5.616525173187255859e+00,-3.922915458679199219e+00,-2.372503042221069336e+00,-2.616781473159790039e+00,-5.481556415557861328e+00,-7.998603820800781250e+00,-7.251836299896240234e+00,-5.725987434387207031e+00,-6.127062797546386719e+00,-6.431618690490722656e+00,-5.583434104919433594e+00,-4.925511360168457031e+00,-2.221221208572387695e+00,-2.710444927215576172e+00,-5.957350730895996094e+00,-1.088927745819091797e+01,-9.546851158142089844e+00,-8.718396186828613281e+00,-7.442805290222167969e+00,-8.238656044006347656e+00,-7.844677448272705078e+00,-9.008831024169921875e+00,-8.523967742919921875e+00,-9.261632919311523438e+00,-9.416711807250976562e+00,-9.786800384521484375e+00
-1.020514678955078125e+01,-8.902689933776855469e+00,-4.054753780364990234e+00,-3.345933675765991211e+00,-6.636229991912841797e+00,-7.974317550659179688e+00,-3.872708320617675781e+00,-1.686347246170043945e+00,-2.088905572891235352e+00,-3.019760608673095703e+00,-3.517359972000122070e+00,-4.903502464294433594e+00,-5.869275569915771484e+00,-4.829242706298828125e+00,-4.517891883850097656e+00,-5.592191219329833984e+00,-7.969100475311279297e+00,-8.994726181030273438e+00,-9.686048507690429688e+00,-1.038052749633789062e+01,-9.914989471435546875e+00,-1.009163761138916016e+01,-1.098340702056884766e+01,-8.318701744079589844e+00,-4.080666542053222656e+00,-4.051711082458496094e+00,-7.392105579376220703e+00,-7.485398769378662109e+00,-5.834073066711425781e+00,-5.384444236755371094e+00,-7.988105773925781250e+00,-9.693505287170410156e+00
-1.016303062438964844e+00,-5.961708068847656250e+00,-2.988083362579345703e+00,-1.318508863449096680e+00,-2.734129667282104492e+00,-4.367780208587646484e+00,-2.784140825271606445e+00,-1.821293115615844727e+00,-7.067122459411621094e-01,-5.766772627830505371e-01,-7.640440464019775391e-01,-4.646162986755371094e-01,6.692644953727722168e-01,1.581901907920837402e+00,3.894622921943664551e-01,4.766163975000381470e-02,-2.020144224166870117e+00,-2.705679416656494141e+00,-4.161763668060302734e+00,-5.216881275177001953e+00,-4.679072380065917969e+00,-3.464495897293090820e+00,-3.574629306793212891e+00,-5.060123920440673828e+00,-3.844525814056396484e+00,-4.897032737731933594e+00,-4.215588569641113281e+00,-4.205393314361572266e+00,-2.720705270767211914e+00,-3.720781087875366211e+00,-7.196914672851562500e+00,-1.041874980926513672e+01
5.119174480438232422e+00,-2.503980398178100586e+00,-2.853039026260375977e+00,-2.116542816162109375e+00,-2.452920228242874146e-01,-1.622917413711547852e+00,9.962414205074310303e-02,1.702737689018249512e+00,2.590828180313110352e+00,1.265762567520141602e+00,-4.183864220976829529e-02,1.222824931144714355e+00,4.100389957427978516e+00,3.929406404495239258e+00,4.596848487854003906e+00,3.726562738418579102e+00,3.681243658065795898e+00,3.872211933135986328e+00,6.349370002746582031e+00,2.235778570175170898e+00,-1.872628688812255859e+00,-1.819135785102844238e+00,3.603069186210632324e-01,-3.037230730056762695e+00,-4.419143199920654297e+00,-4.072417736053466797e+00,-1.559536576271057129e+00,2.665131390094757080e-01,9.880276322364807129e-01,-1.554146528244018555e+00,-6.535267829895019531e+00,-7.488339424133300781e+00
1.834311723709106445e+00,-1.383025407791137695e+00,-2.104587078094482422e+00,-2.334047555923461914e+00,-5.290145277976989746e-01,-5.974059700965881348e-01,1.192166805267333984e-01,-1.276000887155532837e-01,-3.734803199768066406e-01,3.813376724720001221e-01,5.235991440713405609e-03,-9.413677267730236053e-03,3.313085995614528656e-03,7.399362325668334961e-01,3.501884698867797852e+00,1.618590116500854492e+00,-2.902945876121520996e-01,-6.776263713836669922e-01,1.546629309654235840e+00,-2.943974733352661133e+00,-5.598258018493652344e+00,-2.393551588058471680e+00,-5.199573040008544922e-01,-1.813467025756835938e+00,-2.893861532211303711e+00,-2.864574670791625977e+00,-4.814519882202148438e+00,-1.515193104743957520e+00,-1.993614584207534790e-01,-1.889941453933715820e+00,-6.710446357727050781e+00,-5.142923831939697266e+00
-4.282309532165527344e+00,-8.889374732971191406e+00,-1.098396015167236328e+01,-1.077759647369384766e+01,-7.998280048370361328e+00,-6.236562728881835938e+00,-6.966346740722656250e+00,-6.946992397308349609e+00,-5.154341697692871094e+00,-1.327134251594543457e+00,-3.746072292327880859e+00,-5.326575279235839844e+00,-5.926705360412597656e+00,-3.661314487457275391e+00,-2.054483890533447266e+00,-5.782763957977294922e+00,-8.880953788757324219e+00,-8.595397949218750000e+00,-6.423089504241943359e+00,-7.830785751342773438e+00,-1.037108039855957031e+01,-6.394223690032958984e+00,-4.508979320526123047e+00,-3.680843114852905273e+00,-6.014514923095703125e+00,-7.445308208465576172e+00,-8.260352134704589844e+00,-7.473180294036865234e+00,-7.397528648376464844e+00,-8.520294189453125000e+00,-9.096131324768066406e+00,-1.466197204589843750e+01
-5.008074760437011719e+00,-1.338940906524658203e+01,-1.393833351135253906e+01,-1.341418743133544922e+01,-1.371040534973144531e+01,-1.413252735137939453e+01,-1.200808715820312500e+01,-7.807682991027832031e+00,-4.159412860870361328e+00,-4.221248626708984375e+00,-8.376359939575195312e+00,-8.891142845153808594e+00,-7.102298259735107422e+00,-5.870788574218750000e+00,-3.007148027420043945e+00,-6.012705802917480469e+00,-8.529058456420898438e+00,-7.879814624786376953e+00,-2.072041034698486328e+00,-2.001019716262817383e+00,-7.895604133605957031e+00,-1.094992446899414062e+01,-8.837841987609863281e+00,-7.850073337554931641e+00,-8.523900032043457031e+00,-9.608469963073730469e+00,-6.510746955871582031e+00,-6.863046646118164062e+00,-8.402264595031738281e+00,-1.056766033172607422e+01,-1.008595752716064453e+01,-1.640177345275878906e+01
-3.125736474990844727e+00,-1.505452823638916016e+01,-1.715995407104492188e+01,-1.641970443725585938e+01,-1.088199043273925781e+01,-1.190631198883056641e+01,-7.419501304626464844e+00,-4.008584022521972656e+00,-2.095451354980468750e+00,-5.716993331909179688e+00,-6.582534313201904297e+00,-5.471527576446533203e+00,-4.669486999511718750e+00,-3.367593050003051758e+00,1.797727704048156738e+00,8.087177276611328125e-01,-3.644059658050537109e+00,-3.750408649444580078e+00,4.213587284088134766e+00,4.363637447357177734e+00,-8.070530891418457031e-01,-6.915219783782958984e+00,-5.741879940032958984e+00,-6.079866409301757812e+00,-3.988071203231811523e+00,-4.359519481658935547e+00,-4.363067626953125000e+00,-5.076851367950439453e+00,-5.522259235382080078e+00,-7.194888114929199219e+00,-1.399579048156738281e+01,-2.190350532531738281e+01
-4.148822307586669922e+00,-7.919040679931640625e+00,-1.055237579345703125e+01,-1.026395320892333984e+01,-2.824411153793334961e+00,-1.418144702911376953e+00,9.696523845195770264e-02,-6.332851052284240723e-01,-1.341763615608215332e+00,-1.655300259590148926e+00,-1.212474465370178223e+00,-2.007246732711791992e+00,-3.098853588104248047e+00,9.159409999847412109e-02,3.144561290740966797e+00,5.208479762077331543e-01,-3.059215068817138672e+00,-2.188083171844482422e+00,3.754434347152709961e+00,2.789411544799804688e+00,-7.444801330566406250e-01,-1.765813708305358887e+00,1.752352267503738403e-01,4.185125231742858887e-01,-3.796879351139068604e-01,-2.213107347488403320e+00,-4.177538394927978516e+00,-6.321586132049560547e+00,-4.631927013397216797e+00,-4.409826755523681641e+00,-8.665400505065917969e+00,-1.424164009094238281e+01
-9.204244613647460938e+00,2.309391498565673828e+00,6.006118655204772949e-01,1.830953806638717651e-01,1.844550013542175293e+00,3.293150663375854492e+00,1.922896385192871094e+00,9.462863802909851074e-01,-8.853134512901306152e-01,9.629715681076049805e-01,1.220112800598144531e+00,-3.388462662696838379e-01,-1.464505910873413086e+00,1.307297348976135254e-01,1.447659015655517578e+00,-1.597981691360473633e+00,-2.054720878601074219e+00,-5.974044799804687500e-01,2.676677227020263672e+00,4.725863337516784668e-01,-3.175755500793457031e+00,-1.954480171203613281e+00,-7.469559907913208008e-01,4.017733931541442871e-01,-1.999088048934936523e+00,-3.529030084609985352e+00,-2.743373155593872070e+00,-2.612551212310791016e+00,-1.041016459465026855e+00,-1.020163893699645996e+00,-5.195326805114746094e-01,-2.126313686370849609e+00
-1.223763942718505859e+01,8.330906867980957031e+00,1.071899890899658203e+01,1.038958072662353516e+01,4.830655574798583984e+00,2.974850654602050781e+00,9.457744657993316650e-02,-3.069820106029510498e-01,-1.115073561668395996e+00,-6.351134777069091797e-01,3.402155041694641113e-01,4.480516016483306885e-01,1.687150746583938599e-01,4.527411758899688721e-01,3.521591663360595703e+00,2.550463438034057617e+00,5.633858442306518555e-01,-6.587483733892440796e-02,2.392369508743286133e+00,1.489949107170104980e+00,1.747018247842788696e-01,-4.095245897769927979e-02,-2.740952253341674805e+00,-2.886820793151855469e+00,-1.594135880470275879e+00,1.001228213310241699e+00,2.826685190200805664e+00,4.319052219390869141e+00,3.942368507385253906e+00,5.390979290008544922e+00,8.280933380126953125e+00,1.429641342163085938e+01
-8.127970695495605469e+00,-2.716260433197021484e+00,-8.153161406517028809e-01,-5.320123434066772461e-01,-4.708539962768554688e+00,-3.800194978713989258e+00,-4.215734004974365234e+00,-3.324108362197875977e+00,-1.222300171852111816e+00,-4.984305202960968018e-01,-7.558983564376831055e-01,1.643887013196945190e-01,1.218434453010559082e+00,2.244646549224853516e+00,5.334096431732177734e+00,5.120869159698486328e+00,2.646203517913818359e+00,1.791101455688476562e+00,3.213663101196289062e+00,3.194102048873901367e+00,3.563382387161254883e+00,3.197484731674194336e+00,5.096042156219482422e-01,7.522623538970947266e-01,3.648840665817260742e+00,4.299623966217041016e+00,3.560311079025268555e+00,1.399354696273803711e+00,-7.210509181022644043e-01,-2.320639610290527344e+00,-4.610397815704345703e-01,4.508204936981201172e+00
-1.441778779029846191e+00,1.315964579582214355e+00,2.136607408523559570e+00,2.793501138687133789e+00,1.753401756286621094e+00,1.184295415878295898e+00,2.861902952194213867e+00,4.442143917083740234e+00,5.159591674804687500e+00,4.044381141662597656e+00,3.888059377670288086e+00,3.607939481735229492e+00,3.839496135711669922e+00,3.635198593139648438e+00,4.268051624298095703e+00,4.796516418457031250e+00,5.367032051086425781e+00,5.764293670654296875e+00,4.574327468872070312e+00,4.136201381683349609e+00,5.152915000915527344e+00,7.403143405914306641e+00,7.580239772796630859e+00,7.491550922393798828e+00,7.864900112152099609e+00,7.224083900451660156e+00,6.027691841125488281e+00,2.510590791702270508e+00,1.745447874069213867e+00,3.144615650177001953e+00,6.263528823852539062e+00,2.241373777389526367e+00
-5.215013623237609863e-01,8.707815170288085938e+00,9.465990066528320312e+00,8.591029167175292969e+00,8.401733398437500000e+00,8.218725204467773438e+00,9.479441642761230469e+00,7.483620166778564453e+00,5.204402446746826172e+00,5.276672363281250000e+00,7.608804702758789062e+00,7.542380809783935547e+00,5.719655513763427734e+00,5.196675300598144531e+00,5.669632911682128906e+00,7.333559513092041016e+00,7.057489871978759766e+00,6.714622974395751953e+00,2.990547657012939453e+00,3.293153762817382812e+00,6.512414455413818359e+00,9.284289360046386719e+00,9.042954444885253906e+00,6.718384742736816406e+00,5.085103988647460938e+00,5.958222866058349609e+00,5.810448169708251953e+00,6.642891407012939453e+00,7.299105167388916016e+00,1.112540245056152344e+01,1.062113189697265625e+01,8.108394622802734375e+00
-2.137546300888061523e+00,7.030715465545654297e+00,6.520966053009033203e+00,5.720794200897216797e+00,5.286766052246093750e+00,7.748040676116943359e+00,5.667358875274658203e+00,1.837760567665100098e+00,6.978446841239929199e-01,1.807512164115905762e+00,3.579802989959716797e+00,4.801069259643554688e+00,4.989000320434570312e+00,4.525041103363037109e+00,4.319480895996093750e+00,4.025994300842285156e+00,3.573845863342285156e+00,3.538988828659057617e+00,1.123493790626525879e+00,3.077828645706176758e+00,5.562911510467529297e+00,4.986157417297363281e+00,1.351694107055664062e+00,2.640254735946655273e+00,3.956309318542480469e+00,4.217133045196533203e+00,3.187353610992431641e+00,5.619366645812988281e+00,4.577152729034423828e+00,4.165207862854003906e+00,4.280779838562011719e+00,1.228018283843994141e+01
-3.833767414093017578e+00,1.401927471160888672e+01,1.790308952331542969e+01,1.889905548095703125e+01,1.332511806488037109e+01,9.594936370849609375e+00,4.896591186523437500e+00,4.234898090362548828e+00,3.774797201156616211e+00,1.382401287555694580e-01,-3.658653199672698975e-01,5.103463530540466309e-01,2.264555931091308594e+00,7.775057554244995117e-01,-1.975456118583679199e+00,-3.603632211685180664e+00,-9.472975730895996094e-01,-1.042525395750999451e-01,-4.784463346004486084e-01,1.065195918083190918e+00,1.636011838912963867e+00,-7.757464051246643066e-01,-3.601423978805541992e+00,2.702419161796569824e-01,4.457005977630615234e+00,5.107717514038085938e+00,3.992294311523437500e+00,4.515708446502685547e+00,4.779175281524658203e+00,5.058079242706298828e+00,1.195318222045898438e+01,1.924027633666992188e+01
-4.758206367492675781e+00,9.093642234802246094e+00,9.428179740905761719e+00,9.231082916259765625e+00,8.550872802734375000e+00,6.484106063842773438e+00,5.485292911529541016e+00,4.696799755096435547e+00,2.865633010864257812e+00,3.782404214143753052e-02,1.051685094833374023e+00,7.224949002265930176e-01,-3.708033859729766846e-01,-1.956574440002441406e+00,-4.531289577484130859e+00,-3.326680898666381836e+00,-5.649706721305847168e-01,-5.054885745048522949e-01,-2.919300079345703125e+00,-2.966847658157348633e+00,-9.922980070114135742e-01,-4.552649259567260742e-01,9.917928576469421387e-01,-1.419564485549926758e+00,-1.725632190704345703e+00,-7.847303748130798340e-01,5.053893923759460449e-01,1.693435311317443848e+00,4.005079746246337891e+00,4.565907955169677734e+00,7.698697090148925781e+00,1.274650955200195312e+01
-1.975125789642333984e+00,2.731853008270263672e+00,3.406443357467651367e+00,1.824720025062561035e+00,8.477902412414550781e-01,3.745135545730590820e+00,5.117393493652343750e+00,3.076373100280761719e+00,1.689990162849426270e+00,3.523797750473022461e+00,4.240757465362548828e+00,3.135141134262084961e+00,1.606077194213867188e+00,1.956712961196899414e+00,1.155919313430786133e+00,1.950505018234252930e+00,2.886447191238403320e+00,2.478682279586791992e+00,-1.192000150680541992e+00,-2.063092947006225586e+00,2.827545702457427979e-01,3.204644680023193359e+00,6.149168968200683594e+00,3.454421758651733398e+00,-7.956983149051666260e-02,-5.304530858993530273e-01,5.161378383636474609e-01,7.835286259651184082e-01,1.961263656616210938e+00,2.465751886367797852e+00,1.912324547767639160e+00,9.088452339172363281e+00
1.227344989776611328e+00,-6.788791179656982422e+00,-7.993859767913818359e+00,-6.681882381439208984e+00,-3.748931646347045898e+00,-1.813403248786926270e+00,-9.734327197074890137e-01,-1.658018678426742554e-01,1.179085254669189453e+00,2.240729093551635742e+00,1.434445858001708984e+00,2.536896944046020508e+00,3.104151725769042969e+00,1.940255880355834961e+00,-5.192051529884338379e-01,1.353410720825195312e+00,4.571218967437744141e+00,4.270237445831298828e+00,1.323490738868713379e+00,2.796048402786254883e+00,4.376508235931396484e+00,4.052750587463378906e+00,4.229461193084716797e+00,7.065545558929443359e+00,6.804405689239501953e+00,4.941004753112792969e+00,2.500525474548339844e+00,1.067093253135681152e+00,-9.662417173385620117e-01,-1.359532117843627930e+00,-4.194385528564453125e+00,-1.473556327819824219e+01
-3.790440261363983154e-01,4.652942657470703125e+00,6.299533843994140625e+00,6.875607013702392578e+00,4.006890296936035156e+00,8.746140003204345703e-01,-1.047256350517272949e+00,-1.034339427947998047e+00,-6.037660837173461914e-01,-1.257797956466674805e+00,2.632985413074493408e-01,1.691421031951904297e+00,1.860417962074279785e+00,-1.662118554115295410e+00,-5.447567939758300781e+00,-1.015500426292419434e-01,3.676080942153930664e+00,1.825974702835083008e+00,-1.187836885452270508e+00,2.072299480438232422e+00,5.118944644927978516e+00,4.872836112976074219e+00,2.715379953384399414e+00,1.608922123908996582e+00,1.538434863090515137e+00,3.503424406051635742e+00,3.498296022415161133e+00,4.243223190307617188e+00,2.445734977722167969e+00,3.815576076507568359e+00,6.700304031372070312e+00,1.035851001739501953e+01
2.696683406829833984e+00,1.305011558532714844e+01,1.432222270965576172e+01,1.065943622589111328e+01,7.053081035614013672e+00,7.036364078521728516e+00,6.159636020660400391e+00,2.246221542358398438e+00,-8.093539476394653320e-01,3.855546712875366211e-01,3.665140628814697266e+00,4.650402069091796875e+00,4.805224418640136719e+00,4.517706871032714844e+00,3.271643400192260742e+00,4.857753276824951172e+00,5.498584270477294922e+00,4.864535808563232422e+00,2.503244638442993164e+00,3.757969379425048828e+00,6.005842208862304688e+00,7.306869983673095703e+00,3.604734659194946289e+00,3.052407503128051758e-01,-8.848452568054199219e-01,2.897543191909790039e+00,5.161313533782958984e+00,7.652345180511474609e+00,7.525578022003173828e+00,7.654706954956054688e+00,9.283520698547363281e+00,2.385517311096191406e+01
5.283861637115478516e+00,9.855722427368164062e+00,1.272054862976074219e+01,1.188943958282470703e+01,1.100610446929931641e+01,1.188996028900146484e+01,1.055070114135742188e+01,6.477413654327392578e+00,2.826916694641113281e+00,4.203227519989013672e+00,7.227708339691162109e+00,7.808228015899658203e+00,8.684040069580078125e+00,8.218434333801269531e+00,7.884397506713867188e+00,7.149332523345947266e+00,7.649776935577392578e+00,9.472375869750976562e+00,9.463433265686035156e+00,9.007519721984863281e+00,7.828104972839355469e+00,8.059308052062988281e+00,6.279244899749755859e+00,9.618689537048339844e+00,9.747645378112792969e+00,9.194625854492187500e+00,8.042635917663574219e+00,9.271825790405273438e+00,8.750004768371582031e+00,8.000796318054199219e+00,9.080656051635742188e+00,1.358990287780761719e+01
6.046018123626708984e+00,6.724288940429687500e+00,1.014709949493408203e+01,1.247157573699951172e+01,1.259962272644042969e+01,1.239106178283691406e+01,1.029605674743652344e+01,8.195619583129882812e+00,4.696805477142333984e+00,5.556282997131347656e+00,7.348991870880126953e+00,7.367179393768310547e+00,6.632118225097656250e+00,4.447064876556396484e+00,2.800502538681030273e+00,6.521328449249267578e+00,7.798604488372802734e+00,7.463255882263183594e+00,6.636381149291992188e+00,7.396352767944335938e+00,8.704832077026367188e+00,9.523385047912597656e+00,1.022006034851074219e+01,1.186546707153320312e+01,1.107555484771728516e+01,8.406997680664062500e+00,7.369660377502441406e+00,7.764741420745849609e+00,7.201805591583251953e+00,7.096828460693359375e+00,8.948356628417968750e+00,9.944402694702148438e+00
9.668384552001953125e+00,1.048198986053466797e+01,6.854006290435791016e+00,4.820636272430419922e+00,8.749629020690917969e+00,1.297918224334716797e+01,1.184514427185058594e+01,8.778520584106445312e+00,3.378547430038452148e+00,5.355636596679687500e+00,6.592715740203857422e+00,8.086586952209472656e+00,5.899298667907714844e+00,6.603660583496093750e+00,5.416739463806152344e+00,8.377504348754882812e+00,8.592844009399414062e+00,8.162905693054199219e+00,6.078201293945312500e+00,6.795557975769042969e+00,1.007331752777099609e+01,1.294432067871093750e+01,1.137865829467773438e+01,8.199269294738769531e+00,6.509471893310546875e+00,6.416325569152832031e+00,7.213769435882568359e+00,8.039341926574707031e+00,9.174338340759277344e+00,9.452200889587402344e+00,1.125867652893066406e+01,1.401156711578369141e+01
1.040076351165771484e+01,1.125199317932128906e+01,9.001046180725097656e+00,7.862679004669189453e+00,1.291874027252197266e+01,1.366670036315917969e+01,1.170623302459716797e+01,8.227723121643066406e+00,5.330569267272949219e+00,5.233448028564453125e+00,7.858664989471435547e+00,8.782879829406738281e+00,9.302973747253417969e+00,8.590749740600585938e+00,8.337580680847167969e+00,8.699378967285156250e+00,9.559053421020507812e+00,1.008539581298828125e+01,9.721240997314453125e+00,1.045151615142822266e+01,1.046971035003662109e+01,1.090664005279541016e+01,8.583305358886718750e+00,1.012023448944091797e+01,9.376781463623046875e+00,9.570762634277343750e+00,9.368356704711914062e+00,1.141260337829589844e+01,1.073204898834228516e+01,1.053045940399169922e+01,1.274481487274169922e+01,1.217246627807617188e+01
4.585349082946777344e+00,9.730792641639709473e-01,4.050313949584960938e+00,7.124693870544433594e+00,1.076237106323242188e+01,7.979162693023681641e+00,5.325838565826416016e+00,3.720051765441894531e+00,4.945867061614990234e+00,4.376824855804443359e+00,5.724070072174072266e+00,4.089134216308593750e+00,6.024266719818115234e+00,3.020562171936035156e+00,2.646307468414306641e+00,4.123582839965820312e+00,5.214115142822265625e+00,5.005805969238281250e+00,6.012264728546142578e+00,7.802767753601074219e+00,8.577932357788085938e+00,6.742890357971191406e+00,5.326796531677246094e+00,8.484968185424804688e+00,8.661668777465820312e+00,6.984813690185546875e+00,7.507085323333740234e+00,8.877660751342773438e+00,6.734613418579101562e+00,4.378167152404785156e+00,4.326345443725585938e+00,2.994312286376953125e+00
-1.896516561508178711e+00,-5.089716434478759766e+00,-2.754282712936401367e+00,-3.513391017913818359e+00,-3.008860349655151367e+00,-1.834424376487731934e+00,-1.204239130020141602e+00,-3.221611976623535156e-01,-1.579387903213500977e+00,-4.960209503769874573e-02,-1.631246447563171387e+00,-2.235151529312133789e+00,-2.698466300964355469e+00,-1.164922595024108887e+00,-1.986907243728637695e+00,-1.384504318237304688e+00,-2.447468519210815430e+00,-1.765325665473937988e+00,-8.335544466972351074e-01,-1.103031873703002930e+00,-1.114130973815917969e+00,-1.774635910987854004e+00,-2.084435224533081055e+00,-2.580090999603271484e+00,-4.296687602996826172e+00,-5.661187648773193359e+00,-3.127412080764770508e+00,-1.713067650794982910e+00,-6.196019649505615234e-01,-3.782006502151489258e+00,-7.606319427490234375e+00,-6.466074466705322266e+00
-1.137430667877197266e-01,-6.964523792266845703e+00,-9.079728126525878906e+00,-1.135104179382324219e+01,-6.680186271667480469e+00,-3.896836042404174805e+00,-2.376796483993530273e+00,-2.582603454589843750e+00,-5.849660873413085938e+00,-4.082620620727539062e+00,-4.002526283264160156e+00,-1.079203367233276367e+00,-2.540145397186279297e+00,-2.068821430206298828e+00,-4.158204555511474609e+00,-2.534871816635131836e+00,-1.835830330848693848e+00,-1.441394329071044922e+00,-1.838553547859191895e+00,-4.089768409729003906e+00,-7.166945934295654297e+00,-4.904585361480712891e+00,-2.643704414367675781e+00,-3.551934957504272461e+00,-5.808170795440673828e+00,-7.331171989440917969e+00,-6.484604835510253906e+00,-5.779416084289550781e+00,-4.882784366607666016e+00,-7.664421558380126953e+00,-1.110998153686523438e+01,-1.051261711120605469e+01
6.889773607254028320e-01,-1.146131134033203125e+01,-1.284343242645263672e+01,-1.073276424407958984e+01,-1.864498734474182129e+00,-1.908544182777404785e+00,-2.162141084671020508e+00,-3.940998554229736328e+00,-4.022010326385498047e+00,-2.442376375198364258e+00,6.949949860572814941e-01,2.822179079055786133e+00,2.364331632852554321e-01,-6.189924240112304688e+00,-8.429428100585937500e+00,-2.406979799270629883e+00,1.380440831184387207e+00,-6.944426298141479492e-01,-2.153822660446166992e+00,-2.383862972259521484e+00,-2.798357486724853516e+00,2.835107147693634033e-01,1.527731180191040039e+00,-4.827722907066345215e-01,-2.319179773330688477e+00,-4.482298851013183594e+00,-3.082926988601684570e+00,-1.726471304893493652e+00,-3.771873474121093750e+00,-7.351049900054931641e+00,-9.565393447875976562e+00,-1.154707527160644531e+01
1.879765152931213379e+00,-9.212110519409179688e+00,-1.046874809265136719e+01,-9.210439682006835938e+00,-2.340044975280761719e+00,-9.467087984085083008e-01,7.351722717285156250e-01,-1.547290682792663574e+00,-2.734876871109008789e+00,-3.453812599182128906e-01,2.279209613800048828e+00,2.804514408111572266e+00,-3.006693422794342041e-01,-5.663086414337158203e+00,-6.722027778625488281e+00,-2.012995243072509766e+00,1.137233972549438477e+00,-1.238216400146484375e+00,-2.863090038299560547e+00,-2.035657405853271484e+00,-4.904893934726715088e-01,7.087796926498413086e-01,-7.012276649475097656e-01,-3.009494066238403320e+00,-3.949896574020385742e+00,-6.592335224151611328e+00,-3.661638975143432617e+00,-5.439096093177795410e-01,-7.648587822914123535e-01,-6.380065917968750000e+00,-1.054380607604980469e+01,-1.309465885162353516e+01
4.087125778198242188e+00,-5.001008033752441406e+00,-3.647204160690307617e+00,-5.600278854370117188e+00,-3.558854818344116211e+00,-2.165133953094482422e+00,1.708047747611999512e+00,-4.379827901721000671e-02,-3.033266067504882812e+00,-9.272407889366149902e-01,-6.039676070213317871e-01,2.917255401611328125e+00,2.319458961486816406e+00,2.421611100435256958e-01,-1.978418946266174316e+00,-2.981901764869689941e-01,1.674196124076843262e+00,8.134333491325378418e-01,-3.438403010368347168e-01,-1.101340174674987793e+00,-1.254675865173339844e+00,7.231420874595642090e-01,3.151324391365051270e-01,-2.062016487121582031e+00,-2.177308082580566406e+00,-4.152226924896240234e+00,-2.415946483612060547e+00,-1.129984855651855469e+00,4.153186380863189697e-01,-3.225485086441040039e+00,-6.837635993957519531e+00,-1.052344417572021484e+01
2.127602100372314453e+00,-8.401305198669433594e+00,-7.902783393859863281e+00,-7.952386379241943359e+00,-8.665224313735961914e-01,-8.679247498512268066e-01,-1.227821469306945801e+00,-1.686051368713378906e+00,-1.521187782287597656e+00,8.504012972116470337e-02,-3.979699909687042236e-01,1.624626278877258301e+00,2.839484691619873047e+00,-3.264382183551788330e-01,-3.132785081863403320e+00,-9.467148780822753906e-01,-1.377327144145965576e-01,-1.049949884414672852e+00,2.231299430131912231e-01,1.090747714042663574e+00,2.762683391571044922e+00,5.441633224487304688e+00,6.759531974792480469e+00,1.830396413803100586e+00,-1.491329550743103027e+00,-2.394191980361938477e+00,9.539683461189270020e-01,7.133808452636003494e-03,-1.142845988273620605e+00,-2.931556463241577148e+00,-5.007813930511474609e+00,-1.119698715209960938e+01
-1.042225062847137451e-01,-4.582407951354980469e+00,-8.247471809387207031e+00,-8.017080307006835938e+00,3.116760253906250000e+00,3.669242382049560547e+00,2.254296988248825073e-01,-5.990282893180847168e-01,1.893690943717956543e+00,3.822249889373779297e+00,2.797613143920898438e+00,-2.057788133621215820e+00,-1.260911345481872559e+00,1.766573786735534668e-01,-3.088980615139007568e-01,-5.351185798645019531e-01,-2.473980426788330078e+00,-1.611247420310974121e+00,1.877908587455749512e+00,5.080027580261230469e+00,6.132771015167236328e+00,4.749024391174316406e+00,3.649502992630004883e+00,3.486903905868530273e+00,2.225807189941406250e+00,9.371447563171386719e-01,2.647863388061523438e+00,2.999241113662719727e+00,3.309447050094604492e+00,2.060346603393554688e+00,9.975343942642211914e-01,-2.669510841369628906e+00
-8.493778705596923828e-01,-2.313755512237548828e+00,-5.273638248443603516e+00,-7.767144680023193359e+00,-1.121359467506408691e+00,2.138008594512939453e+00,1.112368941307067871e+00,-7.999464124441146851e-02,-2.009119033813476562e+00,1.318760871887207031e+00,1.176392793655395508e+00,-2.783324480056762695e+00,-1.671021342277526855e+00,2.866765975952148438e+00,1.832191586494445801e+00,3.383333235979080200e-02,-1.888781666755676270e+00,1.144364356994628906e+00,2.806038856506347656e+00,4.167866230010986328e+00,2.266071557998657227e+00,-2.192602872848510742e+00,-4.378499507904052734e+00,3.127255678176879883e+00,3.916736364364624023e+00,6.336942911148071289e-01,-2.840124964714050293e-01,3.855180501937866211e+00,5.318633079528808594e+00,9.362283349037170410e-01,-2.238097190856933594e+00,-1.070433735847473145e+00
1.610504865646362305e+00,-3.941583156585693359e+00,-1.016010761260986328e+00,-2.308168888092041016e+00,-7.442744374275207520e-01,5.787596702575683594e-01,-1.943044811487197876e-01,-7.443183660507202148e-02,-4.952073574066162109e+00,-2.011233329772949219e+00,-1.029002666473388672e+00,5.482838749885559082e-01,2.430842220783233643e-01,-2.142291545867919922e+00,-5.084166049957275391e+00,2.262270003557205200e-01,2.026924371719360352e+00,2.314594030380249023e+00,2.102512419223785400e-01,-1.187317132949829102e+00,-4.665628373622894287e-01,-1.856299400329589844e+00,-1.810786008834838867e+00,3.417279943823814392e-02,-1.592180609703063965e+00,-3.952691316604614258e+00,-6.336238384246826172e-01,2.104017019271850586e+00,4.713002741336822510e-01,-5.239315509796142578e+00,-7.369724750518798828e+00,-4.805208683013916016e+00
4.719313144683837891e+00,-4.289024353027343750e+00,-1.847088694572448730e+00,2.001574039459228516e+00,7.692663192749023438e+00,4.452345848083496094e+00,3.662941217422485352e+00,4.911528587341308594e+00,2.088012695312500000e+00,1.695820808410644531e+00,7.110763788223266602e-01,2.044621706008911133e+00,3.825556039810180664e-01,-2.385597944259643555e+00,-4.248567104339599609e+00,8.457404375076293945e-01,2.384519815444946289e+00,1.287426590919494629e+00,8.808968067169189453e-01,-7.467320561408996582e-01,-4.383625686168670654e-01,7.051640748977661133e-01,2.020743131637573242e+00,-9.314156174659729004e-01,-3.400086164474487305e+00,-3.334358930587768555e+00,3.563885688781738281e-01,-8.805136382579803467e-02,-1.848233281634747982e-03,-1.989601016044616699e+00,-5.313648223876953125e+00,-1.276120376586914062e+01
4.330544948577880859e+00,-4.994333267211914062e+00,-8.211097717285156250e+00,-4.147098064422607422e+00,5.530352592468261719e+00,5.743017673492431641e+00,6.827402591705322266e+00,5.161387920379638672e+00,6.567403078079223633e-01,1.118312031030654907e-01,1.489019393920898438e+00,1.521240115165710449e+00,1.890015244483947754e+00,3.121718883514404297e+00,1.605523347854614258e+00,2.172751903533935547e+00,2.267704725265502930e+00,2.779825448989868164e+00,1.022024869918823242e+00,3.808485716581344604e-02,-1.818268895149230957e+00,9.131334424018859863e-01,1.961146116256713867e+00,3.035928249359130859e+00,-1.648970246315002441e+00,-2.705848932266235352e+00,-2.399957895278930664e+00,-8.071501851081848145e-01,1.528564810752868652e+00,-5.753628611564636230e-01,-7.712325572967529297e+00,-1.515322971343994141e+01
3.717638552188873291e-01,-1.006038761138916016e+01,-1.723003196716308594e+01,-1.581560707092285156e+01,-5.137337684631347656e+00,-2.194128274917602539e+00,-1.379524230957031250e+00,-3.301126003265380859e+00,-6.492513179779052734e+00,-4.006461620330810547e+00,-2.526378631591796875e+00,-2.385950565338134766e+00,-1.049418210983276367e+00,-1.129851490259170532e-01,-8.471704125404357910e-01,-2.294349670410156250e+00,-2.180438041687011719e+00,-2.285654783248901367e+00,-3.842754364013671875e+00,-4.044287681579589844e+00,-3.348515272140502930e+00,-1.889064192771911621e+00,-5.015481114387512207e-01,6.596490740776062012e-01,-3.346406698226928711e+00,-4.574554443359375000e+00,-1.859640002250671387e+00,1.728122979402542114e-01,-7.705927640199661255e-02,-4.081496715545654297e+00,-1.213529014587402344e+01,-1.994768142700195312e+01
1.127435088157653809e+00,-6.802562713623046875e+00,-1.285741043090820312e+01,-1.051580905914306641e+01,2.791154980659484863e-01,-4.332909882068634033e-01,-2.840907096862792969e+00,-2.855375766754150391e+00,-1.798447370529174805e+00,1.528605937957763672e+00,3.081030249595642090e-01,4.215348139405250549e-02,4.841070771217346191e-01,2.237185239791870117e+00,1.572135925292968750e+00,1.601379811763763428e-01,-2.333255857229232788e-01,-4.205775558948516846e-01,4.263039827346801758e-01,9.724617004394531250e-01,2.452732801437377930e+00,9.403197169303894043e-01,-2.429051995277404785e-01,-7.910153269767761230e-01,-6.793128848075866699e-01,-8.851854801177978516e-01,2.507944107055664062e+00,4.607213497161865234e+00,4.202819347381591797e+00,4.740541875362396240e-01,-7.144841194152832031e+00,-1.980092811584472656e+01
3.726275205612182617e+00,-2.370599746704101562e+00,-3.733797073364257812e+00,-5.284295678138732910e-01,7.264225959777832031e+00,7.887876033782958984e+00,7.041421413421630859e+00,5.237202644348144531e+00,3.134406089782714844e+00,4.771717071533203125e+00,7.321760177612304688e+00,8.659789085388183594e+00,9.132621765136718750e+00,9.940540313720703125e+00,8.476585388183593750e+00,8.807135581970214844e+00,9.528715133666992188e+00,9.020768165588378906e+00,6.952617168426513672e+00,7.458825111389160156e+00,7.965010643005371094e+00,9.183853149414062500e+00,6.042071342468261719e+00,3.971642971038818359e+00,1.416383862495422363e+00,-1.225766167044639587e-01,-2.973033487796783447e-02,3.469502210617065430e+00,3.282033920288085938e+00,-6.045446395874023438e-01,-6.027873516082763672e+00,-1.175211620330810547e+01
-7.512092113494873047e+00,-1.101395320892333984e+01,-1.120895576477050781e+01,-1.143808364868164062e+01,-8.533081054687500000e+00,-4.853757858276367188e+00,-1.157052040100097656e+00,-1.231864452362060547e+00,-2.307914257049560547e+00,-3.453395366668701172e-01,-1.388324201107025146e-01,-6.272429227828979492e-02,7.550461888313293457e-01,2.502785921096801758e+00,1.632648825645446777e+00,6.101606488227844238e-01,4.258562624454498291e-01,2.604595124721527100e-01,-1.251675844192504883e+00,-1.950553655624389648e+00,-1.531170845031738281e+00,1.913783699274063110e-01,7.270932197570800781e-01,-2.171221494674682617e+00,-7.441260814666748047e+00,-1.014449119567871094e+01,-8.509785652160644531e+00,-8.811040878295898438e+00,-1.156014347076416016e+01,-1.437747383117675781e+01,-1.425082492828369141e+01,-1.319354629516601562e+01
-1.398063659667968750e+01,-1.367097091674804688e+01,-1.466516971588134766e+01,-1.768795967102050781e+01,-1.778064537048339844e+01,-1.760679435729980469e+01,-1.512706565856933594e+01,-1.109900283813476562e+01,-8.654897689819335938e+00,-7.023672103881835938e+00,-1.035853195190429688e+01,-1.223632144927978516e+01,-1.074401569366455078e+01,-5.894784927368164062e+00,-5.923430442810058594e+00,-1.057648181915283203e+01,-1.235168361663818359e+01,-1.204139423370361328e+01,-1.121743297576904297e+01,-1.279452991485595703e+01,-1.274979496002197266e+01,-1.334286308288574219e+01,-9.376361846923828125e+00,-1.137441349029541016e+01,-1.192108249664306641e+01,-1.273577213287353516e+01,-1.111057186126708984e+01,-1.416823768615722656e+01,-1.302285194396972656e+01,-1.344578170776367188e+01,-1.318505191802978516e+01,-1.725198173522949219e+01
-5.496739864349365234e+00,-4.160804748535156250e+00,-3.494828462600708008e+00,-4.891526222229003906e+00,-6.249851226806640625e+00,-7.861443996429443359e+00,-9.005172729492187500e+00,-7.248099327087402344e+00,-4.448286533355712891e+00,-4.309366226196289062e+00,-6.484488487243652344e+00,-7.803535461425781250e+00,-6.287043571472167969e+00,-2.628409862518310547e+00,-4.380881309509277344e+00,-5.777351856231689453e+00,-7.373700141906738281e+00,-7.222694396972656250e+00,-7.660469532012939453e+00,-9.528586387634277344e+00,-1.094424819946289062e+01,-1.043181324005126953e+01,-7.838115692138671875e+00,-7.254219532012939453e+00,-5.180435180664062500e+00,-3.804776906967163086e+00,-4.304332256317138672e+00,-3.867481946945190430e+00,-1.567153215408325195e+00,-2.497792840003967285e-01,-3.395312786102294922e+00,-5.784007072448730469e+00
-5.274339199066162109e+00,-4.253685474395751953e+00,-2.783242225646972656e+00,-2.750870943069458008e+00,-3.734278202056884766e+00,-3.397641181945800781e+00,-2.675900936126708984e+00,-1.850317955017089844e+00,-1.143695235252380371e+00,-2.844980716705322266e+00,-4.326438903808593750e+00,-3.599230051040649414e+00,-2.396244525909423828e+00,-2.105532169342041016e+00,-4.081714630126953125e+00,-3.487948656082153320e+00,-3.000279903411865234e+00,-3.797238588333129883e+00,-4.495818138122558594e+00,-3.744107723236083984e+00,-3.878981113433837891e+00,-7.092713356018066406e+00,-8.644544601440429688e+00,-4.893639564514160156e+00,-7.337529659271240234e-01,6.154841929674148560e-02,8.468849658966064453e-01,3.261671662330627441e-01,-8.764855563640594482e-02,-2.163839340209960938e+00,-3.986052870750427246e-01,1.709594607353210449e+00
-7.582394123077392578e+00,-4.932960987091064453e+00,-3.391684293746948242e+00,-4.280389785766601562e+00,-6.628332614898681641e+00,-8.409120559692382812e+00,-6.993388175964355469e+00,-2.758731126785278320e+00,-4.979683458805084229e-01,-1.756964325904846191e+00,-6.269855976104736328e+00,-6.702476024627685547e+00,-4.532495021820068359e+00,-1.513098627328872681e-01,2.451278686523437500e+00,-7.550064325332641602e-01,-3.093409776687622070e+00,-3.789027452468872070e+00,9.883127212524414062e-01,-5.397481918334960938e-01,-2.154360055923461914e+00,-9.904174804687500000e+00,-1.117777252197265625e+01,-6.620861530303955078e+00,1.240747690200805664e+00,5.273665785789489746e-01,-2.081482112407684326e-01,-4.761131763458251953e+00,-5.279404163360595703e+00,-4.180748939514160156e+00,1.926520228385925293e+00,2.111530542373657227e+00
-5.549291133880615234e+00,-2.027611732482910156e+00,1.115223646163940430e+00,3.488362953066825867e-02,-4.419255733489990234e+00,-8.802428245544433594e+00,-9.611833572387695312e+00,-5.320392131805419922e+00,-1.991320848464965820e-01,1.671764373779296875e+00,-4.656933307647705078e+00,-7.200090408325195312e+00,-2.588537454605102539e+00,5.445453166961669922e+00,7.842282772064208984e+00,3.285301685333251953e+00,-9.730999469757080078e-01,-3.296207189559936523e-01,5.265024185180664062e+00,7.005766034126281738e-01,-3.214618921279907227e+00,-7.761216163635253906e+00,-4.953411102294921875e+00,-1.552428603172302246e+00,2.493574380874633789e+00,1.570797204971313477e+00,-2.821773767471313477e+00,-5.505622386932373047e+00,-5.170784950256347656e+00,-6.560413837432861328e-01,1.787883520126342773e+00,1.225639581680297852e+00
-8.630594253540039062e+00,-4.548273563385009766e+00,-2.403611421585083008e+00,-4.390008926391601562e+00,-8.646398544311523438e+00,-7.371055603027343750e+00,-6.313014984130859375e+00,-5.390507698059082031e+00,-2.796868324279785156e+00,5.018688440322875977e-01,-3.164219856262207031e+00,-4.746779441833496094e+00,-2.355685472488403320e+00,8.361520618200302124e-02,-1.448081374168395996e+00,6.698404550552368164e-01,-1.853468716144561768e-01,-8.861224055290222168e-01,-4.992650747299194336e-01,-5.394258499145507812e-01,-2.919401884078979492e+00,-3.818441152572631836e+00,-1.619369387626647949e+00,-4.900190234184265137e-02,-9.962711930274963379e-01,-2.782723188400268555e+00,-4.464546680450439453e+00,-5.333204269409179688e+00,-7.118329524993896484e+00,-7.038618564605712891e+00,-5.248712062835693359e+00,-1.280008435249328613e+00
-1.023318958282470703e+01,-8.949052810668945312e+00,-9.072803497314453125e+00,-1.060713768005371094e+01,-1.311983966827392578e+01,-8.792695045471191406e+00,-5.406521320343017578e+00,-3.880877494812011719e+00,-5.492646694183349609e+00,-3.619522571563720703e+00,-3.441899776458740234e+00,-3.040306091308593750e+00,-6.019360542297363281e+00,-7.965449333190917969e+00,-9.190608024597167969e+00,-5.922516345977783203e+00,-4.002368927001953125e+00,-3.782685041427612305e+00,-5.045968532562255859e+00,-2.870187044143676758e+00,-3.695657253265380859e+00,-5.554993629455566406e+00,-7.026019096374511719e+00,-6.680068492889404297e+00,-5.669145584106445312e+00,-7.948172569274902344e+00,-5.656507015228271484e+00,-7.636326789855957031e+00,-7.544721126556396484e+00,-9.573643684387207031e+00,-6.562563419342041016e+00,-8.103541374206542969e+00
-1.186289429664611816e+00,-7.307954788208007812e+00,-6.750375747680664062e+00,-5.113773345947265625e+00,-6.005290031433105469e+00,-7.543348789215087891e+00,-6.213756084442138672e+00,-2.881755828857421875e+00,-2.210766077041625977e+00,-2.372908830642700195e+00,-1.678295016288757324e+00,-1.525640964508056641e+00,-4.781266212463378906e+00,-6.238858699798583984e+00,-6.057196617126464844e+00,-6.181356430053710938e+00,-6.417670726776123047e+00,-4.683404445648193359e+00,-4.248447418212890625e+00,-3.418299913406372070e+00,-4.096275329589843750e+00,-5.840956211090087891e+00,-6.485676288604736328e+00,-7.345690250396728516e+00,-6.020486354827880859e+00,-6.079710960388183594e+00,-3.909048080444335938e+00,-4.088783264160156250e+00,-2.286087989807128906e+00,-1.676700472831726074e+00,-2.214878320693969727e+00,-9.744305610656738281e+00
3.372404575347900391e+00,-3.462636470794677734e-01,-1.388041853904724121e+00,4.203491508960723877e-01,1.590443134307861328e+00,-1.830981731414794922e+00,-3.190192461013793945e+00,-1.392092943191528320e+00,1.708588480949401855e+00,-1.935569405555725098e+00,-2.175351142883300781e+00,-2.017625093460083008e+00,-3.108118295669555664e+00,-5.299216747283935547e+00,-3.830182790756225586e+00,-2.809301376342773438e+00,-4.226650714874267578e+00,-4.270309448242187500e+00,-3.612153530120849609e+00,-2.217148065567016602e+00,-7.287176251411437988e-01,1.275771707296371460e-01,7.811151146888732910e-01,-1.294951915740966797e+00,-2.627045392990112305e+00,-1.243654131889343262e+00,-4.874970316886901855e-01,8.539368510246276855e-01,-1.674881130456924438e-01,-3.808519244194030762e-01,-2.512608528137207031e+00,-1.508210420608520508e+00
-1.419852852821350098e+00,4.651382923126220703e+00,1.450755953788757324e+00,8.368467092514038086e-01,3.929606199264526367e+00,4.068833827972412109e+00,2.793618202209472656e+00,2.212414890527725220e-01,9.599693119525909424e-02,-3.130820035934448242e+00,-1.253984689712524414e+00,-9.973952174186706543e-01,-3.706463336944580078e+00,-7.522885322570800781e+00,-5.932013511657714844e+00,-3.277782917022705078e+00,-2.128381729125976562e+00,-2.753100395202636719e+00,-3.434455156326293945e+00,-1.697972059249877930e+00,8.159423470497131348e-01,3.594640493392944336e+00,3.251161813735961914e+00,1.786585927009582520e+00,1.420033454895019531e+00,2.630574703216552734e+00,3.620890080928802490e-01,-7.965872883796691895e-01,-3.689983189105987549e-01,8.407920598983764648e-01,1.339508891105651855e-01,1.133261919021606445e+00
9.834669232368469238e-01,3.320419788360595703e+00,2.893191099166870117e+00,3.987148046493530273e+00,5.404695034027099609e+00,5.978398799896240234e+00,6.236947536468505859e+00,2.611080884933471680e+00,-3.135872185230255127e-01,2.143403291702270508e-01,4.244081974029541016e+00,4.422196865081787109e+00,1.941644191741943359e+00,-2.651387691497802734e+00,-4.490227699279785156e+00,-3.155820131301879883e+00,-5.562510490417480469e-01,-7.174673676490783691e-01,-3.653598070144653320e+00,-5.350626945495605469e+00,-4.689053535461425781e+00,2.253854721784591675e-01,2.889131784439086914e+00,1.749709844589233398e+00,3.000352382659912109e-01,2.639605522155761719e+00,1.590169548988342285e+00,1.417819619178771973e+00,3.904365777969360352e+00,6.501287937164306641e+00,3.691940307617187500e+00,-2.856466531753540039e+00
8.500489234924316406e+00,3.348431587219238281e+00,3.545933961868286133e+00,6.709088802337646484e+00,6.119799137115478516e+00,6.985696792602539062e+00,7.642335891723632812e+00,6.017671108245849609e+00,3.917477130889892578e+00,3.973060369491577148e+00,7.051051616668701172e+00,7.947646141052246094e+00,7.726232528686523438e+00,2.451637268066406250e+00,1.105584621429443359e+00,2.458965778350830078e+00,4.573899745941162109e+00,3.284559488296508789e+00,2.068885862827301025e-01,-1.562780976295471191e+00,-2.202910661697387695e+00,1.997294783592224121e+00,4.319396018981933594e+00,2.325940847396850586e+00,-2.995508909225463867e+00,9.179382771253585815e-02,4.381054401397705078e+00,7.988162994384765625e+00,6.016093254089355469e+00,3.021778821945190430e+00,-6.810029149055480957e-01,-1.610381484031677246e+00
9.564726829528808594e+00,6.688893795013427734e+00,3.007325410842895508e+00,2.830164194107055664e+00,3.308012008666992188e+00,5.913873672485351562e+00,5.653832435607910156e+00,4.828819751739501953e+00,3.917958498001098633e+00,2.951475858688354492e+00,3.292480468750000000e+00,4.637710094451904297e+00,4.871593475341796875e+00,3.222900390625000000e+00,4.652469635009765625e+00,5.624437808990478516e+00,5.602744102478027344e+00,4.825005531311035156e+00,4.450097560882568359e+00,6.692357540130615234e+00,7.218422412872314453e+00,6.866546154022216797e+00,4.319994926452636719e+00,4.585712432861328125e+00,2.040211915969848633e+00,2.257747650146484375e+00,3.444481611251831055e+00,5.669868946075439453e+00,3.561074495315551758e+00,7.433791160583496094e-01,-4.108136892318725586e-01,1.419015049934387207e+00
3.576153755187988281e+00,7.371664047241210938e+00,6.188941001892089844e+00,4.733084201812744141e+00,3.196007490158081055e+00,4.295130252838134766e+00,2.385271072387695312e+00,4.883450269699096680e-01,5.821204185485839844e-02,2.619127035140991211e+00,1.371875762939453125e+00,4.512528181076049805e-01,1.221002221107482910e+00,4.294453144073486328e+00,5.577174663543701172e+00,3.131030559539794922e+00,1.077102541923522949e+00,2.437278747558593750e+00,4.873877525329589844e+00,6.714488506317138672e+00,8.211405754089355469e+00,6.697617053985595703e+00,4.677181243896484375e+00,6.759127616882324219e+00,9.532597541809082031e+00,8.555882453918457031e+00,3.206341028213500977e+00,9.114585518836975098e-01,2.317179441452026367e+00,8.111559867858886719e+00,1.125390720367431641e+01,7.183261871337890625e+00
-1.794696807861328125e+00,7.002981662750244141e+00,1.153814315795898438e+01,1.181682682037353516e+01,4.143823146820068359e+00,2.609750747680664062e+00,1.256528615951538086e+00,8.509598970413208008e-01,1.917748928070068359e+00,3.300247669219970703e+00,9.803270697593688965e-01,-1.289455890655517578e+00,-9.327840209007263184e-01,1.487877964973449707e+00,3.955372333526611328e+00,7.642508745193481445e-01,-1.770778536796569824e+00,4.672738909721374512e-01,6.512283802032470703e+00,5.574986457824707031e+00,4.519459724426269531e+00,3.446120738983154297e+00,2.718362808227539062e+00,2.775274038314819336e+00,4.734569072723388672e+00,6.476775169372558594e+00,2.916599988937377930e+00,1.505228996276855469e+00,1.884101867675781250e+00,7.490573883056640625e+00,1.379754638671875000e+01,1.656901550292968750e+01
-4.213102340698242188e+00,8.747791290283203125e+00,1.145715618133544922e+01,9.894366264343261719e+00,1.251506924629211426e+00,-1.968634247779846191e+00,-1.831321835517883301e+00,3.874084949493408203e-01,3.861761808395385742e+00,1.103350996971130371e+00,-2.244229078292846680e+00,-4.502267360687255859e+00,-3.834721326828002930e+00,-2.633647680282592773e+00,-2.827276289463043213e-01,-4.193588256835937500e+00,-6.390812397003173828e+00,-3.876879692077636719e+00,3.505340337753295898e+00,2.441800355911254883e+00,-1.908665418624877930e+00,-4.865564346313476562e+00,-5.077267169952392578e+00,-4.869165897369384766e+00,-4.696834087371826172e+00,-2.974141120910644531e+00,-2.589011907577514648e+00,-3.732252717018127441e-01,1.230356454849243164e+00,6.966052055358886719e-01,3.350736618041992188e+00,1.461033058166503906e+01
2.016963958740234375e+00,7.027190208435058594e+00,6.354187965393066406e+00,5.018545627593994141e+00,1.030283570289611816e+00,-2.076018810272216797e+00,-1.482433438301086426e+00,-1.017433404922485352e+00,1.902502179145812988e+00,7.596412301063537598e-01,2.132860869169235229e-01,-1.872418522834777832e+00,-1.096935290843248367e-02,1.385891437530517578e+00,-1.208726614713668823e-01,-3.692847013473510742e+00,-5.107780456542968750e+00,-3.215025901794433594e+00,-1.405810594558715820e+00,-1.369350790977478027e+00,-2.987399101257324219e+00,-4.174142837524414062e+00,-2.912357807159423828e+00,-1.798969507217407227e+00,-2.279737234115600586e+00,-3.902223587036132812e+00,-2.959516286849975586e+00,-2.253060936927795410e-01,1.692526936531066895e+00,2.511315643787384033e-01,3.794879913330078125e-01,5.610433101654052734e+00
5.343722820281982422e+00,3.457848072052001953e+00,5.966022491455078125e+00,7.750277996063232422e+00,3.694783687591552734e+00,2.223207712173461914e+00,2.015769481658935547e+00,1.095221877098083496e+00,1.000995397567749023e+00,2.423779249191284180e+00,3.056918144226074219e+00,3.344691276550292969e+00,4.023158550262451172e+00,3.489703178405761719e+00,1.725757479667663574e+00,2.553317070007324219e+00,2.215817451477050781e+00,1.774129629135131836e+00,-4.079850614070892334e-01,4.017098546028137207e-01,3.051219224929809570e+00,5.365711688995361328e+00,5.376465797424316406e+00,5.414591312408447266e+00,4.704185009002685547e+00,2.430766820907592773e+00,1.409617185592651367e+00,1.435606956481933594e+00,3.187964558601379395e-01,1.428269267082214355e+00,6.230583667755126953e+00,8.177521705627441406e+00
-3.531904935836791992e+00,3.850324869155883789e+00,8.245635032653808594e+00,8.267703056335449219e+00,2.048918724060058594e+00,1.493038892745971680e+00,1.259479999542236328e+00,1.058088779449462891e+00,1.376305580139160156e+00,1.669633626937866211e+00,-1.637867808341979980e+00,-1.069869756698608398e+00,-1.598562002182006836e+00,-8.092343807220458984e-01,4.630765914916992188e-01,4.775706231594085693e-01,-2.314070612192153931e-02,-5.577834248542785645e-01,7.923769354820251465e-01,4.973591864109039307e-01,1.063272953033447266e+00,1.504979252815246582e+00,-4.286454916000366211e-01,-1.994224637746810913e-01,7.169211506843566895e-01,6.306817531585693359e-01,-2.452998161315917969e+00,-4.456061363220214844e+00,-5.063743591308593750e+00,-2.631814718246459961e+00,3.290491104125976562e+00,1.224543857574462891e+01
-1.146985149383544922e+01,-6.382161974906921387e-01,1.462238550186157227e+00,-1.126911759376525879e+00,-6.108166694641113281e+00,-8.705655097961425781e+00,-6.959944725036621094e+00,-6.411081790924072266e+00,-2.898033380508422852e+00,-3.706500530242919922e+00,-7.341197490692138672e+00,-7.586688995361328125e+00,-7.285869598388671875e+00,-3.690265655517578125e+00,-3.437336921691894531e+00,-6.703197956085205078e+00,-8.058879852294921875e+00,-6.423814773559570312e+00,-3.984047651290893555e+00,-7.568524837493896484e+00,-1.001574325561523438e+01,-1.100163745880126953e+01,-9.793235778808593750e+00,-1.124143981933593750e+01,-1.018899440765380859e+01,-1.004283428192138672e+01,-9.090941429138183594e+00,-9.906453132629394531e+00,-8.542537689208984375e+00,-8.881767272949218750e+00,-7.358069419860839844e+00,4.069066524505615234e+00
-7.598762512207031250e+00,-4.014558792114257812e+00,-3.545453786849975586e+00,-4.031363010406494141e+00,-7.922945499420166016e+00,-1.175823783874511719e+01,-1.047818946838378906e+01,-8.156911849975585938e+00,-4.164922714233398438e+00,-4.479439735412597656e+00,-7.129304885864257812e+00,-5.867256164550781250e+00,-4.515679836273193359e+00,-3.369599819183349609e+00,-3.823838949203491211e+00,-4.930719375610351562e+00,-5.354234218597412109e+00,-3.410038471221923828e+00,-4.795610427856445312e+00,-7.721103668212890625e+00,-8.735692024230957031e+00,-7.887479305267333984e+00,-5.828817844390869141e+00,-1.051788806915283203e+01,-1.013684940338134766e+01,-1.041297721862792969e+01,-6.823092460632324219e+00,-6.457835674285888672e+00,-5.488187789916992188e+00,-7.847615718841552734e+00,-8.459811210632324219e+00,-7.006520032882690430e-01
-6.311075091361999512e-01,1.995036005973815918e+00,1.136447668075561523e+00,8.126145005226135254e-01,-3.415981531143188477e+00,-4.107810020446777344e+00,-3.937381505966186523e+00,-1.446980237960815430e+00,6.219044327735900879e-01,2.249330520629882812e+00,-4.995559453964233398e-01,2.660829782485961914e+00,1.525387883186340332e+00,6.234826445579528809e-01,2.229411125183105469e+00,4.840968132019042969e+00,5.287458896636962891e+00,5.373924255371093750e+00,1.343251466751098633e+00,9.807614088058471680e-01,2.198814392089843750e+00,3.783732175827026367e+00,1.434479475021362305e+00,-9.996685981750488281e-01,1.077607512474060059e+00,3.172627449035644531e+00,1.099005222320556641e+00,-1.031018614768981934e+00,-9.866282939910888672e-01,2.021932840347290039e+00,4.518556594848632812e+00,6.613747119903564453e+00
-4.490300655364990234e+00,1.882686018943786621e+00,6.569129228591918945e-01,-9.208803176879882812e-01,-6.325558662414550781e+00,-4.403246879577636719e+00,-2.781239032745361328e+00,-1.808986306190490723e+00,-1.012437939643859863e+00,1.654188036918640137e+00,5.293911099433898926e-01,2.714065074920654297e+00,1.171965241432189941e+00,2.868923902511596680e+00,3.936316490173339844e+00,4.000096797943115234e+00,3.510488510131835938e+00,2.677511215209960938e+00,3.912627696990966797e-01,-1.447948098182678223e+00,-7.159720659255981445e-01,-2.533903121948242188e-01,3.226864933967590332e-01,3.863523304462432861e-01,1.693175792694091797e+00,4.453325271606445312e+00,8.623647689819335938e-01,-3.455698728561401367e+00,-3.577305078506469727e+00,1.385797023773193359e+00,8.935242652893066406e+00,7.930772781372070312e+00
-1.150355052947998047e+01,-7.147142887115478516e+00,-5.171117305755615234e+00,-5.305664062500000000e+00,-1.050480461120605469e+01,-1.311388111114501953e+01,-1.110903644561767578e+01,-8.358467102050781250e+00,-4.424578189849853516e+00,-4.056546211242675781e+00,-8.147758483886718750e+00,-8.507700920104980469e+00,-8.213032722473144531e+00,-4.631952285766601562e+00,-4.139572620391845703e+00,-6.517858505249023438e+00,-8.002094268798828125e+00,-9.178599357604980469e+00,-6.606148242950439453e+00,-8.361844062805175781e+00,-1.092583370208740234e+01,-1.250982856750488281e+01,-6.226304531097412109e+00,-7.173725605010986328e+00,-7.587821006774902344e+00,-6.712089061737060547e+00,-6.942409038543701172e+00,-9.473491668701171875e+00,-8.955541610717773438e+00,-8.219990730285644531e+00,1.651276350021362305e-01,-9.104410409927368164e-01
-6.735099792480468750e+00,-3.106118917465209961e+00,-1.699931919574737549e-01,2.041024118661880493e-01,-6.051961421966552734e+00,-1.099200057983398438e+01,-1.174015712738037109e+01,-8.003911972045898438e+00,-2.809919595718383789e+00,-3.251264572143554688e+00,-7.372801303863525391e+00,-7.598541259765625000e+00,-8.042450904846191406e+00,-3.957859039306640625e+00,-3.416402339935302734e+00,-4.112302780151367188e+00,-5.711926460266113281e+00,-7.644825935363769531e+00,-3.146365642547607422e+00,-3.509961843490600586e+00,-7.615393161773681641e+00,-1.075589847564697266e+01,-8.411496162414550781e+00,-8.046086311340332031e+00,-5.630567550659179688e+00,-5.000044345855712891e+00,-6.171362400054931641e+00,-7.389268398284912109e+00,-5.763256072998046875e+00,-4.243634700775146484e+00,-3.904506266117095947e-01,-4.161838531494140625e+00
4.120231628417968750e+00,9.435061454772949219e+00,1.021864223480224609e+01,1.079268836975097656e+01,5.147422790527343750e+00,4.709220886230468750e+00,4.860556602478027344e+00,2.889468431472778320e+00,3.182927370071411133e+00,3.941019296646118164e+00,4.223914146423339844e+00,5.741816043853759766e+00,4.687355518341064453e+00,8.232485771179199219e+00,9.936429977416992188e+00,7.318775177001953125e+00,4.037704944610595703e+00,3.741090536117553711e+00,4.939484119415283203e+00,4.422612667083740234e+00,3.379462718963623047e+00,2.571782350540161133e+00,-4.721245467662811279e-01,3.356066942214965820e-01,4.001079082489013672e+00,7.797620296478271484e+00,6.834794521331787109e+00,4.140047550201416016e+00,3.825554370880126953e+00,7.464665412902832031e+00,8.955443382263183594e+00,2.048496246337890625e+00
6.380620956420898438e+00,1.117299652099609375e+01,1.238912391662597656e+01,1.388895130157470703e+01,1.038287734985351562e+01,1.002360725402832031e+01,1.091132545471191406e+01,8.158203125000000000e+00,7.472206592559814453e+00,7.147697448730468750e+00,6.082933425903320312e+00,3.408303737640380859e+00,4.565019130706787109e+00,8.653642654418945312e+00,1.097388076782226562e+01,7.035542488098144531e+00,2.451635837554931641e+00,2.991319179534912109e+00,3.232254266738891602e+00,3.699708223342895508e+00,5.578957080841064453e+00,6.887978553771972656e+00,5.194105148315429688e+00,5.054566860198974609e+00,5.977833271026611328e+00,1.007671642303466797e+01,1.097424888610839844e+01,8.522678375244140625e+00,5.420569419860839844e+00,9.145899772644042969e+00,1.378577804565429688e+01,1.444680309295654297e+01
9.706752300262451172e-01,6.748515605926513672e+00,7.093117713928222656e+00,7.241761684417724609e+00,4.647578716278076172e+00,1.285070776939392090e+00,3.065645098686218262e-01,1.138620734214782715e+00,3.525630474090576172e+00,2.448019266128540039e+00,-2.803282499313354492e+00,-9.763602256774902344e+00,-7.233230113983154297e+00,-1.478384494781494141e+00,3.238657712936401367e-01,-3.554233551025390625e+00,-7.230054378509521484e+00,-7.339142322540283203e+00,-3.531266212463378906e+00,-8.948926329612731934e-01,-1.293937444686889648e+00,-2.235309839248657227e+00,-9.742054343223571777e-01,3.827933549880981445e+00,4.534983158111572266e+00,3.974860191345214844e+00,9.095812439918518066e-01,-6.359401345252990723e-01,-9.400687813758850098e-01,4.940465927124023438e+00,9.943669319152832031e+00,1.233887767791748047e+01
-2.247221708297729492e+00,5.916270732879638672e+00,6.417506694793701172e+00,5.023634910583496094e+00,1.020175337791442871e+00,-7.986050248146057129e-01,-2.052018880844116211e+00,-2.088333368301391602e+00,-1.445282846689224243e-01,-1.648673892021179199e+00,-3.786597728729248047e+00,-5.352603435516357422e+00,-6.236334800720214844e+00,-6.967330455780029297e+00,-7.361226081848144531e+00,-7.885226249694824219e+00,-8.520893096923828125e+00,-8.056750297546386719e+00,-6.324022293090820312e+00,-4.039820671081542969e+00,-4.703359603881835938e+00,-4.923931121826171875e+00,-4.316137790679931641e+00,3.358413457870483398e+00,4.824905395507812500e+00,4.074764251708984375e+00,-5.839057564735412598e-01,-1.529867410659790039e+00,-1.263365030288696289e+00,3.887104034423828125e+00,6.341940879821777344e+00,8.950973510742187500e+00
-1.778024077415466309e+00,3.535206079483032227e+00,5.243349552154541016e+00,5.249685764312744141e+00,1.495376229286193848e+00,2.565395593643188477e+00,4.422324657440185547e+00,2.012487411499023438e+00,7.926796078681945801e-01,3.011113777756690979e-02,3.210972785949707031e+00,3.387835264205932617e+00,2.973155677318572998e-01,-3.395167350769042969e+00,-6.658615112304687500e+00,-4.866761207580566406e+00,-2.700348854064941406e+00,-2.227880477905273438e+00,-5.167533874511718750e+00,-4.280504226684570312e+00,-2.812374353408813477e+00,-1.969860792160034180e-01,-1.778117179870605469e+00,-1.026285052299499512e+00,-1.533638238906860352e+00,7.248322963714599609e-01,3.442331790924072266e+00,3.944755315780639648e+00,8.400232195854187012e-01,1.361699461936950684e+00,2.685993432998657227e+00,7.846892833709716797e+00
-2.479854106903076172e+00,-1.731108784675598145e+00,-2.781203746795654297e+00,-6.427024006843566895e-01,-4.086504876613616943e-01,-8.231940269470214844e-01,-2.236974954605102539e+00,-1.714756011962890625e+00,-2.649084031581878662e-01,-4.856142699718475342e-01,-8.162043243646621704e-02,-6.165856719017028809e-01,-2.754461765289306641e+00,-5.560093879699707031e+00,-5.033490657806396484e+00,-2.543102264404296875e+00,-7.293461561203002930e-01,-2.087838411331176758e+00,-2.587364196777343750e+00,-3.968158245086669922e+00,-4.921544075012207031e+00,-5.151922702789306641e+00,-5.875986576080322266e+00,-7.740487098693847656e+00,-7.981344699859619141e+00,-5.981169700622558594e+00,-2.743234395980834961e+00,-1.995940208435058594e+00,-2.346720695495605469e+00,-3.479966878890991211e+00,-2.661958694458007812e+00,-3.647327184677124023e+00
-5.046120643615722656e+00,-5.744290828704833984e+00,-7.658247947692871094e+00,-5.999905109405517578e+00,-5.221637248992919922e+00,-7.376036643981933594e+00,-9.770524978637695312e+00,-7.574671268463134766e+00,-3.944411993026733398e+00,-4.500637054443359375e+00,-5.571839809417724609e+00,-5.282051086425781250e+00,-5.053406238555908203e+00,-4.391424179077148438e+00,-2.349682092666625977e+00,-1.620629191398620605e+00,-1.533091306686401367e+00,-4.067348003387451172e+00,-3.735942125320434570e+00,-6.382967948913574219e+00,-8.012006759643554688e+00,-1.016745948791503906e+01,-7.974739551544189453e+00,-7.435532569885253906e+00,-7.677173614501953125e+00,-8.922483444213867188e+00,-8.833354949951171875e+00,-9.360304832458496094e+00,-5.410434246063232422e+00,-7.027265548706054688e+00,-8.271171569824218750e+00,-1.096835517883300781e+01
-3.791805982589721680e+00,-7.625381469726562500e+00,-8.592492103576660156e+00,-8.964718818664550781e+00,-6.521760940551757812e+00,-6.786762237548828125e+00,-3.930804491043090820e+00,-4.012216567993164062e+00,-3.814086437225341797e+00,-4.851575851440429688e+00,-3.580011129379272461e+00,-1.598639249801635742e+00,-7.015765309333801270e-01,-2.615223228931427002e-01,-1.474713206291198730e+00,8.295444250106811523e-01,2.055249214172363281e+00,-3.195391893386840820e-01,-3.364892244338989258e+00,-3.679336786270141602e+00,-2.407477855682373047e+00,-1.957457184791564941e+00,-4.597359597682952881e-01,-2.810905933380126953e+00,-4.364250183105468750e+00,-7.015578269958496094e+00,-5.619141101837158203e+00,-6.569794654846191406e+00,-4.085207462310791016e+00,-6.580235958099365234e+00,-8.588376998901367188e+00,-8.746188163757324219e+00
1.742460846900939941e+00,-3.064657211303710938e+00,-4.056518554687500000e+00,-5.381417751312255859e+00,-1.915874004364013672e+00,-8.357620835304260254e-01,1.270271539688110352e+00,3.537133336067199707e-01,-3.174496591091156006e-01,-6.189488768577575684e-01,1.528985857963562012e+00,3.195735216140747070e+00,2.977068185806274414e+00,7.073540091514587402e-01,-4.421084821224212646e-01,2.402576684951782227e+00,4.954707145690917969e+00,4.699467182159423828e+00,3.425226449966430664e+00,2.098683357238769531e+00,1.697663903236389160e+00,2.836389303207397461e+00,2.529647827148437500e+00,-1.177293896675109863e+00,-1.799916625022888184e+00,-1.474236845970153809e+00,-5.900204181671142578e-01,4.090384542942047119e-01,3.544289469718933105e-01,-1.121365904808044434e+00,-2.774255752563476562e+00,-5.636446475982666016e+00
-3.049642741680145264e-01,1.080602645874023438e+00,2.967297792434692383e+00,2.593056440353393555e+00,5.693998336791992188e-01,-4.100482165813446045e-01,-2.249164819717407227e+00,-1.299535512924194336e+00,6.897132396697998047e-01,-2.331328541040420532e-01,-3.155443668365478516e-01,1.869171410799026489e-01,3.021403253078460693e-01,-1.058549165725708008e+00,5.251658558845520020e-01,-1.315361410379409790e-01,-7.987563014030456543e-01,-9.103911519050598145e-01,1.008845448493957520e+00,-1.984573602676391602e+00,-2.650918722152709961e+00,-3.487676858901977539e+00,-2.438973903656005859e+00,-3.551867723464965820e+00,-3.261024713516235352e+00,-1.055641174316406250e+00,-3.575106561183929443e-01,9.265272617340087891e-01,1.767886877059936523e+00,3.897099196910858154e-01,-2.284216642379760742e+00,-3.216958761215209961e+00
-2.873898744583129883e+00,4.119254112243652344e+00,9.890863418579101562e+00,8.489360809326171875e+00,1.330838561058044434e+00,-1.258196115493774414e+00,-1.303710460662841797e+00,6.537762284278869629e-01,2.995961666107177734e+00,-1.154844164848327637e+00,-4.021645069122314453e+00,-5.082064628601074219e+00,-4.209536075592041016e+00,-3.516226768493652344e+00,-2.279011487960815430e+00,-3.676100015640258789e+00,-4.613865375518798828e+00,-4.984189987182617188e+00,-4.415709972381591797e+00,-3.768828630447387695e+00,-9.734317660331726074e-01,-2.428869247436523438e+00,-1.520969986915588379e+00,-4.296524524688720703e-01,2.124515920877456665e-01,1.001893877983093262e+00,1.509911894798278809e+00,9.710050374269485474e-02,1.962266713380813599e-01,-2.693852186203002930e-01,1.641438484191894531e+00,1.109317874908447266e+01
3.222284793853759766e+00,9.579688072204589844e+00,1.218941783905029297e+01,1.066601848602294922e+01,6.028808593750000000e+00,5.948969364166259766e+00,7.003636360168457031e+00,5.418588161468505859e+00,3.946809768676757812e+00,1.034833312034606934e+00,1.187338948249816895e+00,3.581336736679077148e-01,-1.181573793292045593e-01,-2.947399139404296875e+00,-3.653769493103027344e+00,-1.177066326141357422e+00,1.194179534912109375e+00,2.213234663009643555e+00,2.161383390426635742e+00,4.199151039123535156e+00,6.151837825775146484e+00,5.349233150482177734e+00,3.904020547866821289e+00,6.220921993255615234e+00,5.950048923492431641e+00,5.681574344635009766e+00,4.371218681335449219e+00,4.072889804840087891e+00,2.333088159561157227e+00,4.783896923065185547e+00,9.175816535949707031e+00,1.680258750915527344e+01
7.908135414123535156e+00,1.436192989349365234e+01,1.212610149383544922e+01,1.303566837310791016e+01,1.271323490142822266e+01,1.386821556091308594e+01,1.247029209136962891e+01,7.834927558898925781e+00,3.116985559463500977e+00,1.928864002227783203e+00,6.962237358093261719e+00,6.732767581939697266e+00,6.612440109252929688e+00,1.309903144836425781e+00,8.078579604625701904e-02,2.377576351165771484e+00,5.400296211242675781e+00,6.789845466613769531e+00,5.121844768524169922e+00,5.063202857971191406e+00,6.829634666442871094e+00,8.316040992736816406e+00,7.062698841094970703e+00,8.463491439819335938e+00,7.055744647979736328e+00,7.594732761383056641e+00,8.469690322875976562e+00,9.047562599182128906e+00,7.870121955871582031e+00,1.046464633941650391e+01,1.369217681884765625e+01,1.603697395324707031e+01
4.380251884460449219e+00,1.181171607971191406e+01,1.306456661224365234e+01,1.313294696807861328e+01,1.095397663116455078e+01,9.756045341491699219e+00,8.665308952331542969e+00,7.066645145416259766e+00,3.237703084945678711e+00,4.281232357025146484e-01,4.394134998321533203e+00,5.056420803070068359e+00,5.785624980926513672e+00,1.498010993003845215e+00,7.271596193313598633e-01,1.145946741104125977e+00,2.601231098175048828e+00,2.630765438079833984e+00,-9.405415654182434082e-01,1.206436395645141602e+00,6.564173698425292969e+00,1.076983165740966797e+01,9.555982589721679688e+00,8.264616012573242188e+00,7.151566028594970703e+00,7.769843578338623047e+00,9.999713897705078125e+00,8.332611083984375000e+00,8.213418960571289062e+00,9.192448616027832031e+00,1.396084117889404297e+01,2.281486701965332031e+01
4.702679634094238281e+00,3.412338495254516602e+00,5.704386234283447266e+00,4.611606121063232422e+00,2.693469762802124023e+00,4.182123661041259766e+00,4.233671665191650391e+00,3.455423593521118164e+00,-1.187791302800178528e-01,-5.007234811782836914e-01,1.832556128501892090e+00,4.023452281951904297e+00,3.525444984436035156e+00,-1.991145968437194824e+00,-2.875260114669799805e+00,5.754789113998413086e-01,2.892234802246093750e+00,3.137605190277099609e+00,-3.286978900432586670e-01,1.430784940719604492e+00,5.711740016937255859e+00,9.708069801330566406e+00,7.208623409271240234e+00,4.456726074218750000e+00,2.099914550781250000e+00,2.892114400863647461e+00,4.201084136962890625e+00,4.982089996337890625e+00,3.974805831909179688e+00,3.544666290283203125e+00,5.028471946716308594e+00,1.146800613403320312e+01
8.532777786254882812e+00,1.037299752235412598e+00,1.905527710914611816e+00,2.682261943817138672e+00,8.742446303367614746e-01,4.833353519439697266e+00,4.399337768554687500e+00,2.075826406478881836e+00,-1.838216185569763184e+00,-4.586865007877349854e-01,3.226601123809814453e+00,5.050200939178466797e+00,4.371254920959472656e+00,-1.347950100898742676e+00,-2.666890621185302734e+00,1.788799285888671875e+00,3.437968969345092773e+00,4.359025955200195312e+00,1.252130985260009766e+00,-1.606390595436096191e+00,-1.773208737373352051e+00,3.845407068729400635e-02,-1.783949583768844604e-01,-8.177359104156494141e-01,-1.847362399101257324e+00,-1.948244214057922363e+00,-2.294112145900726318e-01,3.086190700531005859e+00,2.458374977111816406e+00,-9.065436124801635742e-01,-3.248512506484985352e+00,-3.172558307647705078e+00
4.719011306762695312e+00,2.914244174957275391e+00,4.783927440643310547e+00,5.095900058746337891e+00,3.969914674758911133e+00,4.630557060241699219e+00,3.882701635360717773e+00,1.845486640930175781e+00,1.807347297668457031e+00,1.657506227493286133e+00,3.876734733581542969e+00,2.689666271209716797e+00,2.506720066070556641e+00,1.776357650756835938e+00,2.611509561538696289e+00,4.860076427459716797e+00,1.842496752738952637e+00,2.176426172256469727e+00,6.884056329727172852e-01,-7.956150919198989868e-02,-1.004239916801452637e+00,-1.937165617942810059e+00,-9.802576899528503418e-01,-1.602858603000640869e-01,8.033303618431091309e-01,-7.380618900060653687e-02,8.223881721496582031e-01,8.691846728324890137e-01,2.536518096923828125e+00,9.828653931617736816e-01,5.668692588806152344e-01,3.198123455047607422e+00
5.518772602081298828e+00,5.297885417938232422e+00,2.835867404937744141e+00,8.455727100372314453e-01,5.626969814300537109e+00,5.974260807037353516e+00,4.862713336944580078e+00,1.144351363182067871e+00,9.354732036590576172e-01,1.771999716758728027e+00,5.270912170410156250e+00,5.219069480895996094e+00,3.312315464019775391e+00,4.253054141998291016e+00,6.004471778869628906e+00,7.889275550842285156e+00,6.266053676605224609e+00,6.337242603302001953e+00,5.867119789123535156e+00,8.615345001220703125e+00,9.149373054504394531e+00,9.249485969543457031e+00,7.479046344757080078e+00,6.341879367828369141e+00,3.803371191024780273e+00,5.405371189117431641e+00,3.953400850296020508e+00,4.160067081451416016e+00,4.831178188323974609e+00,8.693813323974609375e+00,8.078463554382324219e+00,9.645386695861816406e+00
9.896437644958496094e+00,6.901523113250732422e+00,2.360441207885742188e+00,1.558873057365417480e+00,6.270538330078125000e+00,7.541410446166992188e+00,6.037865161895751953e+00,2.875192880630493164e+00,-4.245842397212982178e-01,2.463522553443908691e-01,5.734591007232666016e+00,8.599259376525878906e+00,6.436861991882324219e+00,5.872626304626464844e+00,5.938795089721679688e+00,8.830976486206054688e+00,1.099481105804443359e+01,1.052481842041015625e+01,7.594226837158203125e+00,7.329923629760742188e+00,8.035323143005371094e+00,1.036919498443603516e+01,8.663540840148925781e+00,6.882687568664550781e+00,4.422845363616943359e+00,5.530354976654052734e+00,5.494478702545166016e+00,8.623897552490234375e+00,8.048968315124511719e+00,9.113738059997558594e+00,7.432718276977539062e+00,4.654010772705078125e+00
2.598681449890136719e+00,3.632784843444824219e+00,4.171782970428466797e+00,4.757868289947509766e+00,3.862055301666259766e+00,9.238046407699584961e-01,-7.000618427991867065e-02,2.740290880203247070e+00,2.384325981140136719e+00,4.352902173995971680e-01,1.149957895278930664e+00,2.852339506149291992e+00,3.092265367507934570e+00,3.387729644775390625e+00,3.724243640899658203e+00,6.223771572113037109e+00,6.542323112487792969e+00,5.335834026336669922e+00,2.245903968811035156e+00,7.593528628349304199e-01,-4.271887540817260742e-01,4.321530163288116455e-01,7.237281203269958496e-01,2.306303262710571289e+00,3.476809263229370117e+00,3.163687705993652344e+00,2.017521619796752930e+00,3.238830089569091797e+00,3.939053773880004883e+00,1.263895273208618164e+00,3.204424381256103516e-01,2.487249851226806641e+00
-5.042697906494140625e+00,-1.492332577705383301e+00,2.113183259963989258e+00,2.838253736495971680e+00,4.787412583827972412e-01,-4.253637313842773438e+00,-5.782122611999511719e+00,-1.286971807479858398e+00,6.133420467376708984e-01,-7.322281599044799805e-01,-3.363295793533325195e+00,-2.713579893112182617e+00,-1.256008267402648926e+00,-1.573970317840576172e+00,-1.077763438224792480e+00,8.665252923965454102e-01,8.069682121276855469e-01,3.883804976940155029e-01,4.831626713275909424e-01,1.124629020690917969e+00,-5.195639729499816895e-01,-1.375519514083862305e+00,-1.475361227989196777e+00,1.951443672180175781e+00,3.320919990539550781e+00,4.861089229583740234e+00,-1.414206981658935547e+00,-4.199276447296142578e+00,-3.843338727951049805e+00,6.185640692710876465e-01,3.003737688064575195e+00,2.845036506652832031e+00
-2.310010194778442383e+00,-3.977428972721099854e-01,-7.080342769622802734e-01,7.936618477106094360e-02,-8.477951884269714355e-01,-1.357999920845031738e+00,-3.519825935363769531e+00,-1.261586666107177734e+00,-2.805831670761108398e+00,-1.428569793701171875e+00,-1.344497561454772949e+00,2.979938089847564697e-01,1.766099572181701660e+00,9.764765501022338867e-01,-2.086849659681320190e-01,4.154784232378005981e-02,1.619229316711425781e+00,2.098086833953857422e+00,1.610473155975341797e+00,2.232553005218505859e+00,3.344759464263916016e+00,3.527437448501586914e+00,3.132071018218994141e+00,4.058574676513671875e+00,4.641316413879394531e+00,5.007415771484375000e+00,-5.694358423352241516e-02,-3.398224592208862305e+00,-3.571469545364379883e+00,4.453270912170410156e+00,9.083599090576171875e+00,-4.050722122192382812e-01
-2.859761476516723633e+00,-1.239018917083740234e+00,-3.562931060791015625e+00,-3.816484212875366211e+00,-4.273645877838134766e+00,-3.324113607406616211e+00,-3.216635704040527344e+00,7.995739579200744629e-02,4.769803583621978760e-01,2.036170005798339844e+00,2.686483383178710938e+00,2.195667505264282227e+00,3.547134876251220703e+00,4.580615520477294922e+00,3.135065555572509766e+00,7.909846305847167969e-01,3.285489976406097412e-01,6.798285841941833496e-01,-1.090000152587890625e+00,-8.640662431716918945e-01,6.289400458335876465e-01,1.850255608558654785e+00,2.592197895050048828e+00,2.104777812957763672e+00,2.532641649246215820e+00,2.073163092136383057e-01,1.885980814695358276e-01,-5.919234752655029297e-01,-1.046157479286193848e+00,1.156215429306030273e+00,4.654012203216552734e+00,-2.833559989929199219e+00
-7.203770637512207031e+00,-6.764403820037841797e+00,-4.559020042419433594e+00,-5.628889560699462891e+00,-7.414097309112548828e+00,-7.744955539703369141e+00,-5.398144245147705078e+00,-1.855050206184387207e+00,3.477400779724121094e+00,3.627348661422729492e+00,1.897440552711486816e+00,-7.370668649673461914e-01,2.095768690109252930e+00,1.561220169067382812e+00,8.558719754219055176e-01,-5.896857976913452148e-01,-9.631903171539306641e-01,-5.090735554695129395e-01,-8.505498766899108887e-01,-3.489364981651306152e-01,-3.595986068248748779e-01,5.844223499298095703e-01,2.076225876808166504e-01,-5.476968735456466675e-02,-4.367344379425048828e-01,-6.004869937896728516e-01,1.178815737366676331e-01,6.007902696728706360e-02,-4.135723114013671875e+00,-4.511299133300781250e+00,-1.691723465919494629e+00,-5.628959178924560547e+00
2.283084869384765625e+00,-3.907264232635498047e+00,-1.966060519218444824e+00,-2.072319269180297852e+00,-3.369873046875000000e+00,-2.144613742828369141e+00,-2.161212116479873657e-01,7.975736260414123535e-01,3.641131401062011719e+00,2.529906988143920898e+00,2.753706693649291992e+00,2.306061267852783203e+00,4.798303127288818359e+00,1.539164900779724121e+00,2.752990484237670898e+00,4.512149333953857422e+00,5.889900207519531250e+00,5.650360107421875000e+00,5.136757373809814453e+00,6.225675582885742188e+00,8.126173973083496094e+00,9.324858665466308594e+00,7.246421337127685547e+00,5.168521881103515625e+00,3.949221134185791016e+00,4.643977642059326172e+00,4.800510406494140625e+00,3.050005435943603516e+00,-1.792239189147949219e+00,-6.642251610755920410e-01,3.545110225677490234e+00,-2.054162979125976562e+00
1.084950447082519531e+01,5.388264179229736328e+00,1.836880683898925781e+00,2.297699302434921265e-01,1.393497467041015625e+00,4.390490055084228516e+00,5.164361000061035156e+00,5.385161399841308594e+00,6.399238109588623047e+00,5.468061447143554688e+00,7.082756042480468750e+00,8.232104301452636719e+00,8.687936782836914062e+00,7.040149688720703125e+00,7.995547771453857422e+00,1.010304450988769531e+01,1.093373203277587891e+01,9.542328834533691406e+00,7.522133827209472656e+00,9.728233337402343750e+00,1.280656909942626953e+01,1.372204685211181641e+01,1.187185764312744141e+01,1.048190212249755859e+01,1.112531566619873047e+01,1.035169124603271484e+01,9.341930389404296875e+00,7.871151924133300781e+00,7.148577690124511719e+00,7.235211372375488281e+00,9.054861068725585938e+00,8.645363807678222656e+00
9.162817001342773438e+00,8.224787712097167969e+00,4.421820163726806641e+00,1.265987634658813477e+00,3.636183261871337891e+00,7.256582736968994141e+00,7.117480278015136719e+00,5.111039161682128906e+00,5.752491474151611328e+00,5.826204776763916016e+00,8.372006416320800781e+00,9.856931686401367188e+00,1.004851627349853516e+01,8.580732345581054688e+00,7.995121955871582031e+00,8.442631721496582031e+00,9.437989234924316406e+00,9.249968528747558594e+00,7.898655414581298828e+00,9.017520904541015625e+00,1.018678951263427734e+01,1.254874801635742188e+01,1.056854820251464844e+01,1.028731727600097656e+01,1.054156684875488281e+01,1.219907760620117188e+01,1.051038360595703125e+01,1.130580234527587891e+01,1.024524879455566406e+01,1.038614940643310547e+01,1.044282245635986328e+01,1.068204116821289062e+01
6.426959037780761719e+00,5.727828025817871094e+00,5.342852115631103516e+00,5.371272087097167969e+00,5.744197845458984375e+00,9.108692169189453125e+00,7.700109958648681641e+00,4.472624301910400391e+00,1.777127146720886230e+00,2.531688690185546875e+00,4.281823635101318359e+00,5.944125175476074219e+00,6.978872299194335938e+00,4.966931343078613281e+00,4.390412807464599609e+00,6.153741836547851562e+00,7.146259307861328125e+00,6.994863510131835938e+00,6.235090255737304688e+00,6.756644725799560547e+00,7.973122596740722656e+00,1.136890411376953125e+01,9.897272109985351562e+00,7.794195652008056641e+00,4.978733062744140625e+00,7.598623752593994141e+00,8.804700851440429688e+00,9.978974342346191406e+00,7.053432464599609375e+00,7.715415000915527344e+00,1.065726566314697266e+01,5.588923454284667969e+00
2.438729763031005859e+00,4.683353900909423828e+00,4.036061286926269531e+00,5.492891788482666016e+00,5.329306602478027344e+00,6.732715129852294922e+00,5.246085166931152344e+00,3.930589437484741211e+00,6.679604053497314453e-01,9.963353872299194336e-01,1.420471787452697754e+00,2.539479970932006836e+00,1.908865571022033691e+00,1.546395540237426758e+00,7.843406200408935547e-01,2.719175338745117188e+00,2.553282737731933594e+00,1.592090845108032227e+00,9.851785898208618164e-01,2.189205646514892578e+00,3.103514432907104492e+00,3.285408735275268555e+00,2.996033906936645508e+00,2.726721525192260742e+00,3.102338075637817383e+00,3.176542758941650391e+00,3.320041656494140625e+00,3.429399967193603516e+00,5.368223190307617188e+00,5.066934108734130859e+00,7.541153907775878906e+00,9.594698905944824219e+00
3.319476127624511719e+00,5.357459545135498047e+00,4.599905014038085938e+00,4.653579235076904297e+00,4.988119125366210938e+00,3.569238424301147461e+00,2.690462350845336914e+00,1.775866508483886719e+00,1.579455852508544922e+00,1.784169793128967285e+00,2.870581388473510742e+00,3.609862804412841797e+00,1.589825868606567383e+00,1.091150760650634766e+00,1.242779850959777832e+00,4.811573922634124756e-01,1.124182939529418945e+00,2.699559926986694336e+00,3.647253751754760742e+00,1.624980449676513672e+00,-5.581975579261779785e-01,-2.317223310470581055e+00,-2.977668046951293945e+00,-8.306819796562194824e-01,3.421321392059326172e+00,2.716255664825439453e+00,-2.944227159023284912e-01,-6.550601124763488770e-01,2.964876174926757812e+00,2.365267753601074219e+00,1.155194520950317383e+00,1.137243652343750000e+01
2.005032777786254883e+00,5.726041793823242188e+00,7.494976043701171875e+00,7.743704795837402344e+00,5.816373825073242188e+00,3.564254760742187500e+00,2.243606567382812500e+00,1.038121581077575684e+00,1.498268485069274902e+00,5.483242273330688477e-01,2.331602573394775391e-01,-1.510999798774719238e-01,-3.789600133895874023e-01,7.594642043113708496e-01,3.748945713043212891e+00,1.778247117996215820e+00,1.928620338439941406e+00,3.535582065582275391e+00,5.322889804840087891e+00,2.261397600173950195e+00,-4.755701869726181030e-02,-1.680099368095397949e+00,-2.800073623657226562e+00,-1.622409343719482422e+00,-9.081422090530395508e-01,-2.064848899841308594e+00,-3.413848638534545898e+00,-2.898920774459838867e+00,-2.158110141754150391e+00,-1.156317949295043945e+00,-1.885912537574768066e+00,1.806619167327880859e+00
-3.280022382736206055e+00,6.418271064758300781e+00,8.038565635681152344e+00,6.271181583404541016e+00,2.234172821044921875e+00,1.536109805107116699e+00,4.626656174659729004e-01,7.340589910745620728e-02,-3.553825616836547852e-01,-1.312556266784667969e+00,-4.152659893035888672e+00,-4.490240097045898438e+00,-4.375269889831542969e+00,-2.407251119613647461e+00,-6.263689398765563965e-01,-8.667281866073608398e-01,-7.447198033332824707e-01,-2.274474382400512695e+00,-2.662712335586547852e+00,-1.092225670814514160e+00,1.294091064482927322e-02,-6.716226339340209961e-01,-8.653501272201538086e-01,-1.941888689994812012e+00,-4.640862464904785156e+00,-5.266217231750488281e+00,-3.008896350860595703e+00,-1.647743701934814453e+00,-8.732927441596984863e-01,-4.448868632316589355e-01,-1.268948912620544434e+00,2.730688333511352539e+00
-1.045952320098876953e+00,5.605647563934326172e+00,5.736105442047119141e+00,1.982540965080261230e+00,-1.327144861221313477e+00,-1.483950298279523849e-02,6.123750209808349609e-01,-1.339793801307678223e+00,-2.688535690307617188e+00,-1.529317140579223633e+00,-1.420152902603149414e+00,4.071699976921081543e-01,-9.426623582839965820e-01,-1.133064508438110352e+00,-2.482588529586791992e+00,-3.960333347320556641e+00,-3.499865055084228516e+00,-4.076981067657470703e+00,-3.969480991363525391e+00,-2.595910549163818359e+00,-1.581579923629760742e+00,-2.937848865985870361e-01,1.207473516464233398e+00,-4.003397524356842041e-01,-9.332381486892700195e-01,2.318854629993438721e-01,2.711010932922363281e+00,3.582371473312377930e+00,6.045066356658935547e+00,4.220530986785888672e+00,2.663772821426391602e+00,1.391031837463378906e+01
4.376699447631835938e+00,4.512432575225830078e+00,6.131253242492675781e+00,7.202364921569824219e+00,4.825915336608886719e+00,5.738840579986572266e+00,5.652289867401123047e+00,2.450732707977294922e+00,-1.025874972343444824e+00,3.308154940605163574e-01,3.784791231155395508e+00,4.604199409484863281e+00,3.244755506515502930e+00,4.536258697509765625e+00,4.726675987243652344e+00,1.578538179397583008e+00,-9.616156220436096191e-01,4.249082505702972412e-01,2.490700244903564453e+00,9.408904314041137695e-01,-5.512720942497253418e-01,8.462436497211456299e-02,4.052834957838058472e-02,-1.034206300973892212e-01,2.448919534683227539e+00,4.251686573028564453e+00,5.948774337768554688e+00,6.038697719573974609e+00,6.811515808105468750e+00,4.416893959045410156e+00,6.286394596099853516e+00,1.317520141601562500e+01
1.603714227676391602e+00,8.971474766731262207e-01,5.536557674407958984e+00,9.194778442382812500e+00,6.272888183593750000e+00,3.705404281616210938e+00,3.490413904190063477e+00,2.463897228240966797e+00,4.853000044822692871e-01,-1.489056944847106934e-01,9.583758711814880371e-01,-8.577045202255249023e-01,-1.788965344429016113e+00,1.800961196422576904e-01,1.192288517951965332e+00,6.344260275363922119e-02,-2.337373971939086914e+00,-3.006522417068481445e+00,-2.638876199722290039e+00,-2.816469430923461914e+00,-3.436452627182006836e+00,-4.569365978240966797e+00,-4.761298179626464844e+00,-3.390582084655761719e+00,-1.670976996421813965e+00,-9.630951285362243652e-01,-3.729459345340728760e-01,-4.677790999412536621e-01,-1.666875839233398438e+00,-1.273402214050292969e+00,1.813641309738159180e+00,3.804213047027587891e+00
-6.156894683837890625e+00,-3.353556632995605469e+00,2.909671545028686523e+00,4.523439884185791016e+00,1.662735342979431152e+00,-4.781420230865478516e+00,-3.783650398254394531e+00,-2.389248132705688477e+00,-2.543251514434814453e-01,-4.275993347167968750e+00,-7.286525726318359375e+00,-1.102499198913574219e+01,-1.183775806427001953e+01,-1.146433925628662109e+01,-1.215618705749511719e+01,-1.196947288513183594e+01,-1.022503089904785156e+01,-1.229327487945556641e+01,-1.122334003448486328e+01,-1.163981342315673828e+01,-1.058377552032470703e+01,-1.245359420776367188e+01,-8.301815032958984375e+00,-6.501031398773193359e+00,-8.433570861816406250e+00,-9.977988243103027344e+00,-9.878305435180664062e+00,-9.410765647888183594e+00,-1.005449008941650391e+01,-7.656196117401123047e+00,-7.302685737609863281e+00,-5.628330230712890625e+00
-8.804092556238174438e-02,4.129529476165771484e+00,4.155158042907714844e+00,4.237379074096679688e+00,5.068172931671142578e+00,4.478886127471923828e+00,2.869808197021484375e+00,3.920989334583282471e-01,-8.887739777565002441e-01,-2.470385551452636719e+00,-2.821741342544555664e+00,-4.703818798065185547e+00,-6.452760696411132812e+00,-7.449160099029541016e+00,-7.887622833251953125e+00,-7.458788871765136719e+00,-7.454145908355712891e+00,-5.854313373565673828e+00,-4.756291866302490234e+00,-4.686203002929687500e+00,-5.972439765930175781e+00,-6.391699314117431641e+00,-2.825394153594970703e+00,-2.906893730163574219e+00,-4.757684707641601562e+00,-5.843710422515869141e+00,-2.945981502532958984e+00,-1.577179789543151855e+00,-1.963003873825073242e+00,-3.335087776184082031e+00,-5.345435619354248047e+00,2.622762918472290039e-01
6.806710243225097656e+00,2.388324737548828125e+00,6.348763108253479004e-01,3.692043542861938477e+00,7.445214271545410156e+00,8.104058265686035156e+00,6.060713291168212891e+00,1.655121207237243652e+00,3.284764662384986877e-02,1.826991200447082520e+00,2.045708656311035156e+00,8.707641959190368652e-01,-1.675009727478027344e+00,-4.916125833988189697e-01,8.731004595756530762e-01,6.556042432785034180e-01,-1.509120702743530273e+00,-1.776990294456481934e+00,-1.873462677001953125e+00,-1.991836309432983398e+00,-3.226499080657958984e+00,-3.778828859329223633e+00,-4.069710254669189453e+00,-2.423069953918457031e+00,-2.642867088317871094e+00,-2.300281047821044922e+00,-9.219942092895507812e-01,4.331174790859222412e-01,-5.968784093856811523e-01,-2.587516784667968750e+00,-4.853533744812011719e+00,-4.244105339050292969e+00
8.428256034851074219e+00,5.010824799537658691e-01,-1.191710352897644043e+00,1.245084404945373535e+00,6.767039299011230469e+00,5.376157283782958984e+00,5.707252979278564453e+00,5.135810375213623047e-01,1.744269132614135742e+00,9.810143113136291504e-01,2.556925773620605469e+00,2.906155824661254883e+00,2.330243825912475586e+00,1.866990804672241211e+00,2.700009107589721680e+00,2.546565055847167969e+00,2.099511623382568359e+00,1.692461133003234863e+00,-8.101737499237060547e-02,-1.213744759559631348e+00,-2.309217929840087891e+00,-2.394178867340087891e+00,-3.448033571243286133e+00,-8.621795177459716797e-01,-2.366910696029663086e+00,-1.377327561378479004e+00,-2.425697803497314453e+00,3.700712919235229492e-01,-7.070522904396057129e-01,-1.560092329978942871e+00,-5.784208774566650391e+00,-6.054872989654541016e+00
5.743279457092285156e+00,-1.060984373092651367e+00,-1.564626209437847137e-02,1.636806964874267578e+00,1.485274314880371094e+00,1.368322968482971191e+00,3.053206682205200195e+00,2.456317663192749023e+00,9.722945690155029297e-01,-1.791358947753906250e+00,8.785712122917175293e-01,1.712880849838256836e+00,1.060925602912902832e+00,-2.242384254932403564e-01,1.109288930892944336e+00,6.214196681976318359e-01,-4.597172141075134277e-02,7.816738635301589966e-02,4.112956225872039795e-01,-6.844750642776489258e-01,-1.208834528923034668e+00,-1.331516742706298828e+00,-9.506366848945617676e-01,-2.587356328964233398e+00,-3.375137805938720703e+00,-3.804951667785644531e+00,-2.729557037353515625e+00,-3.284707307815551758e+00,-2.621249675750732422e+00,-3.550365686416625977e+00,-4.182069301605224609e+00,-2.473561763763427734e+00
-9.615028500556945801e-01,-9.430730819702148438e+00,-4.434877395629882812e+00,-2.133131980895996094e+00,-6.404360294342041016e+00,-7.547460079193115234e+00,-5.779420852661132812e+00,3.267424926161766052e-02,-1.623672246932983398e+00,-1.905117392539978027e+00,-4.001427173614501953e+00,-4.431595325469970703e+00,-5.470458984375000000e+00,-4.543565273284912109e+00,-3.387069463729858398e+00,-3.401485919952392578e+00,-4.333329677581787109e+00,-5.674256801605224609e+00,-4.658242225646972656e+00,-3.554282426834106445e+00,-3.249138355255126953e+00,-4.025730133056640625e+00,-3.138035535812377930e+00,-5.487755775451660156e+00,-3.246883392333984375e+00,-4.194701194763183594e+00,-3.902184724807739258e+00,-8.931971549987792969e+00,-7.285278797149658203e+00,-6.939405441284179688e+00,-5.061557292938232422e+00,-6.571922302246093750e+00
-5.421779155731201172e+00,-1.483964920043945312e+01,-1.196285915374755859e+01,-1.047745323181152344e+01,-8.544863700866699219e+00,-1.170885372161865234e+01,-1.001646709442138672e+01,-7.014739990234375000e+00,-3.692167043685913086e+00,-3.142663478851318359e+00,-6.849005222320556641e+00,-8.178779602050781250e+00,-5.425577163696289062e+00,-5.048440456390380859e+00,-7.622520923614501953e+00,-9.110431671142578125e+00,-7.434414863586425781e+00,-6.585672378540039062e+00,-6.202237129211425781e+00,-5.091329574584960938e+00,-4.288518428802490234e+00,-3.425986051559448242e+00,-2.816644906997680664e+00,-2.562621831893920898e+00,-1.709515094757080078e+00,-1.903453707695007324e+00,-3.619704246520996094e+00,-5.364325046539306641e+00,-3.716717481613159180e+00,-4.040303707122802734e+00,-7.370874881744384766e+00,-1.488755512237548828e+01
1.825637519359588623e-01,-6.826574325561523438e+00,-1.053543758392333984e+01,-9.569465637207031250e+00,-3.656494855880737305e+00,-1.973988413810729980e+00,-1.559020161628723145e+00,-4.007634162902832031e+00,-3.107034921646118164e+00,-2.247421264648437500e+00,-4.811146557331085205e-01,-8.158304691314697266e-01,2.207252502441406250e+00,1.017400398850440979e-01,-2.217234849929809570e+00,-4.246244430541992188e+00,-1.842420578002929688e+00,1.256162405014038086e+00,1.413079261779785156e+00,2.768587589263916016e+00,4.456185817718505859e+00,6.471052169799804688e+00,4.377951622009277344e+00,3.049549341201782227e+00,1.090636491775512695e+00,8.621162176132202148e-01,2.609416723251342773e+00,5.348948955535888672e+00,5.360804557800292969e+00,1.529310226440429688e+00,-3.713268041610717773e+00,-1.121486473083496094e+01
5.582788944244384766e+00,-1.329622626304626465e+00,-4.451098918914794922e+00,-3.864992856979370117e+00,-2.205835103988647461e+00,2.247922658920288086e+00,2.784088134765625000e+00,1.907415032386779785e+00,-1.971108436584472656e+00,1.175799846649169922e+00,3.838162660598754883e+00,5.012223720550537109e+00,3.735637664794921875e+00,3.246359348297119141e+00,5.479026317596435547e+00,5.621624469757080078e+00,4.603374958038330078e+00,3.653946399688720703e+00,2.869800567626953125e+00,6.015120506286621094e+00,6.982408046722412109e+00,6.337687015533447266e+00,3.870182752609252930e+00,2.125332117080688477e+00,2.906777858734130859e-01,-3.785546422004699707e-01,2.648520231246948242e+00,3.831805229187011719e+00,1.595108032226562500e+00,-4.620621725916862488e-02,2.139015793800354004e-01,-3.263133287429809570e+00
4.078336060047149658e-01,-6.732490062713623047e+00,-6.184679985046386719e+00,-6.546361446380615234e+00,-4.789962768554687500e+00,-4.427116394042968750e+00,-2.108768701553344727e+00,-9.774543642997741699e-01,-1.409788012504577637e+00,-1.660293638706207275e-01,-3.819139599800109863e-01,3.909241557121276855e-01,1.275382161140441895e+00,2.628820657730102539e+00,4.214776515960693359e+00,2.358231306076049805e+00,5.218634605407714844e-01,-1.222522497177124023e+00,-2.689774513244628906e+00,-1.093031167984008789e+00,-8.085306286811828613e-01,-1.601966738700866699e+00,-6.083559393882751465e-01,1.080599188804626465e+00,-1.249949812889099121e+00,-3.430523872375488281e+00,-5.178836822509765625e+00,-4.755269050598144531e+00,-6.054436683654785156e+00,-4.876291275024414062e+00,-5.971790790557861328e+00,-8.986752510070800781e+00
-7.540760517120361328e+00,-1.106017589569091797e+01,-1.279204463958740234e+01,-1.244416141510009766e+01,-7.543601036071777344e+00,-6.854415416717529297e+00,-5.714694976806640625e+00,-5.003348350524902344e+00,-2.328033447265625000e+00,-3.349891424179077148e+00,-4.077455997467041016e+00,-4.622296810150146484e+00,-1.557394266128540039e+00,6.263487935066223145e-01,-1.467740386724472046e-01,-4.632633686065673828e+00,-5.165767192840576172e+00,-3.384330749511718750e+00,-3.335837364196777344e+00,-3.901287555694580078e+00,-3.424802541732788086e+00,-3.174278020858764648e+00,-1.482028365135192871e+00,-7.174404859542846680e-01,-3.606016397476196289e+00,-6.440675258636474609e+00,-7.590369224548339844e+00,-6.317558765411376953e+00,-4.850559711456298828e+00,-6.132151126861572266e+00,-1.094705772399902344e+01,-1.537733459472656250e+01
-1.072891330718994141e+01,-7.506710052490234375e+00,-1.053536415100097656e+01,-1.225237655639648438e+01,-1.053433990478515625e+01,-8.102108955383300781e+00,-8.238915443420410156e+00,-6.154956340789794922e+00,-4.695359230041503906e+00,-3.737803697586059570e+00,-3.548179864883422852e+00,-3.686078786849975586e+00,-6.101232528686523438e+00,-5.001715183258056641e+00,-2.669423580169677734e+00,-3.700800418853759766e+00,-4.653278827667236328e+00,-3.285962343215942383e+00,-1.177493572235107422e+00,-2.034869909286499023e+00,-3.066414833068847656e+00,-4.975284576416015625e+00,-5.148189544677734375e+00,-6.042696475982666016e+00,-7.058841228485107422e+00,-7.580616474151611328e+00,-3.607584714889526367e+00,-1.453928947448730469e+00,-1.717314958572387695e+00,-3.767349481582641602e+00,-3.405745506286621094e+00,-8.421896934509277344e+00
-8.274512290954589844e+00,-2.568728625774383545e-01,-1.074050426483154297e+00,-4.208002090454101562e+00,-5.697634220123291016e+00,-7.505764961242675781e+00,-7.352030277252197266e+00,-4.878200531005859375e+00,-2.940055847167968750e+00,-1.745547771453857422e+00,-2.194332838058471680e+00,-2.225901603698730469e+00,-5.356721401214599609e+00,-6.715125560760498047e+00,-4.017393589019775391e+00,-3.029335260391235352e+00,-3.481304407119750977e+00,-3.922050237655639648e+00,-2.502582788467407227e+00,-3.363549947738647461e+00,-4.236126899719238281e+00,-5.246039867401123047e+00,-4.240857601165771484e+00,-2.979274988174438477e+00,-2.739323616027832031e+00,-2.413011789321899414e+00,8.623538613319396973e-01,2.890923976898193359e+00,4.722011089324951172e-01,4.782734513282775879e-01,4.409525394439697266e+00,1.367793440818786621e+00
-1.862757563591003418e+00,7.313837051391601562e+00,5.446274757385253906e+00,5.636318206787109375e+00,4.900890350341796875e+00,2.626247882843017578e+00,1.246963620185852051e+00,2.024917602539062500e+00,3.220849990844726562e+00,1.243069648742675781e+00,-3.797681033611297607e-01,-8.886842131614685059e-01,4.554491639137268066e-01,-9.697586894035339355e-01,-2.289998292922973633e+00,-3.069942474365234375e+00,-2.340505599975585938e+00,-3.212339401245117188e+00,-4.688117504119873047e+00,-3.144555330276489258e+00,-1.657467246055603027e+00,1.116621613502502441e+00,2.411265850067138672e+00,2.391886234283447266e+00,2.671706438064575195e+00,3.505403518676757812e+00,3.289110898971557617e+00,2.375788688659667969e+00,2.682651042938232422e+00,2.218101263046264648e+00,1.946237683296203613e+00,6.080449581146240234e+00
-3.957669496536254883e+00,5.737722396850585938e+00,4.890553951263427734e+00,4.308483123779296875e+00,1.442083716392517090e+00,3.462042570114135742e+00,2.906847953796386719e+00,4.081913948059082031e+00,3.073868989944458008e+00,2.233447790145874023e+00,1.946789920330047607e-01,4.054519236087799072e-01,8.133905529975891113e-01,1.822759628295898438e+00,3.237193584442138672e+00,3.550768613815307617e+00,1.881741523742675781e+00,-5.534748733043670654e-02,-9.593611955642700195e-01,2.608743011951446533e-01,-1.900806576013565063e-01,4.807440042495727539e-01,-4.285700619220733643e-01,-1.779302000999450684e+00,1.322611689567565918e+00,3.746225118637084961e+00,5.313228368759155273e-01,-4.754146099090576172e+00,-2.332251548767089844e+00,-8.706215023994445801e-01,-1.527990698814392090e+00,3.669819355010986328e+00
