Fp1,Fp2,F7,F3,Fz,F4,F8,FT7,FC3,FCz,FC4,FT8,T3,C3,Cz,C4,T4,TP7,CP3,CPz,CP4,TP8,T5,P3,Pz,P4,T6,O1,Oz,O2,A1,A2
1.624090385437011719e+01,1.804666900634765625e+01,1.490707969665527344e+01,1.399423408508300781e+01,1.460677623748779297e+01,1.430629444122314453e+01,1.270844554901123047e+01,1.175463676452636719e+01,5.538167953491210938e+00,1.212225556373596191e+00,6.392600536346435547e+00,1.081201076507568359e+01,1.193117427825927734e+01,9.470112800598144531e+00,1.053326416015625000e+01,8.206925392150878906e+00,9.852216720581054688e+00,1.065818691253662109e+01,1.307869052886962891e+01,1.257009601593017578e+01,1.436504268646240234e+01,1.602724838256835938e+01,1.287299156188964844e+01,1.123078250885009766e+01,9.188631057739257812e+00,9.129745483398437500e+00,9.205778121948242188e+00,1.067612838745117188e+01,1.068174076080322266e+01,8.415332794189453125e+00,9.444667816162109375e+00,2.527980041503906250e+01
-3.016936302185058594e+00,8.179411888122558594e+00,1.269011688232421875e+01,1.182140541076660156e+01,1.957177042961120605e+00,-7.190309166908264160e-01,-9.295687675476074219e-01,-3.915814757347106934e-01,-4.236850261688232422e+00,-6.395596027374267578e+00,-2.369434356689453125e+00,-9.335844516754150391e-01,-2.713963270187377930e+00,-5.074221134185791016e+00,-3.885739803314208984e+00,-3.966357707977294922e+00,-2.421383142471313477e+00,-2.601010799407958984e+00,-3.893086671829223633e+00,-6.316024780273437500e+00,-3.292731761932373047e+00,-4.965373277664184570e-01,-2.875243186950683594e+00,-6.103653430938720703e+00,-8.531746864318847656e+00,-6.105057239532470703e+00,-6.215196251869201660e-01,-4.827745854854583740e-01,-3.358663320541381836e-01,2.479761242866516113e-01,3.368605136871337891e+00,1.754646492004394531e+01
1.436723023653030396e-01,-3.157722949981689453e+00,-4.132121562957763672e+00,-4.141849994659423828e+00,-3.219429492950439453e+00,-8.134675025939941406e-01,-2.658433914184570312e+00,-5.140197277069091797e+00,-6.302046775817871094e+00,-6.639125943183898926e-01,9.518214464187622070e-01,1.450006246566772461e+00,-9.251351356506347656e-01,-1.768621206283569336e+00,-4.078505039215087891e-01,5.320329964160919189e-02,-8.650367381051182747e-04,1.516434907913208008e+00,4.761247158050537109e+00,1.907132148742675781e+00,6.794801950454711914e-01,9.604197740554809570e-01,3.228666067123413086e+00,1.192231893539428711e+00,-2.446834802627563477e+00,-1.387729287147521973e+00,4.370775699615478516e+00,4.452953338623046875e+00,3.211093902587890625e+00,3.979270219802856445e+00,2.562508344650268555e+00,-1.028001976013183594e+01
9.865619659423828125e+00,-1.384958148002624512e+00,-1.185480880737304688e+01,-8.767914772033691406e+00,5.433024406433105469e+00,7.066594600677490234e+00,3.972491025924682617e+00,1.301647424697875977e+00,-1.160215586423873901e-02,1.651669502258300781e+00,3.053011417388916016e+00,2.670022487640380859e+00,1.933765113353729248e-01,1.335457801818847656e+00,4.160126209259033203e+00,2.788905143737792969e+00,2.174461364746093750e+00,5.790569782257080078e+00,1.112746715545654297e+01,1.062075233459472656e+01,8.253928184509277344e+00,7.095422267913818359e+00,9.449807167053222656e+00,9.408492088317871094e+00,4.970230579376220703e+00,4.705464363098144531e+00,1.120998954772949219e+01,1.251508045196533203e+01,9.855194091796875000e+00,7.091475486755371094e+00,3.553826332092285156e+00,-1.343570137023925781e+01
-4.532393932342529297e+00,-1.557907772064208984e+01,-2.138266944885253906e+01,-1.552960205078125000e+01,-2.001068741083145142e-01,-4.921338558197021484e+00,-3.213636875152587891e+00,-2.185986757278442383e+00,-1.574096441268920898e+00,-7.255564689636230469e+00,-8.524621009826660156e+00,-1.033243942260742188e+01,-9.816973686218261719e+00,-7.927481651306152344e+00,-3.689111471176147461e+00,-5.588200092315673828e+00,-6.501694679260253906e+00,-3.550958156585693359e+00,6.446234583854675293e-01,7.441087365150451660e-01,-1.617166399955749512e+00,-4.273865699768066406e+00,-5.469684600830078125e+00,-4.533620774745941162e-01,5.325492024421691895e-01,-2.532422304153442383e+00,-1.464015841484069824e+00,2.637343108654022217e-01,-5.182661533355712891e+00,-8.027307510375976562e+00,-8.560449600219726562e+00,-2.139529228210449219e+01
-1.591506099700927734e+01,-2.632311248779296875e+01,-2.367341613769531250e+01,-2.016395568847656250e+01,-1.181542110443115234e+01,-1.704504966735839844e+01,-1.311029815673828125e+01,-9.423601150512695312e+00,-7.841314315795898438e+00,-7.828645706176757812e+00,-1.102151393890380859e+01,-1.198082542419433594e+01,-9.244184494018554688e+00,-5.919162273406982422e+00,-2.517206907272338867e+00,-8.102713584899902344e+00,-9.351495742797851562e+00,-7.062208175659179688e+00,7.381987571716308594e-02,-4.057749748229980469e+00,-1.113103103637695312e+01,-1.598940467834472656e+01,-1.498375415802001953e+01,-1.012274742126464844e+01,-5.109063625335693359e+00,-7.013648033142089844e+00,-1.127841186523437500e+01,-1.235526371002197266e+01,-1.696236801147460938e+01,-1.600881767272949219e+01,-1.770269393920898438e+01,-3.509102630615234375e+01
-1.010006999969482422e+01,-1.444463825225830078e+01,-1.265227031707763672e+01,-1.254796600341796875e+01,-1.023085975646972656e+01,-1.087079524993896484e+01,-1.124974441528320312e+01,-9.375395774841308594e+00,-8.382244110107421875e+00,-2.212957143783569336e+00,-4.237812042236328125e+00,-5.864817142486572266e+00,-3.692047834396362305e+00,1.927840352058410645e+00,3.749535322189331055e+00,-4.777494907379150391e+00,-3.845929145812988281e+00,-3.197032690048217773e+00,2.410411357879638672e+00,-3.861086606979370117e+00,-9.600263595581054688e+00,-1.252500820159912109e+01,-9.945809364318847656e+00,-9.794517517089843750e+00,-8.069506645202636719e+00,-6.332861423492431641e+00,-8.061156272888183594e+00,-9.392817497253417969e+00,-8.655414581298828125e+00,-6.068434715270996094e+00,-1.034715366363525391e+01,-2.252766799926757812e+01
-5.674499034881591797e+00,-7.560076713562011719e+00,-8.184673309326171875e+00,-9.767495155334472656e+00,-8.300581932067871094e+00,-5.633705615997314453e+00,-6.129223823547363281e+00,-6.638038635253906250e+00,-4.486885547637939453e+00,-1.174574613571166992e+00,-2.549584865570068359e+00,-3.802943944931030273e+00,-1.763927698135375977e+00,2.132197380065917969e+00,3.417459964752197266e+00,-1.387502074241638184e+00,3.569768741726875305e-02,-1.161468863487243652e+00,-4.949080944061279297e-01,-2.306671380996704102e+00,-2.888811111450195312e+00,-2.714949846267700195e+00,-4.564465045928955078e+00,-3.160898685455322266e-01,5.360817313194274902e-01,-9.705084562301635742e-01,-5.905804157257080078e+00,-5.320601463317871094e+00,-3.963625431060791016e+00,-2.948917865753173828e+00,-3.924011945724487305e+00,-8.883028030395507812e+00
-4.303052902221679688e+00,-5.852550029754638672e+00,-3.908216238021850586e+00,-5.093380928039550781e+00,-8.164906501770019531e+00,-6.570612430572509766e+00,-2.560853481292724609e+00,-1.193503066897392273e-01,1.601167917251586914e+00,-1.583000659942626953e+00,-2.116363763809204102e+00,-2.815322875976562500e+00,-3.124637842178344727e+00,-1.415803432464599609e+00,6.253249645233154297e-01,-3.792389333248138428e-01,-9.021783471107482910e-01,-8.916171789169311523e-01,2.909651771187782288e-02,1.228459715843200684e+00,-6.099312305450439453e-01,-1.178069472312927246e+00,-4.704222202301025391e+00,-3.164021670818328857e-01,1.819938063621520996e+00,-7.921791076660156250e-01,-6.515144824981689453e+00,-6.804225921630859375e+00,-7.154016494750976562e+00,-7.592251777648925781e+00,-5.675649642944335938e+00,-6.854082584381103516e+00
-2.482668876647949219e+00,-4.099062442779541016e+00,-2.698415517807006836e-01,1.740147829055786133e+00,-3.590146541595458984e+00,-4.167828083038330078e+00,-3.216322958469390869e-01,3.546512842178344727e+00,2.904291629791259766e+00,-1.535404205322265625e+00,-1.370833277702331543e+00,-2.424910068511962891e+00,-3.929613113403320312e+00,-8.489745259284973145e-01,-2.126158326864242554e-01,-3.394594907760620117e+00,-4.587091922760009766e+00,-2.916583299636840820e+00,-2.060400247573852539e-01,-2.018871068954467773e+00,-6.053921699523925781e+00,-6.858632087707519531e+00,-6.235403537750244141e+00,-1.438462829589843750e+01,-1.575470638275146484e+01,-1.213494396209716797e+01,-7.302140712738037109e+00,-9.548064231872558594e+00,-8.876106262207031250e+00,-7.696345329284667969e+00,-8.210263252258300781e+00,-1.169608879089355469e+01
-5.350057125091552734e+00,-1.332991600036621094e+01,-1.273577022552490234e+01,-9.353454589843750000e+00,-5.895366191864013672e+00,-4.295191764831542969e+00,-5.520854949951171875e+00,-5.274356842041015625e+00,-4.689672470092773438e+00,-1.264529705047607422e+00,-2.611296892166137695e+00,-1.410613298416137695e+00,3.231162726879119873e-01,1.902590990066528320e+00,-1.660253286361694336e+00,-5.879065036773681641e+00,-4.688495635986328125e+00,-5.310608386993408203e+00,-5.094827175140380859e+00,-8.238567352294921875e+00,-9.056420326232910156e+00,-6.758132934570312500e+00,-3.664042234420776367e+00,-1.460931491851806641e+01,-1.923769378662109375e+01,-1.561638927459716797e+01,-7.820698261260986328e+00,-9.905423164367675781e+00,-8.246695518493652344e+00,-7.143689632415771484e+00,-1.154194355010986328e+01,-2.510164642333984375e+01
-7.861108303070068359e+00,-1.618499946594238281e+01,-1.833660888671875000e+01,-1.704624748229980469e+01,-1.072620487213134766e+01,-7.122831344604492188e+00,-8.124810218811035156e+00,-6.755931377410888672e+00,-7.063170433044433594e+00,-2.343985557556152344e+00,-3.554688453674316406e+00,-5.267629027366638184e-01,-3.094031810760498047e-01,7.662364244461059570e-01,3.333418369293212891e-01,-2.531959295272827148e+00,-1.926934599876403809e+00,-3.674444913864135742e+00,-1.258821010589599609e+00,-2.754927873611450195e+00,-5.515130043029785156e+00,-6.098001956939697266e+00,-4.769911289215087891e+00,-6.634052395820617676e-01,-1.057144165039062500e+00,-3.565619230270385742e+00,-6.609100818634033203e+00,-7.319069862365722656e+00,-6.972302913665771484e+00,-8.211120605468750000e+00,-1.166427040100097656e+01,-2.492361450195312500e+01
-7.125508308410644531e+00,-2.000254058837890625e+01,-1.934987831115722656e+01,-1.582965373992919922e+01,-1.196029090881347656e+01,-1.247995567321777344e+01,-6.223274230957031250e+00,-1.930338263511657715e+00,-3.334483146667480469e+00,-6.683534145355224609e+00,-6.216635227203369141e+00,-6.694872379302978516e+00,-9.112771987915039062e+00,-4.815543651580810547e+00,-9.239599108695983887e-02,-4.411066532135009766e+00,-6.661490917205810547e+00,-5.430919647216796875e+00,1.714017510414123535e+00,-2.387680053710937500e+00,-9.333442687988281250e+00,-1.266592979431152344e+01,-1.171999549865722656e+01,-7.920438289642333984e+00,-6.496165275573730469e+00,-7.236343383789062500e+00,-9.892499923706054688e+00,-1.045556259155273438e+01,-1.216674804687500000e+01,-1.278654479980468750e+01,-1.402188682556152344e+01,-2.479649543762207031e+01
-1.153722381591796875e+01,-2.541537666320800781e+01,-2.333547782897949219e+01,-1.841605758666992188e+01,-1.325774192810058594e+01,-1.680343246459960938e+01,-1.072455692291259766e+01,-7.950770854949951172e+00,-4.546778678894042969e+00,-7.297865867614746094e+00,-8.524322509765625000e+00,-1.251235580444335938e+01,-1.010017776489257812e+01,-2.427774667739868164e+00,6.002004146575927734e-01,-7.365108013153076172e+00,-8.170746803283691406e+00,-4.768384933471679688e+00,2.454775333404541016e+00,-2.791556596755981445e+00,-8.504099845886230469e+00,-1.138488292694091797e+01,-1.150578212738037109e+01,-1.602046394348144531e+01,-1.627374076843261719e+01,-1.450915431976318359e+01,-1.158142280578613281e+01,-1.337677001953125000e+01,-1.675184440612792969e+01,-1.534853076934814453e+01,-1.536934947967529297e+01,-3.243044662475585938e+01
-1.721794128417968750e+01,-1.796183967590332031e+01,-1.818019294738769531e+01,-1.793829917907714844e+01,-1.374185276031494141e+01,-1.397312450408935547e+01,-1.664250564575195312e+01,-1.351142787933349609e+01,-9.312223434448242188e+00,-3.101998090744018555e+00,-9.637405395507812500e+00,-1.397251701354980469e+01,-9.401799201965332031e+00,-1.716112196445465088e-01,3.072238206863403320e+00,-8.354830741882324219e+00,-7.884682178497314453e+00,-5.463539123535156250e+00,2.657435417175292969e+00,1.909491181373596191e+00,-2.993638277053833008e+00,-9.777050971984863281e+00,-1.288229465484619141e+01,-5.970995903015136719e+00,-2.414599418640136719e+00,-5.625870227813720703e+00,-8.723561286926269531e+00,-9.468750953674316406e+00,-1.264903354644775391e+01,-1.025191783905029297e+01,-9.480453491210937500e+00,-2.704866981506347656e+01
-1.118182659149169922e+01,-6.582010746002197266e+00,-7.380590915679931641e+00,-9.741441726684570312e+00,-1.111211490631103516e+01,-8.302585601806640625e+00,-1.087152290344238281e+01,-6.556613445281982422e+00,-6.076076984405517578e+00,-3.606595098972320557e-01,-5.439407348632812500e+00,-8.483587265014648438e+00,-8.269270896911621094e+00,-2.512212753295898438e+00,2.581744909286499023e+00,-6.673391819000244141e+00,-7.881442546844482422e+00,-6.824932575225830078e+00,1.677946209907531738e+00,3.420361280441284180e+00,-1.073051914572715759e-01,-5.560256481170654297e+00,-9.369322776794433594e+00,1.780826926231384277e+00,5.975505828857421875e+00,-3.299013376235961914e-01,-5.335606098175048828e+00,-4.230174541473388672e+00,-4.230157852172851562e+00,-3.852586030960083008e+00,-3.056349754333496094e+00,-1.155045223236083984e+01
-3.256406545639038086e+00,-7.683559060096740723e-01,3.822127342224121094e+00,2.726609468460083008e+00,-3.516823768615722656e+00,-5.421780586242675781e+00,-2.250412225723266602e+00,-1.783509135246276855e+00,5.021941661834716797e-01,-2.553650856018066406e+00,-2.373105049133300781e+00,-4.741057872772216797e+00,-5.761606216430664062e+00,-5.279851555824279785e-01,4.649861812591552734e+00,-3.288194417953491211e+00,-4.974572181701660156e+00,-2.454985618591308594e+00,7.826707839965820312e+00,4.702219963073730469e+00,2.156527787446975708e-01,-1.093395471572875977e+00,-1.622196555137634277e+00,-3.319117307662963867e+00,-4.159882068634033203e+00,-3.426878452301025391e+00,-6.651246547698974609e-01,-1.484963655471801758e+00,-1.584561109542846680e+00,-2.748212516307830811e-01,1.600618481636047363e+00,1.104954004287719727e+00
5.700956821441650391e+00,6.567185401916503906e+00,1.227759456634521484e+01,1.323451805114746094e+01,8.598579406738281250e+00,4.744647502899169922e+00,5.849101066589355469e+00,5.324197769165039062e+00,6.435194015502929688e+00,2.113223791122436523e+00,3.640315771102905273e+00,4.912470817565917969e+00,5.103678226470947266e+00,1.146414375305175781e+01,1.257652091979980469e+01,5.373632431030273438e+00,6.973490715026855469e+00,1.038519382476806641e+01,1.743784332275390625e+01,1.119862174987792969e+01,4.795240402221679688e+00,4.578896522521972656e+00,6.324069499969482422e+00,8.696521520614624023e-01,-1.698611378669738770e+00,1.822197556495666504e+00,6.361935615539550781e+00,5.564081668853759766e+00,4.099353790283203125e+00,4.183451652526855469e+00,4.188180923461914062e+00,7.554928779602050781e+00
1.506311511993408203e+01,1.051438903808593750e+01,8.370468139648437500e+00,9.808178901672363281e+00,1.286395549774169922e+01,1.349033832550048828e+01,1.298933029174804688e+01,1.171666431427001953e+01,8.458315849304199219e+00,7.568584918975830078e+00,1.069687461853027344e+01,1.453688621520996094e+01,1.526124954223632812e+01,1.133169651031494141e+01,9.857570648193359375e+00,1.146150302886962891e+01,1.487437248229980469e+01,1.684473991394042969e+01,1.321627902984619141e+01,1.162042617797851562e+01,9.539792060852050781e+00,1.276361370086669922e+01,1.381349754333496094e+01,1.138819217681884766e+01,1.041229820251464844e+01,9.581537246704101562e+00,8.408786773681640625e+00,9.338673591613769531e+00,1.052470970153808594e+01,6.388563632965087891e+00,2.975978136062622070e+00,8.394034385681152344e+00
1.524336910247802734e+01,8.260012626647949219e+00,-4.905246257781982422e+00,-5.116815090179443359e+00,8.062691688537597656e+00,1.581652641296386719e+01,1.138694095611572266e+01,4.215113639831542969e+00,-1.302870154380798340e+00,1.601248979568481445e-01,4.316206932067871094e+00,1.067297458648681641e+01,4.760017395019531250e+00,-2.652195215225219727e+00,-6.769721984863281250e+00,2.019364595413208008e+00,3.304272413253784180e+00,1.792148232460021973e+00,-1.041473388671875000e+01,-1.094909000396728516e+01,-7.271413326263427734e+00,4.830343723297119141e+00,7.740519046783447266e+00,8.480820655822753906e+00,8.267506599426269531e+00,6.636861324310302734e+00,3.034395277500152588e-01,2.559063673019409180e+00,8.715457916259765625e+00,5.651468753814697266e+00,7.374370098114013672e-01,8.640441894531250000e+00
6.112412929534912109e+00,7.994060993194580078e+00,-1.280658602714538574e+00,-2.113442897796630859e+00,3.579675436019897461e+00,6.333408355712890625e+00,5.191857337951660156e+00,8.401615023612976074e-01,-2.313100576400756836e+00,-2.934459686279296875e+00,1.568130254745483398e+00,4.240767002105712891e+00,2.374923706054687500e+00,-7.179561614990234375e+00,-8.615031242370605469e+00,-1.860959291458129883e+00,1.349166870117187500e+00,8.899456262588500977e-01,-8.423393249511718750e+00,-9.497288703918457031e+00,-8.808552742004394531e+00,-1.074836373329162598e+00,2.301931858062744141e+00,-2.616525650024414062e+00,-5.997115612030029297e+00,-3.062646150588989258e+00,-1.915300011634826660e+00,2.239477634429931641e-01,2.643827438354492188e+00,2.313685655593872070e+00,8.405469655990600586e-01,9.337874412536621094e+00
6.349232196807861328e+00,1.094101905822753906e+01,7.528412818908691406e+00,9.462068557739257812e+00,1.062676048278808594e+01,1.045614528656005859e+01,8.107163429260253906e+00,5.399160385131835938e+00,3.250020742416381836e+00,5.953491210937500000e+00,8.915784835815429688e+00,6.661733150482177734e+00,5.678873062133789062e+00,1.497936606407165527e+00,2.339663743972778320e+00,4.690175056457519531e+00,5.956679344177246094e+00,7.159752368927001953e+00,-2.202830165624618530e-01,3.268860578536987305e-01,5.224578976631164551e-01,2.033352851867675781e+00,3.658970355987548828e+00,-2.750105381011962891e+00,-3.727185964584350586e+00,1.327256858348846436e-01,3.478530168533325195e+00,5.808036327362060547e+00,5.588128566741943359e+00,5.769769191741943359e+00,5.680648326873779297e+00,1.288449478149414062e+01
4.963632106781005859e+00,1.795788955688476562e+01,1.379452323913574219e+01,1.131878089904785156e+01,1.330014324188232422e+01,1.469231224060058594e+01,1.241946792602539062e+01,8.039813995361328125e+00,5.906310558319091797e+00,5.961378574371337891e+00,6.609628677368164062e+00,6.338718891143798828e+00,-1.653253078460693359e+00,-2.490556001663208008e+00,-3.349298238754272461e+00,4.225790023803710938e+00,1.502212643623352051e+00,4.410932064056396484e-01,-4.553864002227783203e+00,-4.414189815521240234e+00,-2.220798969268798828e+00,1.283275008201599121e+00,4.128699779510498047e+00,-4.509679973125457764e-01,9.767141342163085938e-01,8.011745452880859375e+00,9.600277900695800781e+00,7.860487937927246094e+00,8.485853195190429688e+00,1.255117797851562500e+01,1.348246574401855469e+01,2.215908432006835938e+01
2.976832151412963867e+00,2.264756965637207031e+01,1.622527313232421875e+01,7.324270248413085938e+00,6.702555656433105469e+00,8.783617973327636719e+00,8.515836715698242188e+00,5.549972057342529297e+00,3.721802473068237305e+00,1.370556473731994629e+00,1.738841772079467773e+00,3.035922527313232422e+00,-3.125015258789062500e+00,-2.945037603378295898e+00,-6.050838470458984375e+00,-1.829664111137390137e-01,-1.333483576774597168e+00,-2.560331821441650391e+00,-3.148355960845947266e+00,-7.754076719284057617e-01,1.190602898597717285e+00,3.085269451141357422e+00,5.488146781921386719e+00,5.397260665893554688e+00,6.944146156311035156e+00,1.159879398345947266e+01,1.226613712310791016e+01,8.584611892700195312e+00,9.990146636962890625e+00,1.231127643585205078e+01,1.412166786193847656e+01,2.862861633300781250e+01
8.364027976989746094e+00,1.499000263214111328e+01,1.096990776062011719e+01,5.571247577667236328e+00,3.400841951370239258e+00,6.005685329437255859e+00,3.177430391311645508e+00,-1.973076820373535156e+00,-2.921606779098510742e+00,1.624041080474853516e+00,4.039054870605468750e+00,3.201207160949707031e+00,4.051158905029296875e+00,5.766446113586425781e+00,2.415124654769897461e+00,8.682806491851806641e-01,1.050662994384765625e+00,2.396440029144287109e+00,3.659637212753295898e+00,7.956483364105224609e+00,1.282726383209228516e+01,1.158659648895263672e+01,1.050953769683837891e+01,1.527280139923095703e+01,1.679425811767578125e+01,1.176377010345458984e+01,9.779528617858886719e+00,1.029404449462890625e+01,1.142933273315429688e+01,9.872421264648437500e+00,1.414947605133056641e+01,2.453520965576171875e+01
9.634711265563964844e+00,1.019906806945800781e+01,3.622961997985839844e+00,1.971996068954467773e+00,4.722656726837158203e+00,8.026509284973144531e+00,4.906464099884033203e+00,-3.572949171066284180e+00,-5.232870101928710938e+00,1.874899387359619141e+00,6.836433410644531250e+00,5.972672939300537109e+00,6.930361270904541016e+00,8.846875190734863281e+00,5.094676494598388672e+00,5.395761966705322266e+00,4.397575378417968750e+00,5.246047019958496094e+00,3.946922540664672852e+00,5.908651351928710938e+00,1.418521690368652344e+01,1.724606704711914062e+01,1.521400833129882812e+01,1.853859138488769531e+01,1.748357582092285156e+01,1.072216320037841797e+01,9.096323966979980469e+00,1.233946990966796875e+01,1.090045070648193359e+01,8.907033920288085938e+00,1.317278099060058594e+01,1.329281234741210938e+01
7.428824901580810547e-01,5.746599197387695312e+00,8.828427195549011230e-01,-2.543986439704895020e-01,1.665567278861999512e+00,1.528891921043395996e+00,3.782455205917358398e+00,3.607901096343994141e+00,8.651524186134338379e-01,3.710523843765258789e-01,3.964581727981567383e+00,4.772952556610107422e+00,2.408214360475540161e-01,8.749042749404907227e-01,-1.182191595435142517e-01,2.845068931579589844e+00,1.486842036247253418e+00,2.117541432380676270e-02,-1.878410935401916504e+00,-1.374044895172119141e+00,3.385699987411499023e+00,8.689072608947753906e+00,7.554361820220947266e+00,6.997906208038330078e+00,2.522587299346923828e+00,2.302093267440795898e+00,5.482616424560546875e+00,9.532926559448242188e+00,7.152698040008544922e+00,2.435067415237426758e+00,2.255697846412658691e-01,3.506458282470703125e+00
-1.319853019714355469e+01,-1.089746952056884766e+01,-5.201167464256286621e-01,1.256235837936401367e+00,-5.134488582611083984e+00,-1.320053195953369141e+01,-6.748720645904541016e+00,2.659063339233398438e+00,2.373706340789794922e+00,-2.647134304046630859e+00,-5.265815258026123047e+00,-4.661203384399414062e+00,-1.088645076751708984e+01,-1.039320659637451172e+01,-1.108130931854248047e+01,-1.134752082824707031e+01,-1.393538475036621094e+01,-1.539672851562500000e+01,-1.482502651214599609e+01,-1.412975883483886719e+01,-1.057755565643310547e+01,-9.318630218505859375e+00,-1.097818565368652344e+01,-8.827501296997070312e+00,-1.003807258605957031e+01,-1.057677555084228516e+01,-9.513897895812988281e+00,-4.849362850189208984e+00,-4.765947818756103516e+00,-8.236660957336425781e+00,-1.176753425598144531e+01,-3.561599493026733398e+00
-1.180766868591308594e+01,-1.229774475097656250e+01,3.957593142986297607e-01,1.143507480621337891e+00,-7.465262413024902344e+00,-1.197936344146728516e+01,-1.064816951751708984e+01,-6.920248031616210938e+00,-3.660219907760620117e+00,-3.949347019195556641e+00,-8.150638580322265625e+00,-9.548128128051757812e+00,-1.115773010253906250e+01,-1.013426685333251953e+01,-1.223024749755859375e+01,-1.284787368774414062e+01,-1.607231521606445312e+01,-1.708140945434570312e+01,-1.748792266845703125e+01,-1.625264549255371094e+01,-1.204367065429687500e+01,-9.323976516723632812e+00,-1.046889400482177734e+01,-8.134866714477539062e+00,-6.312903881072998047e+00,-9.451492309570312500e+00,-1.221387290954589844e+01,-1.148252677917480469e+01,-9.300719261169433594e+00,-6.818737506866455078e+00,-5.290832996368408203e+00,-8.654943704605102539e-01
3.177133560180664062e+00,6.737701892852783203e+00,6.816735744476318359e+00,3.619247674942016602e+00,-1.428400635719299316e+00,5.982986450195312500e+00,9.461700320243835449e-01,-3.588700771331787109e+00,-1.987262368202209473e+00,2.156034469604492188e+00,3.579031229019165039e+00,2.049066543579101562e+00,7.250354886054992676e-01,-1.174826264381408691e+00,-4.455013871192932129e-01,9.504016637802124023e-01,-8.990924060344696045e-02,-7.293116450309753418e-01,-1.383784055709838867e+00,-1.137240052223205566e+00,-1.380506873130798340e+00,3.288605451583862305e+00,3.378725767135620117e+00,1.065323233604431152e+00,2.115340948104858398e+00,3.562699794769287109e+00,4.150672912597656250e+00,7.669895887374877930e-01,-4.455892145633697510e-01,4.415017664432525635e-01,3.390721797943115234e+00,1.137757968902587891e+01
7.785199642181396484e+00,1.258458805084228516e+01,1.116643524169921875e+01,8.725420951843261719e+00,7.040970325469970703e+00,1.163939476013183594e+01,1.062076950073242188e+01,9.125481605529785156e+00,8.777651786804199219e+00,7.401186943054199219e+00,8.906884193420410156e+00,9.454769134521484375e+00,4.254896640777587891e+00,-2.404105186462402344e+00,1.345434188842773438e-01,4.249555587768554688e+00,4.585326194763183594e+00,-1.916179537773132324e+00,6.631320714950561523e-01,-1.204857230186462402e+00,-2.208523511886596680e+00,1.498337030410766602e+00,4.377070903778076172e+00,3.520610809326171875e+00,2.878684282302856445e+00,4.557755947113037109e+00,5.154180526733398438e+00,6.115540504455566406e+00,4.824738025665283203e+00,1.475755691528320312e+00,1.901641964912414551e+00,2.046680450439453125e+01
6.354985237121582031e+00,1.083637619018554688e+01,1.231414604187011719e+01,9.518175125122070312e+00,8.781089782714843750e+00,8.433090209960937500e+00,1.157755184173583984e+01,1.132240581512451172e+01,1.183542633056640625e+01,5.193686008453369141e+00,3.320411682128906250e+00,4.412988662719726562e+00,-2.168964624404907227e+00,-7.874347686767578125e+00,-6.615957260131835938e+00,-1.985450148582458496e+00,-4.495442390441894531e+00,-1.137033081054687500e+01,-9.312005043029785156e+00,-1.337723255157470703e+01,-1.298218441009521484e+01,-5.801177501678466797e+00,1.254960894584655762e+00,2.687357425689697266e+00,1.081571280956268311e-01,-1.515843033790588379e+00,-4.129810810089111328e+00,5.320075750350952148e-01,4.829592227935791016e+00,3.449426889419555664e+00,1.287402272224426270e+00,1.739822769165039062e+01
3.697224378585815430e+00,1.440055942535400391e+01,1.260910701751708984e+01,9.056405067443847656e+00,6.166147232055664062e+00,8.361084938049316406e+00,7.088745117187500000e+00,6.264012813568115234e+00,7.588220119476318359e+00,5.306918621063232422e+00,3.751762390136718750e+00,4.150284290313720703e+00,-3.854196548461914062e+00,-6.733064174652099609e+00,-5.574376106262207031e+00,-1.261052727699279785e+00,-4.928646564483642578e+00,-6.273258686065673828e+00,-5.919741153717041016e+00,-7.404553413391113281e+00,-7.086908817291259766e+00,5.175552964210510254e-01,4.615997314453125000e+00,2.837742567062377930e+00,8.560840487480163574e-01,2.053654193878173828e+00,4.131400585174560547e+00,4.422922134399414062e+00,8.113656997680664062e+00,8.118287086486816406e+00,4.750893592834472656e+00,7.799184799194335938e+00
2.571123600006103516e+00,4.729198932647705078e+00,5.976812362670898438e+00,8.993331909179687500e+00,7.851212024688720703e+00,6.658993721008300781e+00,2.223705053329467773e+00,3.559136390686035156e+00,6.192223548889160156e+00,7.920430660247802734e+00,7.610336780548095703e+00,7.724164009094238281e+00,2.598890304565429688e+00,1.013736367225646973e+00,2.059976100921630859e+00,8.631371259689331055e-01,2.042771428823471069e-01,1.468996405601501465e+00,4.311063766479492188e+00,7.371590614318847656e+00,8.202035903930664062e+00,9.587808609008789062e+00,6.641881942749023438e+00,7.984585285186767578e+00,1.051116943359375000e+01,9.770884513854980469e+00,1.021595954895019531e+01,7.491999149322509766e+00,7.058856010437011719e+00,8.574395179748535156e+00,7.346361637115478516e+00,-5.029704570770263672e+00
3.416180610656738281e+00,-4.242655277252197266e+00,1.099477887153625488e+00,8.420680046081542969e+00,8.594397544860839844e+00,2.982020139694213867e+00,1.446746826171875000e+00,2.893003463745117188e+00,3.340076684951782227e+00,2.748921632766723633e+00,1.320547580718994141e+00,1.391423583030700684e+00,4.166345596313476562e+00,5.152158737182617188e+00,6.233326911926269531e+00,7.209001779556274414e-01,9.187343120574951172e-01,-8.070422410964965820e-01,2.382336854934692383e+00,4.006453990936279297e+00,5.253471851348876953e+00,6.117112636566162109e+00,5.183832168579101562e+00,7.349621295928955078e+00,9.072970390319824219e+00,7.340059280395507812e+00,5.060711860656738281e+00,4.063483238220214844e+00,2.851288557052612305e+00,5.151106357574462891e+00,6.894006729125976562e+00,-7.420791149139404297e+00
-1.375691294670104980e+00,-1.560094118118286133e+00,-6.005333065986633301e-01,1.398344516754150391e+00,-8.380554318428039551e-01,-3.414055824279785156e+00,-2.444297790527343750e+00,-2.414722681045532227e+00,-4.927104473114013672e+00,-8.357206344604492188e+00,-8.933226585388183594e+00,-8.572319984436035156e+00,-4.435005187988281250e+00,-3.941032171249389648e+00,-1.081862330436706543e+00,-5.463761329650878906e+00,-5.245380401611328125e+00,-7.177870273590087891e+00,-6.327891826629638672e+00,-3.902545452117919922e+00,-1.218708902597427368e-01,4.022249698638916016e+00,5.712625980377197266e+00,-2.800654411315917969e+00,-7.313028335571289062e+00,-4.563057422637939453e+00,5.757922172546386719e+00,4.088220119476318359e+00,8.483545184135437012e-01,-1.073433160781860352e+00,9.726583361625671387e-01,-8.990756034851074219e+00
-1.434385418891906738e+00,4.415191650390625000e+00,6.611346721649169922e+00,5.863736629486083984e+00,-7.739010453224182129e-01,-3.511840820312500000e+00,-4.658163547515869141e+00,-4.867639064788818359e+00,-4.230154991149902344e+00,-9.208988189697265625e+00,-7.054281234741210938e+00,-7.493637084960937500e+00,-8.971262931823730469e+00,-9.488511085510253906e+00,-5.375331878662109375e+00,-6.118256568908691406e+00,-6.293121814727783203e+00,-3.272714853286743164e+00,-2.021835327148437500e+00,2.531099319458007812e+00,6.044212341308593750e+00,7.396927356719970703e+00,5.119440555572509766e+00,-4.787715673446655273e-01,-1.912718057632446289e+00,2.342549562454223633e-01,8.742187500000000000e+00,6.315610408782958984e+00,2.478228569030761719e+00,-1.371374279260635376e-01,5.774523258209228516e+00,4.349907875061035156e+00
5.946188449859619141e+00,6.061004161834716797e+00,1.219412612915039062e+01,1.560502338409423828e+01,1.009665012359619141e+01,4.105712413787841797e+00,1.690816640853881836e+00,1.865818262100219727e+00,3.765224933624267578e+00,-7.223075032234191895e-01,1.181734561920166016e+00,1.136022210121154785e+00,-3.069484949111938477e+00,-2.332257986068725586e+00,1.342047691345214844e+00,2.873033046722412109e+00,2.591472864151000977e+00,7.111172199249267578e+00,1.033524703979492188e+01,9.872779846191406250e+00,7.600261211395263672e+00,6.098156452178955078e+00,2.304395914077758789e+00,9.477457046508789062e+00,1.376770687103271484e+01,1.271054458618164062e+01,3.188181877136230469e+00,3.601744651794433594e+00,3.371224164962768555e+00,6.010269641876220703e+00,1.467933940887451172e+01,1.998239898681640625e+01
2.507097721099853516e+00,4.688508510589599609e+00,1.019545269012451172e+01,1.237703704833984375e+01,6.608670711517333984e+00,3.070107221603393555e+00,4.382991790771484375e+00,5.882954597473144531e+00,3.331519365310668945e+00,-1.485341936349868774e-01,1.111872076988220215e+00,3.943271875381469727e+00,1.774000406265258789e+00,3.317362785339355469e+00,5.598814487457275391e+00,6.999105453491210938e+00,6.641706466674804688e+00,7.166213035583496094e+00,1.239153480529785156e+01,1.004835033416748047e+01,7.515804290771484375e+00,3.722080707550048828e+00,5.074019432067871094e-01,8.345952033996582031e+00,1.373583889007568359e+01,1.231613159179687500e+01,1.794855117797851562e+00,9.203008413314819336e-01,8.128335475921630859e-01,4.471773147583007812e+00,9.440073966979980469e+00,1.447016143798828125e+01
-8.197428703308105469e+00,4.165406227111816406e+00,1.191145896911621094e+01,9.365668296813964844e+00,-1.072154402732849121e+00,-3.394070863723754883e+00,-1.198413968086242676e+00,-1.551148742437362671e-01,-1.070578813552856445e+00,-3.008520603179931641e+00,-3.684986114501953125e+00,-2.379576921463012695e+00,3.225662112236022949e-01,3.670949459075927734e+00,6.016601562500000000e+00,3.745557785034179688e+00,1.116290092468261719e+00,-2.860714495182037354e-01,6.920966148376464844e+00,8.120582580566406250e+00,9.065924644470214844e+00,1.825779914855957031e+00,-2.419200181961059570e+00,-3.493799448013305664e+00,1.344480395317077637e+00,3.166470766067504883e+00,4.927643775939941406e+00,3.076804578304290771e-01,-1.487460494041442871e+00,1.112234950065612793e+00,4.265375137329101562e+00,9.432748794555664062e+00
-8.415562629699707031e+00,2.636391639709472656e+00,9.332691192626953125e+00,9.674508094787597656e+00,2.196390867233276367e+00,-1.657115697860717773e+00,-5.034915924072265625e+00,-6.681718826293945312e+00,-3.472489833831787109e+00,-4.163280874490737915e-02,-2.252296686172485352e+00,-3.765952110290527344e+00,3.424265682697296143e-01,2.427073001861572266e+00,5.104225158691406250e+00,8.564415574073791504e-01,-9.330850243568420410e-01,-2.093263864517211914e+00,2.981345176696777344e+00,5.578092575073242188e+00,5.843465328216552734e+00,-1.902943849563598633e+00,-8.088406562805175781e+00,-4.909043788909912109e+00,1.613517403602600098e-01,-4.307186696678400040e-03,-1.213385462760925293e+00,-3.749142169952392578e+00,-2.823733329772949219e+00,3.760907173156738281e+00,8.104834556579589844e+00,8.345067024230957031e+00
-5.622682571411132812e+00,-1.157777905464172363e+00,-1.194759607315063477e+00,3.602212190628051758e+00,2.274962902069091797e+00,3.031087636947631836e+00,-3.392834901809692383e+00,-6.895397186279296875e+00,-8.293808937072753906e+00,-1.258324980735778809e+00,4.450205266475677490e-01,2.597356557846069336e+00,1.867659687995910645e+00,-1.912085533142089844e+00,-2.186536073684692383e+00,-1.450607180595397949e+00,-7.263582944869995117e-02,-2.537536859512329102e+00,-3.130816698074340820e+00,-3.651360750198364258e+00,-4.652557373046875000e+00,-8.370077133178710938e+00,-1.238031005859375000e+01,-9.881263732910156250e+00,-8.364361763000488281e+00,-8.317826271057128906e+00,-1.109510707855224609e+01,-1.053845787048339844e+01,-6.617145538330078125e+00,1.520394325256347656e+00,2.303967475891113281e+00,-8.434408307075500488e-01
-1.100354194641113281e+01,-6.113892555236816406e+00,-6.686221599578857422e+00,-5.472452163696289062e+00,-5.537921428680419922e+00,-2.105555057525634766e+00,-3.537685632705688477e+00,-5.378179550170898438e+00,-8.643749237060546875e+00,-5.481221675872802734e+00,-2.023116350173950195e+00,4.527180671691894531e+00,2.848805904388427734e+00,-4.228140354156494141e+00,-8.265232086181640625e+00,-5.356759071350097656e+00,-2.985161066055297852e+00,-5.316337585449218750e+00,-8.785156250000000000e+00,-1.311384391784667969e+01,-1.299887943267822266e+01,-1.122939300537109375e+01,-9.581108093261718750e+00,-1.919012069702148438e+01,-2.207501792907714844e+01,-1.811338615417480469e+01,-1.406724357604980469e+01,-1.415809535980224609e+01,-9.260471343994140625e+00,-2.690767526626586914e+00,-5.156069278717041016e+00,-1.143915176391601562e+01
-7.491133213043212891e+00,-3.873497724533081055e+00,5.968049764633178711e-01,-6.397492438554763794e-02,-2.123923778533935547e+00,-5.394860744476318359e+00,5.390518903732299805e-01,1.141566157341003418e+00,6.549999117851257324e-01,-2.932836771011352539e+00,-1.238072991371154785e+00,2.057619810104370117e+00,5.078801631927490234e+00,1.099071264266967773e+00,-4.607560634613037109e+00,-3.505509614944458008e+00,-6.204084157943725586e-01,-7.973342537879943848e-01,-5.298911094665527344e+00,-8.100405693054199219e+00,-6.152190208435058594e+00,-1.316795349121093750e+00,1.219465970993041992e+00,-7.948451995849609375e+00,-1.086232280731201172e+01,-9.274986267089843750e+00,-6.534097194671630859e+00,-6.850617885589599609e+00,-3.606867551803588867e+00,2.362016916275024414e+00,3.230107307434082031e+00,-6.535297870635986328e+00
3.834461212158203125e+00,4.684089183807373047e+00,6.672975063323974609e+00,9.367486000061035156e+00,7.813251972198486328e+00,4.719810962677001953e+00,1.085921192169189453e+01,1.010981941223144531e+01,5.182006835937500000e+00,-7.937566637992858887e-01,4.310534000396728516e+00,5.956276893615722656e+00,6.433196067810058594e+00,3.100823879241943359e+00,-1.213526487350463867e+00,3.216227769851684570e+00,6.669293403625488281e+00,6.770643234252929688e+00,-8.367910981178283691e-02,-1.356339335441589355e+00,2.216357707977294922e+00,9.061045646667480469e+00,9.459315299987792969e+00,2.333962678909301758e+00,-9.453750848770141602e-01,1.019268393516540527e+00,3.617948293685913086e+00,4.592045307159423828e+00,3.059724569320678711e+00,5.706490039825439453e+00,8.200132369995117188e+00,-7.356975674629211426e-01
5.979681491851806641e+00,8.829185485839843750e+00,5.416283130645751953e+00,5.994273185729980469e+00,7.061530113220214844e+00,1.150256919860839844e+01,1.265752506256103516e+01,8.789142608642578125e+00,4.061170294880867004e-02,-3.423510789871215820e+00,3.704418182373046875e+00,9.789096832275390625e+00,3.936388254165649414e+00,-1.716644048690795898e+00,-2.435079813003540039e+00,4.719118118286132812e+00,5.600358486175537109e+00,6.140964984893798828e+00,-6.062571406364440918e-01,-2.792246937751770020e-01,4.214474678039550781e+00,1.061656188964843750e+01,9.655190467834472656e+00,-4.905619621276855469e-01,-2.834743261337280273e+00,1.260473728179931641e+00,8.645565032958984375e+00,7.220210075378417969e+00,4.639451980590820312e+00,4.762296199798583984e+00,5.586053848266601562e+00,-8.147503852844238281e+00
2.991835594177246094e+00,9.462187886238098145e-01,-6.360026001930236816e-01,-1.825469851493835449e+00,2.733622312545776367e+00,5.305135726928710938e+00,3.900920867919921875e+00,-8.079547882080078125e-01,-2.071449756622314453e+00,-1.644032835960388184e+00,1.085213303565979004e+00,3.955602884292602539e+00,5.933074951171875000e-01,-3.636837482452392578e+00,-4.067664623260498047e+00,4.689887464046478271e-01,1.411692023277282715e+00,3.285760402679443359e+00,-6.922142505645751953e-01,2.416051864624023438e+00,5.898321628570556641e+00,8.532776832580566406e+00,6.990012645721435547e+00,2.506902694702148438e+00,2.851775169372558594e+00,3.508657932281494141e+00,9.315029144287109375e+00,6.222894668579101562e+00,5.830255508422851562e+00,7.604825973510742188e+00,7.862319469451904297e+00,-1.857742691040039062e+01
4.879937171936035156e+00,-7.010538101196289062e+00,-6.193345546722412109e+00,-3.382181167602539062e+00,2.538318634033203125e+00,2.842729091644287109e-01,-1.017121315002441406e+00,-3.875825166702270508e+00,-2.114934474229812622e-01,1.329759478569030762e+00,1.082749962806701660e+00,-3.597160339355468750e+00,-2.489554882049560547e+00,-2.812947034835815430e+00,-3.841021299362182617e+00,-3.522242307662963867e+00,-4.170230925083160400e-01,1.026018619537353516e+00,5.292635560035705566e-01,2.401798486709594727e+00,4.131575584411621094e+00,4.541612625122070312e+00,5.810552120208740234e+00,7.095955371856689453e+00,5.717298030853271484e+00,5.175347805023193359e+00,7.365356445312500000e+00,7.732344627380371094e+00,5.558410644531250000e+00,6.599496364593505859e+00,4.939910411834716797e+00,-2.125029182434082031e+01
5.193536281585693359e+00,-1.264532566070556641e+00,-5.553229331970214844e+00,-3.102571964263916016e+00,4.300632476806640625e+00,6.259849071502685547e+00,3.516957521438598633e+00,1.286129832267761230e+00,8.798142075538635254e-01,-2.002257555723190308e-01,4.536616206169128418e-01,-2.096417903900146484e+00,-2.289296388626098633e+00,-1.369688034057617188e+00,-6.150357127189636230e-01,-1.742662072181701660e+00,-1.964196324348449707e+00,-1.266201138496398926e+00,8.343496322631835938e-01,7.571026682853698730e-01,1.148164153099060059e+00,6.264310479164123535e-01,2.072597742080688477e+00,2.931943416595458984e+00,1.787659525871276855e+00,2.423648118972778320e+00,3.083161354064941406e+00,5.368233680725097656e+00,2.481495618820190430e+00,-2.078746706247329712e-01,-4.365647792816162109e+00,-1.928137016296386719e+01
3.034618854522705078e+00,1.175940990447998047e+00,-7.073402881622314453e+00,-7.034734249114990234e+00,4.052767276763916016e+00,9.653841972351074219e+00,7.576886177062988281e+00,4.211303234100341797e+00,3.265880346298217773e+00,6.898334026336669922e-01,1.085883259773254395e+00,1.028643369674682617e+00,1.156782746315002441e+00,3.401964902877807617e+00,4.900341510772705078e+00,3.628915309906005859e+00,-9.914496541023254395e-02,1.358722209930419922e+00,1.857550382614135742e+00,2.371989250183105469e+00,1.403181195259094238e+00,-3.454334735870361328e-01,-4.026350498199462891e+00,-1.411426901817321777e+00,4.525154531002044678e-01,-2.114086389541625977e+00,-4.856241703033447266e+00,-2.419157028198242188e+00,-1.179519057273864746e+00,-5.334058761596679688e+00,-1.066534805297851562e+01,-2.087525749206542969e+01
-6.220155954360961914e-01,-9.965251922607421875e+00,-1.313370132446289062e+01,-1.005363464355468750e+01,-1.513978958129882812e+00,2.970893383026123047e-01,3.821170330047607422e+00,2.777180910110473633e+00,4.322935104370117188e+00,3.707790374755859375e+00,4.243864059448242188e+00,-9.372251629829406738e-01,-3.078245639801025391e+00,8.766557574272155762e-01,3.863940954208374023e+00,2.677899837493896484e+00,2.639888226985931396e-01,1.433704733848571777e+00,1.071324110031127930e+00,-1.841379046440124512e+00,-3.062327384948730469e+00,-5.393764972686767578e+00,-7.382390022277832031e+00,-7.228738784790039062e+00,-5.366309165954589844e+00,-8.567667961120605469e+00,-1.179911994934082031e+01,-9.311419486999511719e+00,-9.496573448181152344e+00,-9.942104339599609375e+00,-1.493444347381591797e+01,-2.866706848144531250e+01
-1.007777118682861328e+01,-1.878415679931640625e+01,-1.841415405273437500e+01,-1.457845878601074219e+01,-1.207494735717773438e+01,-1.108036994934082031e+01,-5.584887981414794922e+00,-2.566770792007446289e+00,-2.722307205200195312e+00,-2.288343191146850586e+00,-1.777472853660583496e+00,-6.259397506713867188e+00,-1.169320869445800781e+01,-9.297910690307617188e+00,-5.625212192535400391e+00,-5.759234428405761719e+00,-7.655194759368896484e+00,-7.542684078216552734e+00,-6.918036937713623047e+00,-1.486518192291259766e+01,-1.580160045623779297e+01,-1.580170154571533203e+01,-1.049932193756103516e+01,-1.805679512023925781e+01,-1.824880218505859375e+01,-1.645456695556640625e+01,-1.426691055297851562e+01,-1.400317764282226562e+01,-1.722918701171875000e+01,-1.430403804779052734e+01,-2.014820671081542969e+01,-3.859104537963867188e+01
-1.203241348266601562e+01,-1.575589084625244141e+01,-1.581654357910156250e+01,-1.391461181640625000e+01,-1.110855865478515625e+01,-1.041892910003662109e+01,-8.436131477355957031e+00,-5.799170970916748047e+00,-7.479301929473876953e+00,-9.311942100524902344e+00,-9.198558807373046875e+00,-8.938804626464843750e+00,-6.685570240020751953e+00,-6.216208934783935547e+00,-5.554514408111572266e+00,-9.219684600830078125e+00,-9.631848335266113281e+00,-9.177738189697265625e+00,-9.631307601928710938e+00,-1.281933593750000000e+01,-1.367845344543457031e+01,-1.337293434143066406e+01,-1.126458072662353516e+01,-1.722481346130371094e+01,-1.835227012634277344e+01,-1.320022296905517578e+01,-7.051548004150390625e+00,-1.055593490600585938e+01,-1.218122100830078125e+01,-7.664491176605224609e+00,-1.183218097686767578e+01,-3.206151199340820312e+01
-4.520714759826660156e+00,-8.465747833251953125e+00,-4.025423049926757812e+00,-2.191700220108032227e+00,-1.182031035423278809e+00,-5.395473003387451172e+00,-4.363835811614990234e+00,-1.993853092193603516e+00,-4.898276627063751221e-01,-2.743317365646362305e+00,-4.035799980163574219e+00,-5.995700836181640625e+00,2.002479553222656250e+00,3.332611560821533203e+00,2.447101593017578125e+00,-4.297777652740478516e+00,-3.543315649032592773e+00,-3.935666561126708984e+00,-3.363291501998901367e+00,-8.409405946731567383e-01,-1.528414130210876465e+00,-3.812823772430419922e+00,-5.432976722717285156e+00,-3.103840351104736328e+00,-3.288394689559936523e+00,-1.884788632392883301e+00,-8.066663146018981934e-02,-4.551355838775634766e+00,-6.009064674377441406e+00,-2.192657947540283203e+00,-5.400900840759277344e-01,-1.054906749725341797e+01
-3.613471031188964844e+00,-4.202228546142578125e+00,3.397955894470214844e+00,3.628714561462402344e+00,-1.052147626876831055e+00,-5.519106864929199219e+00,-1.672563552856445312e+00,2.869320392608642578e+00,4.475848197937011719e+00,2.406156778335571289e+00,1.183724641799926758e+00,-3.252687156200408936e-01,-1.254628658294677734e+00,-1.087934255599975586e+00,-3.433604538440704346e-01,-2.963832616806030273e+00,-4.597910881042480469e+00,-6.321262836456298828e+00,-3.420154333114624023e+00,-6.310735225677490234e+00,-7.085667133331298828e+00,-8.174954414367675781e+00,-5.087511539459228516e+00,-2.457971334457397461e+00,-1.271802335977554321e-01,-7.701128721237182617e-01,-3.883417606353759766e+00,-7.871083736419677734e+00,-8.778710365295410156e+00,-4.984259605407714844e+00,-3.551620841026306152e-01,-7.080819129943847656e+00
-5.856529235839843750e+00,-6.022683143615722656e+00,-4.102778434753417969e+00,-4.266152381896972656e+00,-5.406745433807373047e+00,-5.843831062316894531e+00,-2.877976179122924805e+00,1.023387089371681213e-01,-6.893751621246337891e-01,-1.806670665740966797e+00,-6.162817478179931641e-01,1.014457363635301590e-02,-3.575509071350097656e+00,-3.610458374023437500e+00,-3.580596208572387695e+00,-5.481245040893554688e+00,-6.898882389068603516e+00,-7.095782279968261719e+00,-6.703291893005371094e+00,-1.095380306243896484e+01,-1.154201221466064453e+01,-1.041996097564697266e+01,-7.686707973480224609e+00,-4.732196331024169922e+00,-8.464671373367309570e-01,7.150273919105529785e-01,-1.423725843429565430e+00,-5.341546535491943359e+00,-6.046123027801513672e+00,-8.708285093307495117e-01,3.140711307525634766e+00,-1.537959575653076172e+01
-6.012750267982482910e-01,-8.396811485290527344e+00,-9.220153808593750000e+00,-5.424808979034423828e+00,-1.422582864761352539e+00,-2.880600452423095703e+00,-6.003136157989501953e+00,-4.974307537078857422e+00,-1.220606684684753418e+00,-2.982167303562164307e-01,-9.556917548179626465e-01,-3.274303197860717773e+00,9.587858319282531738e-01,3.174692153930664062e+00,2.868624687194824219e+00,-1.998673439025878906e+00,8.682060986757278442e-02,-7.454081773757934570e-01,-1.251770734786987305e+00,-3.719935715198516846e-01,-2.183270007371902466e-01,-1.700488448143005371e+00,-3.353750944137573242e+00,8.850311636924743652e-01,4.109499931335449219e+00,7.126102924346923828e+00,6.119208335876464844e+00,2.103559255599975586e+00,8.711558580398559570e-01,5.429540157318115234e+00,8.710620880126953125e+00,-5.477797985076904297e+00
2.934028148651123047e+00,-1.215034127235412598e+00,1.932711482048034668e+00,5.458310127258300781e+00,2.392265081405639648e+00,1.522540450096130371e+00,-1.989632010459899902e+00,-4.235886931419372559e-01,5.535455226898193359e+00,5.656069278717041016e+00,3.576955795288085938e+00,4.715490043163299561e-01,1.792484641075134277e+00,2.869022846221923828e+00,4.807454586029052734e+00,2.777145624160766602e+00,3.324804067611694336e+00,2.644725084304809570e+00,6.337657928466796875e+00,3.286076068878173828e+00,1.778233408927917480e+00,1.819777488708496094e-01,2.143551111221313477e+00,-3.231451511383056641e+00,-4.616727352142333984e+00,-1.109949111938476562e+00,3.615672826766967773e+00,-1.040900573134422302e-01,-5.275127887725830078e-01,-8.549549579620361328e-01,2.623246014118194580e-01,-1.097667932510375977e+00
2.770533323287963867e+00,3.870193958282470703e+00,2.968749523162841797e+00,3.021526575088500977e+00,-1.071609139442443848e+00,3.977694749832153320e+00,7.758366107940673828e+00,7.828164100646972656e+00,5.612333774566650391e+00,3.227964401245117188e+00,6.268620967864990234e+00,6.176906108856201172e+00,1.685477972030639648e+00,6.287850141525268555e-01,-4.687466025352478027e-01,1.640469580888748169e-01,1.117168903350830078e+00,5.948641300201416016e+00,9.153321266174316406e+00,1.787107825279235840e+00,-2.133890390396118164e+00,-6.480625867843627930e-01,3.140549898147583008e+00,-4.301882743835449219e+00,-8.896113395690917969e+00,-7.477404594421386719e+00,-1.828026473522186279e-01,-7.654902935028076172e-01,-1.395144015550613403e-01,-5.435361385345458984e+00,-1.125236225128173828e+01,-1.984052658081054688e+01
6.370239257812500000e+00,-1.720929026603698730e+00,-9.687093734741210938e+00,-1.034161090850830078e+01,-2.831651687622070312e+00,2.352821826934814453e+00,7.701561450958251953e+00,5.601496696472167969e+00,1.348658680915832520e+00,-7.310122996568679810e-02,4.727457046508789062e+00,3.596132040023803711e+00,6.028731822967529297e+00,7.335722923278808594e+00,3.990818500518798828e+00,-6.015635132789611816e-01,4.497735023498535156e+00,9.273836135864257812e+00,8.900808334350585938e+00,7.775084972381591797e+00,6.934659004211425781e+00,8.213070869445800781e+00,3.580203771591186523e+00,1.027305126190185547e+01,8.944059371948242188e+00,5.418804645538330078e+00,1.831179618835449219e+00,4.786876678466796875e+00,7.332633972167968750e+00,3.204804182052612305e+00,-2.617320060729980469e+00,-1.546257305145263672e+01
5.215629100799560547e+00,-8.617122650146484375e+00,-1.030951690673828125e+01,-1.097002315521240234e+01,-4.253848075866699219e+00,-3.843920469284057617e+00,-2.329332113265991211e+00,-3.136713266372680664e+00,-6.888675689697265625e-01,2.794329881668090820e+00,2.684082984924316406e+00,7.139672040939331055e-01,6.962184906005859375e+00,9.379316329956054688e+00,1.021841239929199219e+01,3.921402692794799805e+00,6.600872993469238281e+00,5.235425472259521484e+00,5.349120616912841797e+00,5.501425266265869141e+00,8.535582542419433594e+00,9.418889999389648438e+00,2.627873897552490234e+00,1.249400711059570312e+01,1.386639690399169922e+01,7.883957862854003906e+00,-1.351940274238586426e+00,1.061238169670104980e+00,3.341447114944458008e+00,3.427099704742431641e+00,5.708594322204589844e+00,3.770647764205932617e+00
-1.808404803276062012e+00,-9.361253738403320312e+00,-3.840932130813598633e+00,-4.595164299011230469e+00,-7.374358177185058594e+00,-6.944237709045410156e+00,-5.419093132019042969e+00,-5.661219596862792969e+00,-4.976254940032958984e+00,-1.268376708030700684e+00,-1.589678645133972168e+00,7.228530645370483398e-01,-3.909440338611602783e-01,1.010986208915710449e+00,3.661851882934570312e+00,3.123638153076171875e+00,1.732495903968811035e+00,5.460143089294433594e-01,3.557423830032348633e+00,-1.306093215942382812e+00,-6.593774557113647461e-01,-1.317399382591247559e+00,-2.718766450881958008e+00,-3.573800563812255859e+00,-3.306482076644897461e+00,-6.824719429016113281e+00,-8.897894859313964844e+00,-8.289027214050292969e+00,-7.441070079803466797e+00,-6.383017063140869141e+00,-4.540906906127929688e+00,-9.253770828247070312e+00
-2.996237039566040039e+00,-2.878414869308471680e+00,-3.486658334732055664e+00,-4.679465293884277344e+00,-5.168706893920898438e+00,-3.146024227142333984e+00,-2.600263833999633789e+00,-3.468106269836425781e+00,-7.825045108795166016e+00,-7.296233177185058594e+00,-5.870913028717041016e+00,-1.898362517356872559e+00,-7.477938175201416016e+00,-4.408479213714599609e+00,-2.617318630218505859e+00,-1.304387688636779785e+00,-1.747350215911865234e+00,1.828822016716003418e+00,5.664026260375976562e+00,2.275297403335571289e+00,6.861627101898193359e-01,-2.879643440246582031e+00,-3.271385192871093750e+00,-4.988914012908935547e+00,-5.920703411102294922e+00,-6.692954063415527344e+00,-5.870224475860595703e+00,-4.328292369842529297e+00,-4.173322200775146484e+00,-4.445405006408691406e+00,-8.499072074890136719e+00,-2.087987899780273438e+01
-4.036973476409912109e+00,3.714904546737670898e+00,-2.546421289443969727e+00,-5.575868129730224609e+00,-2.381602525711059570e+00,-7.160182595252990723e-01,-4.774599075317382812e+00,-4.958925247192382812e+00,-4.505577564239501953e+00,-3.833160877227783203e+00,-6.020298480987548828e+00,-6.116831779479980469e+00,-7.683889389038085938e+00,-4.095417499542236328e+00,-3.996904194355010986e-01,-4.020993709564208984e+00,-5.197330474853515625e+00,-4.210964202880859375e+00,-1.534284710884094238e+00,-3.533228397369384766e+00,-1.031783938407897949e+00,-2.168974637985229492e+00,-3.384394407272338867e+00,1.503180980682373047e+00,2.641815900802612305e+00,1.279020071029663086e+00,-1.408880233764648438e+00,7.630742192268371582e-01,2.447731256484985352e+00,3.178969383239746094e+00,2.325910091400146484e+00,-2.537281990051269531e+00
-1.164631938934326172e+01,9.829823374748229980e-01,-2.011599302291870117e+00,-2.748180866241455078e+00,-3.477826595306396484e+00,-2.828061103820800781e+00,-7.486773490905761719e+00,-7.609276294708251953e+00,-5.105675220489501953e+00,-4.907435417175292969e+00,-7.220868110656738281e+00,-8.721875190734863281e+00,-5.701770305633544922e+00,-2.610950231552124023e+00,-3.477221727371215820e-01,-7.858503818511962891e+00,-1.030519485473632812e+01,-1.159731292724609375e+01,-9.574992179870605469e+00,-1.336257362365722656e+01,-1.023398685455322266e+01,-9.843503952026367188e+00,-8.707553863525390625e+00,-6.584897518157958984e+00,-4.730867385864257812e+00,-4.633991718292236328e+00,-5.640709400177001953e+00,-5.171198368072509766e+00,-2.056505918502807617e+00,-4.108014702796936035e-01,1.749605417251586914e+00,7.585414886474609375e+00
-7.875963211059570312e+00,-1.985463023185729980e+00,-7.158276438713073730e-01,2.380434036254882812e+00,1.458491563796997070e+00,1.223934516310691833e-01,-2.028193950653076172e+00,-2.761346101760864258e+00,-6.519514083862304688e+00,-6.135648250579833984e+00,-4.688790798187255859e+00,-3.907780885696411133e+00,-2.909212827682495117e+00,9.187563061714172363e-01,1.525725722312927246e+00,-3.827104330062866211e+00,-3.151253938674926758e+00,-1.440802693367004395e+00,7.070238590240478516e-01,-2.974349975585937500e+00,-4.597986221313476562e+00,-7.302167892456054688e+00,-4.437749862670898438e+00,-8.967356681823730469e+00,-9.859690666198730469e+00,-4.833295345306396484e+00,3.002556972205638885e-03,-2.258194684982299805e+00,-3.102883815765380859e+00,-5.198777675628662109e+00,-5.954976558685302734e+00,5.562859058380126953e+00
1.695081591606140137e+00,-4.875676631927490234e+00,-4.182593822479248047e+00,-2.032727718353271484e+00,4.137348651885986328e+00,2.049529314041137695e+00,3.947271347045898438e+00,3.752341508865356445e+00,1.046968340873718262e+00,1.735775351524353027e+00,1.481747150421142578e+00,2.409850120544433594e+00,1.308382987976074219e+00,4.619540691375732422e+00,8.298746109008789062e+00,6.092824459075927734e+00,6.747700691223144531e+00,7.447253704071044922e+00,1.025854301452636719e+01,4.086800575256347656e+00,9.096756577491760254e-01,-1.512009352445602417e-01,2.736042499542236328e+00,-9.797804951667785645e-01,-1.908676028251647949e+00,4.317109882831573486e-01,3.500896692276000977e+00,1.554983615875244141e+00,-2.932108640670776367e+00,-7.476931571960449219e+00,-1.028050136566162109e+01,-5.436604022979736328e+00
-5.664631366729736328e+00,-1.044741344451904297e+01,-1.120138072967529297e+01,-1.171931266784667969e+01,-7.342511653900146484e+00,-6.658097743988037109e+00,-1.547693312168121338e-01,2.574575543403625488e-01,1.696172595024108887e+00,9.248552322387695312e-01,-1.366660833358764648e+00,-1.752079486846923828e+00,1.573700159788131714e-01,2.185070514678955078e+00,3.857661724090576172e+00,8.184910416603088379e-01,1.045204997062683105e-01,-1.851034164428710938e+00,4.461179673671722412e-01,-6.346631526947021484e+00,-8.009679794311523438e+00,-7.992169380187988281e+00,-6.347590923309326172e+00,-1.564557790756225586e+00,1.884925842285156250e+00,-2.664641141891479492e+00,-7.239919185638427734e+00,-6.700531959533691406e+00,-8.594214439392089844e+00,-9.879822731018066406e+00,-1.094849109649658203e+01,-2.001233100891113281e+01
-1.569437789916992188e+01,-1.992615509033203125e+01,-2.310331344604492188e+01,-2.267362785339355469e+01,-1.748403549194335938e+01,-1.710373115539550781e+01,-1.255639457702636719e+01,-1.055972194671630859e+01,-8.689235687255859375e+00,-7.263496398925781250e+00,-9.810853958129882812e+00,-1.226721572875976562e+01,-1.033657169342041016e+01,-5.154783248901367188e+00,-5.263689994812011719e+00,-9.187200546264648438e+00,-9.024481773376464844e+00,-9.455343246459960938e+00,-7.211452007293701172e+00,-9.159585952758789062e+00,-1.157997894287109375e+01,-1.372159481048583984e+01,-1.420967197418212891e+01,-1.009115314483642578e+01,-6.934691429138183594e+00,-9.931306838989257812e+00,-1.406542301177978516e+01,-1.267183113098144531e+01,-1.329715538024902344e+01,-1.095535087585449219e+01,-1.345649433135986328e+01,-3.038725280761718750e+01
-6.488547801971435547e+00,-1.976281166076660156e+01,-2.117402648925781250e+01,-1.822164535522460938e+01,-8.587811470031738281e+00,-1.150131416320800781e+01,-1.446456813812255859e+01,-1.122764682769775391e+01,-8.983272552490234375e+00,-3.467635869979858398e+00,-8.620820045471191406e+00,-8.718305587768554688e+00,-1.199058151245117188e+01,-6.932605743408203125e+00,-4.083106040954589844e+00,-3.341889619827270508e+00,-4.533277988433837891e+00,-3.729087829589843750e+00,-2.569404602050781250e+00,-2.828142404556274414e+00,-5.485343933105468750e+00,-4.203585147857666016e+00,-5.362734794616699219e+00,-9.776391983032226562e+00,-1.038871860504150391e+01,-1.019954395294189453e+01,-9.343493461608886719e+00,-8.310946464538574219e+00,-1.072277736663818359e+01,-9.449232101440429688e+00,-1.201694488525390625e+01,-1.706799316406250000e+01
-9.082291722297668457e-01,-2.171680831909179688e+01,-2.203371810913085938e+01,-1.726064109802246094e+01,-7.379557609558105469e+00,-7.802266597747802734e+00,-8.604435920715332031e+00,-6.227164745330810547e+00,-4.951616764068603516e+00,-9.594628214836120605e-02,-3.116953611373901367e+00,-2.079412639141082764e-01,-3.085119009017944336e+00,-3.542489767074584961e+00,-2.157573461532592773e+00,-1.104033887386322021e-01,-3.576027154922485352e-01,-1.591178417205810547e+00,-1.715104103088378906e+00,-3.916889905929565430e+00,-4.300179958343505859e+00,-2.996791839599609375e+00,-2.970920801162719727e+00,-8.089682579040527344e+00,-9.751513481140136719e+00,-1.210471534729003906e+01,-1.182360744476318359e+01,-8.401413917541503906e+00,-1.217652320861816406e+01,-1.484208488464355469e+01,-1.738637733459472656e+01,-1.649582862854003906e+01
-3.339790821075439453e+00,-1.482471942901611328e+01,-1.917424201965332031e+01,-1.671052169799804688e+01,-1.005621623992919922e+01,-8.698313713073730469e+00,-3.349270343780517578e+00,-2.689476251602172852e+00,-2.968799114227294922e+00,-2.795960903167724609e+00,-1.835692524909973145e+00,-2.757852315902709961e+00,-5.804339647293090820e-01,-9.418774843215942383e-01,-3.397590398788452148e+00,-4.854475975036621094e+00,-1.533124208450317383e+00,-2.295746564865112305e+00,-2.197261810302734375e+00,-3.630839109420776367e+00,-3.363587141036987305e+00,-4.942316532135009766e+00,-4.413784503936767578e+00,-9.788040161132812500e+00,-1.277813529968261719e+01,-1.296140861511230469e+01,-1.104228115081787109e+01,-6.432662010192871094e+00,-9.352182388305664062e+00,-1.126004314422607422e+01,-1.296682739257812500e+01,-7.286813259124755859e+00
1.771616220474243164e+00,2.282460629940032959e-01,-2.173568964004516602e+00,-4.412486076354980469e+00,-2.131265163421630859e+00,-3.949631690979003906e+00,-2.174121141433715820e+00,-6.347464025020599365e-02,3.953865528106689453e+00,5.584110260009765625e+00,2.809314727783203125e+00,-8.456240296363830566e-01,6.314166188240051270e-01,2.688370227813720703e+00,8.252103328704833984e-01,-6.114879846572875977e-01,1.019024178385734558e-01,2.581106185913085938e+00,6.861129999160766602e-01,1.613740801811218262e+00,4.137143135070800781e+00,4.697089195251464844e+00,4.979707717895507812e+00,1.281409025192260742e+00,-1.801916360855102539e+00,4.670118987560272217e-01,2.989960193634033203e+00,4.172084331512451172e+00,1.600634455680847168e+00,1.295007944107055664e+00,1.287087798118591309e+00,6.946422100067138672e+00
8.464855194091796875e+00,6.779564857482910156e+00,1.008121395111083984e+01,9.303788185119628906e+00,9.033679008483886719e+00,4.392070293426513672e+00,1.227866888046264648e+00,2.465109348297119141e+00,6.720925331115722656e+00,8.542358398437500000e+00,4.816829681396484375e+00,3.751008987426757812e+00,3.567179918289184570e+00,2.351475000381469727e+00,9.469027519226074219e-01,9.747976064682006836e-01,-6.343719959259033203e-01,7.228575944900512695e-01,-3.573945045471191406e+00,-7.228888869285583496e-01,6.125734329223632812e+00,1.009098052978515625e+01,1.030613327026367188e+01,1.204290866851806641e+01,8.586769104003906250e+00,8.465139389038085938e+00,6.751486778259277344e+00,8.829486846923828125e+00,5.705510139465332031e+00,4.261732101440429688e+00,5.324183940887451172e+00,2.007223320007324219e+01
8.364243507385253906e+00,1.349098205566406250e+01,1.875473785400390625e+01,1.862098503112792969e+01,1.414999008178710938e+01,9.681385993957519531e+00,1.015742111206054688e+01,6.329594135284423828e+00,3.407095193862915039e+00,-3.051835536956787109e+00,-1.246538281440734863e+00,3.008789122104644775e-01,-2.940590143203735352e+00,-5.901542186737060547e+00,-7.526160717010498047e+00,-6.996873855590820312e+00,-6.604352951049804688e+00,-8.143553733825683594e+00,-9.858785629272460938e+00,-5.902559757232666016e+00,2.057246208190917969e+00,6.908712387084960938e+00,5.049984455108642578e+00,3.094387054443359375e+00,-2.776034355163574219e+00,-1.255198121070861816e+00,5.892886519432067871e-01,5.577334880828857422e+00,4.715259552001953125e+00,6.011838436126708984e+00,7.801342487335205078e+00,3.498960494995117188e+01
1.068530845642089844e+01,2.925155639648437500e+01,3.065531158447265625e+01,2.743464469909667969e+01,1.987111663818359375e+01,1.650762557983398438e+01,1.340239810943603516e+01,8.707657814025878906e+00,6.068001270294189453e+00,1.171620130538940430e+00,4.261955261230468750e+00,6.831934928894042969e+00,3.041519522666931152e-01,3.012246191501617432e-01,-4.270184934139251709e-01,1.246728777885437012e+00,-8.839844167232513428e-02,-2.109922617673873901e-01,-7.489003539085388184e-01,1.934450387954711914e+00,7.234582901000976562e+00,1.269611930847167969e+01,1.055113315582275391e+01,6.886220932006835938e+00,4.871222019195556641e+00,8.119549751281738281e+00,1.214407825469970703e+01,1.194951248168945312e+01,1.543018245697021484e+01,2.050962829589843750e+01,2.549929046630859375e+01,4.876693344116210938e+01
1.323202228546142578e+01,3.547306060791015625e+01,3.764521789550781250e+01,3.390381622314453125e+01,2.160468673706054688e+01,2.029317092895507812e+01,1.048434448242187500e+01,8.944117546081542969e+00,1.109379482269287109e+01,1.433207321166992188e+01,1.466153907775878906e+01,1.503494167327880859e+01,1.306667804718017578e+01,1.302006816864013672e+01,1.157058143615722656e+01,1.237282562255859375e+01,1.064302730560302734e+01,1.367989158630371094e+01,1.123839473724365234e+01,1.428614997863769531e+01,1.440080833435058594e+01,1.665933990478515625e+01,1.678939247131347656e+01,2.281697082519531250e+01,2.460229682922363281e+01,2.342930984497070312e+01,2.032385253906250000e+01,1.826386451721191406e+01,2.395769691467285156e+01,2.437598991394042969e+01,3.152742576599121094e+01,4.773766708374023438e+01
8.471098899841308594e+00,8.928226470947265625e+00,1.139510059356689453e+01,1.021704483032226562e+01,5.201227664947509766e+00,6.473818302154541016e+00,6.737870216369628906e+00,5.347213268280029297e+00,6.124179840087890625e+00,9.352873802185058594e+00,8.998739242553710938e+00,6.703628063201904297e+00,1.095323657989501953e+01,1.008656978607177734e+01,8.866233825683593750e+00,8.215335845947265625e+00,1.116362571716308594e+01,1.294266128540039062e+01,1.305013370513916016e+01,1.404644584655761719e+01,8.845104217529296875e+00,4.935935020446777344e+00,5.842868328094482422e+00,1.097564983367919922e+01,1.245509433746337891e+01,8.496745109558105469e+00,5.294523239135742188e+00,9.349209785461425781e+00,9.044013023376464844e+00,3.674724817276000977e+00,3.218110561370849609e+00,1.135476589202880859e+01
6.278666019439697266e+00,9.189662933349609375e+00,1.005134868621826172e+01,7.136375427246093750e+00,2.208627939224243164e+00,3.723144769668579102e+00,9.744807243347167969e+00,5.638679981231689453e+00,2.621006011962890625e+00,-5.714059472084045410e-01,5.015769004821777344e+00,7.411045551300048828e+00,8.866297721862792969e+00,4.683242797851562500e+00,3.616096735000610352e+00,1.020875930786132812e+01,1.328140449523925781e+01,1.070930194854736328e+01,8.172827720642089844e+00,7.198188781738281250e+00,5.750594139099121094e+00,6.066421508789062500e+00,8.071149826049804688e+00,-2.686599731445312500e+00,-5.221571445465087891e+00,-8.111212849617004395e-01,9.420402526855468750e+00,9.905081748962402344e+00,5.135187625885009766e+00,9.056137502193450928e-02,3.120322942733764648e+00,2.775316238403320312e+01
3.869634628295898438e+00,2.314521598815917969e+01,2.576873588562011719e+01,2.226706314086914062e+01,8.895050048828125000e+00,9.372868537902832031e+00,8.247139930725097656e+00,6.878893375396728516e+00,1.536672949790954590e+00,-1.232470512390136719e+00,4.765046119689941406e+00,1.306508731842041016e+01,1.041611576080322266e+01,5.220142364501953125e+00,1.820841431617736816e+00,1.126381778717041016e+01,1.149369716644287109e+01,9.158549308776855469e+00,1.475023984909057617e+00,4.494088649749755859e+00,6.284948348999023438e+00,9.821433067321777344e+00,1.096874237060546875e+01,8.135612487792968750e+00,7.223806381225585938e+00,8.907208442687988281e+00,1.269668674468994141e+01,8.286983489990234375e+00,9.321907043457031250e+00,1.241832065582275391e+01,2.476881408691406250e+01,3.535665130615234375e+01
5.502642989158630371e-01,1.615661239624023438e+01,2.112489509582519531e+01,2.090052604675292969e+01,9.677032470703125000e+00,8.170166969299316406e+00,3.485815525054931641e+00,3.518430948257446289e+00,-4.707281589508056641e-01,1.940641403198242188e+00,4.720528602600097656e+00,7.491162300109863281e+00,7.519494056701660156e+00,5.724482059478759766e+00,5.001158714294433594e-01,1.174874663352966309e+00,2.428845643997192383e+00,2.734311342239379883e+00,-4.647721052169799805e-01,4.634733200073242188e+00,3.168459892272949219e+00,1.864261269569396973e+00,2.636921882629394531e+00,1.207705211639404297e+01,1.529407787322998047e+01,1.051449298858642578e+01,4.847144126892089844e+00,2.854992628097534180e+00,1.039398956298828125e+01,1.354504394531250000e+01,1.804483604431152344e+01,1.435771083831787109e+01
1.311546683311462402e+00,3.340498447418212891e+00,6.132740974426269531e+00,5.560936450958251953e+00,3.216369867324829102e+00,3.808570146560668945e+00,2.980094194412231445e+00,-1.718983203172683716e-01,1.689138770103454590e+00,4.848818302154541016e+00,5.214975357055664062e+00,3.668348491191864014e-01,3.015528678894042969e+00,3.745705127716064453e+00,2.829093217849731445e+00,-7.753691077232360840e-02,-6.505047678947448730e-01,6.550245881080627441e-01,2.197305917739868164e+00,3.595662832260131836e+00,-2.033739723265171051e-02,-3.020470857620239258e+00,-2.407118558883666992e+00,-3.308772742748260498e-01,6.602544337511062622e-02,1.365510106086730957e+00,2.693146228790283203e+00,3.504418134689331055e+00,6.707434177398681641e+00,2.467582941055297852e+00,-2.188063859939575195e+00,-5.983160138130187988e-01
5.793127059936523438e+00,7.278247356414794922e+00,2.582517147064208984e+00,8.340044021606445312e-01,4.125203132629394531e+00,8.132128715515136719e+00,7.613444328308105469e+00,4.197975635528564453e+00,5.728050231933593750e+00,2.719962596893310547e+00,2.714895248413085938e+00,-1.457003355026245117e-01,-9.343805909156799316e-01,3.269832432270050049e-01,3.467493772506713867e+00,6.142297267913818359e+00,3.204879045486450195e+00,2.954023361206054688e+00,4.011827468872070312e+00,5.580616950988769531e+00,3.955125093460083008e+00,2.015552997589111328e+00,4.210420548915863037e-01,4.221251010894775391e+00,7.208380222320556641e+00,6.269773483276367188e+00,3.982120275497436523e+00,4.893555641174316406e+00,2.436750411987304688e+00,3.035827636718750000e+00,6.146956920623779297e+00,3.060826539993286133e+00
3.774262905120849609e+00,1.500256824493408203e+01,8.827877998352050781e+00,8.307358741760253906e+00,6.871970176696777344e+00,9.532630920410156250e+00,6.818651676177978516e+00,7.067512035369873047e+00,5.753526687622070312e+00,-2.183899879455566406e+00,-2.705267429351806641e+00,-4.434881687164306641e+00,-7.903631687164306641e+00,-6.839092731475830078e+00,-6.065661430358886719e+00,-7.990918159484863281e-01,-1.911423683166503906e+00,-1.103888273239135742e+00,7.222899794578552246e-01,6.407884120941162109e+00,5.671677589416503906e+00,3.245388746261596680e+00,1.306544899940490723e+00,5.682116031646728516e+00,8.940661430358886719e+00,7.521370410919189453e+00,2.808031320571899414e+00,1.241476178169250488e+00,2.433298110961914062e+00,5.514935970306396484e+00,5.274118900299072266e+00,-2.027977943420410156e+00
-5.836145281791687012e-01,6.070408821105957031e+00,2.640080213546752930e+00,2.944258689880371094e+00,3.425465583801269531e+00,2.482021093368530273e+00,9.681487679481506348e-01,4.554475307464599609e+00,5.868288516998291016e+00,-3.666630506515502930e+00,-6.124194622039794922e+00,-7.070093631744384766e+00,-7.101138591766357422e+00,-7.569720745086669922e+00,-8.680476188659667969e+00,-9.295217514038085938e+00,-8.925885200500488281e+00,-6.860427856445312500e+00,-3.765063047409057617e+00,6.854190230369567871e-01,-2.538754343986511230e-01,-9.228973649442195892e-03,-1.214638590812683105e+00,-8.887956619262695312e+00,-1.038707637786865234e+01,-4.497055053710937500e+00,4.171412438154220581e-02,-2.053750991821289062e+00,5.679701328277587891e+00,1.962802171707153320e+00,-1.353811168670654297e+01,-1.323002624511718750e+01
-3.715553283691406250e+00,-2.483395576477050781e+00,-3.277006864547729492e+00,-5.105826854705810547e+00,-3.227677583694458008e+00,-1.120281815528869629e+00,-3.741883993148803711e+00,-2.188608407974243164e+00,1.503581106662750244e-01,-2.955854415893554688e+00,-5.225108146667480469e+00,-2.454817771911621094e+00,1.176675438880920410e+00,1.465522885322570801e+00,1.829061031341552734e+00,-2.761884450912475586e+00,-1.082355380058288574e+00,-2.668893337249755859e+00,-1.436687588691711426e+00,-2.198753833770751953e+00,-1.580604553222656250e+00,1.192506998777389526e-01,-9.352054595947265625e-01,-8.066142082214355469e+00,-7.513629913330078125e+00,-5.287308692932128906e+00,-4.279640674591064453e+00,-6.199809074401855469e+00,-2.059887200593948364e-01,-1.187453627586364746e+00,-1.135389995574951172e+01,-1.584591770172119141e+01
-8.614534378051757812e+00,-1.301640033721923828e+01,-8.830988883972167969e+00,-1.013147449493408203e+01,-1.298660469055175781e+01,-7.997247219085693359e+00,-9.412341117858886719e+00,-9.230813980102539062e+00,-8.876999855041503906e+00,-4.002792835235595703e+00,-6.167178153991699219e+00,-5.434666633605957031e+00,-2.377233982086181641e+00,1.526519656181335449e-01,4.342710673809051514e-01,-1.970153450965881348e+00,2.838592603802680969e-02,-1.403987765312194824e+00,-1.147219777107238770e+00,-3.730310678482055664e+00,-3.220748662948608398e+00,-3.851910591125488281e+00,-5.475045680999755859e+00,-4.784119129180908203e+00,-4.190675616264343262e-01,-2.970810174942016602e+00,-9.633361816406250000e+00,-1.365063858032226562e+01,-1.541839790344238281e+01,-7.737103462219238281e+00,-2.653433561325073242e+00,-1.950728225708007812e+01
-1.193879890441894531e+01,-2.395594024658203125e+01,-1.898254203796386719e+01,-1.664238739013671875e+01,-1.949680328369140625e+01,-1.833510017395019531e+01,-1.497617244720458984e+01,-1.004971694946289062e+01,-9.243584632873535156e+00,-8.277886390686035156e+00,-1.058080196380615234e+01,-1.229691123962402344e+01,-1.166874504089355469e+01,-1.098084354400634766e+01,-1.128119373321533203e+01,-1.034655952453613281e+01,-1.037477302551269531e+01,-9.105257987976074219e+00,-9.005248069763183594e+00,-1.012259960174560547e+01,-1.034420394897460938e+01,-9.488697052001953125e+00,-1.143342590332031250e+01,-1.219063472747802734e+01,-1.142179775238037109e+01,-9.779999732971191406e+00,-9.155533790588378906e+00,-1.216527080535888672e+01,-1.640797615051269531e+01,-1.171367931365966797e+01,-8.543071746826171875e+00,-2.550018692016601562e+01
-5.253253936767578125e+00,-2.092101669311523438e+01,-2.335494422912597656e+01,-1.865431213378906250e+01,-9.972378730773925781e+00,-1.248884582519531250e+01,-1.255948638916015625e+01,-8.496266365051269531e+00,-6.908873081207275391e+00,-8.866971015930175781e+00,-9.108390808105468750e+00,-8.130453109741210938e+00,-8.223169326782226562e+00,-9.600383758544921875e+00,-8.415622711181640625e+00,-6.283708572387695312e+00,-6.613740921020507812e+00,-5.678867340087890625e+00,-6.870805263519287109e+00,-5.807286262512207031e+00,-4.565891265869140625e+00,-2.487561225891113281e+00,-3.786244630813598633e+00,-1.721126198768615723e+00,-1.355571866035461426e+00,-7.608729600906372070e-01,1.049999356269836426e+00,-1.123941898345947266e+00,-4.345821857452392578e+00,-5.375253200531005859e+00,-7.546743392944335938e+00,-2.074615478515625000e+01
4.373606681823730469e+00,-9.597925186157226562e+00,-1.033167266845703125e+01,-9.146208763122558594e+00,-2.334853172302246094e+00,-9.095410108566284180e-01,-2.423888206481933594e+00,-3.920130252838134766e+00,-3.766788721084594727e+00,1.478193283081054688e+00,2.016560077667236328e+00,3.488529920578002930e+00,3.977343559265136719e+00,3.197188138961791992e+00,2.777034521102905273e+00,4.098502159118652344e+00,6.795641422271728516e+00,7.764039993286132812e+00,4.585107803344726562e+00,5.012382030487060547e+00,6.844354152679443359e+00,8.684375762939453125e+00,7.153171062469482422e+00,1.095881843566894531e+01,1.312786483764648438e+01,1.158998012542724609e+01,8.393662452697753906e+00,5.710675716400146484e+00,-3.115775287151336670e-01,-5.774627923965454102e-01,-5.754285305738449097e-02,-3.576502561569213867e+00
2.910152435302734375e+00,-1.805122566223144531e+01,-1.563489913940429688e+01,-1.478690147399902344e+01,-1.085291481018066406e+01,-6.375850677490234375e+00,2.168310642242431641e+00,3.667413949966430664e+00,1.968819856643676758e+00,6.072786331176757812e+00,6.696599006652832031e+00,8.750650405883789062e+00,8.599009513854980469e+00,6.753653049468994141e+00,3.690178155899047852e+00,6.105113029479980469e+00,9.197535514831542969e+00,1.040717792510986328e+01,5.208838462829589844e+00,2.823730945587158203e+00,3.278529882431030273e+00,6.921116352081298828e+00,4.875666141510009766e+00,-1.027181863784790039e+00,-3.935088396072387695e+00,-2.036449432373046875e+00,1.973650574684143066e+00,2.338566780090332031e+00,-6.401003360748291016e+00,-8.361323356628417969e+00,-9.189103126525878906e+00,-1.846750259399414062e+01
-3.120939731597900391e+00,-2.214920425415039062e+01,-2.520619583129882812e+01,-1.996839904785156250e+01,-9.778270721435546875e+00,-9.394371986389160156e+00,-1.884750366210937500e+00,2.292814493179321289e+00,-1.454415321350097656e+00,-3.536751270294189453e+00,-4.646998941898345947e-01,3.786312103271484375e+00,2.880690574645996094e+00,1.770356774330139160e+00,1.452601194381713867e+00,3.661647558212280273e+00,4.229474544525146484e+00,5.029646873474121094e+00,3.362230777740478516e+00,-5.241538882255554199e-01,-3.347249746322631836e+00,-2.016090393066406250e+00,-1.483015656471252441e+00,-2.756728887557983398e+00,-6.618438720703125000e+00,-8.481401443481445312e+00,-6.080649375915527344e+00,-2.359823703765869141e+00,-5.511548042297363281e+00,-7.720926284790039062e+00,-1.148512363433837891e+01,-3.358164978027343750e+01
-2.739106178283691406e+00,-1.254440975189208984e+01,-2.033203697204589844e+01,-1.486160564422607422e+01,-3.333147764205932617e+00,-4.921160221099853516e+00,-9.212977409362792969e+00,-7.893099784851074219e+00,-1.031700229644775391e+01,-7.203505992889404297e+00,-5.163030147552490234e+00,-3.393931388854980469e+00,-3.547717094421386719e+00,-1.096791625022888184e+00,1.982282400131225586e+00,5.007784366607666016e-01,8.990106582641601562e-01,1.197017550468444824e+00,6.407268047332763672e+00,3.432727098464965820e+00,-3.556474924087524414e+00,-8.881568908691406250e+00,-6.334489822387695312e+00,5.144878864288330078e+00,8.975331306457519531e+00,3.350906133651733398e+00,-5.903251171112060547e+00,-5.234150886535644531e+00,-3.627688646316528320e+00,-2.600001335144042969e+00,-6.080309867858886719e+00,-2.937463951110839844e+01
-3.717172145843505859e+00,-9.149371147155761719e+00,-1.455955505371093750e+01,-1.419085788726806641e+01,-9.360301971435546875e+00,-7.619123935699462891e+00,-9.279749870300292969e+00,-6.910156250000000000e+00,-4.917676925659179688e+00,1.573453396558761597e-01,-3.056862831115722656e+00,-5.662522315979003906e+00,-5.312382698059082031e+00,-3.949842691421508789e+00,-8.932628035545349121e-01,-4.826439380645751953e+00,-5.503902435302734375e+00,-5.543319702148437500e+00,6.777632832527160645e-01,4.215876460075378418e-01,-5.982372283935546875e+00,-1.260989570617675781e+01,-1.219530487060546875e+01,-7.587262630462646484e+00,-2.600780248641967773e+00,-3.110355854034423828e+00,-6.628723144531250000e+00,-8.813114166259765625e+00,-9.537881851196289062e+00,-8.891636848449707031e+00,-1.191495037078857422e+01,-2.329340934753417969e+01
-7.011890411376953125e+00,-1.046018600463867188e+01,-1.209054088592529297e+01,-1.386180973052978516e+01,-1.260509967803955078e+01,-1.027946949005126953e+01,-1.320596814155578613e+00,1.419118762016296387e+00,2.271385431289672852e+00,8.216645568609237671e-02,-4.450199306011199951e-01,-4.171924591064453125e+00,-6.252640724182128906e+00,-7.257218360900878906e+00,-2.545273542404174805e+00,-5.829881191253662109e+00,-8.768630981445312500e+00,-1.066764068603515625e+01,-5.188783168792724609e+00,-3.003289461135864258e+00,-5.526124477386474609e+00,-1.039049530029296875e+01,-1.329938411712646484e+01,-1.393223571777343750e+01,-1.295761585235595703e+01,-1.291808319091796875e+01,-1.199894046783447266e+01,-1.213389682769775391e+01,-1.265155792236328125e+01,-1.200583934783935547e+01,-1.363426685333251953e+01,-1.983859062194824219e+01
-7.234395503997802734e+00,-7.823391914367675781e+00,-4.990845680236816406e+00,-4.564338684082031250e+00,-3.826048612594604492e+00,-5.107708930969238281e+00,1.085146188735961914e+00,5.993294119834899902e-01,-1.928796052932739258e+00,-4.034773826599121094e+00,-2.740439653396606445e+00,-6.763338565826416016e+00,-7.907050609588623047e+00,-3.691932201385498047e+00,1.807080030441284180e+00,-4.536446571350097656e+00,-7.394156932830810547e+00,-8.457831382751464844e+00,-1.256807684898376465e+00,1.160615682601928711e+00,-1.343685507774353027e+00,-6.105900287628173828e+00,-8.619359970092773438e+00,-1.290370941162109375e+00,-7.649410963058471680e-01,-5.839300632476806641e+00,-1.307629871368408203e+01,-1.134103393554687500e+01,-7.722124099731445312e+00,-5.619607448577880859e+00,-5.982077121734619141e+00,-1.428351688385009766e+01
-8.855085372924804688e+00,-3.408033609390258789e+00,2.388706922531127930e+00,3.356389045715332031e+00,-1.208785653114318848e+00,-4.439130783081054688e+00,-6.822903633117675781e+00,-5.696516990661621094e+00,-4.812585830688476562e+00,-2.844841480255126953e+00,-6.864161491394042969e+00,-1.069575786590576172e+01,-8.112882614135742188e+00,-1.665519833564758301e+00,8.250199556350708008e-01,-6.995430946350097656e+00,-9.064128875732421875e+00,-8.321661949157714844e+00,-2.621176481246948242e+00,-3.287498474121093750e+00,-5.082213401794433594e+00,-6.720605850219726562e+00,-5.939795494079589844e+00,-4.097469329833984375e+00,-3.902696847915649414e+00,-6.111041545867919922e+00,-8.618959426879882812e+00,-8.412154197692871094e+00,-5.993884086608886719e+00,-6.658693313598632812e+00,-5.042829036712646484e+00,-6.509405970573425293e-01
-1.093623256683349609e+01,7.914701104164123535e-02,3.922792434692382812e+00,3.552780151367187500e+00,-3.072421312332153320e+00,-5.185377120971679688e+00,-7.881960391998291016e+00,-7.536240577697753906e+00,-3.990275144577026367e+00,-1.641039371490478516e+00,-3.603171586990356445e+00,-3.830342054367065430e+00,-4.983334541320800781e+00,-7.700871944427490234e+00,-7.399899005889892578e+00,-5.308112144470214844e+00,-7.059051036834716797e+00,-1.044003582000732422e+01,-9.127303123474121094e+00,-1.143465042114257812e+01,-9.855090141296386719e+00,-7.171145439147949219e+00,-3.889516592025756836e+00,-1.361492633819580078e+01,-1.700888824462890625e+01,-1.263795375823974609e+01,-2.702010631561279297e+00,-3.428777694702148438e+00,-6.105051040649414062e+00,-7.860347747802734375e+00,-2.141839981079101562e+00,1.246070194244384766e+01
-5.781478881835937500e+00,-2.025491476058959961e+00,-1.044559478759765625e+00,-2.042567253112792969e+00,-1.966198906302452087e-02,-6.124650239944458008e-01,-1.850482970476150513e-01,-4.903695583343505859e+00,-5.164893627166748047e+00,-1.510135889053344727e+00,1.618724584579467773e+00,4.021817207336425781e+00,7.888323813676834106e-02,-5.635542392730712891e+00,-6.349572658538818359e+00,-1.510341405868530273e+00,-1.140344142913818359e+00,-4.682291030883789062e+00,-3.753026485443115234e+00,-5.861043453216552734e+00,-6.321879863739013672e+00,-4.833934783935546875e+00,-1.275542497634887695e+00,-7.882681846618652344e+00,-1.217393302917480469e+01,-6.998881340026855469e+00,3.702739775180816650e-01,3.422649502754211426e-01,-1.701922535896301270e+00,-8.000512123107910156e-01,7.248422503471374512e-01,3.031229019165039062e+00
6.510096073150634766e+00,6.410217285156250000e+00,3.640814065933227539e+00,2.499564647674560547e+00,8.314085960388183594e+00,9.216982841491699219e+00,8.343904495239257812e+00,3.606974124908447266e+00,2.264195919036865234e+00,3.772874116897583008e+00,5.253945827484130859e+00,6.373785972595214844e+00,1.000403785705566406e+01,8.939855575561523438e+00,6.188823699951171875e+00,3.038620710372924805e+00,6.358056545257568359e+00,7.469855308532714844e+00,7.776464462280273438e+00,4.841556072235107422e+00,3.413937091827392578e+00,5.416305541992187500e+00,7.216062545776367188e+00,7.895274162292480469e+00,4.506558418273925781e+00,5.121728897094726562e+00,5.820929527282714844e+00,9.456533432006835938e+00,1.089186191558837891e+01,8.105534553527832031e+00,3.415853977203369141e+00,1.675739049911499023e+00
9.800653457641601562e+00,4.602348804473876953e+00,-4.961368560791015625e+00,-1.687603116035461426e+00,9.680988311767578125e+00,9.055022239685058594e+00,6.203393459320068359e+00,6.352606296539306641e+00,8.959230422973632812e+00,5.165883541107177734e+00,3.437213659286499023e+00,2.248597860336303711e+00,1.027225875854492188e+01,1.215306091308593750e+01,1.185666084289550781e+01,7.137656688690185547e+00,9.019099235534667969e+00,9.354187965393066406e+00,8.548662185668945312e+00,6.957356929779052734e+00,6.865114212036132812e+00,8.315732955932617188e+00,8.281136512756347656e+00,1.003347015380859375e+01,9.060288429260253906e+00,5.852249145507812500e+00,4.313429832458496094e+00,8.423907279968261719e+00,1.042745876312255859e+01,6.078947544097900391e+00,2.555290460586547852e+00,-1.247037887573242188e+00
5.736354351043701172e+00,-6.922294616699218750e+00,-1.716871261596679688e+01,-1.062006187438964844e+01,6.798767089843750000e+00,4.522643089294433594e+00,1.894985675811767578e+00,3.431223392486572266e+00,4.376835823059082031e+00,1.809863686561584473e+00,-7.108841836452484131e-02,3.341187834739685059e-01,7.886763811111450195e-01,2.314175844192504883e+00,5.755374908447265625e+00,4.670584201812744141e+00,2.651574611663818359e+00,1.732097387313842773e+00,4.582808494567871094e+00,3.513412714004516602e+00,1.481770724058151245e-01,-4.111431241035461426e-01,4.020773470401763916e-01,-2.872826576232910156e+00,-2.672050476074218750e+00,-2.409614562988281250e+00,-2.505170106887817383e+00,-2.005141973495483398e+00,1.456859707832336426e+00,1.005680322647094727e+00,-1.145058393478393555e+00,-5.693178176879882812e+00
7.144346237182617188e+00,-2.129306077957153320e+00,-4.993970394134521484e+00,-6.133951663970947266e+00,1.815323829650878906e+00,4.300036430358886719e+00,7.250640392303466797e+00,4.692039966583251953e+00,9.035467505455017090e-01,1.974966764450073242e+00,2.474919080734252930e+00,5.371721267700195312e+00,-2.615478336811065674e-01,-1.448647618293762207e+00,-1.720975786447525024e-01,2.690555095672607422e+00,6.386565566062927246e-01,1.474310636520385742e+00,3.279299974441528320e+00,-1.749280095100402832e+00,-6.146094322204589844e+00,-2.471632242202758789e+00,-2.970517575740814209e-01,-6.482424259185791016e+00,-9.217451095581054688e+00,-5.672968387603759766e+00,-3.592981338500976562e+00,-1.394127488136291504e+00,2.011581420898437500e+00,1.705319404602050781e+00,-2.609729528427124023e+00,-5.224139213562011719e+00
1.599482774734497070e+00,2.523300409317016602e+00,4.236266136169433594e+00,-1.917726635932922363e+00,-5.447998046875000000e+00,-1.381832122802734375e+00,6.917503356933593750e+00,4.059562683105468750e+00,1.571114063262939453e+00,-1.549956917762756348e+00,-9.310598969459533691e-01,-8.070198893547058105e-01,1.652916669845581055e+00,1.217796087265014648e+00,-7.568312883377075195e-01,-1.322509169578552246e+00,-1.848710060119628906e+00,-1.608850955963134766e+00,-3.514928102493286133e+00,-9.631230354309082031e+00,-1.164628887176513672e+01,-8.523030281066894531e+00,-7.490387439727783203e+00,-1.077293205261230469e+01,-1.152350044250488281e+01,-9.146322250366210938e+00,-9.920390129089355469e+00,-6.668320655822753906e+00,-4.602134227752685547e+00,-2.205853223800659180e+00,-6.502134799957275391e+00,-1.591594600677490234e+01
-2.626915693283081055e+00,-7.133989334106445312e+00,-9.235614776611328125e+00,-8.346412658691406250e+00,-4.895065784454345703e+00,-4.778099536895751953e+00,-1.550835251808166504e+00,-5.779764652252197266e-01,1.320895910263061523e+00,-2.988886117935180664e+00,-4.959070205688476562e+00,-7.595006942749023438e+00,2.347671985626220703e+00,5.673491001129150391e+00,4.686320304870605469e+00,-2.482484430074691772e-01,-1.420867681503295898e+00,-3.509455680847167969e+00,-4.506649971008300781e+00,-7.090167522430419922e+00,-9.907117843627929688e+00,-1.048163509368896484e+01,-9.115761756896972656e+00,-1.084382438659667969e+01,-1.074837017059326172e+01,-8.896763801574707031e+00,-9.258670806884765625e+00,-8.315473556518554688e+00,-7.019750595092773438e+00,-4.822210788726806641e+00,-1.041538238525390625e+01,-2.004585647583007812e+01
2.420368432998657227e+00,-1.150050830841064453e+01,-1.742350006103515625e+01,-1.287458229064941406e+01,3.186194300651550293e-01,1.125654112547636032e-02,-4.952236652374267578e+00,-3.363668441772460938e+00,-9.045158028602600098e-01,-4.056411981582641602e-01,-4.360170364379882812e+00,-4.034143447875976562e+00,1.845824956893920898e+00,4.331896305084228516e+00,4.642473697662353516e+00,2.515188455581665039e+00,2.740003585815429688e+00,2.138743162155151367e+00,2.180893182754516602e+00,-5.007211565971374512e-01,-3.473296642303466797e+00,-2.541316509246826172e+00,3.633340895175933838e-01,-4.017836093902587891e+00,-7.798967361450195312e+00,-7.112521648406982422e+00,-3.703604936599731445e+00,-1.539550900459289551e+00,-3.503405153751373291e-01,-6.552328586578369141e+00,-1.819340515136718750e+01,-1.467420673370361328e+01
9.102326035499572754e-01,-2.398542404174804688e+00,-4.329402446746826172e+00,-6.474160671234130859e+00,-1.816883981227874756e-01,-2.738022506237030029e-01,-2.161130428314208984e+00,-3.801146507263183594e+00,-3.619347333908081055e+00,-1.310589432716369629e+00,-2.376975059509277344e+00,9.284795522689819336e-01,-1.859949827194213867e+00,-5.176380157470703125e+00,-6.244143009185791016e+00,-3.306531190872192383e+00,-1.289407849311828613e+00,-1.204980611801147461e+00,-1.960066795349121094e+00,-5.609193325042724609e+00,-5.496843814849853516e+00,-4.320878505706787109e+00,-2.091474533081054688e+00,-3.480815649032592773e+00,-5.867474555969238281e+00,-8.814555168151855469e+00,-1.132141780853271484e+01,-6.351471900939941406e+00,-2.854660987854003906e+00,-7.963726997375488281e+00,-1.758599662780761719e+01,-1.189417934417724609e+01
3.848481178283691406e+00,-1.865606606006622314e-01,-1.515335202217102051e+00,-3.093775749206542969e+00,6.336703896522521973e-01,-1.026052236557006836e+00,2.148076295852661133e+00,4.136117398738861084e-01,-4.760617315769195557e-01,1.722796559333801270e+00,5.131424427032470703e+00,6.764665126800537109e+00,1.040438055992126465e+00,-4.272446155548095703e+00,-8.002238273620605469e+00,-5.807218551635742188e+00,-5.532751083374023438e+00,-6.730462074279785156e+00,-8.768671989440917969e+00,-9.895585060119628906e+00,-7.191530227661132812e+00,-4.227585792541503906e+00,-8.736542463302612305e-01,1.048918485641479492e+00,6.216766834259033203e-01,-2.333834648132324219e+00,-8.635063171386718750e+00,-5.286158561706542969e+00,-1.262421965599060059e+00,2.467575073242187500e+00,3.625316023826599121e-01,-8.577432632446289062e+00
1.118860340118408203e+01,1.226810693740844727e+00,-9.951179504394531250e+00,-5.871498107910156250e+00,7.960640907287597656e+00,7.395979881286621094e+00,6.898283958435058594e+00,8.296303749084472656e+00,8.627603530883789062e+00,5.722895145416259766e+00,4.511598587036132812e+00,3.316025018692016602e+00,4.597331047058105469e+00,2.317434549331665039e+00,-2.623118400573730469e+00,-5.288279533386230469e+00,-5.288991451263427734e+00,-4.623907566070556641e+00,-6.348804473876953125e+00,-1.777755975723266602e+00,2.477638959884643555e+00,7.054421901702880859e+00,1.009772109985351562e+01,7.201159954071044922e+00,4.120838165283203125e+00,5.247009754180908203e+00,7.577500343322753906e+00,9.103967666625976562e+00,1.064801216125488281e+01,1.209485721588134766e+01,1.157886981964111328e+01,2.355941772460937500e+00
1.278602409362792969e+01,1.142683982849121094e+01,-1.662580728530883789e+00,-2.081565618515014648e+00,1.161051654815673828e+01,1.405303573608398438e+01,1.267433357238769531e+01,1.005026435852050781e+01,8.903343200683593750e+00,4.417136669158935547e+00,2.300705671310424805e+00,1.796476840972900391e+00,2.366337776184082031e+00,4.766784906387329102e-01,-2.052753925323486328e+00,-2.022427797317504883e+00,-4.422615468502044678e-01,1.551327943801879883e+00,-9.178787469863891602e-02,6.224522590637207031e+00,1.117300605773925781e+01,1.286722660064697266e+01,1.161110877990722656e+01,8.274153709411621094e+00,4.817276477813720703e+00,4.622200965881347656e+00,9.602707862854003906e+00,1.398043441772460938e+01,1.359819221496582031e+01,7.808063030242919922e+00,5.872975826263427734e+00,3.911401987075805664e+00
1.157360553741455078e+01,1.110982990264892578e+01,8.062986373901367188e+00,3.013545274734497070e+00,8.271657943725585938e+00,1.097768688201904297e+01,1.383410930633544922e+01,7.732335567474365234e+00,5.651010990142822266e+00,5.661285400390625000e+00,8.632036209106445312e+00,1.111550235748291016e+01,3.244455575942993164e+00,1.541667338460683823e-02,-2.388729602098464966e-01,5.203371047973632812e+00,5.498525142669677734e+00,4.979270458221435547e+00,3.680648565292358398e+00,4.952217578887939453e+00,7.031283378601074219e+00,7.205585956573486328e+00,5.295151233673095703e+00,3.998417615890502930e+00,1.194680690765380859e+00,7.677409052848815918e-02,1.280076503753662109e+00,6.858515262603759766e+00,6.068449974060058594e+00,2.962033748626708984e-01,-5.215106010437011719e+00,-1.029485893249511719e+01
3.759832620620727539e+00,-5.130926609039306641e+00,-5.179865360260009766e+00,-4.223574638366699219e+00,1.441861391067504883e+00,2.075963020324707031e+00,5.653655529022216797e+00,6.308738231658935547e+00,7.010427474975585938e+00,5.661897659301757812e+00,5.939151287078857422e+00,8.609404563903808594e+00,4.967066287994384766e+00,2.719052791595458984e+00,1.811055302619934082e+00,4.254833221435546875e+00,4.845505714416503906e+00,3.525932550430297852e+00,2.520945310592651367e+00,5.273142457008361816e-02,3.348244428634643555e-01,1.222326993942260742e+00,1.233107686042785645e+00,-6.805708408355712891e+00,-1.129830360412597656e+01,-7.690333366394042969e+00,-3.373197555541992188e+00,-2.121285676956176758e+00,-3.161924362182617188e+00,-5.083285331726074219e+00,-1.330815029144287109e+01,-2.221884536743164062e+01
-4.061793804168701172e+00,-1.866510200500488281e+01,-2.415375518798828125e+01,-2.061878776550292969e+01,-9.788527488708496094e+00,-7.752377033233642578e+00,-3.948374986648559570e+00,1.680943369865417480e-01,-2.527188658714294434e-01,-2.499953746795654297e+00,-5.953436374664306641e+00,-4.960477828979492188e+00,-6.165167093276977539e-01,-8.411422371864318848e-01,-2.153844833374023438e+00,-1.817946434020996094e+00,1.641440510749816895e+00,-1.999723613262176514e-01,-3.019149780273437500e+00,-2.959306001663208008e+00,-1.643788628280162811e-02,-1.846572518348693848e+00,-5.326370716094970703e+00,-1.110332107543945312e+01,-1.339281082153320312e+01,-1.097569561004638672e+01,-7.290671348571777344e+00,-6.737867832183837891e+00,-8.644193649291992188e+00,-9.251559257507324219e+00,-1.455538845062255859e+01,-2.579396629333496094e+01
-2.743673324584960938e+00,-2.175782775878906250e+01,-2.596281242370605469e+01,-2.398712158203125000e+01,-1.300654888153076172e+01,-9.803640365600585938e+00,-5.372623920440673828e+00,-4.471879482269287109e+00,-8.150927543640136719e+00,-5.774150848388671875e+00,-6.097535610198974609e+00,-4.607000827789306641e+00,-3.627982854843139648e+00,-3.046495914459228516e+00,-2.076863527297973633e+00,5.653858780860900879e-01,2.484069824218750000e+00,1.688198447227478027e-01,-2.347552061080932617e+00,-2.708324193954467773e+00,-1.005521178245544434e+00,-2.749838590621948242e+00,-7.000751972198486328e+00,-8.347244858741760254e-01,6.478345990180969238e-01,-4.443536758422851562e+00,-1.092624282836914062e+01,-6.163296222686767578e+00,-6.916117191314697266e+00,-8.627961158752441406e+00,-1.163659667968750000e+01,-2.347435379028320312e+01
3.914841637015342712e-02,-1.276742553710937500e+01,-1.205526161193847656e+01,-7.849246025085449219e+00,-4.188957214355468750e-01,-8.871483206748962402e-01,3.849888145923614502e-01,1.249563574790954590e+00,5.517958998680114746e-01,3.491349697113037109e+00,3.184163093566894531e+00,4.564924716949462891e+00,3.775050401687622070e+00,3.214796304702758789e+00,4.970948696136474609e+00,6.844814777374267578e+00,7.692142009735107422e+00,6.932876110076904297e+00,6.173714637756347656e+00,1.062302350997924805e+00,-6.079249978065490723e-01,3.420566797256469727e+00,3.789391040802001953e+00,4.295302867889404297e+00,1.596240162849426270e+00,-2.693912029266357422e+00,-8.140953063964843750e+00,-2.999255657196044922e+00,-2.242637634277343750e+00,-4.502133369445800781e+00,-9.775238037109375000e+00,-1.749736213684082031e+01
6.629890203475952148e-01,-4.189896583557128906e+00,-4.538043498992919922e+00,6.018843650817871094e-01,6.337884902954101562e+00,4.548943996429443359e+00,3.626080513000488281e+00,3.970130681991577148e+00,6.014498710632324219e+00,6.805325984954833984e+00,6.284485816955566406e+00,6.143807888031005859e+00,7.433238029479980469e+00,5.467268943786621094e+00,5.849577426910400391e+00,7.300343513488769531e+00,1.005888938903808594e+01,1.037599945068359375e+01,9.700501441955566406e+00,4.288392543792724609e+00,3.316596984863281250e+00,6.346638202667236328e+00,8.187094688415527344e+00,-6.589050292968750000e+00,-1.341390609741210938e+01,-1.051981067657470703e+01,-2.947871208190917969e+00,-2.378415822982788086e+00,-3.572451829910278320e+00,-1.728076577186584473e+00,-4.354617118835449219e+00,-1.652138900756835938e+01
1.765823721885681152e+00,-3.376369237899780273e+00,-9.402174949645996094e+00,-8.698457717895507812e+00,-1.277406811714172363e+00,2.538378715515136719e+00,2.864550113677978516e+00,-7.442140579223632812e-01,-1.640694737434387207e+00,1.591755509376525879e+00,3.931954383850097656e+00,4.123494148254394531e+00,2.246542930603027344e+00,7.871726155281066895e-01,1.610725879669189453e+00,3.355964660644531250e+00,4.875988483428955078e+00,5.265726566314697266e+00,5.844065666198730469e+00,6.394778490066528320e-01,-1.750589609146118164e+00,-1.596676588058471680e+00,1.320958137512207031e+00,-9.771102905273437500e+00,-1.383252334594726562e+01,-1.038309001922607422e+01,-2.819952726364135742e+00,-3.068842887878417969e+00,-3.555210828781127930e+00,2.454172074794769287e-02,5.936497822403907776e-03,-1.474020290374755859e+01
-2.661900997161865234e+00,-9.023907661437988281e+00,-1.693116569519042969e+01,-1.748787307739257812e+01,-9.193131446838378906e+00,-3.275288820266723633e+00,-3.322047472000122070e+00,-5.225065708160400391e+00,-4.847235202789306641e+00,-4.551451206207275391e-01,-9.455263018608093262e-01,-1.615570545196533203e+00,-4.601582050323486328e+00,-4.369498729705810547e+00,-2.345179319381713867e+00,-2.028431177139282227e+00,-3.286788463592529297e+00,-3.507455825805664062e+00,-2.213816642761230469e+00,-7.741748332977294922e+00,-1.204191398620605469e+01,-1.040346145629882812e+01,-4.637866497039794922e+00,-6.516695618629455566e-01,-1.628952622413635254e+00,-3.929091453552246094e+00,-6.646198749542236328e+00,-4.253024578094482422e+00,-2.631591796875000000e+00,-3.652569055557250977e+00,-7.962574481964111328e+00,-1.921333885192871094e+01
-8.442288398742675781e+00,-6.546130180358886719e+00,-7.729516983032226562e+00,-7.300148010253906250e+00,-5.222774505615234375e+00,-6.174153327941894531e+00,-4.647849559783935547e+00,-3.103094339370727539e+00,-1.658167839050292969e-01,-5.532370209693908691e-01,-2.363031387329101562e+00,-5.418558120727539062e+00,-4.462943553924560547e+00,-3.251723766326904297e+00,-2.102420091629028320e+00,-3.933655738830566406e+00,-4.944483757019042969e+00,-6.764723777770996094e+00,-7.427205562591552734e+00,-7.343564033508300781e+00,-7.182231903076171875e+00,-6.973034858703613281e+00,-5.185807704925537109e+00,2.944255352020263672e+00,3.949767589569091797e+00,1.193299964070320129e-01,-4.951725006103515625e+00,-3.405165910720825195e+00,-2.283417940139770508e+00,-3.475613117218017578e+00,-7.244407176971435547e+00,-1.962458801269531250e+01
-2.371226996183395386e-01,8.261009216308593750e+00,1.197548294067382812e+01,1.148989868164062500e+01,8.689933776855468750e+00,3.501523017883300781e+00,6.329839706420898438e+00,6.326587200164794922e+00,5.884132385253906250e+00,3.739806175231933594e+00,6.573286056518554688e+00,3.986219882965087891e+00,2.581267595291137695e+00,3.879518032073974609e+00,3.983201742172241211e+00,-7.516174018383026123e-02,-9.563030600547790527e-01,-1.148734211921691895e+00,-1.157091259956359863e+00,3.334360361099243164e+00,5.443353176116943359e+00,3.521524190902709961e+00,5.180804133415222168e-01,6.438844680786132812e+00,9.304084777832031250e+00,9.111733436584472656e+00,7.041534900665283203e+00,6.582048416137695312e+00,8.079217910766601562e+00,1.009202480316162109e+01,1.220372962951660156e+01,5.586367130279541016e+00
8.081940650939941406e+00,1.388521575927734375e+01,1.112513923645019531e+01,1.021214485168457031e+01,1.291791152954101562e+01,1.392443180084228516e+01,9.928205490112304688e+00,6.395953655242919922e+00,4.656402587890625000e+00,7.544884204864501953e+00,9.095555305480957031e+00,7.731203079223632812e+00,1.479712247848510742e+00,1.397758483886718750e+00,1.678568720817565918e+00,-6.441093981266021729e-02,-2.282146453857421875e+00,-1.185063242912292480e+00,1.760510683059692383e+00,4.359760761260986328e+00,2.345032453536987305e+00,1.430070400238037109e+00,2.005543708801269531e+00,1.086182212829589844e+01,1.305414104461669922e+01,1.341934013366699219e+01,1.099175930023193359e+01,1.265227794647216797e+01,1.487221050262451172e+01,1.425033664703369141e+01,1.432569694519042969e+01,1.511430549621582031e+01
-5.345948219299316406e+00,3.676074266433715820e+00,-1.385902523994445801e+00,-8.235187530517578125e-01,3.049033880233764648e+00,5.463288784027099609e+00,-2.022771835327148438e+00,-5.316285133361816406e+00,-3.216567277908325195e+00,-4.924305155873298645e-02,-2.257328271865844727e+00,-5.533002376556396484e+00,-9.207989692687988281e+00,-1.087347412109375000e+01,-8.697105407714843750e+00,-7.778017997741699219e+00,-9.137215614318847656e+00,-1.014011764526367188e+01,-7.891308784484863281e+00,-7.450722694396972656e+00,-8.069572448730468750e+00,-9.146060943603515625e+00,-7.510084152221679688e+00,-2.324640378355979919e-02,1.177331566810607910e+00,1.211852073669433594e+00,5.641579627990722656e-01,3.072712659835815430e+00,2.127844333648681641e+00,1.837234245613217354e-03,-3.122860908508300781e+00,-6.641809940338134766e+00
-1.663814735412597656e+01,-6.915810108184814453e+00,-3.838588953018188477e+00,-9.645133018493652344e-01,-3.238224506378173828e+00,-7.521199703216552734e+00,-8.555965423583984375e+00,-7.899976730346679688e+00,-5.384244441986083984e+00,-6.867468357086181641e+00,-7.250036239624023438e+00,-1.108277320861816406e+01,-1.259411811828613281e+01,-1.260105609893798828e+01,-9.646734237670898438e+00,-1.066561508178710938e+01,-1.140627002716064453e+01,-1.233342456817626953e+01,-1.077967548370361328e+01,-9.325737953186035156e+00,-7.321568965911865234e+00,-8.788517951965332031e+00,-1.068276023864746094e+01,-1.147220420837402344e+01,-1.035614013671875000e+01,-9.759387016296386719e+00,-3.974213838577270508e+00,-5.352178096771240234e+00,-8.562645912170410156e+00,-9.160090446472167969e+00,-9.462923049926757812e+00,-1.297482872009277344e+01
-4.821544170379638672e+00,-4.991893291473388672e+00,-1.562714099884033203e+00,4.679068326950073242e-01,-1.363610625267028809e+00,-5.881037235260009766e+00,-3.995860338211059570e+00,-1.267412900924682617e+00,-2.181035757064819336e+00,-3.860299110412597656e+00,-2.320144176483154297e+00,-1.049381971359252930e+00,-3.951145410537719727e+00,-2.137920141220092773e+00,-1.729242801666259766e-01,-1.126619815826416016e+00,-2.039363145828247070e+00,-9.273888468742370605e-01,2.422293186187744141e+00,1.903062701225280762e+00,-2.591622471809387207e-01,-5.666886568069458008e-01,-5.650886297225952148e-01,-3.792398214340209961e+00,-4.281094551086425781e+00,-4.490212440490722656e+00,7.887402772903442383e-01,-2.231174468994140625e+00,-2.836168527603149414e+00,-4.113789081573486328e+00,-4.632116317749023438e+00,2.220699191093444824e-01
8.282301902770996094e+00,3.387473821640014648e+00,-1.766972541809082031e+00,-4.032824993133544922e+00,-1.121230483055114746e+00,1.271802783012390137e-01,1.679466009140014648e+00,1.265826582908630371e+00,-2.712033987045288086e-01,-1.003552436828613281e+00,1.276313900947570801e+00,4.362823009490966797e+00,4.560804367065429688e+00,4.138887882232666016e+00,6.422056198120117188e+00,9.240928649902343750e+00,9.305630683898925781e+00,1.014618110656738281e+01,1.170116329193115234e+01,9.237902641296386719e+00,5.488542079925537109e+00,5.919301509857177734e+00,7.649573326110839844e+00,7.684987068176269531e+00,5.771330833435058594e+00,5.029291629791259766e+00,3.889158725738525391e+00,5.139900684356689453e+00,6.257065773010253906e+00,4.742140769958496094e+00,1.839239835739135742e+00,1.082596331834793091e-01
8.653585433959960938e+00,6.336342811584472656e+00,3.924729526042938232e-01,-1.151582956314086914e+00,1.121560811996459961e+00,1.576472759246826172e+00,4.650697231292724609e+00,4.555565834045410156e+00,4.609724998474121094e+00,2.351670563220977783e-01,2.126809358596801758e+00,1.400887489318847656e+00,6.803236961364746094e+00,5.778650760650634766e+00,8.943773269653320312e+00,9.954414367675781250e+00,1.199355220794677734e+01,1.325448322296142578e+01,1.339601612091064453e+01,1.172513198852539062e+01,8.886227607727050781e+00,9.992494583129882812e+00,8.528358459472656250e+00,8.353136062622070312e+00,6.256449699401855469e+00,7.027620792388916016e+00,5.915874004364013672e+00,9.932516098022460938e+00,8.557859420776367188e+00,7.925480842590332031e+00,7.025667667388916016e+00,-9.763294458389282227e-01
-3.160089254379272461e-01,-3.107244968414306641e+00,-4.275028705596923828e+00,-2.488151788711547852e+00,8.037590980529785156e-02,-1.304355859756469727e+00,-4.379266500473022461e-01,1.472786664962768555e+00,2.565513134002685547e+00,-5.418278574943542480e-01,-2.884207487106323242e+00,-3.623155593872070312e+00,1.734350800514221191e+00,4.237822532653808594e+00,7.073596477508544922e+00,5.191619396209716797e+00,6.883122920989990234e+00,8.271653175354003906e+00,1.135959339141845703e+01,9.392843246459960938e+00,4.251737594604492188e+00,3.584618091583251953e+00,1.393588304519653320e+00,-1.927095293998718262e+00,-3.830161809921264648e+00,-2.950929880142211914e+00,-1.445283174514770508e+00,5.488237738609313965e-01,1.442549228668212891e-01,-2.655938625335693359e+00,-4.384874820709228516e+00,-3.876291751861572266e+00
-7.900827407836914062e+00,-1.210056495666503906e+01,-1.299193668365478516e+01,-1.249308872222900391e+01,-7.883423328399658203e+00,-6.223043918609619141e+00,-9.341261863708496094e+00,-9.546467781066894531e+00,-7.563441753387451172e+00,-3.657573461532592773e+00,-7.897505283355712891e+00,-6.912227630615234375e+00,-3.543053150177001953e+00,-1.323135018348693848e+00,2.081375360488891602e+00,1.507183194160461426e+00,1.277462124824523926e+00,4.138410091400146484e-01,4.370034217834472656e+00,9.363361597061157227e-01,-5.600402832031250000e+00,-9.441616058349609375e+00,-1.025612545013427734e+01,-1.347472667694091797e+01,-1.195919132232666016e+01,-1.276830005645751953e+01,-1.509356689453125000e+01,-1.695517539978027344e+01,-1.333536720275878906e+01,-1.464405918121337891e+01,-1.950605201721191406e+01,-2.254132843017578125e+01
-5.920230388641357422e+00,-9.827769279479980469e+00,-1.039610481262207031e+01,-9.774224281311035156e+00,-7.394684314727783203e+00,-5.688984870910644531e+00,-4.904329299926757812e+00,-4.765612602233886719e+00,-4.568081378936767578e+00,-1.141297101974487305e+00,-1.367143392562866211e+00,-1.081764578819274902e+00,-1.832794845104217529e-01,-1.271374106407165527e+00,1.148227095603942871e+00,1.654154658317565918e+00,1.832016706466674805e+00,1.511430621147155762e+00,3.321762084960937500e+00,-7.338798046112060547e-02,-4.715329647064208984e+00,-8.106709480285644531e+00,-9.915375709533691406e+00,-1.283370113372802734e+01,-8.414738655090332031e+00,-7.937742710113525391e+00,-1.176524066925048828e+01,-1.633342742919921875e+01,-1.288195610046386719e+01,-8.062507629394531250e+00,-9.888080596923828125e+00,-2.608560943603515625e+01
-3.590062618255615234e+00,-7.078676700592041016e+00,-6.406500339508056641e+00,-4.558498382568359375e+00,-4.212171077728271484e+00,-4.614134788513183594e+00,1.045615077018737793e+00,3.790911674499511719e+00,4.255939647555351257e-02,-1.239736318588256836e+00,4.737011790275573730e-01,2.120826482772827148e+00,6.750947833061218262e-01,7.008240222930908203e-01,6.573029160499572754e-01,9.084355831146240234e-01,8.752014636993408203e-01,2.384408712387084961e+00,4.445881366729736328e+00,2.853217840194702148e+00,-1.715777635574340820e+00,-3.312515974044799805e+00,-2.945940256118774414e+00,-4.679842948913574219e+00,-4.684612751007080078e+00,-3.348433732986450195e+00,-3.133513212203979492e+00,-4.837128162384033203e+00,-5.422064304351806641e+00,-1.129472732543945312e+00,-9.751973152160644531e-01,-1.792965888977050781e+01
-6.733139514923095703e+00,-1.903813934326171875e+01,-1.890933418273925781e+01,-1.865198516845703125e+01,-1.612865066528320312e+01,-1.403723335266113281e+01,-1.146058082580566406e+01,-8.715098381042480469e+00,-1.112966346740722656e+01,-9.700486183166503906e+00,-1.057297420501708984e+01,-8.647891998291015625e+00,-8.461773872375488281e+00,-1.033714652061462402e+00,2.003558397293090820e+00,-1.606358170509338379e+00,-5.531542301177978516e+00,-4.890404224395751953e+00,-2.810512542724609375e+00,-4.817441463470458984e+00,-9.108964920043945312e+00,-1.058156490325927734e+01,-8.024613380432128906e+00,-4.492060184478759766e+00,-7.666952133178710938e+00,-1.062190532684326172e+01,-1.157575511932373047e+01,-8.799040794372558594e+00,-1.293032550811767578e+01,-1.399555206298828125e+01,-1.608951377868652344e+01,-3.135275268554687500e+01
-4.520665645599365234e+00,-2.138627815246582031e+01,-2.221386718750000000e+01,-2.283713340759277344e+01,-1.811300468444824219e+01,-1.489399242401123047e+01,-1.510169219970703125e+01,-1.244122886657714844e+01,-1.048813819885253906e+01,-8.237053871154785156e+00,-1.141206932067871094e+01,-1.295010662078857422e+01,-1.030269718170166016e+01,-4.914575815200805664e-02,6.268687248229980469e+00,-1.634903103113174438e-01,-6.224629402160644531e+00,-5.814945697784423828e+00,-4.584775447845458984e+00,-6.236950874328613281e+00,-7.691052913665771484e+00,-8.526923179626464844e+00,-7.584562301635742188e+00,-7.464908123016357422e+00,-8.325832366943359375e+00,-9.920094490051269531e+00,-8.733957290649414062e+00,-8.275943756103515625e+00,-1.423684692382812500e+01,-1.520673942565917969e+01,-1.540100383758544922e+01,-3.058339691162109375e+01
4.002025425434112549e-01,-1.328038406372070312e+01,-1.386466312408447266e+01,-1.096172237396240234e+01,-4.438016891479492188e+00,-4.550065994262695312e+00,-3.512964010238647461e+00,-9.594955444335937500e-01,3.195106387138366699e-01,-1.270017027854919434e+00,-2.573534250259399414e+00,-3.421790361404418945e+00,-2.144637823104858398e+00,2.237842082977294922e+00,5.793071746826171875e+00,2.896962881088256836e+00,-2.014948129653930664e-01,-6.954455375671386719e-01,7.142702341079711914e-01,2.623312711715698242e+00,2.519454717636108398e+00,3.105639815330505371e-01,4.812704026699066162e-01,-5.318082332611083984e+00,-5.407557487487792969e+00,-1.943131446838378906e+00,4.848750591278076172e+00,2.099093422293663025e-02,-4.959846019744873047e+00,-3.275957822799682617e+00,-6.187986731529235840e-01,-8.492965698242187500e+00
-6.474765777587890625e+00,-1.199674415588378906e+01,-8.877676010131835938e+00,-6.172213077545166016e+00,-4.999187946319580078e+00,-6.694529533386230469e+00,-4.003565788269042969e+00,-7.258905768394470215e-01,-6.177918314933776855e-01,-1.558278560638427734e+00,-2.203983068466186523e+00,-2.985157012939453125e+00,-3.262210130691528320e+00,-8.346947431564331055e-01,-8.403294086456298828e-01,-2.739204406738281250e+00,-3.521847963333129883e+00,-4.767870426177978516e+00,-4.047680377960205078e+00,7.867382764816284180e-01,8.939135670661926270e-01,-4.013268947601318359e+00,-5.564070224761962891e+00,-9.120308756828308105e-01,2.076348066329956055e+00,1.769474148750305176e+00,-1.520075559616088867e+00,-6.583383083343505859e+00,-9.154067993164062500e+00,-7.586905479431152344e+00,-4.435533523559570312e+00,2.422018289566040039e+00
-1.329121208190917969e+01,-2.530296516418457031e+01,-1.824545478820800781e+01,-1.845958709716796875e+01,-2.016889572143554688e+01,-1.842464256286621094e+01,-1.152411651611328125e+01,-7.416155815124511719e+00,-5.455934524536132812e+00,-3.274493217468261719e+00,-6.886723518371582031e+00,-9.493166923522949219e+00,-9.242319107055664062e+00,-5.155216693878173828e+00,-5.475142002105712891e+00,-1.080388164520263672e+01,-1.184844970703125000e+01,-1.036625480651855469e+01,-8.819643974304199219e+00,-7.512021064758300781e+00,-7.612310886383056641e+00,-1.119689464569091797e+01,-1.466022205352783203e+01,-2.989128589630126953e+00,5.358929157257080078e+00,1.558243669569492340e-02,-1.266351699829101562e+01,-1.495342731475830078e+01,-1.916508674621582031e+01,-1.985244941711425781e+01,-1.620538520812988281e+01,-1.398499846458435059e+00
-1.243388938903808594e+01,-2.445254898071289062e+01,-1.543849086761474609e+01,-1.251982307434082031e+01,-1.364995288848876953e+01,-1.297669792175292969e+01,-1.069590950012207031e+01,-8.674494743347167969e+00,-5.393391132354736328e+00,-2.858205795288085938e+00,-7.745031833648681641e+00,-9.238059043884277344e+00,-8.568112373352050781e+00,-7.924279212951660156e+00,-6.983900070190429688e+00,-9.490430831909179688e+00,-1.045417881011962891e+01,-1.096995735168457031e+01,-7.566121101379394531e+00,-1.147559165954589844e+01,-1.215274906158447266e+01,-1.385447025299072266e+01,-1.235797023773193359e+01,-1.362398338317871094e+01,-8.179182052612304688e+00,-9.059002876281738281e+00,-1.081425666809082031e+01,-1.289403820037841797e+01,-1.371220111846923828e+01,-1.234149837493896484e+01,-9.598570823669433594e+00,9.338424682617187500e+00
-1.013753318786621094e+01,-5.116329193115234375e+00,2.920499324798583984e+00,5.023614883422851562e+00,-5.775190591812133789e-01,-2.106192111968994141e+00,-5.361006259918212891e+00,-4.685453891754150391e+00,-4.168634891510009766e+00,-4.412808895111083984e+00,-6.116185665130615234e+00,-6.289370059967041016e+00,-5.227124214172363281e+00,-8.690461158752441406e+00,-7.742557525634765625e+00,-7.062275409698486328e+00,-5.944278240203857422e+00,-1.047130298614501953e+01,-1.048355484008789062e+01,-1.129202747344970703e+01,-1.062116432189941406e+01,-1.215026569366455078e+01,-7.865111827850341797e+00,-1.483151149749755859e+01,-1.775058746337890625e+01,-1.228294467926025391e+01,-4.762448310852050781e+00,-7.025488853454589844e+00,-4.271883010864257812e+00,-4.352735996246337891e+00,1.947114944458007812e+00,2.624416542053222656e+01
3.802224636077880859e+00,1.485991287231445312e+01,1.858585548400878906e+01,1.515946197509765625e+01,8.509271621704101562e+00,8.546817779541015625e+00,8.517549514770507812e+00,6.210381031036376953e+00,2.482365608215332031e+00,7.487607002258300781e-01,6.190396308898925781e+00,6.176012992858886719e+00,4.815559864044189453e+00,1.169284060597419739e-01,-2.181983232498168945e+00,-3.034522533416748047e+00,1.321694906800985336e-02,-1.213559985160827637e+00,-5.786025524139404297e+00,-9.785493016242980957e-01,3.451130628585815430e+00,5.652063369750976562e+00,4.621176242828369141e+00,5.543447017669677734e+00,1.109920442104339600e-01,5.156898975372314453e+00,6.210649490356445312e+00,6.496466636657714844e+00,9.204987525939941406e+00,8.073464393615722656e+00,1.859361267089843750e+01,4.286301040649414062e+01
1.732911682128906250e+01,2.906258964538574219e+01,2.991698837280273438e+01,2.505321884155273438e+01,1.672745513916015625e+01,1.752429771423339844e+01,1.644048118591308594e+01,1.059253692626953125e+01,7.930608272552490234e+00,8.851385116577148438e+00,1.520876502990722656e+01,1.645033073425292969e+01,1.301520919799804688e+01,9.341588973999023438e+00,3.332277059555053711e+00,4.773679733276367188e+00,7.343056678771972656e+00,9.902359008789062500e+00,6.389450550079345703e+00,1.088194465637207031e+01,1.729979133605957031e+01,2.020303344726562500e+01,1.682937049865722656e+01,1.708775520324707031e+01,1.626262474060058594e+01,1.805932807922363281e+01,1.490580463409423828e+01,1.625456619262695312e+01,2.192354774475097656e+01,2.265258216857910156e+01,3.154203987121582031e+01,6.084967803955078125e+01
1.356763839721679688e+01,3.133747291564941406e+01,3.597023391723632812e+01,3.238854217529296875e+01,1.956866264343261719e+01,1.849948310852050781e+01,1.222963142395019531e+01,6.184126853942871094e+00,7.045698642730712891e+00,8.279356956481933594e+00,9.368824005126953125e+00,1.111480045318603516e+01,9.372407913208007812e+00,4.968269824981689453e+00,-2.145105600357055664e+00,2.530789375305175781e+00,3.538292407989501953e+00,3.980220556259155273e+00,1.630098223686218262e-01,4.006233692169189453e+00,9.908497810363769531e+00,1.304940414428710938e+01,1.427298831939697266e+01,8.242333412170410156e+00,6.796034336090087891e+00,9.641883850097656250e+00,1.321082973480224609e+01,1.306660747528076172e+01,1.932185745239257812e+01,1.722995948791503906e+01,2.199312019348144531e+01,5.458882904052734375e+01
4.678439617156982422e+00,2.287711143493652344e+01,2.923025894165039062e+01,2.615760040283203125e+01,1.415069103240966797e+01,1.255334663391113281e+01,8.003330230712890625e+00,4.947162628173828125e+00,4.964837074279785156e+00,3.034534692764282227e+00,2.658375501632690430e+00,2.457344532012939453e+00,1.738967418670654297e+00,-2.703939199447631836e+00,-1.094706249237060547e+01,-6.883736133575439453e+00,-5.327829837799072266e+00,-5.202354907989501953e+00,-1.198969459533691406e+01,-5.659717082977294922e+00,1.214747428894042969e+00,4.455326557159423828e+00,5.308131694793701172e+00,3.160931766033172607e-01,-2.209448099136352539e+00,1.707491159439086914e+00,8.526187896728515625e+00,7.708860397338867188e+00,7.816228866577148438e+00,4.480584621429443359e+00,4.866586208343505859e+00,2.996281433105468750e+01
7.322238922119140625e+00,9.340283393859863281e+00,6.514437675476074219e+00,5.001607418060302734e+00,4.870531558990478516e+00,5.828064918518066406e+00,7.961299896240234375e+00,8.401666641235351562e+00,6.623118877410888672e+00,3.373688697814941406e+00,5.208024024963378906e+00,5.741812229156494141e+00,5.212627887725830078e+00,2.490353584289550781e+00,-6.229197978973388672e+00,-1.277690887451171875e+00,3.321949243545532227e+00,3.988637685775756836e+00,-2.086719274520874023e+00,3.559768676757812500e+00,1.138931560516357422e+01,1.021834850311279297e+01,7.902579784393310547e+00,1.133513164520263672e+01,1.346879673004150391e+01,1.040921974182128906e+01,8.682816505432128906e+00,9.944830894470214844e+00,7.362279891967773438e+00,6.680359363555908203e+00,5.723881244659423828e+00,6.716190814971923828e+00
1.726843261718750000e+01,2.688630485534667969e+01,2.097884941101074219e+01,2.091748428344726562e+01,2.011785888671875000e+01,1.764565277099609375e+01,1.540830326080322266e+01,1.485937690734863281e+01,1.292867088317871094e+01,9.735545158386230469e+00,1.330964565277099609e+01,1.558682537078857422e+01,1.402633857727050781e+01,1.129006576538085938e+01,4.367202758789062500e+00,1.019122409820556641e+01,1.347940349578857422e+01,1.177987861633300781e+01,7.225913047790527344e+00,1.122658157348632812e+01,1.755136871337890625e+01,1.943330955505371094e+01,1.984649658203125000e+01,2.594100379943847656e+01,2.726387405395507812e+01,2.267619895935058594e+01,1.818682479858398438e+01,2.128909683227539062e+01,2.463725280761718750e+01,2.631375312805175781e+01,3.008619499206542969e+01,3.052568054199218750e+01
1.095540618896484375e+01,2.947113037109375000e+01,2.977284622192382812e+01,2.906347274780273438e+01,2.157644653320312500e+01,1.828939819335937500e+01,1.122779273986816406e+01,9.377780914306640625e+00,8.832662582397460938e+00,5.892014503479003906e+00,6.046074867248535156e+00,7.833860397338867188e+00,7.225076675415039062e+00,6.416738986968994141e+00,1.019095301628112793e+00,2.980012416839599609e+00,2.174766778945922852e+00,2.694243192672729492e-01,-4.731637477874755859e+00,8.322962522506713867e-01,6.616652011871337891e+00,1.276729488372802734e+01,1.284998226165771484e+01,1.399195098876953125e+01,1.292311477661132812e+01,1.479567337036132812e+01,1.386724948883056641e+01,1.580372714996337891e+01,1.804292678833007812e+01,1.876284408569335938e+01,1.843321037292480469e+01,2.086143875122070312e+01
3.923299908638000488e-01,9.759024620056152344e+00,1.236799716949462891e+01,1.072584056854248047e+01,6.134044170379638672e+00,4.581724166870117188e+00,1.275184988975524902e+00,5.927017927169799805e-01,2.652571201324462891e+00,1.494498372077941895e+00,-1.550355672836303711e+00,-1.132147908210754395e+00,-1.216821312904357910e+00,-2.137989044189453125e+00,-7.640401363372802734e+00,-8.641746520996093750e+00,-8.920972824096679688e+00,-9.008198738098144531e+00,-1.240855312347412109e+01,-6.558104991912841797e+00,-9.426200389862060547e-01,2.428275346755981445e+00,5.732860565185546875e-01,-2.448999166488647461e+00,-3.830743551254272461e+00,-4.358026087284088135e-01,2.097371339797973633e+00,3.434257507324218750e+00,1.819323182106018066e+00,-2.110551834106445312e+00,-7.734681606292724609e+00,-2.881624996662139893e-01
2.627457380294799805e+00,4.170814037322998047e+00,-8.650711178779602051e-01,-2.272133827209472656e+00,1.347946286201477051e+00,1.057037115097045898e+00,3.580373287200927734e+00,2.318676233291625977e+00,2.243095159530639648e+00,2.556940078735351562e+00,3.879088401794433594e+00,2.553222894668579102e+00,9.334337115287780762e-01,6.241552829742431641e-01,-1.742018461227416992e+00,-3.232738256454467773e+00,-2.116101264953613281e+00,-2.302679300308227539e+00,-8.797785043716430664e-01,2.383425235748291016e+00,4.419359683990478516e+00,2.871639966964721680e+00,2.494257688522338867e+00,-1.095953881740570068e-01,8.300541639328002930e-01,-7.493800520896911621e-01,2.044509410858154297e+00,2.004784584045410156e+00,2.877577066421508789e+00,-1.207357048988342285e-01,-7.027109146118164062e+00,-1.847080039978027344e+01
