Fp1,Fp2,F7,F3,Fz,F4,F8,FT7,FC3,FCz,FC4,FT8,T3,C3,Cz,C4,T4,TP7,CP3,CPz,CP4,TP8,T5,P3,Pz,P4,T6,O1,Oz,O2,A1,A2
1.026428318023681641e+01,1.127163505554199219e+01,6.431533336639404297e+00,7.830532550811767578e+00,1.234513759613037109e+01,1.633184623718261719e+01,1.079759597778320312e+01,5.374521732330322266e+00,4.982860088348388672e+00,7.609352469444274902e-01,1.103804185986518860e-01,-5.450018882751464844e+00,-4.731984138488769531e+00,-4.215295791625976562e+00,1.513678133487701416e-01,-2.424540996551513672e+00,-5.430664420127868652e-01,2.426158905029296875e+00,1.903232216835021973e+00,2.473665624856948853e-01,-4.062322974205017090e-01,-6.472895741462707520e-01,4.487845897674560547e+00,3.004262924194335938e+00,-4.710075855255126953e+00,-5.943191528320312500e+00,-2.032309770584106445e+00,4.669563293457031250e+00,9.546528816223144531e+00,5.036959648132324219e+00,-2.005707025527954102e+00,-4.857483863830566406e+00
1.881613349914550781e+01,1.387110233306884766e+01,7.927280426025390625e+00,7.573487758636474609e+00,1.255049419403076172e+01,1.784661293029785156e+01,1.593393611907958984e+01,9.188108444213867188e+00,6.234326839447021484e+00,2.411281347274780273e+00,5.792362689971923828e+00,3.358685255050659180e+00,1.407735943794250488e+00,-4.055623054504394531e+00,-5.310009717941284180e-01,7.748183608055114746e-01,2.575324296951293945e+00,5.865313529968261719e+00,3.959097385406494141e+00,6.039059638977050781e+00,8.792072296142578125e+00,1.112361431121826172e+01,1.401348209381103516e+01,1.257805347442626953e+01,2.196874469518661499e-02,-2.976320743560791016e+00,3.185212612152099609e+00,1.363513660430908203e+01,2.081498908996582031e+01,8.509413719177246094e+00,-3.904738187789916992e+00,1.742984890937805176e+00
1.633317947387695312e+01,9.069722175598144531e+00,2.077178716659545898e+00,3.905097961425781250e+00,1.300349903106689453e+01,1.209555625915527344e+01,1.148205375671386719e+01,9.263071060180664062e+00,4.284486770629882812e+00,-2.158353567123413086e+00,1.813563346862792969e+00,4.340920925140380859e+00,3.872339725494384766e+00,-3.151519894599914551e-01,-4.164341092109680176e-01,3.389180421829223633e+00,5.867221832275390625e+00,6.895159244537353516e+00,3.456259012222290039e+00,6.972185611724853516e+00,1.160350608825683594e+01,1.569145679473876953e+01,1.725644874572753906e+01,1.547411060333251953e+01,5.301838397979736328e+00,2.884628772735595703e+00,7.765747070312500000e+00,1.651655769348144531e+01,1.930018806457519531e+01,1.027544975280761719e+01,1.776190102100372314e-02,2.289718151092529297e+00
6.992096900939941406e+00,5.360258579254150391e+00,-1.096925735473632812e+00,1.284283638000488281e+00,1.111531162261962891e+01,7.447094440460205078e+00,5.878917217254638672e+00,5.425100803375244141e+00,1.195587396621704102e+00,-2.419554710388183594e+00,6.567618846893310547e-01,2.450449943542480469e+00,4.756483554840087891e+00,5.323595523834228516e+00,4.287047863006591797e+00,5.479732990264892578e+00,7.791755199432373047e+00,8.528564453125000000e+00,6.246218681335449219e+00,7.128086566925048828e+00,9.339500427246093750e+00,9.224852561950683594e+00,1.121541023254394531e+01,1.153686904907226562e+01,5.428998470306396484e+00,1.612872958183288574e+00,5.122106075286865234e+00,9.483352661132812500e+00,8.471423149108886719e+00,6.420652389526367188e+00,1.472228884696960449e+00,-9.357247352600097656e+00
4.272163391113281250e+00,7.463518619537353516e+00,-1.673043251037597656e+00,-2.570695161819458008e+00,6.584535121917724609e+00,6.300697803497314453e+00,4.970295429229736328e+00,4.538195133209228516e+00,1.451875090599060059e+00,3.192617654800415039e+00,5.840721607208251953e+00,5.151379108428955078e+00,5.695480346679687500e+00,5.616863727569580078e+00,5.121014595031738281e+00,4.968184947967529297e+00,5.582422256469726562e+00,7.769322872161865234e+00,8.469895362854003906e+00,7.570551395416259766e+00,6.579788208007812500e+00,5.804770946502685547e+00,7.443706035614013672e+00,7.813383102416992188e+00,4.635663628578186035e-01,-3.077692031860351562e+00,-9.279370307922363281e-02,6.005406856536865234e+00,6.092961788177490234e+00,5.264234066009521484e+00,-3.751984834671020508e+00,-1.404719734191894531e+01
3.936150550842285156e+00,2.207432985305786133e+00,-6.488363265991210938e+00,-6.004229068756103516e+00,3.985660314559936523e+00,3.734724760055541992e+00,4.742758274078369141e+00,8.011096954345703125e+00,3.998558998107910156e+00,4.997452259063720703e+00,4.963058471679687500e+00,4.631943702697753906e+00,2.533725261688232422e+00,5.613099336624145508e-01,-2.404616117477416992e+00,-6.587066650390625000e-01,-4.008090794086456299e-01,2.046706438064575195e+00,1.826436519622802734e+00,1.511965692043304443e-01,-5.309051275253295898e-01,1.366612315177917480e+00,1.157587885856628418e+00,1.844040751457214355e-01,-5.268313884735107422e+00,-4.412942409515380859e+00,-2.033142328262329102e+00,3.474792242050170898e+00,4.980217933654785156e+00,4.601700305938720703e+00,-7.281704425811767578e+00,-1.311863136291503906e+01
-4.179874360561370850e-01,-6.499876022338867188e+00,-8.179084777832031250e+00,-5.735748767852783203e+00,-9.872115850448608398e-01,4.866826832294464111e-01,4.799198627471923828e+00,7.131844520568847656e+00,4.076385498046875000e+00,3.455460786819458008e+00,3.428834676742553711e+00,4.013673782348632812e+00,8.729905486106872559e-01,-1.933369755744934082e+00,-6.367341041564941406e+00,-6.179114341735839844e+00,-6.059868812561035156e+00,-5.235271453857421875e+00,-7.162539005279541016e+00,-8.354106903076171875e+00,-9.021863937377929688e+00,-8.582286834716796875e+00,-8.781372070312500000e+00,-8.572122573852539062e+00,-8.835344314575195312e+00,-7.092283725738525391e+00,-7.788352489471435547e+00,-4.761752128601074219e+00,-2.516275167465209961e+00,-2.699456930160522461e+00,-9.593970298767089844e+00,-1.377023696899414062e+01
-1.132707595825195312e+01,-7.250348091125488281e+00,-3.196888923645019531e+00,-2.910083770751953125e+00,-7.443268299102783203e+00,-7.083598613739013672e+00,-2.025612115859985352e+00,9.474754333496093750e-01,2.774757146835327148e+00,3.824855089187622070e+00,1.744780778884887695e+00,-8.400511741638183594e-01,-2.561039686203002930e+00,-1.260589957237243652e+00,-2.243872404098510742e+00,-7.037466049194335938e+00,-1.021641540527343750e+01,-1.130319976806640625e+01,-9.272702217102050781e+00,-9.363155364990234375e+00,-1.113449287414550781e+01,-1.468243598937988281e+01,-1.427989006042480469e+01,-1.063341236114501953e+01,-7.112935066223144531e+00,-7.690927028656005859e+00,-1.290631294250488281e+01,-1.135052680969238281e+01,-1.001863956451416016e+01,-9.512858390808105469e+00,-1.182427501678466797e+01,-1.082782745361328125e+01
-1.297401237487792969e+01,-9.272861480712890625e+00,-1.718978285789489746e+00,3.562367856502532959e-01,-7.184107303619384766e+00,-1.056627655029296875e+01,-6.302291870117187500e+00,2.371116727590560913e-01,6.241986274719238281e+00,5.413340568542480469e+00,-1.295763611793518066e+00,-4.904856681823730469e+00,-3.857465744018554688e+00,4.774728417396545410e-02,-3.345990553498268127e-02,-5.858020305633544922e+00,-8.872486114501953125e+00,-8.669719696044921875e+00,-6.968769550323486328e+00,-7.814348220825195312e+00,-7.965798854827880859e+00,-9.498896598815917969e+00,-1.079373645782470703e+01,-7.682560443878173828e+00,-8.262993097305297852e-01,5.231954455375671387e-01,-6.957875728607177734e+00,-1.010425758361816406e+01,-1.102100658416748047e+01,-8.623023986816406250e+00,-5.825086593627929688e+00,-6.135416507720947266e+00
-8.939507484436035156e+00,-1.058961296081542969e+01,-4.187815189361572266e+00,-2.551951169967651367e+00,-6.966776371002197266e+00,-1.040420913696289062e+01,-7.608400821685791016e+00,-1.159019827842712402e+00,6.843564033508300781e+00,3.381078243255615234e+00,-5.688607692718505859e+00,-6.952679157257080078e+00,-5.354558467864990234e+00,-2.648861646652221680e+00,-2.142817497253417969e+00,-4.601815700531005859e+00,-5.043392181396484375e+00,-2.971882820129394531e+00,-2.734212398529052734e+00,-2.731379985809326172e+00,-2.343823671340942383e+00,-2.474344968795776367e+00,-3.101039171218872070e+00,-1.303146958351135254e+00,6.122081279754638672e+00,8.093442916870117188e+00,1.955910921096801758e+00,-6.528614997863769531e+00,-9.050169944763183594e+00,-4.067840099334716797e+00,5.457440376281738281e+00,5.805016756057739258e-01
-1.249475383758544922e+01,-5.290473461151123047e+00,-3.846823692321777344e+00,-7.432268619537353516e+00,-1.140091609954833984e+01,-1.457331275939941406e+01,-1.500596141815185547e+01,-8.339029312133789062e+00,-2.360287904739379883e-01,-1.458059668540954590e+00,-1.156993389129638672e+01,-1.452885055541992188e+01,-1.156880378723144531e+01,-5.516219139099121094e+00,-1.164537668228149414e-01,-2.909392595291137695e+00,-5.450360298156738281e+00,-5.133059024810791016e+00,-2.286437153816223145e-01,8.094344139099121094e-01,2.353865802288055420e-01,-2.890858173370361328e+00,-1.315418720245361328e+00,1.394127368927001953e+00,5.922714710235595703e+00,5.491188049316406250e+00,3.281153917312622070e+00,-3.114836454391479492e+00,-5.625710010528564453e+00,-9.150089025497436523e-01,8.613332748413085938e+00,9.266076087951660156e+00
-9.776395797729492188e+00,7.687502503395080566e-01,2.992972612380981445e+00,1.040255308151245117e+00,-4.564718723297119141e+00,-9.569028854370117188e+00,-1.229562187194824219e+01,-7.372481346130371094e+00,-1.047347426414489746e+00,-2.171193122863769531e+00,-1.005562686920166016e+01,-1.491613578796386719e+01,-1.119818592071533203e+01,-4.789098739624023438e+00,-3.691594302654266357e-01,-3.377160310745239258e+00,-6.243024826049804688e+00,-8.150847434997558594e+00,-5.218543052673339844e+00,-5.240565776824951172e+00,-3.933641910552978516e+00,-5.827236175537109375e+00,-3.135292768478393555e+00,-6.512991189956665039e-01,3.292484045028686523e+00,2.170057058334350586e+00,3.218629360198974609e+00,1.332877755165100098e+00,5.418510735034942627e-02,4.652044177055358887e-01,5.690686225891113281e+00,8.855317115783691406e+00
-2.895583868026733398e+00,6.144359588623046875e+00,1.305215454101562500e+01,1.337587738037109375e+01,7.088155746459960938e+00,-1.547544360160827637e+00,-3.911231756210327148e+00,5.165193080902099609e-01,4.784135818481445312e+00,2.994717061519622803e-01,-5.952166080474853516e+00,-9.542618751525878906e+00,-8.182687759399414062e+00,-5.685540676116943359e+00,-6.847603797912597656e+00,-5.988723754882812500e+00,-6.061528205871582031e+00,-5.757120132446289062e+00,-6.921201229095458984e+00,-7.091689586639404297e+00,-5.750654697418212891e+00,-2.957079648971557617e+00,1.232102274894714355e+00,2.662960767745971680e+00,4.684515953063964844e+00,3.143746614456176758e+00,4.724187850952148438e+00,3.756760358810424805e+00,3.453069686889648438e+00,1.414918780326843262e+00,4.095027923583984375e+00,3.627166509628295898e+00
-1.282130360603332520e+00,1.092078685760498047e+01,1.518686485290527344e+01,1.250474739074707031e+01,7.695219993591308594e+00,8.613241910934448242e-01,-1.717072606086730957e+00,2.415767669677734375e+00,4.177920341491699219e+00,5.796082019805908203e-01,-3.556396245956420898e+00,-4.338596820831298828e+00,-5.544501781463623047e+00,-6.593246936798095703e+00,-7.685477733612060547e+00,-3.253165006637573242e+00,-3.027907609939575195e+00,-2.318656206130981445e+00,-1.742751240730285645e+00,-4.488545954227447510e-01,8.785285055637359619e-02,4.497871875762939453e+00,8.020645141601562500e+00,7.319769382476806641e+00,6.298668861389160156e+00,4.816987514495849609e+00,6.251211166381835938e+00,5.924918174743652344e+00,4.381831169128417969e+00,2.135453462600708008e+00,5.951521873474121094e+00,1.083988475799560547e+01
1.172073006629943848e+00,8.181341171264648438e+00,7.640436172485351562e+00,7.868505954742431641e+00,7.305059909820556641e+00,4.397978305816650391e+00,1.776270717382431030e-01,1.369579195976257324e+00,1.010054230690002441e+00,-9.110235571861267090e-01,-1.202407240867614746e+00,-5.489575862884521484e-01,-2.028432607650756836e+00,-5.427077293395996094e+00,-4.178728103637695312e+00,1.542773723602294922e+00,1.607705354690551758e+00,-1.538234829902648926e+00,-4.474121093750000000e+00,-2.527368307113647461e+00,1.938699722290039062e+00,5.635132789611816406e+00,5.095013141632080078e+00,3.699953556060791016e+00,4.856978893280029297e+00,4.677404880523681641e+00,4.796599864959716797e+00,3.463763713836669922e+00,2.322170019149780273e+00,1.704040169715881348e+00,7.975190162658691406e+00,1.889359855651855469e+01
6.283692359924316406e+00,5.486941814422607422e+00,4.966372013092041016e+00,7.519657611846923828e+00,1.102747154235839844e+01,8.950211524963378906e+00,5.827968597412109375e+00,2.418643236160278320e+00,2.467096596956253052e-01,-1.360629916191101074e+00,1.192747592926025391e+00,2.248301982879638672e+00,1.649014949798583984e+00,-3.093055248260498047e+00,-5.539093494415283203e+00,2.908583581447601318e-01,2.240978956222534180e+00,-2.682289838790893555e+00,-1.104063701629638672e+01,-9.383310317993164062e+00,-4.254900455474853516e+00,-9.986104965209960938e-01,-2.731288671493530273e+00,-3.239897012710571289e+00,-8.411368131637573242e-01,1.096560135483741760e-01,-1.070590138435363770e+00,-1.906548976898193359e+00,1.651805520057678223e+00,2.876832485198974609e+00,5.659135341644287109e+00,1.375941181182861328e+01
6.597723484039306641e+00,9.587492942810058594e+00,7.943945407867431641e+00,5.580900669097900391e+00,7.824574947357177734e+00,8.562179565429687500e+00,7.713943481445312500e+00,2.077277660369873047e+00,-1.981061220169067383e+00,-1.185673356056213379e+00,2.470372915267944336e+00,5.629674434661865234e+00,4.673195838928222656e+00,-1.316250801086425781e+00,-5.718640804290771484e+00,-9.720216393470764160e-01,1.614372849464416504e+00,-2.755156040191650391e+00,-8.602838516235351562e+00,-8.519015312194824219e+00,-7.611636161804199219e+00,-3.371624946594238281e+00,-3.323671102523803711e+00,-4.236687660217285156e+00,-5.462793350219726562e+00,-4.009306907653808594e+00,-2.936053752899169922e+00,5.202130079269409180e-01,5.640969276428222656e+00,5.889801979064941406e+00,4.584365844726562500e+00,1.082463359832763672e+01
-3.951587200164794922e+00,6.380052566528320312e+00,6.470983505249023438e+00,4.425040721893310547e+00,-7.955201864242553711e-01,1.419185400009155273e-01,-2.447814345359802246e-01,8.654962182044982910e-01,-1.439745306968688965e+00,-1.377214193344116211e-01,-1.629507541656494141e-01,1.792852282524108887e+00,1.952937006950378418e+00,8.800007104873657227e-01,-1.242219209671020508e-01,-1.054530620574951172e+00,-6.024836301803588867e-01,-3.713022708892822266e+00,-3.799059152603149414e+00,-5.841877937316894531e+00,-6.375090599060058594e+00,-6.205119132995605469e+00,-7.815878868103027344e+00,-5.575463294982910156e+00,-2.638464927673339844e+00,-6.789850443601608276e-02,-2.196882486343383789e+00,-3.147650957107543945e+00,-5.980147123336791992e-01,3.051496744155883789e+00,7.089236736297607422e+00,1.354013538360595703e+01
-1.308009624481201172e+01,-2.677759408950805664e+00,6.095203399658203125e+00,7.672130107879638672e+00,-3.965195417404174805e+00,-8.604652404785156250e+00,-6.838254928588867188e+00,4.129700362682342529e-01,3.452831029891967773e+00,2.047164916992187500e+00,-3.985917329788208008e+00,-7.911176204681396484e+00,-5.986486434936523438e+00,6.700950860977172852e-01,1.706502437591552734e+00,-5.027375221252441406e+00,-7.076053619384765625e+00,-7.145949840545654297e+00,-4.707005977630615234e+00,-6.552196025848388672e+00,-8.538625717163085938e+00,-1.545170974731445312e+01,-1.743968582153320312e+01,-1.277458763122558594e+01,-1.185033082962036133e+00,2.811731338500976562e+00,-9.382914543151855469e+00,-1.609931755065917969e+01,-1.506887340545654297e+01,-4.802282810211181641e+00,4.275068759918212891e+00,1.117218780517578125e+01
-9.978951454162597656e+00,-2.497650384902954102e+00,9.964131355285644531e+00,9.824054718017578125e+00,-1.048245549201965332e+00,-8.354144096374511719e+00,-4.957393646240234375e+00,5.699040889739990234e-01,4.905693054199218750e+00,3.495359182357788086e+00,-4.356230258941650391e+00,-9.432445526123046875e+00,-8.929304122924804688e+00,-1.598325014114379883e+00,1.029311180114746094e+00,-6.296294212341308594e+00,-9.051514625549316406e+00,-5.928744792938232422e+00,-7.811046242713928223e-01,-2.295550584793090820e+00,-7.790113925933837891e+00,-1.550699996948242188e+01,-1.729897308349609375e+01,-1.580924797058105469e+01,-5.133961200714111328e+00,-1.260873079299926758e+00,-1.503536701202392578e+01,-1.792279815673828125e+01,-1.658048248291015625e+01,-8.023431777954101562e+00,-3.120870351791381836e+00,8.333196640014648438e+00
-3.789674282073974609e+00,4.988652169704437256e-01,8.459390640258789062e+00,8.364245414733886719e+00,-1.428612589836120605e+00,-4.514223575592041016e+00,-4.528561115264892578e+00,-1.308133721351623535e+00,1.657431244850158691e+00,1.198367238044738770e+00,-3.297125339508056641e+00,-5.441799640655517578e+00,-6.455509185791015625e+00,-2.124084472656250000e+00,3.423467636108398438e+00,-2.321587324142456055e+00,-5.064190864562988281e+00,2.939139008522033691e-01,7.343890666961669922e+00,6.458531856536865234e+00,1.299516439437866211e+00,-4.281647205352783203e+00,-6.855996131896972656e+00,-8.137403488159179688e+00,-3.971097469329833984e+00,-6.492095589637756348e-01,-6.723900318145751953e+00,-6.697932720184326172e+00,-6.244910240173339844e+00,-5.906370162963867188e+00,-4.550978660583496094e+00,7.154039382934570312e+00
-8.865983963012695312e+00,-4.726079940795898438e+00,7.561196088790893555e-01,1.410319566726684570e+00,-1.039934444427490234e+01,-8.893525123596191406e+00,-1.017896080017089844e+01,-5.877295017242431641e+00,-2.223893642425537109e+00,-2.021269798278808594e+00,-5.555233478546142578e+00,-5.256247997283935547e+00,-3.328970670700073242e+00,1.382538437843322754e+00,7.198059558868408203e+00,1.966814517974853516e+00,-4.334677383303642273e-02,6.099231243133544922e+00,1.270144367218017578e+01,1.316482543945312500e+01,8.341304779052734375e+00,6.460238993167877197e-02,-2.217022418975830078e+00,-1.454650402069091797e+00,1.247799396514892578e+00,3.319110870361328125e+00,1.205360889434814453e+00,-2.168417453765869141e+00,-3.790350675582885742e+00,-6.394164562225341797e+00,-1.937524199485778809e+00,4.116565704345703125e+00
-1.524168109893798828e+01,-9.035184860229492188e+00,-2.071430683135986328e+00,-2.047991991043090820e+00,-1.284971237182617188e+01,-1.430457496643066406e+01,-1.239377021789550781e+01,-5.582828521728515625e+00,-3.331169128417968750e+00,-1.310694336891174316e+00,-5.564612865447998047e+00,-3.273736476898193359e+00,4.667217433452606201e-01,4.581921100616455078e+00,7.601314067840576172e+00,5.014970779418945312e+00,4.654465198516845703e+00,7.302409648895263672e+00,1.283802986145019531e+01,1.321177196502685547e+01,8.206200599670410156e+00,-2.102028019726276398e-02,-4.150016307830810547e+00,-2.664862871170043945e+00,1.543625712394714355e+00,1.019146203994750977e+00,-1.581240177154541016e+00,-8.252868652343750000e+00,-1.081585788726806641e+01,-9.308996200561523438e+00,3.012818843126296997e-02,5.098244190216064453e+00
-2.668188571929931641e+00,-5.828260779380798340e-01,6.347131252288818359e+00,7.920033931732177734e+00,-1.399473905563354492e+00,-4.476033687591552734e+00,-2.603483915328979492e+00,1.383723378181457520e+00,8.550942540168762207e-01,2.466631889343261719e+00,2.520889520645141602e+00,4.513397693634033203e+00,5.691543102264404297e+00,4.225384235382080078e+00,3.580538034439086914e+00,4.322933197021484375e+00,4.400527000427246094e+00,3.756868600845336914e+00,5.533632755279541016e+00,6.840441226959228516e+00,4.947629451751708984e+00,3.666655540466308594e+00,1.814148664474487305e+00,-8.711774945259094238e-01,7.858055233955383301e-01,1.872667968273162842e-01,2.280526399612426758e+00,-2.444073677062988281e+00,-5.697147369384765625e+00,-6.117217540740966797e+00,2.868490457534790039e+00,1.032210636138916016e+01
1.011710739135742188e+01,1.127105903625488281e+01,1.583961772918701172e+01,1.549231910705566406e+01,5.444332122802734375e+00,4.931181907653808594e+00,5.200554847717285156e+00,4.362235069274902344e+00,3.281004190444946289e+00,3.709751605987548828e+00,8.283432960510253906e+00,8.377634048461914062e+00,8.125967979431152344e+00,2.635032415390014648e+00,9.125241041183471680e-01,2.381196260452270508e+00,3.564280271530151367e+00,1.411779999732971191e+00,-8.963292837142944336e-02,6.993854641914367676e-01,1.655461788177490234e+00,5.489186286926269531e+00,5.961842060089111328e+00,4.086131572723388672e+00,3.270863771438598633e+00,5.732340812683105469e+00,9.152752876281738281e+00,6.624344825744628906e+00,5.113708019256591797e+00,4.153348922729492188e+00,8.445967674255371094e+00,1.398498535156250000e+01
3.100040435791015625e+00,1.169330215454101562e+01,1.431323909759521484e+01,1.102998733520507812e+01,2.658646106719970703e+00,1.669967293739318848e+00,2.107170581817626953e+00,2.593161582946777344e+00,5.560851097106933594e-01,1.549415588378906250e+00,4.925207138061523438e+00,6.036385059356689453e+00,5.950186252593994141e+00,1.743482947349548340e+00,1.122300505638122559e+00,4.041177272796630859e+00,6.983458995819091797e+00,3.538817167282104492e+00,5.680224299430847168e-01,-1.503414392471313477e+00,-6.869958639144897461e-01,3.650638818740844727e+00,2.525188207626342773e+00,4.131108760833740234e+00,3.446151733398437500e+00,6.121887683868408203e+00,6.665247917175292969e+00,4.784568786621093750e+00,4.224747180938720703e+00,7.096888542175292969e+00,1.219858169555664062e+01,1.709058189392089844e+01
-7.936384677886962891e-01,4.732560157775878906e+00,6.094951629638671875e+00,5.964332103729248047e+00,2.626483201980590820e+00,2.387890815734863281e+00,1.852355837821960449e+00,2.062378883361816406e+00,-2.410139799118041992e+00,-2.120827436447143555e+00,-6.177294850349426270e-01,2.764276742935180664e+00,2.574204206466674805e+00,2.723877906799316406e+00,2.227829694747924805e+00,3.410605907440185547e+00,4.693985939025878906e+00,2.615561246871948242e+00,-1.528410613536834717e-01,-2.321582317352294922e+00,-9.312002062797546387e-01,4.142762184143066406e+00,4.872977256774902344e+00,2.379375934600830078e+00,-1.070935368537902832e+00,-8.961224555969238281e-01,7.013025879859924316e-01,2.003241062164306641e+00,7.065867185592651367e-01,1.143799066543579102e+00,7.763631343841552734e+00,1.498362350463867188e+01
9.794667243957519531e+00,5.976788520812988281e+00,2.721942424774169922e+00,4.131484508514404297e+00,4.801576614379882812e+00,7.501817703247070312e+00,4.490539550781250000e+00,-1.519417315721511841e-01,-4.792931556701660156e+00,-6.733261108398437500e+00,-2.216662645339965820e+00,9.723432362079620361e-02,-2.260478019714355469e+00,-2.486031770706176758e+00,-1.054834604263305664e+00,-1.331707358360290527e+00,-2.505357742309570312e+00,-3.015939950942993164e+00,-5.520249366760253906e+00,-6.718064785003662109e+00,-2.816441535949707031e+00,5.126176357269287109e+00,7.823020458221435547e+00,1.794149875640869141e+00,-3.537817478179931641e+00,-2.444263696670532227e+00,-7.230126857757568359e-01,2.575726032257080078e+00,5.397453784942626953e+00,2.809361457824707031e+00,2.120007038116455078e+00,9.049728393554687500e+00
1.575160789489746094e+01,1.159082508087158203e+01,5.762526512145996094e+00,5.523249149322509766e+00,7.115128040313720703e+00,9.981062889099121094e+00,6.471773624420166016e+00,8.048423528671264648e-01,-2.615140438079833984e+00,-5.090589046478271484e+00,-1.115011334419250488e+00,-7.329297661781311035e-01,-4.187360286712646484e+00,-5.698429584503173828e+00,-3.538112163543701172e+00,-2.654871463775634766e+00,-2.961992502212524414e+00,-4.761305809020996094e+00,-7.117864131927490234e+00,-7.531072139739990234e+00,-2.486398458480834961e+00,5.261592864990234375e+00,9.257186889648437500e+00,6.568553447723388672e+00,3.420059919357299805e+00,4.832330703735351562e+00,7.049657344818115234e+00,1.232883453369140625e+01,1.592929077148437500e+01,1.180670738220214844e+01,5.330361843109130859e+00,1.165917491912841797e+01
7.936635971069335938e+00,1.122497177124023438e+01,1.050582981109619141e+01,1.086338424682617188e+01,8.203100204467773438e+00,8.417002677917480469e+00,6.041814327239990234e+00,5.467334747314453125e+00,3.526239633560180664e+00,1.211236357688903809e+00,-6.754460930824279785e-01,-1.564511656761169434e+00,-2.936620712280273438e+00,-1.106362938880920410e-01,-8.637878298759460449e-01,-3.280970811843872070e+00,-3.022936582565307617e+00,-2.354233503341674805e+00,-1.016834139823913574e+00,1.276651859283447266e+00,4.571314811706542969e+00,6.426302909851074219e+00,1.013290691375732422e+01,1.115563488006591797e+01,1.260188770294189453e+01,1.263325119018554688e+01,1.467710113525390625e+01,1.640885353088378906e+01,1.443647480010986328e+01,1.262904167175292969e+01,1.227105522155761719e+01,1.531436729431152344e+01
-8.680911064147949219e-01,6.083654403686523438e+00,9.487294197082519531e+00,9.388881683349609375e+00,1.437236547470092773e+00,2.012956380844116211e+00,1.312029838562011719e+00,2.422584295272827148e+00,2.215102910995483398e+00,-7.117261290550231934e-01,-2.579944849014282227e+00,-4.339735984802246094e+00,-3.654633045196533203e+00,-1.339846730232238770e+00,-1.239694714546203613e+00,-4.863948822021484375e+00,-6.230672359466552734e+00,-2.883852005004882812e+00,7.894629240036010742e-01,6.188570022583007812e+00,6.564438819885253906e+00,3.426523685455322266e+00,2.849555969238281250e+00,5.927836894989013672e+00,9.942664146423339844e+00,1.155651664733886719e+01,8.696268081665039062e+00,3.550570249557495117e+00,1.094761610031127930e+00,5.634627342224121094e+00,1.029878044128417969e+01,7.014014720916748047e+00
-4.799479961395263672e+00,-1.851816177368164062e+00,-3.217547416687011719e+00,-4.273832798004150391e+00,-7.596056461334228516e+00,-4.558267116546630859e+00,-4.993516445159912109e+00,-6.934248447418212891e+00,-5.717662811279296875e+00,-3.470122575759887695e+00,-1.789581775665283203e+00,-3.516753435134887695e+00,-3.261153697967529297e+00,-4.027500152587890625e+00,-1.818021178245544434e+00,-2.213348865509033203e+00,-3.095116138458251953e+00,-4.512535572052001953e+00,-3.857426881790161133e+00,-1.293641924858093262e+00,-1.733886241912841797e+00,-5.198073863983154297e+00,-7.829310894012451172e+00,-4.377354145050048828e+00,-9.888751506805419922e-01,5.848693847656250000e-01,-5.724949836730957031e+00,-7.387964248657226562e+00,-6.212590694427490234e+00,-1.981703758239746094e+00,-3.419434547424316406e+00,-5.982218742370605469e+00
-1.916569232940673828e+00,-6.960186004638671875e+00,-1.289841270446777344e+01,-1.203190040588378906e+01,-6.081922531127929688e+00,-4.709802627563476562e+00,-5.886256217956542969e+00,-7.915489196777343750e+00,-6.255291461944580078e+00,-2.884106040000915527e-01,2.560971736907958984e+00,2.936100006103515625e+00,1.937390804290771484e+00,-2.539953291416168213e-01,-9.677783846855163574e-01,7.853453159332275391e-01,2.123992681503295898e+00,-2.932840883731842041e-01,-2.184403896331787109e+00,-4.226953983306884766e+00,-5.070928573608398438e+00,-6.932822704315185547e+00,-5.616490840911865234e+00,-6.245960712432861328e+00,-6.076673984527587891e+00,-6.532168388366699219e+00,-7.213736057281494141e+00,-4.245327472686767578e+00,-3.352875709533691406e+00,-4.191866397857666016e+00,-9.651046752929687500e+00,-1.342448425292968750e+01
8.879626274108886719e+00,-3.412655115127563477e+00,-9.326106071472167969e+00,-8.100129127502441406e+00,-8.958389610052108765e-02,2.542654514312744141e+00,2.636384963989257812e+00,-9.352279901504516602e-01,-9.569607377052307129e-01,3.986660003662109375e+00,9.532248497009277344e+00,1.238568305969238281e+01,1.148696994781494141e+01,6.804472923278808594e+00,4.765059471130371094e+00,7.272628784179687500e+00,9.804800033569335938e+00,1.167120170593261719e+01,9.531641006469726562e+00,7.251270771026611328e+00,4.765938282012939453e+00,5.856545448303222656e+00,6.976839065551757812e+00,7.695864439010620117e-01,-3.860823154449462891e+00,-4.035096168518066406e+00,1.567416191101074219e+00,5.648069381713867188e+00,7.105882167816162109e+00,2.866622447967529297e+00,-5.733729839324951172e+00,-1.713906669616699219e+01
1.011911964416503906e+01,1.585661530494689941e+00,-1.606961250305175781e+00,-2.694844484329223633e+00,-1.044983983039855957e+00,3.167870759963989258e+00,6.093967914581298828e+00,3.556084871292114258e+00,8.113539218902587891e-01,6.317254066467285156e+00,1.144179534912109375e+01,1.419628334045410156e+01,1.630715370178222656e+01,1.300644493103027344e+01,1.322007179260253906e+01,1.444123744964599609e+01,1.630825424194335938e+01,1.908897018432617188e+01,1.816658210754394531e+01,1.461075305938720703e+01,1.102579689025878906e+01,1.430613803863525391e+01,9.919054985046386719e+00,5.260478496551513672e+00,-5.218670964241027832e-01,6.442298740148544312e-02,3.379767894744873047e+00,9.119915008544921875e+00,1.125552082061767578e+01,7.410942554473876953e+00,8.334784954786300659e-02,-4.122507572174072266e+00
1.188992595672607422e+01,5.390879631042480469e+00,2.025419950485229492e+00,2.199790239334106445e+00,6.583649635314941406e+00,8.959493637084960938e+00,9.419463157653808594e+00,5.955095767974853516e+00,9.931935667991638184e-01,6.110499382019042969e+00,1.127499771118164062e+01,1.371332836151123047e+01,1.373226928710937500e+01,9.213413238525390625e+00,6.206593990325927734e+00,1.039525985717773438e+01,1.292780876159667969e+01,1.617218780517578125e+01,1.369577312469482422e+01,1.131238937377929688e+01,8.745326042175292969e+00,1.157103729248046875e+01,9.555154800415039062e+00,9.695364952087402344e+00,5.470168113708496094e+00,5.318019390106201172e+00,7.853844165802001953e+00,1.477184677124023438e+01,1.508137702941894531e+01,1.175922203063964844e+01,8.543394088745117188e+00,1.154404926300048828e+01
1.835163688659667969e+01,1.295656299591064453e+01,1.108244991302490234e+01,1.006283187866210938e+01,1.435236644744873047e+01,1.492818069458007812e+01,1.123576354980468750e+01,6.040638923645019531e+00,1.858843326568603516e+00,2.713540315628051758e+00,6.487587928771972656e+00,9.351492881774902344e+00,6.272358417510986328e+00,2.906054019927978516e+00,-1.502164125442504883e+00,1.955607414245605469e+00,3.350103855133056641e+00,6.972638130187988281e+00,8.209186553955078125e+00,9.138199806213378906e+00,8.206944465637207031e+00,8.057628631591796875e+00,1.016656875610351562e+01,1.154364585876464844e+01,1.002656841278076172e+01,1.073535251617431641e+01,1.290472698211669922e+01,1.495242881774902344e+01,1.515072154998779297e+01,1.409217548370361328e+01,1.436865520477294922e+01,1.773294830322265625e+01
9.693408966064453125e+00,1.416171646118164062e+01,1.508579635620117188e+01,1.131066989898681641e+01,7.384475708007812500e+00,7.996123790740966797e+00,6.153311252593994141e+00,5.087060451507568359e+00,2.398254632949829102e+00,1.370308518409729004e+00,2.205710411071777344e+00,3.778365612030029297e+00,2.025261640548706055e+00,2.489310741424560547e+00,7.565677762031555176e-01,1.882574319839477539e+00,9.733102321624755859e-01,3.129979372024536133e+00,6.278698921203613281e+00,7.272525787353515625e+00,7.993736743927001953e+00,8.118489265441894531e+00,6.800733566284179688e+00,5.537839412689208984e+00,5.935891151428222656e+00,7.248306751251220703e+00,7.262485027313232422e+00,5.271887779235839844e+00,6.342001438140869141e+00,7.941821575164794922e+00,1.090378189086914062e+01,1.350413227081298828e+01
2.528770208358764648e+00,6.193290233612060547e+00,5.467281818389892578e+00,5.520923614501953125e+00,1.955208897590637207e+00,4.664103031158447266e+00,5.465275287628173828e+00,5.177534103393554688e+00,1.616643190383911133e+00,3.796664714813232422e+00,8.613824844360351562e+00,1.112872219085693359e+01,8.955901145935058594e+00,5.408749580383300781e+00,-6.926597952842712402e-01,7.472940921783447266e+00,8.725524902343750000e+00,9.392747879028320312e+00,3.417126417160034180e+00,1.487497448921203613e+00,4.013184070587158203e+00,1.115729141235351562e+01,1.017604351043701172e+01,2.904667139053344727e+00,-1.470512270927429199e+00,-1.380533695220947266e+00,3.440294981002807617e+00,5.580806732177734375e+00,5.349600791931152344e+00,3.999647140502929688e+00,4.047835826873779297e+00,2.792583703994750977e+00
5.127113342285156250e+00,-4.071857333183288574e-01,-5.631442666053771973e-01,2.301913022994995117e+00,2.398590087890625000e+00,6.005860805511474609e+00,5.185097217559814453e+00,1.875051498413085938e+00,-1.380772709846496582e+00,1.574066877365112305e+00,8.096515655517578125e+00,1.191409111022949219e+01,7.958003997802734375e+00,1.951357364654541016e+00,-4.616454124450683594e+00,4.347164154052734375e+00,5.650281906127929688e+00,6.399996280670166016e+00,1.477415680885314941e+00,-1.875489234924316406e+00,-7.729674577713012695e-01,7.127761363983154297e+00,9.439516067504882812e+00,2.403793573379516602e+00,-6.072371482849121094e+00,-7.178009510040283203e+00,-7.848631739616394043e-01,2.915520429611206055e+00,2.381836414337158203e+00,-2.288661956787109375e+00,-5.423381805419921875e+00,-2.333125591278076172e+00
1.025328826904296875e+01,1.181449294090270996e+00,2.795648872852325439e-01,1.735019683837890625e+00,2.410418987274169922e+00,6.572770118713378906e+00,5.894421577453613281e+00,1.175538063049316406e+00,-1.591740369796752930e+00,-2.117408037185668945e+00,2.331634044647216797e+00,5.003794670104980469e+00,2.334043502807617188e+00,-1.142142176628112793e+00,-5.126663208007812500e+00,-9.602398276329040527e-01,-2.625673055648803711e+00,-9.995437860488891602e-01,6.701442599296569824e-02,2.088912427425384521e-01,-1.166167110204696655e-01,3.441344022750854492e+00,3.199504613876342773e+00,1.891777753829956055e+00,-4.173778533935546875e+00,-5.257493019104003906e+00,-2.047478675842285156e+00,1.395490527153015137e+00,2.410153150558471680e+00,-2.607068061828613281e+00,-7.254594802856445312e+00,7.986794114112854004e-01
-1.002128601074218750e+00,-3.593996047973632812e+00,-2.593257665634155273e+00,-1.159075379371643066e+00,-3.612015008926391602e+00,-4.096568584442138672e+00,-2.713531255722045898e+00,-1.225901007652282715e+00,8.047423958778381348e-01,-1.831158518791198730e+00,-2.913890123367309570e+00,-5.516844272613525391e+00,-4.317579269409179688e+00,-6.065338850021362305e-01,-4.396204948425292969e+00,-4.553125381469726562e+00,-6.658544540405273438e+00,-3.933461189270019531e+00,-1.424416780471801758e+00,-7.579067349433898926e-01,-1.689379215240478516e+00,-3.829787731170654297e+00,-7.108428001403808594e+00,-4.122328281402587891e+00,-3.483019113540649414e+00,-1.699077844619750977e+00,-8.181074261665344238e-01,-1.844297528266906738e+00,-1.641307950019836426e+00,-1.022219136357307434e-01,1.214876413345336914e+00,3.509922504425048828e+00
-1.742873764038085938e+01,-8.698938369750976562e+00,-3.154489994049072266e+00,-2.605080127716064453e+00,-7.691864967346191406e+00,-1.587385749816894531e+01,-1.494513607025146484e+01,-6.308835029602050781e+00,2.405842542648315430e+00,-1.278597116470336914e+00,-7.998594284057617188e+00,-1.279265403747558594e+01,-9.157217025756835938e+00,-2.084062099456787109e+00,-2.275048255920410156e+00,-4.513304710388183594e+00,-5.122439384460449219e+00,-9.981681108474731445e-01,2.350033283233642578e+00,-6.163395643234252930e-01,-2.555660009384155273e+00,-7.476635932922363281e+00,-1.081977844238281250e+01,-7.430912017822265625e+00,-2.639250278472900391e+00,2.236770093441009521e-01,-4.220353126525878906e+00,-1.238958263397216797e+01,-1.235255336761474609e+01,-2.405712604522705078e+00,5.353374481201171875e+00,3.976575732231140137e-01
-4.430184841156005859e+00,7.953512191772460938e+00,8.415268898010253906e+00,4.756785392761230469e+00,8.793652057647705078e-01,-3.828933477401733398e+00,-5.208869457244873047e+00,-2.038045167922973633e+00,3.271276473999023438e+00,8.755376338958740234e-01,-1.932209581136703491e-01,6.456159353256225586e-01,2.826488971710205078e+00,4.665441989898681641e+00,7.381305217742919922e+00,1.017572689056396484e+01,9.546619415283203125e+00,1.379154968261718750e+01,1.519267177581787109e+01,1.435367202758789062e+01,1.183399295806884766e+01,1.080297565460205078e+01,6.722710609436035156e+00,9.075925827026367188e+00,9.904389381408691406e+00,8.294640541076660156e+00,4.246015071868896484e+00,-1.444327086210250854e-01,-1.755990505218505859e+00,2.638037443161010742e+00,7.038129806518554688e+00,5.604003906250000000e+00
1.266990280151367188e+01,1.773008346557617188e+01,1.526702213287353516e+01,1.239401817321777344e+01,1.260267829895019531e+01,1.088617515563964844e+01,8.201482772827148438e+00,6.266537189483642578e+00,5.918210029602050781e+00,4.927944660186767578e+00,9.139091491699218750e+00,1.385748481750488281e+01,1.516591548919677734e+01,1.141862869262695312e+01,9.201433181762695312e+00,1.363102436065673828e+01,1.605571365356445312e+01,2.044886779785156250e+01,1.845149803161621094e+01,2.100115203857421875e+01,1.915391349792480469e+01,2.069250488281250000e+01,1.746374130249023438e+01,1.649771881103515625e+01,1.313113307952880859e+01,9.757774353027343750e+00,1.257787704467773438e+01,1.412193393707275391e+01,1.190648841857910156e+01,8.859920501708984375e+00,9.595521926879882812e+00,1.084700012207031250e+01
1.812160968780517578e+00,2.273892760276794434e-01,1.975281357765197754e+00,2.143921852111816406e+00,2.975682497024536133e+00,-1.245441555976867676e+00,-2.829168081283569336e+00,-1.169698834419250488e+00,1.032758593559265137e+00,-1.510237343609333038e-02,1.694381237030029297e-01,1.235119462013244629e+00,3.106892108917236328e+00,1.448882818222045898e+00,-2.831382989883422852e+00,-1.204192399978637695e+00,1.865184493362903595e-02,2.200250625610351562e+00,9.114162921905517578e-01,4.024792194366455078e+00,3.122356891632080078e+00,1.632510900497436523e+00,1.634505271911621094e+00,1.113165169954299927e-01,-1.557396292686462402e+00,-6.029033064842224121e-01,3.290249109268188477e+00,1.520341396331787109e+00,4.531978368759155273e-01,-3.732786774635314941e-01,2.089750617742538452e-01,-1.227565765380859375e+00
-1.403148651123046875e+01,-1.573655033111572266e+01,-1.402379131317138672e+01,-1.536845493316650391e+01,-1.594131469726562500e+01,-1.727844619750976562e+01,-1.551068019866943359e+01,-1.194503116607666016e+01,-7.590912818908691406e+00,-7.746888160705566406e+00,-1.062346744537353516e+01,-1.287119388580322266e+01,-1.289020347595214844e+01,-9.318559646606445312e+00,-7.548766613006591797e+00,-9.045911788940429688e+00,-1.313884449005126953e+01,-1.199524879455566406e+01,-9.753364562988281250e+00,-6.521217346191406250e+00,-9.387882232666015625e+00,-1.211755180358886719e+01,-1.334710788726806641e+01,-1.072066879272460938e+01,-7.552915096282958984e+00,-6.299906253814697266e+00,-9.815765380859375000e+00,-1.443699550628662109e+01,-1.523190975189208984e+01,-1.304710483551025391e+01,-1.192751884460449219e+01,-1.354824447631835938e+01
-7.436458110809326172e+00,-1.364140510559082031e+01,-1.439405155181884766e+01,-1.619119453430175781e+01,-1.511654853820800781e+01,-1.280502605438232422e+01,-9.902241706848144531e+00,-9.564910888671875000e+00,-8.613346099853515625e+00,-7.267363071441650391e+00,-6.918588638305664062e+00,-7.694122314453125000e+00,-1.021435737609863281e+01,-7.612066745758056641e+00,-5.295319080352783203e+00,-6.361447334289550781e+00,-1.042075538635253906e+01,-7.753850460052490234e+00,-6.381760120391845703e+00,-3.190018892288208008e+00,-6.680276870727539062e+00,-7.448343753814697266e+00,-1.226946353912353516e+01,-9.354615211486816406e+00,-6.047923088073730469e+00,-6.582582473754882812e+00,-1.267607116699218750e+01,-1.306180095672607422e+01,-1.236515331268310547e+01,-1.072309207916259766e+01,-9.730560302734375000e+00,-1.129956722259521484e+01
7.450635433197021484e-01,-9.785923957824707031e+00,-1.102543258666992188e+01,-1.031323146820068359e+01,-6.876124382019042969e+00,-5.233860015869140625e+00,-3.952336072921752930e+00,-4.334025859832763672e+00,-5.173195362091064453e+00,-5.030559539794921875e+00,-2.448238372802734375e+00,-2.756401062011718750e+00,-4.513006687164306641e+00,-6.166927814483642578e+00,-5.986008167266845703e+00,-6.552915573120117188e+00,-6.360979080200195312e+00,-4.706114292144775391e+00,-3.871338129043579102e+00,-1.933066248893737793e+00,-3.970788002014160156e+00,-4.716649532318115234e+00,-7.385700225830078125e+00,-9.323828697204589844e+00,-7.737406730651855469e+00,-7.039935588836669922e+00,-8.476420402526855469e+00,-6.147807121276855469e+00,-3.959164381027221680e+00,-3.887787103652954102e+00,-6.789491176605224609e+00,-1.187446403503417969e+01
-7.877677917480468750e+00,-1.130308437347412109e+01,-1.252301788330078125e+01,-1.065154647827148438e+01,-7.251043796539306641e+00,-5.792900562286376953e+00,-3.636699676513671875e+00,-1.967795372009277344e+00,-3.354172229766845703e+00,-3.040299177169799805e+00,-3.022421896457672119e-01,-3.197541713714599609e+00,-3.806990861892700195e+00,-4.109232902526855469e+00,-2.504733800888061523e+00,-5.064688682556152344e+00,-6.630970954895019531e+00,-5.780474185943603516e+00,-4.574538230895996094e+00,-1.390522718429565430e+00,-3.338124752044677734e+00,-3.573489904403686523e+00,-3.843932628631591797e+00,-6.690282344818115234e+00,-5.694407463073730469e+00,-6.466246128082275391e+00,-7.015876293182373047e+00,-6.662000179290771484e+00,-6.366359233856201172e+00,-6.743385791778564453e+00,-1.133113574981689453e+01,-1.818977165222167969e+01
-9.311859130859375000e+00,-7.588804244995117188e+00,-8.259630203247070312e+00,-4.259916782379150391e+00,-1.091600954532623291e-02,1.489261507987976074e+00,2.696837663650512695e+00,2.801126718521118164e+00,-1.178536057472229004e+00,-4.427295029163360596e-01,7.487696409225463867e-01,-4.128880023956298828e+00,-5.724610328674316406e+00,-9.755212664604187012e-01,3.045600354671478271e-01,-4.317869663238525391e+00,-9.178290367126464844e+00,-4.681257724761962891e+00,-2.342581510543823242e+00,1.472080707550048828e+00,-4.001771211624145508e-01,-2.301490306854248047e+00,-3.395520925521850586e+00,-2.338416099548339844e+00,-2.799667835235595703e+00,-6.725469112396240234e+00,-9.270775794982910156e+00,-9.501297950744628906e+00,-1.039628410339355469e+01,-1.061427402496337891e+01,-1.112969970703125000e+01,-1.789863014221191406e+01
-8.565020561218261719e+00,-8.292467117309570312e+00,-8.657219886779785156e+00,-4.146541595458984375e+00,2.274884730577468872e-01,-6.402347683906555176e-01,-2.128288984298706055e+00,-1.689633488655090332e+00,-3.500894546508789062e+00,-4.056559562683105469e+00,-7.043715476989746094e+00,-1.109186363220214844e+01,-1.075433158874511719e+01,-4.734642028808593750e+00,-2.818191051483154297e+00,-7.724627494812011719e+00,-1.155687999725341797e+01,-8.701942443847656250e+00,-3.272050380706787109e+00,-2.382056713104248047e+00,-2.992585897445678711e+00,-8.281865119934082031e+00,-8.395406723022460938e+00,-7.633478164672851562e+00,-7.786982059478759766e+00,-1.125372886657714844e+01,-1.296293354034423828e+01,-1.329130077362060547e+01,-1.307035160064697266e+01,-1.408496761322021484e+01,-1.291733169555664062e+01,-1.748043441772460938e+01
-1.943126296997070312e+01,-1.718208312988281250e+01,-1.795193862915039062e+01,-1.798327445983886719e+01,-1.784525108337402344e+01,-2.143525695800781250e+01,-2.192228317260742188e+01,-1.529199123382568359e+01,-1.073969650268554688e+01,-9.278546333312988281e+00,-1.961599349975585938e+01,-2.270177841186523438e+01,-1.691569709777832031e+01,-8.150335311889648438e+00,-4.011208057403564453e+00,-1.142754650115966797e+01,-1.481155776977539062e+01,-1.668368148803710938e+01,-6.066580295562744141e+00,-8.113479614257812500e+00,-6.911836147308349609e+00,-1.736316299438476562e+01,-1.680665206909179688e+01,-1.652457046508789062e+01,-1.491210174560546875e+01,-1.587127208709716797e+01,-1.524693679809570312e+01,-1.846110725402832031e+01,-1.880555915832519531e+01,-1.894497489929199219e+01,-1.468303012847900391e+01,-1.542029285430908203e+01
-1.627384567260742188e+01,-1.075362682342529297e+01,-1.068568611145019531e+01,-1.427787113189697266e+01,-1.552303791046142578e+01,-1.813305854797363281e+01,-1.432885646820068359e+01,-9.273675918579101562e+00,-6.388011455535888672e+00,-6.055587530136108398e-01,-9.316102027893066406e+00,-1.313080883026123047e+01,-8.302352905273437500e+00,3.919571638107299805e+00,7.300158500671386719e+00,-2.563766002655029297e+00,-9.291961669921875000e+00,-7.807761669158935547e+00,3.845781564712524414e+00,2.365328788757324219e+00,6.276194453239440918e-01,-1.159610843658447266e+01,-1.311270618438720703e+01,-9.928335189819335938e+00,-8.808355331420898438e+00,-7.525618076324462891e+00,-9.586765289306640625e+00,-1.226396274566650391e+01,-1.273445987701416016e+01,-7.901676177978515625e+00,-3.971972942352294922e+00,-9.794239044189453125e+00
-1.519257259368896484e+01,-9.057751655578613281e+00,-2.463408946990966797e+00,-2.629106521606445312e+00,-3.609415054321289062e+00,-9.318953514099121094e+00,-7.011913776397705078e+00,-3.140605449676513672e+00,-8.431206345558166504e-01,3.810775279998779297e+00,-1.318112134933471680e+00,-4.130151748657226562e+00,7.117272913455963135e-02,8.125660896301269531e+00,1.280778789520263672e+01,5.955626487731933594e+00,1.746151924133300781e+00,1.905883550643920898e+00,1.004561138153076172e+01,4.482381820678710938e+00,5.087742805480957031e-01,-1.003225803375244141e+01,-1.217650985717773438e+01,-8.627149581909179688e+00,-8.179946899414062500e+00,-9.770535469055175781e+00,-1.496322917938232422e+01,-1.608966827392578125e+01,-1.509789180755615234e+01,-9.793733596801757812e+00,-7.446919441223144531e+00,-1.823773384094238281e+01
-1.354317569732666016e+01,-9.392789840698242188e+00,-4.920470714569091797e+00,1.684880554676055908e-01,5.251839637756347656e+00,-2.158132314682006836e+00,-2.172735452651977539e+00,2.797391414642333984e+00,5.049157619476318359e+00,1.259084105491638184e+00,-4.595121860504150391e+00,-6.898101806640625000e+00,-2.791038751602172852e+00,-2.433544158935546875e+00,2.765560388565063477e+00,-2.393864244222640991e-01,-1.576926827430725098e+00,-5.245918273925781250e+00,-3.825894117355346680e+00,-8.769419670104980469e+00,-9.329748153686523438e+00,-1.387144374847412109e+01,-1.301194477081298828e+01,-1.113419914245605469e+01,-1.325286102294921875e+01,-1.509811401367187500e+01,-1.692876815795898438e+01,-1.637471199035644531e+01,-1.672731208801269531e+01,-1.637248802185058594e+01,-1.488212013244628906e+01,-1.918295097351074219e+01
-9.041799545288085938e+00,-5.099602222442626953e+00,-4.081150531768798828e+00,2.248442322015762329e-01,2.693850994110107422e+00,-8.383577466011047363e-01,6.219081282615661621e-01,4.766856670379638672e+00,4.511613845825195312e+00,-3.105508089065551758e+00,-6.272383213043212891e+00,-9.489185333251953125e+00,-8.590288162231445312e+00,-8.842597961425781250e+00,-6.352484226226806641e+00,-7.844788074493408203e+00,-7.771950244903564453e+00,-8.666721343994140625e+00,-9.280517578125000000e+00,-8.437996864318847656e+00,-7.181565761566162109e+00,-8.479635238647460938e+00,-7.639942169189453125e+00,-5.143525600433349609e+00,-8.245244979858398438e+00,-8.379128456115722656e+00,-7.860956192016601562e+00,-8.309315681457519531e+00,-9.713114738464355469e+00,-8.662337303161621094e+00,-1.531682610511779785e+00,1.732759177684783936e-01
-3.862421512603759766e+00,9.022877693176269531e+00,1.288020133972167969e+01,1.059459018707275391e+01,1.070695161819458008e+00,-1.924464106559753418e+00,-1.264674544334411621e+00,1.629171371459960938e+00,4.182571768760681152e-01,-4.880437850952148438e+00,-3.051783561706542969e+00,-6.572279453277587891e+00,-1.042457008361816406e+01,-1.083209800720214844e+01,-3.653166055679321289e+00,-3.506147623062133789e+00,-3.379904985427856445e+00,-1.716594815254211426e+00,-1.463234186172485352e+00,1.758678674697875977e+00,1.793895721435546875e+00,1.499721765518188477e+00,5.671827197074890137e-01,1.479822397232055664e+00,3.055257797241210938e-01,2.158117532730102539e+00,1.813444972038269043e+00,-3.952242061495780945e-02,-3.862625733017921448e-02,3.213784456253051758e+00,1.393447685241699219e+01,2.248944664001464844e+01
6.742588043212890625e+00,1.087358570098876953e+01,2.650803565979003906e+00,-3.239816427230834961e+00,-2.271256208419799805e+00,1.817529350519180298e-01,-3.670079708099365234e+00,-5.913269519805908203e+00,-5.783358097076416016e+00,-7.043064594268798828e+00,-3.774875879287719727e+00,-5.022722721099853516e+00,-8.599966049194335938e+00,-1.047538948059082031e+01,-4.388847351074218750e+00,1.269430398941040039e+00,8.190845847129821777e-01,1.501378864049911499e-01,-3.034211635589599609e+00,6.736750006675720215e-01,1.970133781433105469e+00,4.359962463378906250e+00,5.833321571350097656e+00,3.729789018630981445e+00,1.453384995460510254e+00,1.187036871910095215e+00,3.651064872741699219e+00,7.095549583435058594e+00,8.346625328063964844e+00,4.402391910552978516e+00,3.781490325927734375e+00,4.379155158996582031e+00
1.000595188140869141e+01,5.166436672210693359e+00,-7.520150184631347656e+00,-1.236975955963134766e+01,-5.732470035552978516e+00,2.413930416107177734e+00,-5.538995862007141113e-01,-5.936553955078125000e+00,-6.585928916931152344e+00,-5.928620815277099609e+00,-9.221600294113159180e-01,1.147370696067810059e+00,-9.382751584053039551e-01,-5.996472358703613281e+00,-8.200922012329101562e+00,-3.465132474899291992e+00,-1.944502115249633789e+00,-2.582527875900268555e+00,-7.641258716583251953e+00,-2.460149765014648438e+00,9.091820716857910156e-01,3.742574214935302734e+00,4.751860141754150391e+00,4.387487411499023438e+00,2.023535370826721191e-01,-2.585971355438232422e+00,1.704752743244171143e-01,7.487578392028808594e+00,9.744348526000976562e+00,3.900464534759521484e+00,5.211908817291259766e-01,-5.759654045104980469e-01
8.080310821533203125e+00,4.489040374755859375e+00,-2.558653116226196289e+00,-6.845407485961914062e+00,-4.721415042877197266e+00,1.254181027412414551e+00,1.895732760429382324e+00,-1.818238615989685059e+00,-5.108786106109619141e+00,-2.873777627944946289e+00,2.992684364318847656e+00,4.960497379302978516e+00,2.219419240951538086e+00,-5.024531364440917969e+00,-9.496701240539550781e+00,-6.030386447906494141e+00,-2.760791778564453125e+00,-2.438444852828979492e+00,-4.557899475097656250e+00,-8.846682310104370117e-01,5.841094851493835449e-01,3.042518854141235352e+00,1.760759472846984863e+00,1.483509182929992676e+00,4.924536645412445068e-01,1.613832235336303711e+00,1.307981014251708984e+00,6.021440029144287109e+00,7.567255973815917969e+00,6.019414901733398438e+00,6.379230976104736328e+00,3.725393295288085938e+00
6.923496723175048828e-01,9.145352840423583984e-01,-1.317497253417968750e+00,-1.442646026611328125e+00,1.875867694616317749e-02,-6.371452212333679199e-01,1.773899912834167480e+00,4.582036972045898438e+00,5.858430862426757812e-01,1.759157061576843262e+00,2.933959722518920898e+00,1.952506184577941895e+00,-9.459402561187744141e-01,-3.102113485336303711e+00,-4.581432819366455078e+00,-2.519147157669067383e+00,-3.298991441726684570e+00,-4.998171806335449219e+00,-4.768444061279296875e+00,-4.220168113708496094e+00,-4.789631366729736328e+00,-3.316032648086547852e+00,-4.155597686767578125e+00,-6.591106414794921875e+00,-2.468696594238281250e+00,1.639116168022155762e+00,1.211603045463562012e+00,9.543451666831970215e-01,-1.277708768844604492e+00,-1.844093918800354004e+00,2.049424409866333008e+00,-4.235877990722656250e+00
-6.294176578521728516e+00,-3.240792751312255859e+00,-4.589362740516662598e-01,6.989973068237304688e+00,9.894740104675292969e+00,5.390718936920166016e+00,6.237298011779785156e+00,1.083046340942382812e+01,8.422472000122070312e+00,4.286766529083251953e+00,6.986480951309204102e-01,-3.406929731369018555e+00,-3.139954328536987305e+00,3.845022320747375488e-01,-7.229912877082824707e-01,-3.860168218612670898e+00,-6.585082054138183594e+00,-9.065428733825683594e+00,-7.245350837707519531e+00,-6.638353347778320312e+00,-7.171532630920410156e+00,-1.065423488616943359e+01,-1.099215126037597656e+01,-1.028309535980224609e+01,-5.886419773101806641e+00,-6.456143856048583984e+00,-7.880893230438232422e+00,-8.976032257080078125e+00,-1.183345508575439453e+01,-1.051364231109619141e+01,-9.242087006568908691e-01,-2.745296239852905273e+00
-6.749567508697509766e+00,4.539299011230468750e+00,5.460535049438476562e+00,1.129083347320556641e+01,1.514215087890625000e+01,1.073246860504150391e+01,7.715754032135009766e+00,7.558374404907226562e+00,6.659705162048339844e+00,2.758851945400238037e-01,-3.498081207275390625e+00,-9.292336463928222656e+00,-6.389279842376708984e+00,-2.267122983932495117e+00,-3.778659820556640625e+00,-8.236797332763671875e+00,-9.072887420654296875e+00,-9.071944236755371094e+00,-7.342255115509033203e+00,-6.527099609375000000e+00,-7.082112789154052734e+00,-1.041843700408935547e+01,-1.176195430755615234e+01,-9.744368553161621094e+00,-7.015305519104003906e+00,-9.137805938720703125e+00,-1.191167831420898438e+01,-1.049640274047851562e+01,-9.510983467102050781e+00,-7.450942993164062500e+00,1.660777488723397255e-03,3.939790487289428711e+00
-2.978909015655517578e+00,1.384746551513671875e+01,1.131018447875976562e+01,9.067448616027832031e+00,9.070376396179199219e+00,4.739460468292236328e+00,1.663332104682922363e+00,2.417755603790283203e+00,2.599308729171752930e+00,-1.884664535522460938e+00,-5.304318428039550781e+00,-8.862204551696777344e+00,-7.718574523925781250e+00,-4.782919883728027344e+00,-6.461149215698242188e+00,-7.232725143432617188e+00,-9.446783065795898438e+00,-9.837371826171875000e+00,-1.200616550445556641e+01,-1.350659179687500000e+01,-1.335358142852783203e+01,-8.934597015380859375e+00,-7.821301460266113281e+00,-8.506759643554687500e+00,-7.108575820922851562e+00,-5.163655281066894531e+00,-5.113626956939697266e+00,-2.808763027191162109e+00,-1.011276364326477051e+00,-1.171203136444091797e+00,3.226324796676635742e+00,1.106334877014160156e+01
8.221549540758132935e-02,9.315813064575195312e+00,1.241571617126464844e+01,9.113414764404296875e+00,3.502387523651123047e+00,-7.791017293930053711e-01,-5.443354845046997070e-01,3.664167165756225586e+00,4.687478542327880859e+00,1.113914012908935547e+00,-4.776672363281250000e+00,-4.468625068664550781e+00,-2.735346317291259766e+00,2.558420971035957336e-02,-4.818769931793212891e+00,-3.001801967620849609e+00,-3.719743013381958008e+00,-6.905595302581787109e+00,-1.255649375915527344e+01,-1.570503616333007812e+01,-1.291742515563964844e+01,-6.723197937011718750e+00,-3.123928308486938477e+00,-3.204133749008178711e+00,-2.654352664947509766e+00,-2.871535062789916992e+00,-1.062632679939270020e+00,2.273658514022827148e+00,3.317395925521850586e+00,2.539588451385498047e+00,1.220719814300537109e+01,1.981523323059082031e+01
-1.097572922706604004e+00,8.858095169067382812e+00,2.114389801025390625e+01,2.121049690246582031e+01,9.080694198608398438e+00,2.319108247756958008e+00,2.777031660079956055e+00,6.812466144561767578e+00,9.592513084411621094e+00,5.859835147857666016e+00,-2.151533216238021851e-01,-2.598870992660522461e-01,1.926057696342468262e+00,1.850693821907043457e+00,-1.488515853881835938e+00,7.900666594505310059e-01,4.217435359954833984e+00,1.671739816665649414e+00,-1.459025144577026367e+00,-3.432010173797607422e+00,-1.007015705108642578e+00,2.087599515914916992e+00,3.682929039001464844e+00,4.507807254791259766e+00,4.235019207000732422e+00,2.549557447433471680e+00,2.330217838287353516e+00,3.086281061172485352e+00,3.398934841156005859e+00,5.992824077606201172e+00,1.786465835571289062e+01,3.120391654968261719e+01
7.317888140678405762e-01,1.645186996459960938e+01,2.668076133728027344e+01,2.601349830627441406e+01,1.106518459320068359e+01,3.943747520446777344e+00,4.350975036621093750e+00,9.070960998535156250e+00,1.014963340759277344e+01,8.621544837951660156e+00,5.978626251220703125e+00,6.130902290344238281e+00,5.793647766113281250e+00,6.220918178558349609e+00,7.151365756988525391e+00,9.033579826354980469e+00,1.016516971588134766e+01,1.327857303619384766e+01,1.416857337951660156e+01,1.391504764556884766e+01,1.180062103271484375e+01,1.448623371124267578e+01,1.272680950164794922e+01,1.218741893768310547e+01,1.210930633544921875e+01,1.351568126678466797e+01,1.420884990692138672e+01,9.904891967773437500e+00,6.638613224029541016e+00,1.126172351837158203e+01,2.244850730895996094e+01,3.687260055541992188e+01
2.890477180480957031e+00,1.831616973876953125e+01,1.968287086486816406e+01,1.876683425903320312e+01,1.181503105163574219e+01,1.044144058227539062e+01,1.081534671783447266e+01,1.157680511474609375e+01,7.739097118377685547e+00,6.818500518798828125e+00,8.633987426757812500e+00,1.291298007965087891e+01,1.234135627746582031e+01,1.099394130706787109e+01,8.846418380737304688e+00,9.956603050231933594e+00,9.942136764526367188e+00,1.291130638122558594e+01,1.142885971069335938e+01,1.158446025848388672e+01,1.042736625671386719e+01,1.316672039031982422e+01,1.144142150878906250e+01,1.121154022216796875e+01,1.063816928863525391e+01,1.169145107269287109e+01,1.371809387207031250e+01,1.401796531677246094e+01,1.227085018157958984e+01,1.447944927215576172e+01,2.193729209899902344e+01,3.237551879882812500e+01
8.780659437179565430e-01,1.353757953643798828e+01,5.629997730255126953e+00,5.724015712738037109e+00,1.450547122955322266e+01,1.725384521484375000e+01,1.489226627349853516e+01,9.425333976745605469e+00,6.376372337341308594e+00,3.378308057785034180e+00,4.624531745910644531e+00,7.550298690795898438e+00,8.510612487792968750e+00,3.741236925125122070e+00,3.127788007259368896e-01,9.683282375335693359e-01,4.653019428253173828e+00,3.500409364700317383e+00,8.094021677970886230e-01,-1.413238048553466797e-01,-2.981069982051849365e-01,5.561081171035766602e-01,5.451425164937973022e-02,1.236320972442626953e+00,1.359747171401977539e+00,1.764896869659423828e+00,1.359695672988891602e+00,7.060380458831787109e+00,1.210798931121826172e+01,1.101140975952148438e+01,6.062849521636962891e+00,8.758341789245605469e+00
-3.262066841125488281e+00,1.652265930175781250e+01,1.517172718048095703e+01,1.384390544891357422e+01,1.359925174713134766e+01,1.113548278808593750e+01,6.801134109497070312e+00,5.580379486083984375e+00,6.253531932830810547e+00,1.511269092559814453e+00,-1.033362865447998047e+00,-2.957195043563842773e+00,-3.044645071029663086e+00,-3.559434890747070312e+00,-8.972572684288024902e-01,-2.161074638366699219e+00,3.439792692661285400e-01,2.480572462081909180e+00,5.695199489593505859e+00,1.817796587944030762e+00,-2.770022630691528320e+00,-5.307754039764404297e+00,-6.408249378204345703e+00,-6.032001018524169922e+00,-3.129142284393310547e+00,-4.374788403511047363e-01,-1.650488853454589844e+00,-1.281080484390258789e+00,3.166642189025878906e+00,3.111543893814086914e+00,2.522104740142822266e+00,2.082194519042968750e+01
-3.757562875747680664e+00,9.757620811462402344e+00,1.340529441833496094e+01,1.342238616943359375e+01,8.139113426208496094e+00,5.012429714202880859e+00,1.545859932899475098e+00,1.669794201850891113e+00,1.516661286354064941e+00,-3.514227867126464844e-01,-7.407554984092712402e-01,-1.710802674293518066e+00,-2.010371446609497070e+00,1.210245132446289062e+00,5.097920894622802734e+00,2.833868741989135742e+00,2.258125305175781250e+00,5.533903598785400391e+00,9.602622032165527344e+00,6.551477432250976562e+00,2.157108783721923828e+00,-8.991159200668334961e-01,-1.640844821929931641e+00,-1.938209056854248047e+00,-1.739557147026062012e+00,-4.856134057044982910e-01,4.630585610866546631e-01,-6.620472669601440430e-01,-1.389886379241943359e+00,-3.294881582260131836e-01,5.126865386962890625e+00,1.821920585632324219e+01
5.312554836273193359e+00,5.653755664825439453e+00,5.550707340240478516e+00,4.773445129394531250e+00,3.841918230056762695e+00,5.895307064056396484e+00,3.835920333862304688e+00,1.664914369583129883e+00,4.388748854398727417e-02,1.180549263954162598e+00,3.366998195648193359e+00,3.887175083160400391e+00,3.623496532440185547e+00,4.117389678955078125e+00,3.590317010879516602e+00,5.036349773406982422e+00,5.189201354980468750e+00,3.610327959060668945e+00,1.388797640800476074e+00,3.784979820251464844e+00,6.252007007598876953e+00,7.832570552825927734e+00,8.643576622009277344e+00,8.211968421936035156e+00,4.108202457427978516e+00,1.432573914527893066e+00,2.003733158111572266e+00,7.181921482086181641e+00,6.145299911499023438e+00,4.070717334747314453e+00,4.627857685089111328e+00,7.633447170257568359e+00
1.414104080200195312e+01,2.525103092193603516e+00,2.073979854583740234e+00,1.012171268463134766e+00,2.645648419857025146e-01,2.039505481719970703e+00,9.087821841239929199e-01,1.582908987998962402e+00,2.210053205490112305e+00,2.227946281433105469e+00,3.695279121398925781e+00,5.232785224914550781e+00,3.261104822158813477e+00,5.376105308532714844e-01,-1.190049290657043457e+00,1.860875964164733887e+00,1.418066143989562988e+00,9.311718940734863281e-01,-7.777887582778930664e-01,3.607775926589965820e+00,7.645971775054931641e+00,1.038782787322998047e+01,1.236183261871337891e+01,9.999418258666992188e+00,8.130088806152343750e+00,5.592654228210449219e+00,6.580002307891845703e+00,9.625328063964843750e+00,8.700624465942382812e+00,4.295963287353515625e+00,3.029745817184448242e+00,7.510008335113525391e+00
1.198551368713378906e+01,-7.849350571632385254e-01,2.691540956497192383e+00,4.809518814086914062e+00,3.007044315338134766e+00,8.463824987411499023e-01,2.603571653366088867e+00,5.968769550323486328e+00,6.814146518707275391e+00,4.139657974243164062e+00,4.707005023956298828e+00,6.302811145782470703e+00,6.041208744049072266e+00,3.138251304626464844e+00,3.435318470001220703e+00,2.370211839675903320e+00,1.465755462646484375e+00,4.179024219512939453e+00,7.111272335052490234e+00,8.574149131774902344e+00,8.838747024536132812e+00,8.268964767456054688e+00,8.882785797119140625e+00,5.271338939666748047e+00,6.479794979095458984e+00,7.204966545104980469e+00,1.079308795928955078e+01,8.617168426513671875e+00,7.439718246459960938e+00,6.451603412628173828e+00,1.033237361907958984e+01,6.281421661376953125e+00
1.023751068115234375e+01,6.225761413574218750e+00,7.314955234527587891e+00,1.017024803161621094e+01,9.594703674316406250e+00,9.589019775390625000e+00,1.076433181762695312e+01,1.161878108978271484e+01,7.322804927825927734e+00,6.286298751831054688e+00,9.670544624328613281e+00,1.083236312866210938e+01,1.051011276245117188e+01,8.399569511413574219e+00,9.001338005065917969e+00,8.332565307617187500e+00,9.205669403076171875e+00,8.328861236572265625e+00,8.061437606811523438e+00,9.652875900268554688e+00,9.288661956787109375e+00,8.949497222900390625e+00,8.661438941955566406e+00,8.031341552734375000e+00,7.141227245330810547e+00,8.318619728088378906e+00,9.296597480773925781e+00,1.104943943023681641e+01,1.152967262268066406e+01,1.078762912750244141e+01,1.083473682403564453e+01,1.670192599296569824e+00
1.775484848022460938e+01,1.982964134216308594e+01,9.343775749206542969e+00,7.203814029693603516e+00,1.307026672363281250e+01,1.852048873901367188e+01,1.602613449096679688e+01,1.196815013885498047e+01,4.884720325469970703e+00,7.382846355438232422e+00,1.289052391052246094e+01,1.584791946411132812e+01,1.216451263427734375e+01,8.238548278808593750e+00,7.530399322509765625e+00,1.212448310852050781e+01,1.431136512756347656e+01,1.213635921478271484e+01,7.990546226501464844e+00,1.079068660736083984e+01,1.136380195617675781e+01,1.437073802947998047e+01,1.551532649993896484e+01,1.597252273559570312e+01,1.284016323089599609e+01,1.330923175811767578e+01,1.353891563415527344e+01,1.868209457397460938e+01,1.974930572509765625e+01,1.700610542297363281e+01,1.299228191375732422e+01,7.291952133178710938e+00
8.208897590637207031e+00,1.427583789825439453e+01,6.012789249420166016e+00,3.376529216766357422e+00,8.737174987792968750e+00,1.243227386474609375e+01,8.501137733459472656e+00,5.184086322784423828e+00,3.115473508834838867e+00,4.855003356933593750e+00,5.224150180816650391e+00,8.823789596557617188e+00,8.409192085266113281e+00,5.485311508178710938e+00,4.165053367614746094e+00,6.094788551330566406e+00,8.088201522827148438e+00,1.144172000885009766e+01,1.144401741027832031e+01,1.020006561279296875e+01,9.792014122009277344e+00,1.200214004516601562e+01,1.242197322845458984e+01,9.861160278320312500e+00,7.938155174255371094e+00,6.790103435516357422e+00,9.318112373352050781e+00,1.188110733032226562e+01,1.273676967620849609e+01,1.177238750457763672e+01,1.436446762084960938e+01,7.514369487762451172e+00
-1.074889469146728516e+01,-1.745444893836975098e+00,5.368188619613647461e-01,1.337637066841125488e+00,-1.007440567016601562e+00,-1.296951413154602051e+00,-4.247099399566650391e+00,-2.471957921981811523e+00,-3.077037334442138672e-01,3.724507987499237061e-01,-3.699398279190063477e+00,-3.898259162902832031e+00,-9.096302390098571777e-01,1.669756531715393066e+00,1.297714114189147949e+00,-1.125535726547241211e+00,-3.913179337978363037e-01,3.986891984939575195e+00,7.971662998199462891e+00,6.560769081115722656e+00,4.205982208251953125e+00,2.810363292694091797e+00,6.301959753036499023e-01,2.623289525508880615e-01,2.084996700286865234e+00,4.924938380718231201e-01,-2.444493472576141357e-01,-1.910822391510009766e+00,-1.832923531532287598e+00,-6.753394603729248047e-01,2.392010450363159180e+00,-3.529535293579101562e+00
-1.064753055572509766e+01,-8.150268197059631348e-01,-7.874153256416320801e-01,-1.526944518089294434e+00,-3.385497331619262695e+00,-4.362965583801269531e+00,-5.870422840118408203e+00,-2.841260194778442383e+00,-1.626444578170776367e+00,-1.529526710510253906e+00,-3.755436897277832031e+00,-6.923975467681884766e+00,-8.408303260803222656e+00,-6.816017150878906250e+00,-5.577347278594970703e+00,-4.261220932006835938e+00,-4.184515953063964844e+00,-4.091135025024414062e+00,-1.803620219230651855e+00,6.000862717628479004e-01,-1.934731960296630859e+00,-3.137971639633178711e+00,-4.995786190032958984e+00,-3.222672224044799805e+00,-9.065420627593994141e-01,1.757234334945678711e+00,-5.595790743827819824e-01,-3.101179122924804688e+00,-3.798271417617797852e+00,-2.025300264358520508e+00,-3.191349983215332031e+00,1.740746051073074341e-01
3.328956842422485352e+00,2.528694152832031250e+00,2.792155981063842773e+00,2.618535518646240234e+00,2.931051969528198242e+00,1.423591256141662598e+00,8.941922783851623535e-01,3.556579947471618652e-01,9.053625464439392090e-01,-4.020165801048278809e-01,1.302574753761291504e+00,1.361900925636291504e+00,-5.078341960906982422e-01,-3.285091161727905273e+00,-4.078430175781250000e+00,-1.209503769874572754e+00,-1.624920368194580078e+00,-3.710653305053710938e+00,-3.929345130920410156e+00,-1.427727341651916504e+00,-1.714268326759338379e+00,-2.330054521560668945e+00,-1.834362506866455078e+00,-2.423563718795776367e+00,-2.421056985855102539e+00,8.128569126129150391e-01,2.728532552719116211e+00,2.513140439987182617e+00,2.532250642776489258e+00,3.060556888580322266e+00,9.855795502662658691e-01,1.199945354461669922e+01
-1.504551529884338379e+00,-4.174829006195068359e+00,3.349630832672119141e+00,5.741826534271240234e+00,1.155293583869934082e+00,-7.488515377044677734e-01,-6.721479296684265137e-01,-9.843758493661880493e-02,1.348821640014648438e+00,6.050708293914794922e-01,6.351019740104675293e-01,1.339285075664520264e-01,2.252608776092529297e+00,3.825713396072387695e+00,3.130459785461425781e+00,1.277966976165771484e+00,-1.409327685832977295e-01,-1.659029603004455566e+00,-2.855783939361572266e+00,-3.047042369842529297e+00,-1.436504602432250977e+00,-9.924632906913757324e-01,5.232530236244201660e-01,5.231789350509643555e-01,-6.915339231491088867e-01,-2.419226646423339844e+00,-2.041632413864135742e+00,-7.287859916687011719e-01,5.110841989517211914e-01,-2.627273797988891602e-01,-3.313676357269287109e+00,1.052424812316894531e+01
-1.403562450408935547e+01,-9.121121406555175781e+00,-7.268698692321777344e+00,-8.080659866333007812e+00,-1.056874084472656250e+01,-1.063604068756103516e+01,-1.060351943969726562e+01,-6.457328319549560547e+00,-5.638294696807861328e+00,-4.998617172241210938e+00,-6.452657699584960938e+00,-7.271421909332275391e+00,-6.959709644317626953e+00,-3.532228469848632812e+00,-1.377502799034118652e+00,-3.220193624496459961e+00,-3.512813568115234375e+00,-2.346981287002563477e+00,-2.991567134857177734e+00,-4.444182872772216797e+00,-3.096308946609497070e+00,-1.478042721748352051e+00,-1.137330174446105957e+00,-3.267118632793426514e-01,-1.316551089286804199e+00,-4.024288177490234375e+00,-6.929978847503662109e+00,-7.111976623535156250e+00,-7.421991825103759766e+00,-8.652440071105957031e+00,-9.685047149658203125e+00,-5.650757789611816406e+00
2.404887914657592773e+00,2.640059232711791992e+00,3.708258271217346191e-01,-3.837017059326171875e+00,-4.607790946960449219e+00,-2.600937843322753906e+00,-2.530162572860717773e+00,-1.614040732383728027e+00,-1.164295196533203125e+00,-2.020938545465469360e-01,2.041217565536499023e+00,5.305195331573486328e+00,4.886565685272216797e+00,2.237688779830932617e+00,1.488355875015258789e+00,1.978147506713867188e+00,3.716590404510498047e+00,5.538317203521728516e+00,3.895216226577758789e+00,2.784337759017944336e+00,4.615060329437255859e+00,6.916206359863281250e+00,6.565440654754638672e+00,4.041818618774414062e+00,2.426597356796264648e+00,1.156752109527587891e+00,3.133048772811889648e+00,3.289447546005249023e+00,2.263139963150024414e+00,-1.801275849342346191e+00,-8.948985934257507324e-01,-3.034136772155761719e+00
8.907183647155761719e+00,4.260320663452148438e+00,4.316997051239013672e+00,4.711405277252197266e+00,6.649654388427734375e+00,7.197492122650146484e+00,6.032000064849853516e+00,3.325676202774047852e+00,3.796096563339233398e+00,4.047656536102294922e+00,7.904016494750976562e+00,1.102205276489257812e+01,1.188796329498291016e+01,1.016868019104003906e+01,8.499578475952148438e+00,8.930597305297851562e+00,9.429546356201171875e+00,9.729311943054199219e+00,6.757407665252685547e+00,4.094277858734130859e+00,5.117790699005126953e+00,7.713789463043212891e+00,8.131990432739257812e+00,4.515731334686279297e+00,3.536836385726928711e+00,3.537296056747436523e+00,6.336624145507812500e+00,8.173873901367187500e+00,9.886627197265625000e+00,5.111008644104003906e+00,2.934686660766601562e+00,-7.211698055267333984e+00
-8.010339736938476562e+00,-1.095540523529052734e+01,-1.358001804351806641e+01,-1.033428668975830078e+01,-2.311648607254028320e+00,-1.597800016403198242e+00,-3.351765871047973633e+00,-5.403242588043212891e+00,-5.723794937133789062e+00,-4.759888172149658203e+00,-2.734080076217651367e+00,-1.652760148048400879e+00,-1.260174632072448730e+00,-2.432661652565002441e-01,2.125131130218505859e+00,1.924343228340148926e+00,1.453278422355651855e+00,1.960741132497787476e-01,-9.488843679428100586e-01,-4.763345718383789062e+00,-4.945692062377929688e+00,-4.963072299957275391e+00,-4.497457027435302734e+00,-2.624491930007934570e+00,-1.500527739524841309e+00,-8.247790336608886719e-01,-4.034781455993652344e+00,-3.036848545074462891e+00,-2.999683380126953125e+00,-5.129142761230468750e+00,-7.625835418701171875e+00,-1.729583740234375000e+01
-9.812171936035156250e+00,-1.523920917510986328e+01,-1.784774017333984375e+01,-1.718982124328613281e+01,-1.301032066345214844e+01,-9.848738670349121094e+00,-9.025399208068847656e+00,-9.551196098327636719e+00,-9.297198295593261719e+00,-6.488872051239013672e+00,-3.854658365249633789e+00,-1.123220250010490417e-01,8.319121003150939941e-01,-2.622860431671142578e+00,-1.760268568992614746e+00,-1.824321508407592773e+00,-4.937813282012939453e-01,-1.826075077056884766e+00,-1.133203148841857910e+00,-4.621591091156005859e+00,-4.840639591217041016e+00,-7.591803073883056641e+00,-9.181100845336914062e+00,-6.337088108062744141e+00,-3.808279037475585938e+00,-4.397108554840087891e+00,-9.480888366699218750e+00,-1.146325397491455078e+01,-1.374869060516357422e+01,-1.481933784484863281e+01,-1.170699596405029297e+01,-1.171624374389648438e+01
-1.806096196174621582e+00,-9.577729225158691406e+00,-6.440389156341552734e+00,-6.198595046997070312e+00,-1.047526550292968750e+01,-7.676301479339599609e+00,-4.023591518402099609e+00,-3.639157533645629883e+00,-2.726624488830566406e+00,1.847101569175720215e+00,6.568563461303710938e+00,1.001339626312255859e+01,1.059843635559082031e+01,7.106118202209472656e+00,4.058773040771484375e+00,4.410079002380371094e+00,5.295639514923095703e+00,5.067309856414794922e+00,3.757648706436157227e+00,1.122982382774353027e+00,-5.267609357833862305e-01,-2.361999511718750000e+00,-4.032802581787109375e+00,-5.188115596771240234e+00,-2.987578153610229492e+00,-3.850357294082641602e+00,-7.587493419647216797e+00,-1.121086788177490234e+01,-1.047487545013427734e+01,-1.105355072021484375e+01,-6.166295528411865234e+00,-9.900036811828613281e+00
8.315772414207458496e-01,-6.858390808105468750e+00,-6.042507171630859375e+00,-6.285024166107177734e+00,-7.438156604766845703e+00,-5.281283378601074219e+00,-3.009634256362915039e+00,-3.621532201766967773e+00,-3.177658557891845703e+00,4.366591572761535645e-02,4.441574096679687500e+00,6.008647918701171875e+00,5.118098735809326172e+00,3.320788860321044922e+00,8.169835805892944336e-01,1.844955325126647949e+00,8.072423934936523438e-01,-1.097667813301086426e-01,-3.108278036117553711e+00,-4.972791194915771484e+00,-6.007501602172851562e+00,-5.392961978912353516e+00,-4.042071819305419922e+00,-4.788156986236572266e+00,-4.699219703674316406e+00,-3.594567775726318359e+00,-5.187042236328125000e+00,-5.134249687194824219e+00,-2.728083372116088867e+00,-3.885508775711059570e+00,-2.005972862243652344e+00,-8.097465515136718750e+00
5.462316036224365234e+00,-4.626187801361083984e+00,-8.329900741577148438e+00,-9.603146553039550781e+00,-5.439135074615478516e+00,-3.625152349472045898e+00,-3.777191400527954102e+00,-5.702162265777587891e+00,-4.457956314086914062e+00,-4.778570652008056641e+00,-2.243050098419189453e+00,1.282007575035095215e+00,1.525116205215454102e+00,-3.917226552963256836e+00,-6.854161262512207031e+00,-4.987378597259521484e+00,-5.874986171722412109e+00,-8.100051879882812500e+00,-1.014143943786621094e+01,-9.882908821105957031e+00,-7.830505847930908203e+00,-5.961686134338378906e+00,-4.665182113647460938e+00,-4.748426437377929688e+00,-5.871170997619628906e+00,-4.528832912445068359e+00,-4.403770446777343750e+00,-9.453571438789367676e-01,2.508440732955932617e+00,-1.477286338806152344e+00,-6.424010396003723145e-01,9.270992279052734375e-01
8.776355743408203125e+00,-3.559031009674072266e+00,-6.005985736846923828e+00,-4.301108360290527344e+00,-1.377997636795043945e+00,2.294304847717285156e+00,2.828015804290771484e+00,8.297539502382278442e-02,-9.235080480575561523e-01,5.240219831466674805e-01,4.647770881652832031e+00,8.160075187683105469e+00,7.269363880157470703e+00,1.277841329574584961e+00,-1.982739567756652832e+00,2.026388883590698242e+00,2.062186717987060547e+00,-4.508298262953758240e-02,-4.694858074188232422e+00,-3.396265506744384766e+00,-1.684146881103515625e+00,3.326691865921020508e+00,1.679031014442443848e+00,-2.970595359802246094e+00,-6.714377880096435547e+00,-7.725066184997558594e+00,-6.768401145935058594e+00,-6.276815533638000488e-01,3.112366437911987305e+00,-4.723720073699951172e+00,-8.473175048828125000e+00,-6.900549888610839844e+00
5.345170021057128906e+00,-4.340443134307861328e+00,-2.413582324981689453e+00,-5.851066708564758301e-01,-3.876654505729675293e-01,2.364148616790771484e+00,4.713612079620361328e+00,1.860230207443237305e+00,-8.768431544303894043e-01,2.065153837203979492e+00,6.859940052032470703e+00,8.952925682067871094e+00,6.691789150238037109e+00,2.700532913208007812e+00,-3.090567188337445259e-03,6.160964965820312500e+00,7.167572498321533203e+00,4.323666572570800781e+00,-4.690259933471679688e+00,-5.160337448120117188e+00,-3.874914884567260742e+00,3.219681262969970703e+00,3.161765336990356445e+00,-3.882283926010131836e+00,-1.026955509185791016e+01,-1.173801708221435547e+01,-8.507702827453613281e+00,-1.002400740981101990e-01,1.394964456558227539e+00,-7.792799949645996094e+00,-1.360099506378173828e+01,-1.576087665557861328e+01
7.677944660186767578e+00,-5.688851356506347656e+00,-5.322492599487304688e+00,-6.634234428405761719e+00,-3.124352455139160156e+00,-5.688869357109069824e-01,1.553751230239868164e+00,-3.913973093032836914e+00,-3.933663129806518555e+00,-9.356833696365356445e-01,1.530396580696105957e+00,4.860005855560302734e+00,5.411712169647216797e+00,7.771230936050415039e-01,-4.074379920959472656e+00,-3.214942216873168945e-01,1.091647744178771973e+00,-3.202345609664916992e+00,-9.527378082275390625e+00,-1.160789203643798828e+01,-8.447985649108886719e+00,-1.223793387413024902e+00,1.786800742149353027e+00,-5.578708648681640625e+00,-1.284869670867919922e+01,-1.224669742584228516e+01,-7.551048755645751953e+00,9.859274029731750488e-01,2.950274705886840820e+00,-6.151415348052978516e+00,-1.199614810943603516e+01,-1.570387077331542969e+01
1.746595954895019531e+01,2.659678459167480469e+00,-2.197864770889282227e+00,-2.998795032501220703e+00,3.291276693344116211e+00,8.649477005004882812e+00,9.002882003784179688e+00,2.026740312576293945e+00,1.566905021667480469e+00,4.877352714538574219e+00,7.520367145538330078e+00,1.139563274383544922e+01,1.155293560028076172e+01,8.275591850280761719e+00,3.228726387023925781e+00,4.149096012115478516e+00,4.152000904083251953e+00,1.451946735382080078e+00,-2.683931291103363037e-01,-2.828031778335571289e-01,2.236676692962646484e+00,8.931073188781738281e+00,1.134530353546142578e+01,3.544437170028686523e+00,-2.921019792556762695e+00,-1.660138368606567383e+00,2.557106494903564453e+00,9.710214614868164062e+00,1.502699947357177734e+01,6.187137126922607422e+00,-4.104662835597991943e-01,-4.248761653900146484e+00
2.142739105224609375e+01,1.403790187835693359e+01,7.978735923767089844e+00,7.618762016296386719e+00,1.141118812561035156e+01,1.804635238647460938e+01,1.746414184570312500e+01,1.110080242156982422e+01,7.208603382110595703e+00,9.145702362060546875e+00,1.293795108795166016e+01,1.545386505126953125e+01,1.482821559906005859e+01,1.258262157440185547e+01,9.189886093139648438e+00,1.069708156585693359e+01,1.120185565948486328e+01,1.178836822509765625e+01,9.880460739135742188e+00,1.252541637420654297e+01,1.327264022827148438e+01,1.798264694213867188e+01,1.825911521911621094e+01,1.272688007354736328e+01,7.573983669281005859e+00,8.120218276977539062e+00,1.225681209564208984e+01,1.936463165283203125e+01,2.284730720520019531e+01,1.418223094940185547e+01,1.002405834197998047e+01,8.801250457763671875e+00
1.352398586273193359e+01,6.435890197753906250e+00,5.180718898773193359e+00,5.572159290313720703e+00,7.093869209289550781e+00,1.073141288757324219e+01,9.865485191345214844e+00,5.610304832458496094e+00,3.657816886901855469e+00,3.073214530944824219e+00,2.748553037643432617e+00,4.983101367950439453e+00,7.600899219512939453e+00,4.846994400024414062e+00,2.183228254318237305e+00,3.817250728607177734e+00,6.602800369262695312e+00,7.556848049163818359e+00,5.531513214111328125e+00,6.800492763519287109e+00,6.823639392852783203e+00,9.656980514526367188e+00,8.906627655029296875e+00,6.462083339691162109e+00,4.027846336364746094e+00,4.122626781463623047e+00,5.668824672698974609e+00,1.116665363311767578e+01,1.184007644653320312e+01,4.003318786621093750e+00,4.108222961425781250e+00,3.604566335678100586e+00
5.452045440673828125e+00,-7.547413825988769531e+00,-4.689370632171630859e+00,-1.942268848419189453e+00,-2.422151088714599609e+00,1.126226708292961121e-01,-1.280423998832702637e-01,-1.763278961181640625e+00,-1.239891529083251953e+00,1.292605996131896973e-01,-2.336588859558105469e+00,-2.314466953277587891e+00,-5.980925559997558594e-01,-4.409089982509613037e-01,-6.561402231454849243e-02,7.068920135498046875e-01,1.095057368278503418e+00,1.060715675354003906e+00,3.169802427291870117e-01,7.890881896018981934e-01,-2.848183810710906982e-01,2.125400066375732422e+00,1.325883030891418457e+00,7.956152558326721191e-01,1.553205013275146484e+00,1.282743573188781738e+00,-2.252798080444335938e+00,-1.424180746078491211e+00,-1.290484219789505005e-01,-6.862793445587158203e+00,-3.366877079010009766e+00,-2.794633865356445312e+00
2.300345897674560547e+00,-7.885710239410400391e+00,-7.391951084136962891e+00,-7.082689285278320312e+00,-9.193358421325683594e+00,-2.681277751922607422e+00,-1.441339731216430664e+00,-4.312511444091796875e+00,-5.014931678771972656e+00,-2.867548465728759766e-01,-4.724590778350830078e-01,-2.170311927795410156e+00,-2.931310892105102539e+00,1.151949763298034668e+00,3.343067646026611328e+00,2.990547180175781250e+00,-2.182255834341049194e-01,-1.093649864196777344e-01,1.136612296104431152e-01,8.187155127525329590e-01,1.304290741682052612e-01,1.106363058090209961e+00,7.192443609237670898e-01,6.488298773765563965e-01,2.053355693817138672e+00,5.712388157844543457e-01,-4.143161773681640625e+00,-4.299104690551757812e+00,-2.930885076522827148e+00,-8.408964157104492188e+00,-2.024406671524047852e+00,1.264339089393615723e+00
-5.229829311370849609e+00,-6.851911067962646484e+00,-8.284826278686523438e+00,-1.159815883636474609e+01,-1.224319934844970703e+01,-7.696921348571777344e+00,-6.282206535339355469e+00,-8.530775070190429688e+00,-7.355334758758544922e+00,-5.099515914916992188e+00,-7.214699745178222656e+00,-9.131786346435546875e+00,-7.080748558044433594e+00,-2.105105876922607422e+00,-1.769082427024841309e+00,-4.610054969787597656e+00,-6.909248352050781250e+00,-7.146517753601074219e+00,-5.705815315246582031e+00,-5.738256454467773438e+00,-4.294015884399414062e+00,-5.458904743194580078e+00,-4.943416118621826172e+00,-5.483279705047607422e+00,-4.709149837493896484e+00,-5.694315433502197266e+00,-8.370652198791503906e+00,-7.585537433624267578e+00,-5.340617656707763672e+00,-6.939919471740722656e+00,-2.822292089462280273e+00,-4.221842765808105469e+00
-1.235327339172363281e+01,-1.327759361267089844e+01,-1.135983085632324219e+01,-1.243919754028320312e+01,-1.413245201110839844e+01,-1.534347820281982422e+01,-1.499921703338623047e+01,-1.230780792236328125e+01,-7.532265186309814453e+00,-6.007997035980224609e+00,-1.230051422119140625e+01,-1.634654426574707031e+01,-1.438852596282958984e+01,-9.137553215026855469e+00,-8.005226135253906250e+00,-1.067292213439941406e+01,-1.200631523132324219e+01,-1.167104148864746094e+01,-9.220512390136718750e+00,-9.841726303100585938e+00,-9.927330017089843750e+00,-1.029796600341796875e+01,-1.047695732116699219e+01,-1.208975791931152344e+01,-1.182046604156494141e+01,-9.669620513916015625e+00,-1.185841369628906250e+01,-1.231432819366455078e+01,-9.221239089965820312e+00,-8.543879508972167969e+00,-7.066939830780029297e+00,-1.269837284088134766e+01
-8.048215866088867188e+00,-8.495807647705078125e+00,-3.828653335571289062e+00,-4.065758705139160156e+00,-1.008068561553955078e+01,-1.061246395111083984e+01,-1.061565399169921875e+01,-8.439717292785644531e+00,-4.217288494110107422e+00,-2.688348293304443359e+00,-6.778579711914062500e+00,-1.007827568054199219e+01,-1.124340343475341797e+01,-7.998818397521972656e+00,-6.640056133270263672e+00,-6.405514240264892578e+00,-7.121926307678222656e+00,-6.582323551177978516e+00,-6.827154159545898438e+00,-7.353704452514648438e+00,-7.096712589263916016e+00,-5.358839511871337891e+00,-5.888684749603271484e+00,-7.627319812774658203e+00,-7.608827590942382812e+00,-5.318106651306152344e+00,-6.837867736816406250e+00,-7.464327335357666016e+00,-6.474291324615478516e+00,-6.748951435089111328e+00,-5.234252452850341797e+00,-9.299092292785644531e+00
-2.028761625289916992e+00,2.369689464569091797e+00,8.292387008666992188e+00,7.186307430267333984e+00,2.101105451583862305e-01,-3.885411620140075684e-01,-1.671097397804260254e+00,-2.721397399902343750e+00,4.537330567836761475e-01,-1.758062362670898438e+00,-3.192203283309936523e+00,-3.746313571929931641e+00,-2.845654249191284180e+00,-3.393682479858398438e+00,-4.453504085540771484e+00,-4.841808795928955078e+00,-4.906170368194580078e+00,-7.144635677337646484e+00,-8.050596237182617188e+00,-7.845896244049072266e+00,-5.335234165191650391e+00,-5.027039527893066406e+00,-4.675493717193603516e+00,-3.745287656784057617e+00,-1.611129403114318848e+00,-2.054047584533691406e+00,-4.762023448944091797e+00,-3.354457378387451172e+00,-2.011254310607910156e+00,-2.651283502578735352e+00,-9.254910945892333984e-01,-2.982258796691894531e+00
-3.667769908905029297e+00,-3.839927315711975098e-01,7.936573505401611328e+00,1.017770385742187500e+01,4.482233047485351562e+00,7.089731097221374512e-01,-1.899645805358886719e+00,4.490875005722045898e-01,3.719481229782104492e+00,4.027678072452545166e-01,-5.242610931396484375e+00,-7.062174797058105469e+00,-5.152119636535644531e+00,-3.638774394989013672e+00,-3.529268264770507812e+00,-5.933081150054931641e+00,-7.164605617523193359e+00,-8.925952911376953125e+00,-6.848715305328369141e+00,-6.257228374481201172e+00,-5.853043556213378906e+00,-9.159269332885742188e+00,-8.154800415039062500e+00,-3.899791240692138672e+00,7.927684783935546875e-01,-4.938596487045288086e-01,-3.662569284439086914e+00,-5.084060668945312500e+00,-2.693739652633666992e+00,-1.362448453903198242e+00,1.803521990776062012e+00,3.900769948959350586e+00
-5.142758846282958984e+00,-6.320084095001220703e+00,2.329735517501831055e+00,4.411722183227539062e+00,-1.966740131378173828e+00,-3.732720136642456055e+00,-2.885874509811401367e+00,2.147563457489013672e+00,4.947465419769287109e+00,3.463314294815063477e+00,-3.953251600265502930e+00,-6.742362499237060547e+00,-6.402862548828125000e+00,-2.630001068115234375e+00,-8.299835920333862305e-01,-2.547705650329589844e+00,-4.335673809051513672e+00,-1.918743729591369629e+00,5.713203549385070801e-01,6.810979843139648438e-01,-1.471570730209350586e+00,-4.783483028411865234e+00,-4.833911895751953125e+00,-2.119535684585571289e+00,2.802510857582092285e-01,3.213588297367095947e-01,1.882060647010803223e+00,-3.645607948303222656e+00,-5.119511127471923828e+00,-2.932520866394042969e+00,3.578193902969360352e+00,8.523574829101562500e+00
-6.060801506042480469e+00,-7.028800964355468750e+00,8.467240333557128906e-01,4.097226262092590332e-01,-9.060763359069824219e+00,-6.728078842163085938e+00,-2.436164855957031250e+00,-6.814789772033691406e-01,-3.311258852481842041e-01,-6.397865414619445801e-01,-1.823963642120361328e+00,-2.433608055114746094e+00,-1.982934355735778809e+00,-1.283920764923095703e+00,-1.762682795524597168e+00,-2.367733001708984375e+00,-2.370674371719360352e+00,-1.214535951614379883e+00,-1.516593456268310547e+00,-2.919311523437500000e+00,-3.711555719375610352e+00,-3.108403921127319336e+00,-2.641571521759033203e+00,-5.607702255249023438e+00,-8.432462692260742188e+00,-7.615049362182617188e+00,-3.834455966949462891e+00,-5.026254177093505859e+00,-7.099290847778320312e+00,-9.114576339721679688e+00,-6.676705837249755859e+00,-6.038115024566650391e+00
-9.344098091125488281e+00,-9.553844451904296875e+00,-7.490063309669494629e-01,1.093651771545410156e+00,-9.592705726623535156e+00,-7.014559745788574219e+00,-5.020293235778808594e+00,-3.900652170181274414e+00,-3.573261022567749023e+00,-3.370627164840698242e+00,-2.282296180725097656e+00,-2.492034912109375000e+00,-3.336399078369140625e+00,-4.465240001678466797e+00,-5.844145298004150391e+00,-5.303701400756835938e+00,-5.032683849334716797e+00,-7.347039699554443359e+00,-9.912809371948242188e+00,-1.180313205718994141e+01,-1.171647262573242188e+01,-8.879175186157226562e+00,-6.232024192810058594e+00,-9.122933387756347656e+00,-1.337245368957519531e+01,-1.444148826599121094e+01,-1.270304775238037109e+01,-8.824336051940917969e+00,-7.685239315032958984e+00,-1.313004493713378906e+01,-1.723306274414062500e+01,-2.187958145141601562e+01
-7.790935039520263672e+00,-1.098810577392578125e+01,6.949658989906311035e-01,4.100876808166503906e+00,-5.410875320434570312e+00,-6.918738365173339844e+00,-5.851130485534667969e+00,-1.268826603889465332e+00,8.260369896888732910e-01,-3.387562930583953857e-01,-4.187763690948486328e+00,-4.965981960296630859e+00,-5.910137653350830078e+00,-5.263417243957519531e+00,-4.971554279327392578e+00,-4.003761768341064453e+00,-4.927907943725585938e+00,-5.337597846984863281e+00,-7.644409179687500000e+00,-1.042436599731445312e+01,-1.103600025177001953e+01,-8.609794616699218750e+00,-6.692891120910644531e+00,-5.026299953460693359e+00,-5.549019336700439453e+00,-7.368300437927246094e+00,-7.891817092895507812e+00,-9.532366752624511719e+00,-1.064054203033447266e+01,-1.235662651062011719e+01,-8.700772285461425781e+00,-2.850413322448730469e+00
-2.029822587966918945e+00,-2.742239952087402344e+00,7.195220470428466797e+00,7.256097316741943359e+00,-2.358895540237426758e+00,-5.742027759552001953e+00,-3.714767217636108398e+00,9.663847088813781738e-01,2.207913637161254883e+00,2.492812648415565491e-02,-4.544588088989257812e+00,-4.083003044128417969e+00,-1.883533120155334473e+00,-4.239291250705718994e-01,-1.481053419411182404e-03,-8.781144618988037109e-01,-1.770876348018646240e-01,1.496289968490600586e-01,7.880558967590332031e-01,-1.246864438056945801e+00,-7.188184261322021484e-01,-1.212048411369323730e+00,-2.097050666809082031e+00,3.141599655151367188e+00,1.138086223602294922e+01,1.335709381103515625e+01,8.728194236755371094e+00,-4.370785713195800781e+00,-1.001379585266113281e+01,-2.536588907241821289e+00,1.614615249633789062e+01,2.421597480773925781e+01
-1.679268479347229004e+00,1.121918439865112305e+00,3.881535768508911133e+00,2.526841163635253906e+00,-4.003820896148681641e+00,-5.412456512451171875e+00,-4.589720726013183594e+00,-1.638482928276062012e+00,-2.620418310165405273e+00,-2.429756164550781250e+00,-2.407850503921508789e+00,-3.518393993377685547e+00,-1.303050637245178223e+00,1.391395926475524902e+00,4.085776329040527344e+00,1.858430981636047363e+00,2.181206464767456055e+00,-1.590019702911376953e+00,1.685330986976623535e+00,1.932630062103271484e+00,1.222667455673217773e+00,-2.147379875183105469e+00,-3.022102117538452148e+00,1.725086331367492676e+00,1.161340808868408203e+01,1.568941211700439453e+01,9.877058982849121094e+00,-1.718267917633056641e+00,-5.341438293457031250e+00,1.963560342788696289e+00,1.663321685791015625e+01,1.543378257751464844e+01
-7.273643970489501953e+00,-1.067198085784912109e+01,-1.035968971252441406e+01,-9.488015174865722656e+00,-1.024514484405517578e+01,-1.089107894897460938e+01,-1.054089546203613281e+01,-8.075965881347656250e+00,-7.968087196350097656e+00,-6.603613853454589844e+00,-5.751102924346923828e+00,-9.988449096679687500e+00,-7.088847637176513672e+00,-8.201500773429870605e-01,4.484519004821777344e+00,7.759149074554443359e-01,-1.559303998947143555e+00,-5.495328903198242188e+00,-3.905290603637695312e+00,-5.351257324218750000e+00,-7.957157135009765625e+00,-1.153906536102294922e+01,-1.087548160552978516e+01,-7.820178985595703125e+00,-3.693562269210815430e+00,-1.733960866928100586e+00,-6.562192440032958984e+00,-9.184288024902343750e+00,-1.002579879760742188e+01,-9.773207664489746094e+00,-6.534039020538330078e+00,-8.548443794250488281e+00
-1.340489578247070312e+01,-1.814954566955566406e+01,-1.376795768737792969e+01,-1.272333526611328125e+01,-1.568793964385986328e+01,-1.772152709960937500e+01,-1.495995998382568359e+01,-1.280747604370117188e+01,-1.084616851806640625e+01,-1.028645324707031250e+01,-1.209855937957763672e+01,-1.579586982727050781e+01,-1.172251892089843750e+01,-4.089024543762207031e+00,-9.033330678939819336e-01,-6.023557186126708984e+00,-8.587334632873535156e+00,-7.995547771453857422e+00,-7.881515979766845703e+00,-1.153038692474365234e+01,-1.238690280914306641e+01,-1.504071140289306641e+01,-1.536906528472900391e+01,-1.238688278198242188e+01,-8.901470184326171875e+00,-1.043060398101806641e+01,-1.429959487915039062e+01,-1.809484481811523438e+01,-1.980097389221191406e+01,-1.821060943603515625e+01,-1.141852760314941406e+01,-9.415499687194824219e+00
-7.205700874328613281e+00,-2.932836294174194336e+00,4.971442371606826782e-02,1.850225031375885010e-02,-4.799794197082519531e+00,-7.387082099914550781e+00,-6.503080368041992188e+00,-4.152325153350830078e+00,-4.993914604187011719e+00,-4.656043529510498047e+00,-5.727671623229980469e+00,-5.867093086242675781e+00,-7.105438709259033203e+00,-3.733285903930664062e+00,-2.027654409408569336e+00,-3.501490592956542969e+00,-6.201149940490722656e+00,-4.663095951080322266e+00,-1.854231715202331543e+00,-3.239175796508789062e+00,-4.215921401977539062e+00,-5.885675907135009766e+00,-6.357142925262451172e+00,-4.589801788330078125e+00,-1.441695570945739746e+00,-2.052046209573745728e-01,-3.080700159072875977e+00,-8.706711769104003906e+00,-1.048680210113525391e+01,-5.964106559753417969e+00,4.447887420654296875e+00,7.103457450866699219e+00
5.710761070251464844e+00,1.608793067932128906e+01,1.396014690399169922e+01,1.286533069610595703e+01,1.174988746643066406e+01,1.134878635406494141e+01,9.080189704895019531e+00,8.459835052490234375e+00,3.681591272354125977e+00,3.396261930465698242e+00,5.710808277130126953e+00,7.940817356109619141e+00,3.921729087829589844e+00,2.523703575134277344e+00,4.052255153656005859e+00,7.238788127899169922e+00,6.009623050689697266e+00,8.089790344238281250e+00,1.140420150756835938e+01,1.190857601165771484e+01,9.227460861206054688e+00,8.237563133239746094e+00,8.462739944458007812e+00,6.426032066345214844e+00,4.794299602508544922e+00,6.701553344726562500e+00,1.037147426605224609e+01,9.309630393981933594e+00,8.201123237609863281e+00,1.066430187225341797e+01,1.460878372192382812e+01,2.097841835021972656e+01
3.912828207015991211e+00,1.545061111450195312e+01,1.401544380187988281e+01,1.177891063690185547e+01,9.868910789489746094e+00,8.767231941223144531e+00,8.468628883361816406e+00,7.816308021545410156e+00,4.258548736572265625e+00,2.722734451293945312e+00,3.010792493820190430e+00,2.763138055801391602e+00,2.304115056991577148e+00,7.739503979682922363e-01,-1.043156981468200684e+00,6.596937775611877441e-01,3.928688764572143555e+00,8.806655883789062500e+00,1.002812576293945312e+01,9.364491462707519531e+00,8.971501350402832031e+00,8.466356277465820312e+00,9.160360336303710938e+00,7.132037162780761719e+00,4.602801799774169922e+00,2.763268232345581055e+00,8.597940444946289062e+00,9.611850738525390625e+00,1.020592403411865234e+01,1.016409492492675781e+01,1.083513069152832031e+01,2.252237510681152344e+01
-6.432867050170898438e+00,6.335579395294189453e+00,9.184485435485839844e+00,8.909394264221191406e+00,4.858006000518798828e+00,1.770598173141479492e+00,2.472891569137573242e+00,5.198544502258300781e+00,4.519999980926513672e+00,2.375057697296142578e+00,-1.421129226684570312e+00,-4.801479816436767578e+00,-6.253911972045898438e+00,-8.389919281005859375e+00,-1.016804981231689453e+01,-1.188895416259765625e+01,-7.275407791137695312e+00,-3.588672637939453125e+00,-1.955102562904357910e+00,-1.865901231765747070e+00,-1.458030581474304199e+00,-1.941817522048950195e+00,3.473820388317108154e-01,3.564116001129150391e+00,4.837110996246337891e+00,3.195684909820556641e+00,5.420329093933105469e+00,4.017329692840576172e+00,3.801825284957885742e+00,4.916403293609619141e+00,1.107649517059326172e+01,1.963070678710937500e+01
-2.213161468505859375e+00,6.025762081146240234e+00,9.431031227111816406e+00,1.258721446990966797e+01,1.180498313903808594e+01,8.963869094848632812e+00,7.750497341156005859e+00,7.805036544799804688e+00,4.704011917114257812e+00,3.461248397827148438e+00,3.195952653884887695e+00,3.562564849853515625e+00,3.266768753528594971e-01,-4.160474777221679688e+00,-3.934493064880371094e+00,-5.613314628601074219e+00,-4.881933689117431641e+00,-6.862663745880126953e+00,-7.111407279968261719e+00,-7.797057628631591797e+00,-9.252793312072753906e+00,-6.834656715393066406e+00,-3.330476999282836914e+00,-1.354265928268432617e+00,-1.755033731460571289e+00,-4.095141589641571045e-01,1.796938300132751465e+00,1.681802511215209961e+00,-7.600548863410949707e-02,1.134245991706848145e+00,7.339258670806884766e+00,1.476984119415283203e+01
3.919816493988037109e+00,1.337088203430175781e+01,1.566687107086181641e+01,1.582817840576171875e+01,1.319441699981689453e+01,1.362909793853759766e+01,1.317193412780761719e+01,8.063719749450683594e+00,1.456379771232604980e+00,1.006131097674369812e-01,5.431949615478515625e+00,1.049780559539794922e+01,9.129983901977539062e+00,2.640490293502807617e+00,1.604699850082397461e+00,1.920004963874816895e+00,3.609473466873168945e+00,1.210889965295791626e-01,-6.205031871795654297e+00,-8.275256156921386719e+00,-8.576692581176757812e+00,-3.626660585403442383e+00,-9.182070493698120117e-01,-5.280760765075683594e+00,-6.385158061981201172e+00,-4.218603134155273438e+00,-6.496994495391845703e-01,-1.656487107276916504e+00,2.289847433567047119e-01,9.580101370811462402e-01,5.850623130798339844e+00,2.091729354858398438e+01
2.764399528503417969e+00,1.733157920837402344e+01,1.677935028076171875e+01,1.244937038421630859e+01,6.936331272125244141e+00,9.349393844604492188e+00,9.591992378234863281e+00,5.674621105194091797e+00,1.929173111915588379e+00,7.767243385314941406e-01,4.818976879119873047e+00,6.800826549530029297e+00,4.648720741271972656e+00,-2.279082059860229492e+00,-3.172502517700195312e+00,-1.324372768402099609e+00,3.988379001617431641e+00,4.378623008728027344e+00,-2.552300214767456055e+00,-1.474952459335327148e+00,-1.607916355133056641e+00,3.681562185287475586e+00,5.295970916748046875e+00,1.294293284416198730e+00,-8.204679936170578003e-03,1.601967811584472656e+00,4.762197017669677734e+00,4.467688560485839844e+00,9.104306221008300781e+00,9.125715255737304688e+00,1.147618865966796875e+01,2.638245391845703125e+01
7.613686561584472656e+00,1.146676635742187500e+01,8.335506439208984375e+00,6.008921146392822266e+00,6.242525100708007812e+00,6.731805801391601562e+00,5.217077732086181641e+00,2.918626785278320312e+00,3.086994647979736328e+00,3.261080980300903320e+00,3.893981456756591797e+00,3.380183458328247070e+00,1.639196157455444336e+00,-1.478182911872863770e+00,-2.237171173095703125e+00,-1.365376114845275879e-01,1.921496033668518066e+00,4.700047969818115234e+00,3.876455545425415039e+00,5.581582546234130859e+00,4.692152500152587891e+00,8.848639488220214844e+00,8.905925750732421875e+00,8.619561195373535156e+00,3.756810426712036133e+00,3.354660034179687500e+00,7.009273052215576172e+00,1.409880352020263672e+01,1.552124786376953125e+01,1.077969741821289062e+01,5.712656497955322266e+00,1.484119510650634766e+01
9.005218505859375000e+00,2.798724174499511719e+00,3.092491865158081055e+00,3.253946304321289062e+00,2.487304687500000000e+00,1.092388868331909180e+00,7.868618518114089966e-02,-2.306797504425048828e+00,-2.490723609924316406e+00,-1.178001642227172852e+00,-2.832188606262207031e-01,3.671205937862396240e-01,2.610595941543579102e+00,4.745898723602294922e+00,4.419227123260498047e+00,3.111197710037231445e+00,-1.361315011978149414e+00,-5.913925766944885254e-01,2.848116397857666016e+00,4.608861923217773438e+00,2.738418817520141602e+00,2.852213382720947266e+00,-4.601572453975677490e-01,3.583883345127105713e-01,-1.423854470252990723e+00,-1.635950326919555664e+00,1.370085775852203369e-01,6.034785270690917969e+00,5.025557518005371094e+00,-8.834456801414489746e-01,-4.807989120483398438e+00,1.792236208915710449e+00
8.888447284698486328e-01,-5.883137229830026627e-03,5.233117103576660156e+00,3.894895553588867188e+00,-3.140510559082031250e+00,-3.477268934249877930e+00,-1.386240601539611816e+00,-2.365031003952026367e+00,-2.867010116577148438e+00,-1.509823918342590332e+00,-4.300840198993682861e-01,-1.364314317703247070e+00,-3.771226853132247925e-02,2.427986145019531250e+00,2.060966253280639648e+00,3.132937669754028320e+00,-2.355807065963745117e+00,-4.078343868255615234e+00,-6.432081460952758789e-01,3.285587549209594727e+00,1.680394887924194336e+00,-1.879296064376831055e+00,-7.045808315277099609e+00,-6.928441047668457031e+00,-3.281264543533325195e+00,2.887206710875034332e-02,-1.227530360221862793e+00,-4.535554409027099609e+00,-4.937708377838134766e+00,-3.181159257888793945e+00,1.314074635505676270e+00,2.875450611114501953e+00
3.532397747039794922e+00,3.925904750823974609e+00,7.306623935699462891e+00,5.670901298522949219e+00,1.684376001358032227e+00,3.032417297363281250e+00,5.478361129760742188e+00,4.530851840972900391e+00,3.399336814880371094e+00,4.928075313568115234e+00,5.391818523406982422e+00,4.110219955444335938e+00,3.179537773132324219e+00,3.620210409164428711e+00,2.127302169799804688e+00,6.488395214080810547e+00,3.620976209640502930e+00,4.509675979614257812e+00,8.005373001098632812e+00,1.013541030883789062e+01,9.929864883422851562e+00,6.976307868957519531e+00,1.817459821701049805e+00,2.009589076042175293e-01,2.687441825866699219e+00,6.500385284423828125e+00,4.854986667633056641e+00,-4.477091506123542786e-02,-1.168473243713378906e+00,6.991916656494140625e+00,1.443035411834716797e+01,1.133440589904785156e+01
8.526838302612304688e+00,4.878150463104248047e+00,3.814725399017333984e+00,3.916964054107666016e+00,4.349173545837402344e+00,3.975813627243041992e+00,4.650506019592285156e+00,1.489558696746826172e+00,-1.783131361007690430e-01,2.604401588439941406e+00,5.440394401550292969e+00,6.864900112152099609e+00,7.511943340301513672e+00,8.666595458984375000e+00,8.907322883605957031e+00,8.148303031921386719e+00,5.727341651916503906e+00,9.059119224548339844e+00,1.289946460723876953e+01,1.108223247528076172e+01,1.115249919891357422e+01,9.492677688598632812e+00,4.992790222167968750e+00,2.243318080902099609e+00,1.435934662818908691e+00,2.124025821685791016e+00,8.823666572570800781e-01,1.688644886016845703e+00,8.854998350143432617e-01,6.083537578582763672e+00,8.286260604858398438e+00,8.462789535522460938e+00
-1.221563220024108887e+00,-8.747544884681701660e-01,-1.485891461372375488e+00,5.053058266639709473e-02,-7.483853101730346680e-01,-3.099142313003540039e+00,-4.575032711029052734e+00,-7.210363864898681641e+00,-5.991395950317382812e+00,-4.035149097442626953e+00,-1.412514328956604004e+00,-1.232275962829589844e+00,-1.051627248525619507e-01,1.833390712738037109e+00,4.103882312774658203e+00,2.743431329727172852e+00,6.286668777465820312e-01,2.996453046798706055e+00,5.185525894165039062e+00,2.240809917449951172e+00,1.738441705703735352e+00,1.501091599464416504e+00,-1.589263319969177246e+00,-4.404149055480957031e+00,-8.170331001281738281e+00,-8.985295295715332031e+00,-8.269074440002441406e+00,-3.232397317886352539e+00,-2.252666950225830078e+00,-2.399104595184326172e+00,-4.517669200897216797e+00,-4.275640964508056641e+00
-8.599403381347656250e+00,-4.255327701568603516e+00,-3.044564485549926758e+00,-1.030344486236572266e+00,-1.716223001480102539e+00,-4.961440086364746094e+00,-7.401598930358886719e+00,-7.968150615692138672e+00,-3.522019147872924805e+00,-4.756049156188964844e+00,-7.111878871917724609e+00,-1.000572299957275391e+01,-8.536170959472656250e+00,-6.153996944427490234e+00,-1.951730370521545410e+00,-2.396308660507202148e+00,-2.979995250701904297e+00,5.048125982284545898e-01,1.246836781501770020e+00,-8.061498999595642090e-01,-1.784512042999267578e+00,-9.996903687715530396e-02,-1.711530447006225586e+00,-4.836993694305419922e+00,-1.085422515869140625e+01,-1.169099903106689453e+01,-8.655989646911621094e+00,-3.222146511077880859e+00,-3.665444850921630859e+00,-5.142137527465820312e+00,-8.153708457946777344e+00,-9.148822784423828125e+00
-9.096416473388671875e+00,-2.777645587921142578e+00,-6.808122396469116211e-01,4.892936348915100098e-01,-2.382433891296386719e+00,-5.960835456848144531e+00,-5.549578189849853516e+00,-4.192078590393066406e+00,-8.861280083656311035e-01,-3.275500297546386719e+00,-7.283901214599609375e+00,-1.106382274627685547e+01,-9.894167900085449219e+00,-5.457939624786376953e+00,-1.610851526260375977e+00,-6.621493339538574219e+00,-9.060756683349609375e+00,-2.529670000076293945e+00,1.005525588989257812e+00,1.262111544609069824e+00,5.678021907806396484e-01,-2.450801610946655273e+00,-4.177785873413085938e+00,-3.059333086013793945e+00,-2.251600742340087891e+00,-3.469253063201904297e+00,-3.859790802001953125e+00,-5.120208740234375000e+00,-6.750958442687988281e+00,-4.643220901489257812e+00,-2.807088136672973633e+00,-1.729662120342254639e-01
-1.397302055358886719e+01,-6.263054013252258301e-01,3.294646739959716797e+00,2.927365779876708984e+00,-3.145718097686767578e+00,-5.872689247131347656e+00,-5.304176807403564453e+00,-2.211848497390747070e+00,3.147613108158111572e-01,1.853560805320739746e-01,-3.008773088455200195e+00,-8.571784973144531250e+00,-9.794640541076660156e+00,-5.822684288024902344e+00,-4.748222351074218750e+00,-9.289466857910156250e+00,-1.339270496368408203e+01,-1.082672882080078125e+01,-5.317945003509521484e+00,-1.911545038223266602e+00,-1.505158424377441406e+00,-8.800312042236328125e+00,-9.031437873840332031e+00,-2.788805007934570312e+00,4.368401050567626953e+00,4.144886493682861328e+00,-2.770458534359931946e-02,-6.903443336486816406e+00,-7.366078853607177734e+00,-8.777014613151550293e-01,6.699485778808593750e+00,8.627777099609375000e+00
-1.289110183715820312e+01,-4.587144851684570312e-01,2.121443033218383789e+00,2.475240468978881836e+00,1.227288916707038879e-01,-1.965360999107360840e+00,-3.811835765838623047e+00,-2.292144060134887695e+00,4.145763516426086426e-01,4.295144602656364441e-02,-1.513616442680358887e+00,-6.429168224334716797e+00,-7.193292140960693359e+00,-8.013578414916992188e+00,-8.971523284912109375e+00,-8.290161132812500000e+00,-8.926590919494628906e+00,-1.132508850097656250e+01,-9.898274421691894531e+00,-6.326259613037109375e+00,-4.658788681030273438e+00,-5.813179016113281250e+00,-4.643692493438720703e+00,-1.482209563255310059e+00,1.194977283477783203e+00,3.545345306396484375e+00,4.204180538654327393e-01,-3.453681230545043945e+00,-3.487032651901245117e+00,4.118036270141601562e+00,1.055912494659423828e+01,6.542671680450439453e+00
-3.396421432495117188e+00,5.425655245780944824e-01,-1.439673781394958496e+00,-7.250467538833618164e-01,1.172141551971435547e+00,-1.761259078979492188e+00,-3.681494474411010742e+00,-4.253482818603515625e+00,-3.563248157501220703e+00,-6.140652656555175781e+00,-4.153179168701171875e+00,-4.991390228271484375e+00,-3.409496068954467773e+00,-5.408279895782470703e+00,-8.258338928222656250e+00,-5.515068054199218750e+00,-2.208616733551025391e+00,-4.142860412597656250e+00,-6.891929149627685547e+00,-5.136099338531494141e+00,-3.272902965545654297e+00,-7.993272542953491211e-01,-1.243790030479431152e+00,-2.446268081665039062e+00,-1.967993378639221191e+00,-3.493985533714294434e-02,-2.257149696350097656e+00,-3.155542850494384766e+00,-2.292695999145507812e+00,1.792832255363464355e+00,4.129866123199462891e+00,3.800036191940307617e+00
7.559405326843261719e+00,1.294660377502441406e+01,5.627287387847900391e+00,3.817018032073974609e+00,9.279109954833984375e+00,7.060216903686523438e+00,3.385314941406250000e+00,4.190177619457244873e-01,-8.813614398241043091e-02,-2.523664474487304688e+00,1.365669131278991699e+00,2.296544313430786133e+00,2.910507440567016602e+00,2.937294244766235352e+00,-9.869279861450195312e-01,2.365939855575561523e+00,4.634306907653808594e+00,2.037789583206176758e+00,-2.091469287872314453e+00,1.264063477516174316e+00,2.719632387161254883e+00,2.144281387329101562e+00,-2.801779210567474365e-01,-7.776231169700622559e-01,6.262347102165222168e-01,1.427868485450744629e+00,-9.885098338127136230e-01,2.580525875091552734e+00,8.439604759216308594e+00,7.593626022338867188e+00,6.794344782829284668e-01,9.196638107299804688e+00
1.434896659851074219e+01,2.266118812561035156e+01,1.759435653686523438e+01,1.490188789367675781e+01,1.893877220153808594e+01,1.879296493530273438e+01,1.410914707183837891e+01,9.295190811157226562e+00,7.580426216125488281e+00,5.128852844238281250e+00,1.015146446228027344e+01,1.203668117523193359e+01,1.131813812255859375e+01,7.374712467193603516e+00,4.690777301788330078e+00,8.724494934082031250e+00,1.082070732116699219e+01,8.625619888305664062e+00,3.704455614089965820e+00,5.452144622802734375e+00,8.113284111022949219e+00,1.001957130432128906e+01,8.901274681091308594e+00,7.450536251068115234e+00,4.709482669830322266e+00,5.392078399658203125e+00,7.768780231475830078e+00,1.385959720611572266e+01,1.906146430969238281e+01,1.848367500305175781e+01,9.991629600524902344e+00,1.700866508483886719e+01
1.204177188873291016e+01,1.434051418304443359e+01,1.470569896697998047e+01,1.370144081115722656e+01,1.284080791473388672e+01,1.287795543670654297e+01,1.072758960723876953e+01,7.152676582336425781e+00,4.520996093750000000e+00,6.701255440711975098e-01,7.549789428710937500e+00,9.456137657165527344e+00,7.875141620635986328e+00,1.315801858901977539e+00,6.277263164520263672e-01,4.660565853118896484e+00,7.220838546752929688e+00,8.862245559692382812e+00,5.291474819183349609e+00,4.482103347778320312e+00,7.727676391601562500e+00,1.197678089141845703e+01,1.305182361602783203e+01,1.080310630798339844e+01,8.167544364929199219e+00,7.140115261077880859e+00,1.324813270568847656e+01,1.448663043975830078e+01,1.387218761444091797e+01,1.502326774597167969e+01,1.548041248321533203e+01,1.093407726287841797e+01
3.741814136505126953e+00,6.595973968505859375e+00,3.706801176071166992e+00,2.364492416381835938e+00,3.856749773025512695e+00,4.887276172637939453e+00,2.917329788208007812e+00,8.358458876609802246e-01,3.476571142673492432e-01,-3.264265775680541992e+00,-6.068754196166992188e-01,-3.135764002799987793e-01,-1.918111801147460938e+00,-4.613052845001220703e+00,-4.815205097198486328e+00,-2.258187532424926758e+00,-1.685823678970336914e+00,-7.842940688133239746e-01,-2.337901353836059570e+00,-6.492016911506652832e-01,1.058797597885131836e+00,2.281459569931030273e+00,4.141650199890136719e+00,3.169564723968505859e+00,4.767463684082031250e+00,5.141206264495849609e+00,5.887990474700927734e+00,6.078144550323486328e+00,5.736712932586669922e+00,6.246465206146240234e+00,6.953927993774414062e+00,-3.013152122497558594e+00
-3.255052328109741211e+00,-2.259156465530395508e+00,-3.981165409088134766e+00,-4.411500930786132812e+00,-3.532170653343200684e-01,2.435151040554046631e-01,-5.405047535896301270e-01,1.843376040458679199e+00,4.312365055084228516e+00,3.669435501098632812e+00,-1.414231419563293457e+00,-3.340028047561645508e+00,-3.440134763717651367e+00,-1.329778671264648438e+00,-1.353986859321594238e+00,-3.346289634704589844e+00,-4.066018581390380859e+00,-5.771136283874511719e+00,-6.831785202026367188e+00,-4.655973434448242188e+00,-3.508437156677246094e+00,-3.681621313095092773e+00,-2.406275272369384766e+00,-3.688990354537963867e+00,-1.929187297821044922e+00,9.813360571861267090e-01,-2.018989324569702148e+00,-4.066100120544433594e-01,-1.852807700634002686e-01,7.102914452552795410e-01,-1.980876803398132324e+00,-9.911046981811523438e+00
-3.017715930938720703e+00,-1.099035072326660156e+01,-1.186908340454101562e+01,-9.798487663269042969e+00,-5.588088989257812500e+00,-6.838997364044189453e+00,-5.064274311065673828e+00,8.897919654846191406e-01,2.874440193176269531e+00,4.432930946350097656e+00,1.396398663520812988e+00,-1.070139884948730469e+00,-8.733890652656555176e-01,1.523267745971679688e+00,2.145180463790893555e+00,-1.805472135543823242e+00,-4.031603038311004639e-01,-7.111999392509460449e-01,-1.941869854927062988e+00,-3.123400926589965820e+00,-2.050646245479583740e-01,1.172782540321350098e+00,2.909143447875976562e+00,1.295495033264160156e+00,1.092586755752563477e+00,1.787344813346862793e+00,2.498031854629516602e+00,2.320441305637359619e-01,-3.561156749725341797e+00,-2.590011358261108398e+00,-4.811639785766601562e-01,-1.045256710052490234e+01
-9.541932106018066406e+00,-1.126550769805908203e+01,-1.275390052795410156e+01,-1.182978343963623047e+01,-1.026152324676513672e+01,-1.062265014648437500e+01,-7.842484951019287109e+00,-3.253625631332397461e+00,-2.379405498504638672e+00,-1.513814806938171387e+00,7.161626815795898438e-01,7.797812223434448242e-01,-2.705252766609191895e-01,-2.329927921295166016e+00,-2.135655641555786133e+00,-6.314475536346435547e-01,1.551346421241760254e+00,2.112929821014404297e-01,-1.527333498001098633e+00,-5.562735199928283691e-01,3.289889335632324219e+00,3.910906314849853516e+00,5.148790359497070312e+00,5.726374626159667969e+00,5.702961444854736328e+00,3.974234342575073242e+00,5.537921905517578125e+00,-3.243443071842193604e-01,-4.951893329620361328e+00,-4.058890342712402344e+00,3.319830179214477539e+00,-8.370094299316406250e+00
-1.446899414062500000e+01,-8.795592308044433594e+00,-1.328572869300842285e+00,-5.840246081352233887e-01,-7.657706737518310547e+00,-8.039680480957031250e+00,-3.374497652053833008e+00,2.333927154541015625e+00,2.352222442626953125e+00,1.296292245388031006e-01,4.554505050182342529e-01,4.542176723480224609e+00,3.570405721664428711e+00,-2.430085182189941406e+00,-5.101250171661376953e+00,-2.815090715885162354e-01,1.521717786788940430e+00,-1.080619931221008301e+00,-4.171513557434082031e+00,-1.038497924804687500e+00,1.423934578895568848e+00,1.812202453613281250e+00,1.862027883529663086e+00,2.214570283889770508e+00,1.220320820808410645e+00,6.550492644309997559e-01,1.319552183151245117e+00,-2.777477264404296875e+00,-6.291504383087158203e+00,-5.296240806579589844e+00,4.845845997333526611e-01,-5.486071109771728516e+00
6.574356079101562500e+00,-1.087163329124450684e+00,3.768572092056274414e+00,6.432574748992919922e+00,2.565970897674560547e+00,2.006669282913208008e+00,4.081196784973144531e+00,7.212673187255859375e+00,5.975553989410400391e+00,3.957530498504638672e+00,5.430398941040039062e+00,9.961256980895996094e+00,7.675019264221191406e+00,6.573673486709594727e-01,-7.720275521278381348e-01,3.242134094238281250e+00,5.924321174621582031e+00,4.840168476104736328e+00,7.289319038391113281e-01,3.185303509235382080e-01,9.153161644935607910e-01,4.553809642791748047e+00,5.988224506378173828e+00,5.007816791534423828e+00,-1.418851763010025024e-01,-8.055958151817321777e-01,1.442199468612670898e+00,4.177217006683349609e+00,1.632926940917968750e+00,-1.046054482460021973e+00,-2.330195188522338867e+00,-2.154300689697265625e+00
1.877633666992187500e+01,6.893016815185546875e+00,-6.413212299346923828e+00,-5.552198886871337891e+00,3.869960546493530273e+00,9.193104743957519531e+00,4.304208278656005859e+00,-1.943259596824645996e+00,-2.027895450592041016e+00,-3.224212527275085449e-01,3.911832094192504883e+00,6.022035121917724609e+00,3.503264665603637695e+00,-1.700097203254699707e+00,-5.528320670127868652e-01,3.559278011322021484e+00,6.308586597442626953e+00,5.469419956207275391e+00,2.161637306213378906e+00,2.932054042816162109e+00,3.777480363845825195e+00,7.384697914123535156e+00,9.504947662353515625e+00,9.922502517700195312e+00,3.872584581375122070e+00,2.193053722381591797e+00,5.608746528625488281e+00,1.160877704620361328e+01,1.097542285919189453e+01,7.101549148559570312e+00,1.588972568511962891e+00,-4.076712131500244141e+00
-8.634737133979797363e-01,-5.434285640716552734e+00,-1.381276893615722656e+01,-1.296140098571777344e+01,-9.327406883239746094e+00,-4.483884811401367188e+00,-7.346527099609375000e+00,-1.131200218200683594e+01,-8.662631034851074219e+00,-6.579085826873779297e+00,-6.963900566101074219e+00,-7.214384555816650391e+00,-5.807843685150146484e+00,-5.646462917327880859e+00,-3.729567050933837891e+00,-2.932091236114501953e+00,-1.666436195373535156e+00,-4.415813446044921875e+00,-6.594649791717529297e+00,-4.448274135589599609e+00,-2.445842742919921875e+00,-2.391338109970092773e+00,-1.802809000015258789e+00,4.504059255123138428e-01,-7.841429710388183594e-01,-2.269070148468017578e+00,-1.264824032783508301e+00,-3.321811556816101074e-01,-2.141994953155517578e+00,-2.030143499374389648e+00,-1.456964254379272461e+00,-9.600122451782226562e+00
-1.674006843566894531e+01,-1.551401042938232422e+01,-1.095130538940429688e+01,-5.280437469482421875e+00,-1.300554084777832031e+01,-1.450736427307128906e+01,-1.192931747436523438e+01,-7.272790908813476562e+00,-5.424204349517822266e+00,-3.993746757507324219e+00,-8.001471519470214844e+00,-8.295018196105957031e+00,-6.223573207855224609e+00,-2.290918111801147461e+00,-9.659209847450256348e-01,-5.137199401855468750e+00,-5.810149192810058594e+00,-7.619073867797851562e+00,-7.843654632568359375e+00,-8.956831932067871094e+00,-8.884803771972656250e+00,-1.039355850219726562e+01,-9.637434959411621094e+00,-6.490521430969238281e+00,-4.273707389831542969e+00,-4.500299453735351562e+00,-6.019945144653320312e+00,-9.144817352294921875e+00,-1.173799324035644531e+01,-9.152668952941894531e+00,-6.219072818756103516e+00,-1.593361473083496094e+01
-5.569597721099853516e+00,-7.888534069061279297e+00,-9.941686630249023438e+00,-4.299645423889160156e+00,-5.741389751434326172e+00,-6.556136131286621094e+00,-6.282289028167724609e+00,-2.981514453887939453e+00,-1.164833009243011475e-01,2.446864843368530273e+00,-2.470218896865844727e+00,-2.675529718399047852e+00,-1.142441272735595703e+00,2.787136554718017578e+00,4.089424610137939453e+00,-8.197937607765197754e-01,-2.328063488006591797e+00,-2.855222225189208984e+00,2.687618434429168701e-01,-6.382849067449569702e-02,-1.395546674728393555e+00,-4.025425434112548828e+00,-4.822140693664550781e+00,-3.390421628952026367e+00,-1.525711297988891602e+00,-3.037404417991638184e-01,-1.837029576301574707e+00,-3.742522478103637695e+00,-2.984869956970214844e+00,-1.111227571964263916e-01,-2.372714042663574219e+00,-1.931980895996093750e+01
-8.528538703918457031e+00,-1.187900352478027344e+01,-1.048236846923828125e+01,-9.066404342651367188e+00,-9.133025169372558594e+00,-1.120428562164306641e+01,-1.058129787445068359e+01,-6.921351432800292969e+00,-9.547920525074005127e-02,1.757820010185241699e+00,-5.385565757751464844e+00,-9.454152107238769531e+00,-5.551446437835693359e+00,1.420750498771667480e+00,4.214004039764404297e+00,-1.043871283531188965e+00,-1.738250494003295898e+00,-1.334792733192443848e+00,4.570040702819824219e+00,3.117098569869995117e+00,1.270651578903198242e+00,-3.665179729461669922e+00,-7.655181884765625000e+00,-9.091944694519042969e+00,-7.295292377471923828e+00,-5.951744556427001953e+00,-7.443297863006591797e+00,-9.331261634826660156e+00,-7.467217922210693359e+00,-4.934888839721679688e+00,-6.016402721405029297e+00,-1.882900428771972656e+01
-4.155519008636474609e+00,-4.790599822998046875e+00,-4.550212323665618896e-01,-2.257385730743408203e+00,-8.456558227539062500e+00,-1.188618183135986328e+01,-1.083137512207031250e+01,-5.085662364959716797e+00,6.827443838119506836e-01,1.488159060478210449e+00,-4.330914974212646484e+00,-7.999310016632080078e+00,-4.066555500030517578e+00,3.270840883255004883e+00,6.361830234527587891e+00,1.596205115318298340e+00,1.609944105148315430e+00,4.741667270660400391e+00,1.184437084197998047e+01,7.464494228363037109e+00,2.579103469848632812e+00,-2.892340421676635742e+00,-5.602660179138183594e+00,-6.529802799224853516e+00,-5.303002834320068359e+00,-3.476723909378051758e+00,-4.092778682708740234e+00,-2.992998600006103516e+00,-7.448443770408630371e-01,3.289667665958404541e-01,-3.216558456420898438e+00,-7.825231075286865234e+00
1.365276718139648438e+01,1.210039043426513672e+01,8.772707939147949219e+00,4.477748870849609375e+00,4.280380725860595703e+00,4.353367805480957031e+00,1.748806834220886230e+00,1.552565813064575195e+00,2.368846178054809570e+00,4.316239356994628906e+00,5.231119155883789062e+00,7.426068782806396484e+00,8.645807266235351562e+00,9.207049369812011719e+00,8.546219825744628906e+00,1.025875282287597656e+01,1.157903957366943359e+01,1.486677169799804688e+01,1.897183227539062500e+01,1.523119831085205078e+01,8.651749610900878906e+00,5.698799133300781250e+00,5.868710517883300781e+00,8.330080986022949219e+00,8.095225334167480469e+00,9.382995605468750000e+00,8.663637161254882812e+00,1.310624122619628906e+01,1.716041374206542969e+01,1.891271018981933594e+01,1.285929679870605469e+01,6.773411273956298828e+00
1.311961650848388672e+01,6.701608180999755859e+00,-5.307240486145019531e-01,-4.026604652404785156e+00,5.729091167449951172e+00,9.801445960998535156e+00,6.162180423736572266e+00,-5.232385396957397461e-01,-4.524211883544921875e+00,-2.042606830596923828e+00,3.490116357803344727e+00,8.539943695068359375e+00,9.559242248535156250e+00,7.044445991516113281e+00,2.383127450942993164e+00,8.458898544311523438e+00,1.054616737365722656e+01,1.103951454162597656e+01,1.136545562744140625e+01,1.193458557128906250e+01,1.060673236846923828e+01,1.059390926361083984e+01,9.469948768615722656e+00,1.078048038482666016e+01,1.076330852508544922e+01,1.040164470672607422e+01,1.118301486968994141e+01,1.201389694213867188e+01,1.169807434082031250e+01,1.298281097412109375e+01,1.498544979095458984e+01,5.595392704010009766e+00
