Fp1,Fp2,F7,F3,Fz,F4,F8,FT7,FC3,FCz,FC4,FT8,T3,C3,Cz,C4,T4,TP7,CP3,CPz,CP4,TP8,T5,P3,Pz,P4,T6,O1,Oz,O2,A1,A2
1.996162891387939453e+00,2.730172157287597656e+00,3.873531341552734375e+00,4.624546051025390625e+00,4.672633647918701172e+00,4.306472301483154297e+00,2.891133785247802734e+00,-2.014375448226928711e+00,-2.459830343723297119e-01,2.307356834411621094e+00,3.281691074371337891e+00,-3.184977769851684570e-01,-2.024414390325546265e-01,1.299338817596435547e+00,1.979394316673278809e+00,-1.800941586494445801e+00,-3.444442987442016602e+00,-2.006131172180175781e+00,-8.826714009046554565e-02,-2.892949152737855911e-03,-6.612824201583862305e-01,-1.017897009849548340e+00,6.711149811744689941e-01,-1.072943568229675293e+00,-1.505025386810302734e+00,-7.357929348945617676e-01,2.413289070129394531e+00,2.718075513839721680e+00,4.248732566833496094e+00,5.546993732452392578e+00,6.110520362854003906e+00,9.362045288085937500e+00
-8.382286429405212402e-01,1.617159724235534668e+00,2.491544723510742188e+00,1.633534073829650879e+00,-1.807488203048706055e-01,-2.053702592849731445e+00,-2.349962949752807617e+00,-1.921340346336364746e+00,-1.818592667579650879e+00,2.406504899263381958e-01,-1.692135930061340332e+00,-1.417489528656005859e+00,-2.196186542510986328e+00,-1.470617175102233887e+00,-2.108979940414428711e+00,-4.283638477325439453e+00,-3.573417663574218750e+00,-1.189603924751281738e+00,1.974820494651794434e+00,3.073423624038696289e+00,8.541659712791442871e-01,-5.741118192672729492e-01,-2.451848030090332031e+00,3.898701071739196777e-01,2.737474203109741211e+00,3.136054754257202148e+00,6.361544877290725708e-02,-1.003759503364562988e+00,-2.250974893569946289e+00,-2.477979898452758789e+00,-1.575522303581237793e+00,5.178441852331161499e-02
5.930228710174560547e+00,5.299216747283935547e+00,5.030394554138183594e+00,3.705665826797485352e+00,2.901948451995849609e+00,2.687995195388793945e+00,3.461037158966064453e+00,3.879504680633544922e+00,9.122231006622314453e-01,-7.168111205101013184e-01,5.827300548553466797e-01,6.060436248779296875e+00,3.957185745239257812e+00,1.106720328330993652e+00,-2.101696252822875977e+00,2.329967468976974487e-01,2.136560440063476562e+00,3.876213788986206055e+00,3.549713373184204102e+00,6.882840156555175781e+00,7.843645095825195312e+00,7.743286609649658203e+00,6.511655807495117188e+00,1.365090179443359375e+01,1.425399208068847656e+01,1.349653053283691406e+01,8.103174209594726562e+00,8.262269973754882812e+00,4.907609462738037109e+00,6.398255348205566406e+00,9.246383666992187500e+00,5.456736564636230469e+00
7.999871730804443359e+00,8.265280723571777344e-01,-3.223826885223388672e+00,-3.243617534637451172e+00,-3.315900564193725586e-01,4.606532573699951172e+00,6.060758590698242188e+00,2.538032770156860352e+00,5.660626888275146484e-01,1.346493363380432129e+00,5.786891937255859375e+00,8.766122817993164062e+00,7.977452278137207031e+00,5.191651821136474609e+00,2.835707664489746094e+00,5.786949157714843750e+00,6.186933517456054688e+00,5.026456356048583984e+00,2.027626514434814453e+00,2.206039190292358398e+00,7.220788002014160156e+00,9.832425117492675781e+00,1.133051681518554688e+01,9.304586410522460938e+00,6.085692882537841797e+00,4.428528308868408203e+00,5.911644458770751953e+00,8.755743026733398438e+00,7.905198574066162109e+00,4.481061458587646484e+00,3.173087120056152344e+00,8.525453209877014160e-01
2.776901006698608398e+00,-5.246579647064208984e+00,-9.044836044311523438e+00,-8.944583892822265625e+00,-5.419707298278808594e+00,-1.576106309890747070e+00,1.389098048210144043e+00,1.352386921644210815e-01,8.767029047012329102e-01,2.694579362869262695e+00,3.771184921264648438e+00,3.385609149932861328e+00,4.437616348266601562e+00,3.345288753509521484e+00,3.129593133926391602e+00,2.707869768142700195e+00,1.371094942092895508e+00,-9.827031493186950684e-01,-2.362447023391723633e+00,-1.592310190200805664e+00,2.479695320129394531e+00,4.960770606994628906e+00,5.066222667694091797e+00,-2.108496874570846558e-01,-5.902674674987792969e+00,-8.115586280822753906e+00,-2.160529851913452148e+00,2.980233430862426758e+00,1.682445526123046875e+00,-4.483107089996337891e+00,-9.305446624755859375e+00,-4.581740379333496094e+00
-1.655824422836303711e+00,-4.441407203674316406e+00,-4.554560184478759766e+00,-4.105997085571289062e+00,-2.598620891571044922e+00,-1.900924801826477051e+00,3.727344572544097900e-01,2.356591939926147461e+00,2.124737024307250977e+00,4.796109795570373535e-01,-9.833642244338989258e-01,-2.118865698575973511e-01,-7.972874641418457031e-01,-3.724102735519409180e+00,-5.075634002685546875e+00,-3.592363357543945312e+00,-3.587891578674316406e+00,-4.857408046722412109e+00,-5.986874103546142578e+00,-2.358534574508666992e+00,-1.628224849700927734e-01,7.529046535491943359e-01,2.228899955749511719e+00,5.050155162811279297e+00,8.682916760444641113e-01,-2.038423776626586914e+00,-1.914964795112609863e+00,1.421270370483398438e+00,-1.699620366096496582e+00,-2.999749898910522461e+00,-6.873027324676513672e+00,-6.577958106994628906e+00
-2.006758451461791992e+00,-2.189391136169433594e+00,-3.795228004455566406e+00,-2.787771224975585938e+00,-1.845374822616577148e+00,7.344267964363098145e-01,7.958796024322509766e-01,8.624690175056457520e-01,6.432627439498901367e-01,-1.085882306098937988e+00,-5.400925278663635254e-01,-7.151803374290466309e-02,-2.279098749160766602e+00,-6.866104125976562500e+00,-9.062321662902832031e+00,-4.850162029266357422e+00,-3.880201101303100586e+00,-4.435319900512695312e+00,-6.550725936889648438e+00,-5.757512092590332031e+00,-3.476302146911621094e+00,-2.157417535781860352e+00,4.058561027050018311e-01,4.788854598999023438e+00,4.892897605895996094e+00,1.785222291946411133e+00,-3.446380376815795898e+00,-4.358357906341552734e+00,-5.880545139312744141e+00,-4.797209262847900391e+00,-6.964647293090820312e+00,-1.342705726623535156e+01
5.487362742424011230e-01,-8.606877326965332031e-01,-3.874103307723999023e+00,-4.710738658905029297e+00,-4.197889804840087891e+00,-5.797607898712158203e-01,6.228883862495422363e-01,-1.337603926658630371e+00,1.268609046936035156e+00,1.808903932571411133e+00,2.924312114715576172e+00,-4.937116801738739014e-01,-7.901514172554016113e-01,-2.457534551620483398e+00,-1.512174963951110840e+00,-1.535125374794006348e+00,-2.710386276245117188e+00,-2.301980257034301758e+00,-1.681291460990905762e+00,-2.533028602600097656e+00,-2.169647932052612305e+00,-1.984913945198059082e+00,-3.375257492065429688e+00,-2.159968614578247070e+00,-1.119750738143920898e+00,-2.387958049774169922e+00,-4.775499820709228516e+00,-5.593768119812011719e+00,-4.773372173309326172e+00,-5.795585632324218750e+00,-7.851632595062255859e+00,-1.132145404815673828e+01
3.647162914276123047e+00,2.814681768417358398e+00,5.359083414077758789e-01,-1.601317167282104492e+00,-7.611832618713378906e-01,2.069574117660522461e+00,4.076950073242187500e+00,2.489714622497558594e+00,3.689695358276367188e+00,3.187052249908447266e+00,2.964220762252807617e+00,-1.861168295145034790e-01,1.342903494834899902e+00,3.187747001647949219e+00,5.374074935913085938e+00,3.033894062042236328e+00,1.218130350112915039e+00,3.627236604690551758e+00,4.581999301910400391e+00,5.715542316436767578e+00,5.131054878234863281e+00,2.149552345275878906e+00,8.872214555740356445e-01,1.218685269355773926e+00,2.123646020889282227e+00,2.128938674926757812e+00,3.528025388717651367e+00,2.353573083877563477e+00,4.155646800994873047e+00,5.889660835266113281e+00,4.588179588317871094e+00,3.139990270137786865e-01
4.295296192169189453e+00,3.660328388214111328e+00,8.491517305374145508e-01,9.242151379585266113e-01,1.653262376785278320e+00,4.079706192016601562e+00,3.181774616241455078e+00,2.382914543151855469e+00,1.132624745368957520e+00,1.580352544784545898e+00,2.233600139617919922e+00,2.392500877380371094e+00,2.019576549530029297e+00,2.904620885848999023e+00,4.604067802429199219e+00,6.995545864105224609e+00,6.698276519775390625e+00,8.055958747863769531e+00,6.437600135803222656e+00,5.607304573059082031e+00,6.198140621185302734e+00,3.338996410369873047e+00,3.672130107879638672e+00,3.243235111236572266e+00,5.815045356750488281e+00,6.132752418518066406e+00,4.719013214111328125e+00,1.220034956932067871e+00,2.945150852203369141e+00,6.648257255554199219e+00,7.115902423858642578e+00,4.574469089508056641e+00
1.374962687492370605e+00,-3.370962858200073242e+00,-5.454060077667236328e+00,-4.142272472381591797e+00,-3.150570392608642578e+00,-1.664826631546020508e+00,-2.702990055084228516e+00,-4.100429058074951172e+00,-4.264781475067138672e+00,-1.604853153228759766e+00,2.153587818145751953e+00,2.604123353958129883e+00,7.975702285766601562e-01,-9.072057008743286133e-01,1.502359867095947266e+00,4.592613220214843750e+00,5.012536048889160156e+00,3.733966112136840820e+00,2.421506166458129883e+00,-2.413013130426406860e-01,-1.176786050200462341e-01,3.250082433223724365e-01,-2.487839698791503906e+00,-3.133514165878295898e+00,-1.133868217468261719e+00,-2.208231210708618164e+00,-6.187297821044921875e+00,-6.513113498687744141e+00,-5.601203918457031250e+00,-7.591451168060302734e+00,-7.605155944824218750e+00,-6.521956443786621094e+00
-2.906352281570434570e+00,-7.191637992858886719e+00,-8.569888114929199219e+00,-8.556035995483398438e+00,-6.985832691192626953e+00,-4.975275039672851562e+00,-2.942659378051757812e+00,-4.550613403320312500e+00,-4.976858139038085938e+00,-4.093337535858154297e+00,-5.206989645957946777e-01,-1.668710231781005859e+00,-1.106846570968627930e+00,-4.853136837482452393e-01,6.708650588989257812e-01,-8.078969120979309082e-01,-1.328194737434387207e+00,6.643757224082946777e-01,2.800148725509643555e-01,-2.615045547485351562e+00,-4.171521663665771484e+00,-2.342761993408203125e+00,-4.972462177276611328e+00,-7.099584579467773438e+00,-8.664653778076171875e+00,-1.079338169097900391e+01,-9.810263633728027344e+00,-6.208588123321533203e+00,-5.717120170593261719e+00,-9.920665740966796875e+00,-1.242835521697998047e+01,-1.586452102661132812e+01
-3.684531688690185547e+00,-6.276855945587158203e+00,-7.478984832763671875e+00,-6.682302474975585938e+00,-5.264157772064208984e+00,-3.945171356201171875e+00,-1.648141860961914062e+00,-1.598811000585556030e-01,-8.048357963562011719e-01,-3.309988975524902344e+00,-4.632460117340087891e+00,-5.120572566986083984e+00,-3.032045602798461914e+00,1.767558813095092773e+00,2.476598978042602539e+00,1.050078153610229492e+00,7.743985056877136230e-01,3.961030721664428711e+00,2.080145835876464844e+00,-5.086376667022705078e+00,-6.826848030090332031e+00,-5.189087867736816406e+00,-3.155143737792968750e+00,-7.399547100067138672e+00,-7.878025054931640625e+00,-8.135654449462890625e+00,-6.332001209259033203e+00,-6.562583446502685547e+00,-5.249673366546630859e+00,-4.005618095397949219e+00,-5.965346336364746094e+00,-1.329921722412109375e+01
-4.710876941680908203e+00,-4.730306625366210938e+00,-4.655732631683349609e+00,-4.139869213104248047e+00,-3.452143907546997070e+00,-4.586572647094726562e+00,-4.415648460388183594e+00,-2.002230167388916016e+00,-7.932990193367004395e-01,-3.514681100845336914e+00,-5.710727691650390625e+00,-5.228196620941162109e+00,-3.300858736038208008e+00,1.596240997314453125e+00,5.149065494537353516e+00,3.977465152740478516e+00,2.808713674545288086e+00,1.272673130035400391e+00,-1.785472594201564789e-02,-6.291424751281738281e+00,-7.250418186187744141e+00,-5.476348876953125000e+00,-4.003213405609130859e+00,-6.184700489044189453e+00,-4.767666339874267578e+00,-2.590358257293701172e+00,-3.661673307418823242e+00,-6.408012866973876953e+00,-6.346462726593017578e+00,-4.957551479339599609e+00,-4.472286224365234375e+00,-5.530731678009033203e+00
-6.342135906219482422e+00,-2.754143953323364258e+00,-3.825689792633056641e+00,-5.705371856689453125e+00,-4.374981403350830078e+00,-4.887862205505371094e+00,-5.674003124237060547e+00,-6.347588062286376953e+00,-5.496190071105957031e+00,-6.757062911987304688e+00,-6.347664833068847656e+00,-5.202409744262695312e+00,-2.694652080535888672e+00,1.080060843378305435e-02,4.694575309753417969e+00,-4.403926432132720947e-01,-2.926513671875000000e+00,-3.993649959564208984e+00,-1.399374246597290039e+00,-2.657480716705322266e+00,-3.508000135421752930e+00,-2.575697422027587891e+00,-2.085893869400024414e+00,-2.793556690216064453e+00,-7.200891971588134766e+00,-6.088851928710937500e+00,-6.547784209251403809e-01,1.960662245750427246e+00,1.612544357776641846e-01,-3.145092010498046875e+00,-4.609011173248291016e+00,-4.437852382659912109e+00
-4.435452461242675781e+00,-3.366858959197998047e+00,-6.538287639617919922e+00,-7.818490982055664062e+00,-5.373710632324218750e+00,-4.943049430847167969e+00,-5.164021968841552734e+00,-4.073400497436523438e+00,-4.177523136138916016e+00,-6.185318946838378906e+00,-7.870656490325927734e+00,-4.671240806579589844e+00,-2.713733434677124023e+00,1.029266953468322754e+00,3.519865751266479492e+00,-2.077613353729248047e+00,-3.708816528320312500e+00,-1.201205611228942871e+00,1.955026626586914062e+00,-8.030619621276855469e-01,-1.619509220123291016e+00,-1.769893407821655273e+00,-2.267202138900756836e-01,-2.109521389007568359e+00,-6.906400680541992188e+00,-8.680126190185546875e+00,-1.357095241546630859e+00,2.282112836837768555e+00,2.580474138259887695e+00,-5.192517042160034180e-01,-2.365583658218383789e+00,-6.752525806427001953e+00
-3.162040472030639648e+00,-2.724081754684448242e+00,-3.965826511383056641e+00,-3.240169763565063477e+00,-6.432267427444458008e-01,-2.476508855819702148e+00,-3.200783014297485352e+00,-6.212756037712097168e-01,7.142480015754699707e-01,8.272573351860046387e-02,-2.815651178359985352e+00,-2.842563629150390625e+00,-3.238205909729003906e+00,1.884280443191528320e+00,3.780345201492309570e+00,1.703823566436767578e+00,1.166681170463562012e+00,1.070159912109375000e+00,9.846826195716857910e-01,-2.085289716720581055e+00,-2.356688022613525391e+00,-3.156923294067382812e+00,-3.767182111740112305e+00,-4.100714206695556641e+00,-4.383026123046875000e+00,-6.091731548309326172e+00,-6.545128345489501953e+00,-5.925421714782714844e+00,-2.911575317382812500e+00,-3.030919551849365234e+00,-3.178329944610595703e+00,-3.297973871231079102e+00
-3.224413156509399414e+00,3.259204864501953125e+00,5.949317932128906250e+00,7.083926200866699219e+00,5.952886104583740234e+00,1.350064992904663086e+00,-1.015104055404663086e+00,1.458391785621643066e+00,2.961263895034790039e+00,1.951477169990539551e+00,1.227416038513183594e+00,-2.307378530502319336e+00,-3.510564327239990234e+00,-1.317026019096374512e+00,1.422942161560058594e+00,-1.566439509391784668e+00,-2.658806800842285156e+00,-5.361248493194580078e+00,-4.473913192749023438e+00,-2.619802474975585938e+00,-1.787488937377929688e+00,-3.250543117523193359e+00,-5.050931930541992188e+00,-2.324266672134399414e+00,-1.201577425003051758e+00,1.454320669174194336e+00,-6.414946317672729492e-01,-1.384707927703857422e+00,-1.461529016494750977e+00,2.152111083269119263e-01,1.656715393066406250e+00,6.611521720886230469e+00
-3.182590961456298828e+00,1.367995858192443848e+00,5.973522186279296875e+00,6.551748752593994141e+00,1.300159811973571777e+00,-2.401499748229980469e+00,-2.336622476577758789e+00,1.446303963661193848e+00,1.373584985733032227e+00,-3.550881624221801758e+00,-4.514227867126464844e+00,-5.942503929138183594e+00,-5.862783432006835938e+00,-5.112140178680419922e+00,-4.166833877563476562e+00,-8.290790557861328125e+00,-9.513117790222167969e+00,-9.957018852233886719e+00,-5.078967094421386719e+00,-2.716918706893920898e+00,-4.259240627288818359e+00,-6.666313171386718750e+00,-7.145389080047607422e+00,-2.248106718063354492e+00,4.902712404727935791e-01,5.602723121643066406e+00,5.963953495025634766e+00,4.127978324890136719e+00,1.120149612426757812e+00,3.821673870086669922e+00,7.454244136810302734e+00,1.080682849884033203e+01
-6.950623512268066406e+00,-5.060581684112548828e+00,-5.835568308830261230e-01,-1.153171896934509277e+00,-3.624026536941528320e+00,-4.361385345458984375e+00,-2.246184825897216797e+00,-5.430694818496704102e-01,1.293621957302093506e-01,-4.134661197662353516e+00,-6.366713047027587891e+00,-6.856486797332763672e+00,-8.052466392517089844e+00,-6.490621566772460938e+00,-7.491425037384033203e+00,-8.214190483093261719e+00,-8.374902725219726562e+00,-8.188118934631347656e+00,-3.665588855743408203e+00,-3.644540071487426758e+00,-7.770327091217041016e+00,-1.090355205535888672e+01,-9.200784683227539062e+00,-4.197840213775634766e+00,-2.101226329803466797e+00,-8.310138583183288574e-01,-5.444501042366027832e-01,-2.691707134246826172e+00,-3.321102619171142578e+00,-1.329083323478698730e+00,2.736477375030517578e+00,5.791755199432373047e+00
-5.637094020843505859e+00,-2.796110153198242188e+00,-2.653323113918304443e-01,2.820042967796325684e-01,-8.503654599189758301e-02,2.055814266204833984e-01,-1.349187940359115601e-01,-6.437470912933349609e-01,1.407327294349670410e+00,1.321349978446960449e+00,-6.474821567535400391e-01,-1.917624711990356445e+00,-4.588970661163330078e+00,-5.351190090179443359e+00,-6.164598464965820312e+00,-4.932882308959960938e+00,-4.366361141204833984e+00,-4.201200008392333984e+00,-2.105388879776000977e+00,-1.959825038909912109e+00,-3.901080846786499023e+00,-6.678755760192871094e+00,-4.687494754791259766e+00,-1.467514038085937500e+00,4.252804219722747803e-01,-1.839632272720336914e+00,-3.500218391418457031e+00,-6.145341873168945312e+00,-5.898314476013183594e+00,-4.490151882171630859e+00,-1.379664897918701172e+00,1.223867654800415039e+00
6.820570468902587891e+00,3.301998376846313477e+00,4.324313163757324219e+00,6.928202152252197266e+00,4.652703762054443359e+00,3.108098030090332031e+00,1.552857041358947754e+00,2.214390277862548828e+00,2.807776689529418945e+00,3.957245588302612305e+00,4.384085178375244141e+00,5.223400115966796875e+00,2.683024644851684570e+00,-1.860889196395874023e+00,-3.096708536148071289e+00,-1.412446379661560059e+00,3.455010950565338135e-01,4.203713238239288330e-01,7.331352829933166504e-01,1.926869899034500122e-01,6.210558414459228516e-01,1.509730219841003418e+00,2.553117990493774414e+00,4.914811134338378906e+00,7.697228431701660156e+00,8.007099151611328125e+00,4.333768367767333984e+00,1.404860854148864746e+00,-5.527950525283813477e-01,1.864234805107116699e+00,4.009564876556396484e+00,2.710705280303955078e+00
1.008754730224609375e+01,4.674466609954833984e+00,5.893441200256347656e+00,7.115833759307861328e+00,6.635435581207275391e+00,4.466290950775146484e+00,4.492666244506835938e+00,4.982349395751953125e+00,4.981589794158935547e+00,5.944499015808105469e+00,6.801540374755859375e+00,8.023685455322265625e+00,6.141424179077148438e+00,2.159764528274536133e+00,-2.237309813499450684e-01,2.463772535324096680e+00,3.757255792617797852e+00,1.667698383331298828e+00,-7.104555964469909668e-01,-2.096454620361328125e+00,-1.459228873252868652e+00,3.532377481460571289e+00,5.420917510986328125e+00,5.495810508728027344e+00,6.922077178955078125e+00,9.316232681274414062e+00,6.852144718170166016e+00,6.602482318878173828e+00,4.982856273651123047e+00,4.945223808288574219e+00,4.134105682373046875e+00,9.631160646677017212e-02
6.247659325599670410e-01,2.111140966415405273e+00,3.897280693054199219e+00,3.792399644851684570e+00,3.316856145858764648e+00,2.470867395401000977e+00,2.143556356430053711e+00,2.097512483596801758e+00,2.815838336944580078e+00,2.991370201110839844e+00,1.882313251495361328e+00,2.186597824096679688e+00,2.059983491897583008e+00,1.465539216995239258e+00,-1.036818027496337891e+00,9.354685544967651367e-01,6.277869641780853271e-02,-2.156129360198974609e+00,-4.627164840698242188e+00,-5.944197177886962891e+00,-4.399086952209472656e+00,-2.261926382780075073e-01,1.461300015449523926e+00,-5.505216121673583984e+00,-4.725158691406250000e+00,-4.047180175781250000e+00,-1.956803679466247559e+00,-3.415722250938415527e-01,1.517283201217651367e+00,-2.587188243865966797e+00,-6.664030551910400391e+00,-1.082939243316650391e+01
-5.240747451782226562e+00,-2.590112686157226562e+00,1.015308141708374023e+00,1.219533324241638184e+00,-2.539950609207153320e+00,-3.527070999145507812e+00,-4.279767990112304688e+00,-2.380936384201049805e+00,-2.530041456222534180e+00,-3.462832927703857422e+00,-5.438388347625732422e+00,-5.819450855255126953e+00,-3.953764438629150391e+00,-3.175234079360961914e+00,-3.890539169311523438e+00,-3.689861536026000977e+00,-3.715429544448852539e+00,-4.045617103576660156e+00,-3.780163288116455078e+00,-6.633723735809326172e+00,-6.146660804748535156e+00,-4.577167510986328125e+00,-6.566621780395507812e+00,-1.218871116638183594e+01,-8.372990608215332031e+00,-7.502538681030273438e+00,-9.086879730224609375e+00,-9.115386962890625000e+00,-5.632124423980712891e+00,-8.051912307739257812e+00,-1.138297653198242188e+01,-1.496655845642089844e+01
-6.316798686981201172e+00,-7.138970851898193359e+00,-1.957650065422058105e+00,-3.678878068923950195e+00,-5.860859870910644531e+00,-7.398818016052246094e+00,-5.597151279449462891e+00,-3.086613178253173828e+00,-2.536115169525146484e+00,-3.599784851074218750e+00,-6.080389499664306641e+00,-6.835896968841552734e+00,-5.268370151519775391e+00,-4.437699317932128906e+00,-3.531970024108886719e+00,-3.170005083084106445e+00,-2.064148902893066406e+00,-1.397403478622436523e+00,2.055324792861938477e+00,-1.311886757612228394e-01,-3.721978425979614258e+00,-5.235437393188476562e+00,-6.784200191497802734e+00,-2.279937982559204102e+00,3.571492195129394531e+00,4.077102184295654297e+00,-3.065099239349365234e+00,-5.862650871276855469e+00,-5.503402709960937500e+00,-3.981908321380615234e+00,-1.429379582405090332e+00,-4.977477073669433594e+00
-5.705834388732910156e+00,-4.178695678710937500e+00,-1.413329243659973145e+00,-3.449432849884033203e+00,-5.202045440673828125e+00,-5.995580196380615234e+00,-3.328967332839965820e+00,-5.958299636840820312e-01,1.678271591663360596e-01,-1.176510453224182129e+00,-3.958154916763305664e+00,-4.101741790771484375e+00,-3.644452095031738281e+00,-1.193742871284484863e+00,-7.948223948478698730e-01,-7.814685106277465820e-01,-1.088721513748168945e+00,2.050577163696289062e+00,6.257447242736816406e+00,7.539821624755859375e+00,4.293159484863281250e+00,-4.470909833908081055e-01,1.351976871490478516e+00,5.976794242858886719e+00,9.175861358642578125e+00,8.417410850524902344e+00,8.515836715698242188e+00,3.852380037307739258e+00,5.483033657073974609e-01,1.278321623802185059e+00,6.582877635955810547e+00,4.578008174896240234e+00
-9.376031160354614258e-01,8.523130416870117188e-01,2.612837791442871094e+00,3.396749973297119141e+00,-1.291766166687011719e+00,-2.148761987686157227e+00,-6.287708282470703125e-01,2.586425781250000000e+00,8.039299845695495605e-01,-7.613332867622375488e-01,-3.769691944122314453e+00,-3.707888364791870117e+00,-2.450711488723754883e+00,1.448663115501403809e+00,1.416330337524414062e+00,8.332329392433166504e-01,2.643454372882843018e-01,3.416162967681884766e+00,5.664079666137695312e+00,7.775763034820556641e+00,7.605531692504882812e+00,3.776915073394775391e+00,2.510946989059448242e+00,1.091245412826538086e+00,3.292376041412353516e+00,4.535380363464355469e+00,7.216188907623291016e+00,2.507143735885620117e+00,3.324619233608245850e-01,5.174807906150817871e-01,3.205385208129882812e+00,4.046705722808837891e+00
-1.326025485992431641e+00,2.662178993225097656e+00,5.489126205444335938e+00,5.610182762145996094e+00,2.950989961624145508e+00,1.720902800559997559e+00,2.807665348052978516e+00,3.971480846405029297e+00,2.740809679031372070e+00,2.273427009582519531e+00,7.788440585136413574e-02,1.314980685710906982e-01,1.506033539772033691e+00,3.418489217758178711e+00,3.601869344711303711e+00,4.298875808715820312e+00,5.262983798980712891e+00,4.534472942352294922e+00,3.298536300659179688e+00,3.776984691619873047e+00,5.035930633544921875e+00,5.184751033782958984e+00,2.555205821990966797e+00,3.080945730209350586e+00,3.598992109298706055e+00,5.825634002685546875e+00,2.575478315353393555e+00,-1.796572804450988770e+00,-1.772080063819885254e+00,1.202046275138854980e+00,3.962579011917114258e+00,5.696882724761962891e+00
1.349421024322509766e+00,4.364439487457275391e+00,4.074860572814941406e+00,2.942783117294311523e+00,5.085045337677001953e+00,4.873525619506835938e+00,3.565793514251708984e+00,2.812829256057739258e+00,3.103922367095947266e+00,4.497029304504394531e+00,4.960333347320556641e+00,8.190366744995117188e+00,8.281799316406250000e+00,5.068525314331054688e+00,2.368720531463623047e+00,6.326767921447753906e+00,9.077323913574218750e+00,7.572484016418457031e+00,4.037897109985351562e+00,3.968743324279785156e+00,5.561960697174072266e+00,6.137851238250732422e+00,8.620353698730468750e+00,1.049920368194580078e+01,7.762989997863769531e+00,6.151021957397460938e+00,5.929776191711425781e+00,3.491515398025512695e+00,2.666254997253417969e+00,4.724762916564941406e+00,8.702465057373046875e+00,8.952475547790527344e+00
7.396603107452392578e+00,3.467920780181884766e+00,-7.140064239501953125e-01,-6.176590919494628906e-02,1.890799999237060547e+00,4.121315002441406250e+00,9.720332026481628418e-01,-2.980861365795135498e-01,-2.142589807510375977e+00,6.547501087188720703e-01,2.475101947784423828e+00,6.274287223815917969e+00,5.509957790374755859e+00,2.566527128219604492e+00,-1.789381146430969238e+00,1.971174359321594238e+00,4.627246856689453125e+00,6.605839729309082031e+00,2.899827241897583008e+00,3.474309921264648438e+00,4.322948455810546875e+00,4.500560283660888672e+00,5.765101909637451172e+00,5.996770858764648438e+00,5.011692047119140625e+00,2.475350856781005859e+00,4.002396106719970703e+00,6.012476921081542969e+00,5.862475872039794922e+00,4.367107391357421875e+00,2.663796663284301758e+00,4.533600330352783203e+00
3.377297401428222656e+00,1.139176130294799805e+00,-3.716516494750976562e+00,-3.992546081542968750e+00,-2.058220863342285156e+00,1.466822028160095215e+00,5.346605181694030762e-01,-2.921508789062500000e+00,-5.041808128356933594e+00,-2.002205133438110352e+00,-4.916007220745086670e-01,-2.213267326354980469e+00,-3.927698850631713867e+00,-3.059612035751342773e+00,-4.158804416656494141e+00,-1.509816050529479980e+00,-6.395401358604431152e-01,-1.287888139486312866e-01,-5.269151210784912109e+00,-2.251943111419677734e+00,-1.652067542076110840e+00,-1.471259146928787231e-01,-3.082760572433471680e+00,4.045528769493103027e-01,-3.335554003715515137e-01,-3.007132411003112793e-01,-2.934114456176757812e+00,8.983690142631530762e-01,2.005734205245971680e+00,1.483717560768127441e+00,-2.990146160125732422e+00,1.856326222419738770e+00
3.870557844638824463e-01,1.693214893341064453e+00,-1.936197876930236816e+00,-3.565823793411254883e+00,-3.092163503170013428e-01,2.031227827072143555e+00,2.965682983398437500e+00,-1.696871757507324219e+00,-2.722249507904052734e+00,-1.718887329101562500e+00,2.119212150573730469e+00,7.823874950408935547e-01,-8.931478261947631836e-01,-2.833702325820922852e+00,-3.744632244110107422e+00,-8.502034544944763184e-01,-2.349588125944137573e-01,-1.689099550247192383e+00,-5.515132904052734375e+00,-1.917896151542663574e+00,-1.100861549377441406e+00,-2.862568013370037079e-02,-1.325172185897827148e-01,2.505729675292968750e+00,-8.345745205879211426e-01,-1.505471587181091309e+00,-1.321921229362487793e+00,1.268897056579589844e+00,2.481532990932464600e-01,1.592096924781799316e+00,2.233680248260498047e+00,4.570188045501708984e+00
5.515418529510498047e+00,3.136096000671386719e+00,2.715240716934204102e+00,3.826410770416259766e+00,5.015955448150634766e+00,4.292165279388427734e+00,4.883630752563476562e+00,2.680891990661621094e+00,4.676021635532379150e-01,1.079747438430786133e+00,5.361571788787841797e+00,7.367519378662109375e+00,7.145156383514404297e+00,2.273593425750732422e+00,-1.310357928276062012e+00,2.860412299633026123e-01,3.074945688247680664e+00,3.159738302230834961e+00,2.970495223999023438e+00,5.128190040588378906e+00,4.694686889648437500e+00,3.348088979721069336e+00,5.226340293884277344e+00,2.645233154296875000e+00,5.159613490104675293e-01,-6.182076334953308105e-01,3.307375907897949219e+00,4.489222049713134766e+00,4.075443744659423828e+00,3.941933631896972656e+00,2.943261384963989258e+00,2.279740095138549805e+00
9.400012016296386719e+00,4.527036666870117188e+00,4.733445167541503906e+00,5.977690219879150391e+00,6.320326805114746094e+00,6.788877964019775391e+00,6.239582538604736328e+00,3.799123525619506836e+00,2.929211854934692383e+00,5.932294368743896484e+00,8.601891517639160156e+00,8.021430015563964844e+00,7.174168109893798828e+00,2.693099260330200195e+00,5.821867585182189941e-01,3.610944509506225586e+00,6.316963672637939453e+00,4.972457408905029297e+00,2.186473131179809570e+00,3.449104785919189453e+00,4.938245773315429688e+00,7.440895557403564453e+00,7.290582180023193359e+00,3.182123422622680664e+00,2.280924320220947266e+00,2.873860836029052734e+00,4.278781890869140625e+00,6.155235290527343750e+00,8.951120376586914062e+00,7.310477733612060547e+00,3.963816642761230469e+00,4.114449024200439453e+00
9.684844970703125000e+00,7.224695205688476562e+00,4.267107963562011719e+00,2.982754707336425781e+00,5.343599796295166016e+00,7.771129131317138672e+00,6.266909599304199219e+00,3.185872077941894531e+00,3.844628572463989258e+00,6.634561061859130859e+00,1.035397148132324219e+01,9.668448448181152344e+00,8.036230087280273438e+00,3.515460968017578125e+00,4.046030044555664062e+00,8.278874397277832031e+00,8.169263839721679688e+00,4.210447311401367188e+00,-6.818714737892150879e-01,7.547969818115234375e-01,5.105283260345458984e+00,1.004419612884521484e+01,9.565486907958984375e+00,6.401823043823242188e+00,3.948997497558593750e+00,4.228761196136474609e+00,4.595559597015380859e+00,8.144304275512695312e+00,8.757127761840820312e+00,8.825164794921875000e+00,1.166542339324951172e+01,1.716804695129394531e+01
7.674003601074218750e+00,6.525985240936279297e+00,5.034777164459228516e+00,3.642935752868652344e+00,3.286556243896484375e+00,4.441864013671875000e+00,3.896289825439453125e+00,3.200063228607177734e+00,1.423175096511840820e+00,2.210641860961914062e+00,6.133352279663085938e+00,8.574936866760253906e+00,8.837837219238281250e+00,5.342102050781250000e+00,4.178966522216796875e+00,5.757242202758789062e+00,5.634728431701660156e+00,5.254746913909912109e+00,4.440507888793945312e+00,4.615646839141845703e+00,7.041589736938476562e+00,8.847225189208984375e+00,8.113078117370605469e+00,4.104808807373046875e+00,2.140715837478637695e+00,2.571264028549194336e+00,3.086313247680664062e+00,5.432640075683593750e+00,3.817692279815673828e+00,5.850768566131591797e+00,1.089044570922851562e+01,1.895992279052734375e+01
2.735413312911987305e-01,3.986473560333251953e+00,8.068176269531250000e+00,7.892856597900390625e+00,3.848243236541748047e+00,1.508778095245361328e+00,1.456191778182983398e+00,4.146961212158203125e+00,4.015535831451416016e+00,4.194571018218994141e+00,2.210019111633300781e+00,6.444955468177795410e-01,2.178128004074096680e+00,4.017503738403320312e+00,3.400550603866577148e+00,1.569027900695800781e+00,1.704007744789123535e+00,3.996509313583374023e+00,6.931383609771728516e+00,6.580148696899414062e+00,4.997330188751220703e+00,2.467486381530761719e+00,1.160082221031188965e+00,1.070048928260803223e+00,3.259153842926025391e+00,3.450643062591552734e+00,7.010908126831054688e-01,8.488453030586242676e-01,2.937766551971435547e+00,4.193617343902587891e+00,4.056876659393310547e+00,7.243543148040771484e+00
2.641730546951293945e+00,6.811498165130615234e+00,9.934482574462890625e+00,1.053609752655029297e+01,8.842147827148437500e+00,4.722517013549804688e+00,1.492137551307678223e+00,3.884752511978149414e+00,7.342208385467529297e+00,8.625889778137207031e+00,5.721034526824951172e+00,1.566478610038757324e+00,3.679558753967285156e+00,6.143534183502197266e+00,7.116515636444091797e+00,5.693638801574707031e+00,4.525413513183593750e+00,4.283515453338623047e+00,5.165230274200439453e+00,6.461159706115722656e+00,6.125693321228027344e+00,3.257057189941406250e+00,1.791219949722290039e+00,4.907016754150390625e+00,3.510662078857421875e+00,4.978800714015960693e-01,8.580502271652221680e-01,5.188728809356689453e+00,8.378258705139160156e+00,5.267055988311767578e+00,1.129023909568786621e+00,3.774611234664916992e+00
7.863782882690429688e+00,4.177876949310302734e+00,2.259390830993652344e+00,4.048771858215332031e+00,6.577381134033203125e+00,5.742463588714599609e+00,2.787934839725494385e-01,-2.365333795547485352e+00,-1.180503249168395996e+00,2.720232248306274414e+00,6.355528354644775391e+00,5.617434024810791016e+00,7.658622741699218750e+00,6.071213245391845703e+00,5.228960037231445312e+00,5.746650695800781250e+00,5.426823616027832031e+00,5.988025188446044922e+00,5.741182327270507812e+00,6.257347583770751953e+00,8.269494056701660156e+00,8.504111289978027344e+00,6.590303897857666016e+00,3.051304101943969727e+00,-4.919396877288818359e+00,-7.157941341400146484e+00,-4.625843092799186707e-02,7.301251411437988281e+00,6.213885307312011719e+00,7.705482654273509979e-03,-4.488125801086425781e+00,2.912076473236083984e+00
3.733919858932495117e+00,1.341658949851989746e+00,-3.567329049110412598e-02,-5.770289152860641479e-02,1.738904595375061035e+00,2.547565698623657227e+00,3.173395693302154541e-01,-1.425087571144104004e+00,-2.811220884323120117e+00,1.094758510589599609e+00,3.631677627563476562e+00,2.473544836044311523e+00,3.484632492065429688e+00,2.879254341125488281e+00,1.607426643371582031e+00,7.669196724891662598e-01,-5.319032073020935059e-02,1.249584436416625977e+00,1.910732984542846680e+00,1.717583537101745605e+00,2.924133300781250000e+00,4.401712417602539062e+00,2.789518594741821289e+00,-2.647864341735839844e+00,-6.140114784240722656e+00,-5.415571689605712891e+00,-1.454517483711242676e+00,-1.121062517166137695e+00,-2.570514380931854248e-01,-1.320158123970031738e+00,-2.897954463958740234e+00,2.945278882980346680e+00
-5.288033485412597656e+00,-1.434956192970275879e+00,1.640990853309631348e+00,3.135432302951812744e-02,-3.332869052886962891e+00,-5.296088218688964844e+00,-2.941110610961914062e+00,3.454809188842773438e+00,3.831908702850341797e+00,2.394626617431640625e+00,-9.925563931465148926e-01,-4.776831150054931641e+00,-3.092766284942626953e+00,-2.084685564041137695e+00,-1.927623748779296875e+00,-2.969805002212524414e+00,-5.913015842437744141e+00,-7.354981899261474609e+00,-6.912375926971435547e+00,-5.846481323242187500e+00,-6.035504341125488281e+00,-5.872280120849609375e+00,-6.906074047088623047e+00,-7.590349197387695312e+00,-2.890751838684082031e+00,-1.753343224525451660e+00,-1.422092437744140625e+00,-6.017372608184814453e+00,-2.098242759704589844e+00,5.077518820762634277e-01,3.985807657241821289e+00,2.137964487075805664e+00
-1.104552841186523438e+01,-8.304102897644042969e+00,-5.094013690948486328e+00,-4.427661418914794922e+00,-8.751196861267089844e+00,-1.165759849548339844e+01,-9.159049987792968750e+00,-2.726279258728027344e+00,-2.302948713302612305e+00,-3.560549497604370117e+00,-6.113611698150634766e+00,-9.239897727966308594e+00,-6.940853595733642578e+00,-5.302145957946777344e+00,-5.865628719329833984e+00,-6.908446311950683594e+00,-9.249551773071289062e+00,-9.745813369750976562e+00,-9.039456367492675781e+00,-9.408459663391113281e+00,-1.048676967620849609e+01,-1.012403011322021484e+01,-1.002957153320312500e+01,-1.205895042419433594e+01,-8.430924415588378906e+00,-6.928503513336181641e+00,-5.080639362335205078e+00,-5.546680450439453125e+00,-4.915039062500000000e+00,-6.052550315856933594e+00,-4.588897705078125000e+00,-8.741325378417968750e+00
-8.601865768432617188e+00,-8.695196151733398438e+00,-1.146089649200439453e+01,-1.105040931701660156e+01,-8.336782455444335938e+00,-8.502086639404296875e+00,-8.021752357482910156e+00,-6.994148254394531250e+00,-7.954513072967529297e+00,-5.826338768005371094e+00,-7.112379074096679688e+00,-9.727282524108886719e+00,-8.397231101989746094e+00,-4.687014102935791016e+00,-6.002032279968261719e+00,-9.696442604064941406e+00,-1.140909671783447266e+01,-9.464778900146484375e+00,-6.005973339080810547e+00,-6.700368881225585938e+00,-8.286446571350097656e+00,-9.892583847045898438e+00,-9.029711723327636719e+00,-9.085579872131347656e+00,-4.738350391387939453e+00,-3.414854764938354492e+00,-6.576768398284912109e+00,-9.339570045471191406e+00,-8.710012435913085938e+00,-7.359503746032714844e+00,-8.452125549316406250e+00,-1.549889755249023438e+01
-5.655371189117431641e+00,-1.919405221939086914e+00,-5.407765388488769531e+00,-7.697865962982177734e+00,-6.008097171783447266e+00,-6.491813182830810547e+00,-5.515410900115966797e+00,-3.268579959869384766e+00,-2.734967708587646484e+00,-1.586941480636596680e+00,-5.501617908477783203e+00,-8.680686950683593750e+00,-7.965486049652099609e+00,-4.341167926788330078e+00,-4.213050365447998047e+00,-6.987180233001708984e+00,-8.439603805541992188e+00,-8.826693534851074219e+00,-6.773705482482910156e+00,-3.567119359970092773e+00,-5.485034465789794922e+00,-1.077281093597412109e+01,-9.575284957885742188e+00,-4.589679241180419922e+00,7.147753715515136719e+00,8.707856178283691406e+00,-9.620305299758911133e-01,-1.070729255676269531e+01,-8.349322319030761719e+00,-4.765584692358970642e-02,4.323906421661376953e+00,-3.827481269836425781e+00
-3.318502426147460938e+00,-1.955839991569519043e+00,-1.969049572944641113e+00,-1.596913099288940430e+00,-3.354852199554443359e+00,-4.597351074218750000e+00,-3.352004289627075195e+00,-1.737612485885620117e+00,-1.883466720581054688e+00,-7.709834575653076172e-01,-1.577154159545898438e+00,-2.525047302246093750e+00,-2.009631156921386719e+00,-1.660121321678161621e+00,-2.957993030548095703e+00,-2.994762659072875977e+00,-3.324095964431762695e+00,-4.071712017059326172e+00,-6.902362823486328125e+00,-2.549680948257446289e+00,-3.613568782806396484e+00,-4.496954917907714844e+00,-4.483850002288818359e+00,-1.889487147331237793e+00,7.167362213134765625e+00,9.648089408874511719e+00,3.120876073837280273e+00,-8.175585269927978516e-01,-1.320970535278320312e+00,2.708391189575195312e+00,5.894228935241699219e+00,1.527565002441406250e+00
1.809612661600112915e-01,-5.359463214874267578e+00,-7.583174228668212891e+00,-6.689902305603027344e+00,-3.150395393371582031e+00,-6.732072830200195312e-01,2.443786412477493286e-01,-3.171412467956542969e+00,-4.904997348785400391e+00,-2.438777446746826172e+00,8.798654377460479736e-02,1.075560927391052246e+00,7.026451826095581055e-01,1.374529838562011719e+00,-1.146068930625915527e+00,-2.117393016815185547e+00,-1.858962655067443848e+00,2.834389805793762207e-01,-1.272509217262268066e+00,-4.909444153308868408e-01,-4.628823101520538330e-01,3.557735204696655273e+00,2.204940319061279297e+00,8.284112215042114258e-01,8.822581171989440918e-01,2.243130445480346680e+00,2.386169672012329102e+00,3.242932081222534180e+00,2.193399190902709961e+00,-1.125612854957580566e+00,-3.981539487838745117e+00,-8.439665794372558594e+00
3.904849290847778320e+00,-2.243678569793701172e+00,-5.365751266479492188e+00,-5.593141078948974609e+00,-1.961034655570983887e+00,7.532395720481872559e-01,2.076812505722045898e+00,7.855623364448547363e-01,-6.000635027885437012e-01,-1.730840504169464111e-01,3.923866152763366699e-01,1.857006430625915527e+00,9.870269894599914551e-01,1.580499172210693359e+00,2.198333501815795898e+00,1.781328082084655762e+00,2.870062112808227539e+00,2.545058012008666992e+00,3.244504690170288086e+00,1.952685713768005371e+00,2.367269992828369141e+00,2.154544830322265625e+00,3.019288301467895508e+00,3.270151853561401367e+00,5.033330440521240234e+00,3.091800689697265625e+00,4.240008354187011719e+00,-9.167114645242691040e-02,-7.065916061401367188e-01,-2.368723392486572266e+00,-4.522558450698852539e-01,-5.154391765594482422e+00
9.173979759216308594e-01,-1.575540900230407715e+00,1.203536868095397949e+00,1.261508941650390625e+00,-2.451928138732910156e+00,-3.198894023895263672e+00,-9.709502458572387695e-01,2.325399160385131836e+00,2.152776956558227539e+00,1.031293988227844238e+00,-2.623159885406494141e+00,-1.948058128356933594e+00,-7.138828039169311523e-01,1.180680021643638611e-01,6.930572390556335449e-01,-3.020792007446289062e-01,8.350247740745544434e-01,8.392645716667175293e-01,1.938350319862365723e+00,1.299993842840194702e-01,-6.996737122535705566e-01,-3.057876825332641602e+00,-2.439962863922119141e+00,2.990239620208740234e+00,8.382949829101562500e+00,6.565089702606201172e+00,4.011056900024414062e+00,-3.934673964977264404e-01,-1.468622207641601562e+00,-8.939784765243530273e-01,4.596454143524169922e+00,-1.376937478780746460e-01
-5.007660865783691406e+00,-5.762699127197265625e+00,-3.361999988555908203e+00,-3.036328077316284180e+00,-4.136051177978515625e+00,-5.090381145477294922e+00,-3.830176591873168945e+00,-4.257603168487548828e+00,-3.563829660415649414e+00,-1.241358160972595215e+00,-2.987306118011474609e+00,-4.552864074707031250e+00,-4.319011211395263672e+00,-1.340635538101196289e+00,-2.765908479690551758e+00,-6.514537334442138672e+00,-7.052051544189453125e+00,-5.455475330352783203e+00,-6.005727767944335938e+00,-8.172180175781250000e+00,-8.354547500610351562e+00,-5.309529304504394531e+00,-5.094119071960449219e+00,-3.697147667407989502e-01,-1.702228546142578125e+00,-1.889927387237548828e+00,-1.853761076927185059e+00,-1.457369804382324219e+00,-1.517945289611816406e+00,-4.895610809326171875e+00,-5.455436229705810547e+00,-1.158336448669433594e+01
-2.231928825378417969e+00,-5.944294452667236328e+00,-8.326145172119140625e+00,-7.434543132781982422e+00,-2.894574403762817383e+00,-2.802287340164184570e+00,-2.235479593276977539e+00,-4.078194141387939453e+00,-4.256668090820312500e+00,-1.039760351181030273e+00,2.003252744674682617e+00,-4.344633817672729492e-01,-3.381259679794311523e+00,-1.372627019882202148e+00,-1.292909383773803711e+00,-2.610080480575561523e+00,-4.545501708984375000e+00,-7.020947933197021484e+00,-1.069050788879394531e+01,-1.044780635833740234e+01,-9.172739028930664062e+00,-5.813179969787597656e+00,-2.399663925170898438e+00,-1.970026493072509766e+00,-7.521690845489501953e+00,-8.878283500671386719e+00,-4.669176101684570312e+00,-3.359759092330932617e+00,-3.604144334793090820e+00,-7.330847740173339844e+00,-1.009837436676025391e+01,-1.484791183471679688e+01
-3.190416693687438965e-01,-2.286892175674438477e+00,-5.700584650039672852e-01,-7.134211659431457520e-01,-1.833696007728576660e+00,-3.509305953979492188e+00,-3.229838609695434570e+00,-1.003996014595031738e+00,-1.829930953681468964e-02,1.792209625244140625e+00,6.940622329711914062e-01,-1.773494601249694824e+00,-4.164279937744140625e+00,-2.304361343383789062e+00,-4.178215563297271729e-01,-8.968687057495117188e-01,-2.832755565643310547e+00,-5.310467720031738281e+00,-7.840244770050048828e+00,-7.864472389221191406e+00,-7.057183742523193359e+00,-7.042831897735595703e+00,-4.155144214630126953e+00,-1.328187346458435059e+00,-9.657676815986633301e-01,-1.613683700561523438e+00,-3.217044353485107422e+00,-3.521654129028320312e+00,-4.508707523345947266e+00,-3.791741371154785156e+00,-4.594846725463867188e+00,-2.860473394393920898e+00
-1.924437403678894043e+00,-3.634863615036010742e+00,-6.572716236114501953e-01,-8.885603547096252441e-01,-3.676223993301391602e+00,-3.110767841339111328e+00,-3.971835851669311523e+00,-4.054721832275390625e+00,-1.728748321533203125e+00,3.569123148918151855e-02,-2.460091590881347656e+00,-5.463067054748535156e+00,-6.009122848510742188e+00,-4.369503021240234375e+00,-4.398686408996582031e+00,-6.086209297180175781e+00,-7.519856452941894531e+00,-5.815938949584960938e+00,-5.434998989105224609e+00,-6.840844154357910156e+00,-8.112167358398437500e+00,-7.956852912902832031e+00,-7.311497688293457031e+00,-1.856718897819519043e+00,2.028721809387207031e+00,4.375599384307861328e+00,-2.711272954940795898e+00,-3.525568962097167969e+00,-3.910882711410522461e+00,-7.828174233436584473e-01,-2.552040338516235352e+00,-5.665113449096679688e+00
2.976414442062377930e+00,-3.178910017013549805e+00,-5.232199192047119141e+00,-4.007397174835205078e+00,-1.142940878868103027e+00,9.885050654411315918e-01,2.765269279479980469e-01,-2.532424211502075195e+00,-2.645112752914428711e+00,-4.031399726867675781e+00,-4.853744991123676300e-03,-9.917100667953491211e-01,-1.955386281013488770e+00,-2.160568475723266602e+00,-1.124833703041076660e+00,-1.302082180976867676e+00,-2.808798551559448242e+00,-1.322116732597351074e+00,-3.289008736610412598e-01,2.116451114416122437e-01,-4.350336194038391113e-01,-8.570573925971984863e-01,-8.526713252067565918e-01,-1.634549736976623535e+00,-1.670410513877868652e+00,1.432513952255249023e+00,1.418050408363342285e+00,2.000885963439941406e+00,1.143835067749023438e+00,2.127802371978759766e+00,-2.572453320026397705e-01,-9.560003280639648438e+00
7.991061687469482422e+00,2.359156608581542969e+00,6.279653906822204590e-01,1.686378479003906250e+00,4.748938560485839844e+00,5.409010410308837891e+00,4.156769275665283203e+00,3.120497703552246094e+00,1.478698968887329102e+00,-1.368960738182067871e+00,2.955066204071044922e+00,5.144753932952880859e+00,4.345257759094238281e+00,4.311502456665039062e+00,7.801638126373291016e+00,7.845619201660156250e+00,7.398490428924560547e+00,6.798174381256103516e+00,8.383959770202636719e+00,7.124694347381591797e+00,7.181064605712890625e+00,7.208687782287597656e+00,6.956188201904296875e+00,1.945822715759277344e+00,-4.325256645679473877e-01,1.038561463356018066e+00,5.202474117279052734e+00,7.761097431182861328e+00,6.951488494873046875e+00,5.466013908386230469e+00,3.905345678329467773e+00,1.853761792182922363e+00
7.472166538238525391e+00,3.212864875793457031e+00,3.102078914642333984e+00,3.203709840774536133e+00,5.205060958862304688e+00,7.775718688964843750e+00,6.345864772796630859e+00,2.667778730392456055e+00,1.786671400070190430e+00,2.188500165939331055e+00,6.123383998870849609e+00,8.973017692565917969e+00,8.612868309020996094e+00,6.935428619384765625e+00,6.596639156341552734e+00,8.466514587402343750e+00,1.011527442932128906e+01,1.001899528503417969e+01,9.687389373779296875e+00,7.835537910461425781e+00,9.370381355285644531e+00,1.111985015869140625e+01,1.068988895416259766e+01,1.036788272857666016e+01,9.864400863647460938e+00,8.110720634460449219e+00,5.032779216766357422e+00,6.490483760833740234e+00,6.635638236999511719e+00,6.708201885223388672e+00,3.897389888763427734e+00,3.334639072418212891e+00
6.447406768798828125e+00,-1.679050207138061523e+00,-4.574179172515869141e+00,-4.293921470642089844e+00,9.461262226104736328e-01,5.551751136779785156e+00,5.727468013763427734e+00,-3.422817885875701904e-01,-2.338317155838012695e+00,-2.891501426696777344e+00,4.290625095367431641e+00,8.025939941406250000e+00,8.535672187805175781e+00,4.208686828613281250e+00,9.793525934219360352e-01,6.553184986114501953e+00,8.894858360290527344e+00,8.304811477661132812e+00,4.508523941040039062e+00,6.279611110687255859e+00,1.043757724761962891e+01,1.295960998535156250e+01,1.231799507141113281e+01,1.311349964141845703e+01,1.212806892395019531e+01,9.052568435668945312e+00,4.354738712310791016e+00,4.505738735198974609e+00,4.612537384033203125e+00,5.565410614013671875e+00,2.166757434606552124e-01,-8.417290687561035156e+00
-4.768574833869934082e-01,-5.992149353027343750e+00,-9.025406837463378906e+00,-7.992184638977050781e+00,-2.084449052810668945e+00,7.318267822265625000e-01,8.134279251098632812e-01,-9.157473444938659668e-01,-4.574818134307861328e+00,-7.634564876556396484e+00,-3.069805622100830078e+00,9.850459694862365723e-01,2.404867172241210938e+00,2.240600585937500000e+00,2.495973110198974609e+00,4.035647392272949219e+00,5.105834007263183594e+00,4.877817153930664062e+00,5.334624290466308594e+00,3.963465452194213867e+00,4.595750808715820312e+00,5.551455020904541016e+00,4.560205459594726562e+00,9.897934794425964355e-01,-1.191506981849670410e+00,-3.401487350463867188e+00,-1.792515754699707031e+00,4.848001897335052490e-01,6.539315581321716309e-01,-2.122154712677001953e+00,-7.210320949554443359e+00,-1.423014640808105469e+01
-2.965299367904663086e+00,-1.316877007484436035e+00,-1.283078551292419434e+00,-1.757659196853637695e+00,3.333959579467773438e-01,1.779974341392517090e+00,1.283228874206542969e+00,9.690191149711608887e-01,-1.582806706428527832e+00,-3.269738674163818359e+00,-3.703650951385498047e+00,-6.595579385757446289e-01,1.801064759492874146e-01,8.798477649688720703e-01,2.988140583038330078e+00,1.832567214965820312e+00,3.586421251296997070e+00,4.019377708435058594e+00,8.035784721374511719e+00,3.292714834213256836e+00,-4.338124990463256836e-01,-2.600730419158935547e+00,-2.758071660995483398e+00,-5.594695091247558594e+00,-7.886372566223144531e+00,-8.355293273925781250e+00,-6.536589622497558594e+00,-3.097384691238403320e+00,-1.530824065208435059e+00,-4.216547966003417969e+00,-6.843908309936523438e+00,-4.582868099212646484e+00
2.342751264572143555e+00,6.978956699371337891e+00,8.535492897033691406e+00,6.537755966186523438e+00,5.646450519561767578e+00,5.414124488830566406e+00,6.612902164459228516e+00,3.680511951446533203e+00,3.581007957458496094e+00,1.847247123718261719e+00,3.564046859741210938e+00,3.201129436492919922e+00,3.390815734863281250e+00,1.549834370613098145e+00,3.477185726165771484e+00,3.106154918670654297e+00,4.635382652282714844e+00,3.991725683212280273e+00,5.710581779479980469e+00,5.499091148376464844e+00,3.807506322860717773e+00,-5.624473094940185547e-01,-2.133628129959106445e-01,4.570026397705078125e-01,6.284126639366149902e-01,2.371069908142089844e+00,6.329326629638671875e-01,9.609509110450744629e-01,2.279101848602294922e+00,6.838358879089355469e+00,4.733606338500976562e+00,7.851190567016601562e+00
2.837536334991455078e+00,5.265389442443847656e+00,7.312746047973632812e+00,6.236113548278808594e+00,4.339252948760986328e+00,2.192812442779541016e+00,3.274471521377563477e+00,1.876491427421569824e+00,1.211019992828369141e+00,-2.025870233774185181e-01,2.596296548843383789e+00,3.837901353836059570e+00,4.054196357727050781e+00,4.409691333770751953e+00,7.959371566772460938e+00,6.038064479827880859e+00,6.200327873229980469e+00,7.413750648498535156e+00,8.683490753173828125e+00,8.647865295410156250e+00,7.387018203735351562e+00,5.173452377319335938e+00,4.005087852478027344e+00,2.258795976638793945e+00,2.175238132476806641e+00,6.595652580261230469e+00,6.709844589233398438e+00,5.892977714538574219e+00,4.468806266784667969e+00,8.578293800354003906e+00,6.449819564819335938e+00,4.639522552490234375e+00
-3.254683256149291992e+00,-3.212138175964355469e+00,-1.268817186355590820e+00,-1.106229424476623535e+00,-2.638070821762084961e+00,-4.276558876037597656e+00,-5.073913097381591797e+00,-2.710764408111572266e+00,-3.057751893997192383e+00,-3.440400362014770508e+00,-4.842318058013916016e+00,-1.098975300788879395e+00,1.000029221177101135e-01,2.427548646926879883e+00,6.533341884613037109e+00,5.333327770233154297e+00,5.736178398132324219e+00,7.238050937652587891e+00,8.575224876403808594e+00,6.320333003997802734e+00,4.896779060363769531e+00,5.632544994354248047e+00,5.979885101318359375e+00,3.506222486495971680e+00,8.535345792770385742e-01,6.730443239212036133e-01,3.098242521286010742e+00,5.046166419982910156e+00,1.571076393127441406e+00,-1.549682021141052246e+00,-6.899774670600891113e-01,-5.616130828857421875e+00
-6.082617759704589844e+00,-8.998909592628479004e-01,7.772062420845031738e-01,-4.360227286815643311e-01,-2.411719322204589844e+00,-5.477032661437988281e+00,-5.984724521636962891e+00,-1.820261240005493164e+00,1.517461895942687988e+00,-1.535616636276245117e+00,-6.588509559631347656e+00,-5.886956691741943359e+00,-4.080683708190917969e+00,-3.279449939727783203e+00,-4.703799486160278320e-01,1.332231283187866211e+00,1.587215065956115723e+00,-4.035219848155975342e-01,-5.509683489799499512e-01,1.249278426170349121e+00,2.801688432693481445e+00,1.674376249313354492e+00,4.503894329071044922e+00,5.728182315826416016e+00,5.128218173980712891e+00,1.834707409143447876e-01,1.239619135856628418e+00,1.493573188781738281e+00,-1.053718209266662598e+00,-2.136505365371704102e+00,2.083519697189331055e+00,-2.075386762619018555e+00
-2.988026618957519531e+00,5.760967254638671875e+00,8.113815307617187500e+00,7.387436866760253906e+00,5.362013339996337891e+00,3.102388679981231689e-01,-2.697912976145744324e-02,2.552066087722778320e+00,5.046788692474365234e+00,8.261740803718566895e-01,-3.469191789627075195e+00,-3.835727453231811523e+00,-2.924853324890136719e+00,-3.901267528533935547e+00,-2.957171916961669922e+00,-1.399452805519104004e+00,-2.640597224235534668e-01,2.288441509008407593e-01,-9.496771097183227539e-01,6.244928240776062012e-01,1.260626077651977539e+00,1.958494186401367188e+00,4.078437805175781250e+00,3.024590253829956055e+00,5.493904590606689453e+00,5.603888034820556641e+00,4.059211730957031250e+00,-1.409704089164733887e+00,-1.815900444984436035e+00,3.755285978317260742e+00,7.608758449554443359e+00,7.930872440338134766e+00
-9.783738255500793457e-01,5.296053290367126465e-01,3.890298604965209961e+00,5.786015510559082031e+00,5.637415409088134766e+00,3.088969469070434570e+00,2.936892747879028320e+00,4.036496162414550781e+00,2.615942716598510742e+00,4.305261969566345215e-01,-2.307598590850830078e+00,8.244000673294067383e-01,6.338260173797607422e-01,-1.138492703437805176e+00,-1.662511825561523438e+00,-1.118569821119308472e-01,2.146080255508422852e+00,4.394344329833984375e+00,2.385315656661987305e+00,-4.309524893760681152e-01,-1.284783482551574707e+00,3.731142997741699219e+00,3.153895616531372070e+00,-4.878053665161132812e-01,1.320032358169555664e+00,5.142310619354248047e+00,2.183445215225219727e+00,-2.792892694473266602e+00,-3.842253446578979492e+00,1.733073472976684570e+00,6.780777454376220703e+00,6.559085845947265625e+00
6.190284490585327148e-01,-3.054782867431640625e+00,-1.556493520736694336e+00,-1.392312645912170410e+00,-3.271040022373199463e-01,-3.878744542598724365e-01,6.672822833061218262e-01,2.509207248687744141e+00,2.360912322998046875e+00,1.031396746635437012e+00,-2.453140497207641602e+00,7.340180873870849609e-01,-1.053426563739776611e-01,-1.140304327011108398e+00,1.878042966127395630e-01,2.967558860778808594e+00,3.339668750762939453e+00,5.950167179107666016e-01,-9.282432198524475098e-01,-1.622375130653381348e+00,-1.197768330574035645e+00,-2.708229720592498779e-01,-1.839049816131591797e+00,-3.899892091751098633e+00,-2.142419576644897461e+00,1.084961295127868652e-01,-2.183786630630493164e+00,-3.680066108703613281e+00,-4.657543659210205078e+00,-1.451749563217163086e+00,2.215674877166748047e+00,2.034129858016967773e+00
7.508195638656616211e-01,4.347369194030761719e+00,4.997875690460205078e+00,3.220748424530029297e+00,1.754838109016418457e+00,1.409668326377868652e-01,-8.970558643341064453e-02,1.894055962562561035e+00,5.411613464355468750e+00,4.167291164398193359e+00,-4.949283972382545471e-02,-9.216762781143188477e-01,-2.148428916931152344e+00,-1.417393088340759277e+00,1.652648091316223145e+00,1.377422809600830078e+00,-1.214058160781860352e+00,-2.774311780929565430e+00,-7.944781184196472168e-01,7.088486552238464355e-01,-1.855255365371704102e+00,-6.014329910278320312e+00,-5.370138645172119141e+00,-4.959109783172607422e+00,-2.441349983215332031e+00,-1.091350521892309189e-02,-2.275506734848022461e+00,-4.998317241668701172e+00,-1.815593004226684570e+00,1.068015694618225098e+00,5.608973503112792969e-01,4.233579635620117188e+00
2.326998233795166016e+00,6.524563789367675781e+00,8.712097167968750000e+00,8.499679565429687500e+00,6.919706344604492188e+00,4.595818519592285156e+00,3.250785350799560547e+00,2.149445533752441406e+00,4.181021213531494141e+00,3.373726844787597656e+00,1.569085955619812012e+00,1.914682507514953613e+00,-1.826129257678985596e-01,-2.312940120697021484e+00,-2.620239496231079102e+00,-2.734227895736694336e+00,-4.333624362945556641e+00,-1.806545495986938477e+00,-2.080352753400802612e-01,-1.102425605058670044e-01,-5.059775352478027344e+00,-5.330444812774658203e+00,-4.433668613433837891e+00,-2.623499870300292969e+00,-7.247257232666015625e-01,3.087781190872192383e+00,-1.401491761207580566e+00,-4.699648857116699219e+00,-3.564849793910980225e-01,2.761399030685424805e+00,3.237290382385253906e+00,5.281435966491699219e+00
-7.240110039710998535e-01,-4.849357008934020996e-01,8.292410373687744141e-01,4.994880855083465576e-01,2.527749061584472656e+00,5.647875070571899414e-01,2.040152072906494141e+00,1.926090717315673828e+00,4.987387657165527344e-01,-2.470093250274658203e+00,-2.748053550720214844e+00,2.386611104011535645e-01,-1.861370444297790527e+00,-4.829481601715087891e+00,-7.255332469940185547e+00,-4.809710502624511719e+00,-4.061173915863037109e+00,-4.668661117553710938e+00,-7.758375644683837891e+00,-6.374204635620117188e+00,-6.443457603454589844e+00,-5.387193202972412109e+00,-7.177417278289794922e+00,-5.560963630676269531e+00,-4.075757026672363281e+00,-2.224989414215087891e+00,-3.530225992202758789e+00,-4.094965934753417969e+00,-3.697889089584350586e+00,-1.910837769508361816e+00,-8.609778881072998047e-01,5.488825216889381409e-02
-7.763766765594482422e+00,-4.303580760955810547e+00,-4.914863109588623047e+00,-5.714519500732421875e+00,-4.841009616851806641e+00,-7.570014953613281250e+00,-4.571887969970703125e+00,1.775136142969131470e-01,-6.420570611953735352e-01,-4.032775402069091797e+00,-7.494860649108886719e+00,-7.743138790130615234e+00,-7.455914020538330078e+00,-5.015241146087646484e+00,-4.869104385375976562e+00,-4.916285514831542969e+00,-5.320907115936279297e+00,-7.573717117309570312e+00,-9.810162544250488281e+00,-9.409949302673339844e+00,-8.828745841979980469e+00,-9.032385826110839844e+00,-8.788576126098632812e+00,-1.013695240020751953e+01,-1.063522338867187500e+01,-1.182499122619628906e+01,-8.105916976928710938e+00,-8.887400627136230469e+00,-8.937924385070800781e+00,-1.146534824371337891e+01,-1.443122196197509766e+01,-8.942754745483398438e+00
-6.906748771667480469e+00,-3.417178630828857422e+00,-2.877799510955810547e+00,-3.056452035903930664e+00,-4.947283744812011719e+00,-6.260568141937255859e+00,-3.907768964767456055e+00,-1.107276797294616699e+00,-9.720497131347656250e-01,-1.554258465766906738e+00,-4.850796699523925781e+00,-6.845671653747558594e+00,-6.039170742034912109e+00,-2.574763774871826172e+00,-1.276855468750000000e+00,-2.431747198104858398e+00,-4.031979084014892578e+00,-3.355229854583740234e+00,-2.199400901794433594e+00,-4.202470779418945312e+00,-6.792418479919433594e+00,-6.101548671722412109e+00,-3.719273567199707031e+00,-5.112524509429931641e+00,-7.026753425598144531e+00,-9.132818222045898438e+00,-8.745253562927246094e+00,-1.031911563873291016e+01,-9.668349266052246094e+00,-1.246747779846191406e+01,-1.502854537963867188e+01,-1.196296405792236328e+01
-1.295746803283691406e+00,-3.345358610153198242e+00,-2.555829524993896484e+00,-3.153747797012329102e+00,-2.903204202651977539e+00,-9.409321546554565430e-01,1.339650392532348633e+00,7.037799358367919922e-01,-1.512846630066633224e-02,-2.103956639766693115e-01,2.706132531166076660e-01,1.225428581237792969e+00,-2.696897089481353760e-01,-1.017759323120117188e+00,-5.490135550498962402e-01,1.963679075241088867e+00,2.412859678268432617e+00,2.384732484817504883e+00,1.428470849990844727e+00,2.043274164199829102e+00,1.513973474502563477e+00,8.539504408836364746e-01,1.433284163475036621e+00,1.301640510559082031e+00,1.353311896324157715e+00,2.366701327264308929e-02,-2.603454589843750000e-01,-2.038204193115234375e+00,-4.816687583923339844e+00,-4.577449798583984375e+00,-1.806058526039123535e+00,-6.015801429748535156e+00
-2.826821327209472656e+00,-6.434699535369873047e+00,-6.898048400878906250e+00,-6.282957077026367188e+00,-4.907309532165527344e+00,-2.279170036315917969e+00,6.107007339596748352e-02,2.191498994827270508e+00,6.372690200805664062e-01,-3.698270022869110107e-02,5.906062126159667969e-01,3.882967710494995117e+00,1.621686220169067383e+00,9.598357677459716797e-01,7.288373708724975586e-01,4.097833156585693359e+00,5.100873470306396484e+00,2.747746706008911133e+00,-3.050689101219177246e-01,1.532210707664489746e+00,1.899011373519897461e+00,4.752419888973236084e-01,-7.306754589080810547e-01,-2.336896896362304688e+00,-1.291301727294921875e+00,-7.384040951728820801e-01,2.478004693984985352e+00,5.787215828895568848e-01,-2.058693885803222656e+00,-3.291072368621826172e+00,-6.279287934303283691e-01,-6.441588878631591797e+00
-5.194056510925292969e+00,-8.138547897338867188e+00,-6.467526435852050781e+00,-2.847410440444946289e+00,-3.134942293167114258e+00,-4.213487625122070312e+00,-2.874504327774047852e+00,3.307415246963500977e-01,1.629889965057373047e+00,1.446340799331665039e+00,-5.635772943496704102e-01,-1.032358288764953613e+00,-2.776925861835479736e-01,1.545865654945373535e+00,8.906314373016357422e-01,6.253595948219299316e-01,-1.057401776313781738e+00,-3.605962514877319336e+00,-4.557510852813720703e+00,-3.263818740844726562e+00,-4.720901012420654297e+00,-3.951799154281616211e+00,-4.635916709899902344e+00,-4.031433105468750000e+00,-4.256722927093505859e+00,-3.443198919296264648e+00,-3.454016685485839844e+00,-4.158731937408447266e+00,-3.980702638626098633e+00,-4.878419876098632812e+00,-5.190515995025634766e+00,-1.263733196258544922e+01
-3.958028793334960938e+00,-4.831008434295654297e+00,-7.576841115951538086e-01,2.967687606811523438e+00,3.095635175704956055e+00,-4.010691866278648376e-02,-2.863851003348827362e-02,3.593306243419647217e-01,3.961433172225952148e+00,1.981254339218139648e+00,-1.312798023223876953e+00,-6.451253414154052734e+00,-5.084874153137207031e+00,-3.124975919723510742e+00,-2.771464109420776367e+00,-5.632833957672119141e+00,-7.779718875885009766e+00,-7.469763278961181641e+00,-5.616200447082519531e+00,-4.558471679687500000e+00,-5.101686000823974609e+00,-5.159810066223144531e+00,-4.564402580261230469e+00,-1.265660047531127930e+00,2.431936115026473999e-01,-2.182378321886062622e-01,-3.151695013046264648e+00,-3.676784038543701172e+00,-3.611091613769531250e+00,-1.098159313201904297e+00,-3.037136793136596680e-01,-7.958977699279785156e+00
-4.491297245025634766e+00,2.081240653991699219e+00,3.904251337051391602e+00,5.108993053436279297e+00,5.528323173522949219e+00,2.747781276702880859e+00,1.315129041671752930e+00,2.715424299240112305e+00,5.057212829589843750e+00,7.928069829940795898e-01,-2.888949394226074219e+00,-6.928058147430419922e+00,-7.875741004943847656e+00,-5.785977840423583984e+00,-4.652346611022949219e+00,-7.494109153747558594e+00,-7.773905277252197266e+00,-3.540953159332275391e+00,-2.172413468360900879e-01,-2.979531288146972656e+00,-4.446441650390625000e+00,-6.090273857116699219e+00,-4.206574916839599609e+00,-3.033603429794311523e+00,1.063120365142822266e+00,2.825463712215423584e-01,-3.870699107646942139e-01,-7.307516336441040039e-01,1.155291676521301270e+00,2.466976642608642578e+00,3.050522089004516602e+00,1.372143268585205078e+00
-1.052644252777099609e+00,3.015569448471069336e+00,3.704909563064575195e+00,5.021792411804199219e+00,3.618689537048339844e+00,1.480623483657836914e+00,-1.345025897026062012e-01,2.593178510665893555e+00,4.074460983276367188e+00,3.527572751045227051e-01,-2.978675842285156250e+00,-3.893752574920654297e+00,-3.355763912200927734e+00,-9.773663282394409180e-01,-4.362536668777465820e-01,-2.882538557052612305e+00,-4.064762592315673828e+00,-5.746884346008300781e-01,3.613532304763793945e+00,3.469021022319793701e-01,-3.096880912780761719e+00,-4.002060890197753906e+00,-1.688268899917602539e+00,-2.703237295150756836e+00,-2.120575428009033203e+00,-1.932316422462463379e+00,-2.687612473964691162e-01,2.295105606317520142e-01,3.287682294845581055e+00,2.667092323303222656e+00,1.784234523773193359e+00,1.604885935783386230e+00
2.298458576202392578e+00,-4.300720214843750000e+00,-2.688703775405883789e+00,-2.977800965309143066e-01,-1.547320604324340820e+00,-2.248552799224853516e+00,-3.338263034820556641e+00,-2.142141342163085938e+00,-1.773026585578918457e-01,-1.523198008537292480e+00,-3.562762260437011719e+00,-5.249846935272216797e+00,-2.971137285232543945e+00,-3.207034468650817871e-01,1.405595183372497559e+00,-1.443158268928527832e+00,-2.920963287353515625e+00,-2.667558431625366211e+00,1.295256018638610840e+00,1.878341555595397949e+00,1.604960322380065918e+00,-5.087486505508422852e-01,1.369881153106689453e+00,-8.024426698684692383e-01,-3.021539449691772461e+00,-3.843166351318359375e+00,-3.919669687747955322e-01,-1.476094573736190796e-01,-9.224392175674438477e-01,-1.591160655021667480e+00,-9.950155019760131836e-01,-6.883895397186279297e+00
-4.459888458251953125e+00,-1.041811847686767578e+01,-1.063609600067138672e+01,-8.331794738769531250e+00,-8.496768951416015625e+00,-8.281445503234863281e+00,-8.556464195251464844e+00,-6.750926017761230469e+00,-5.285588264465332031e+00,-6.140156745910644531e+00,-7.568428993225097656e+00,-1.040370941162109375e+01,-1.024867820739746094e+01,-6.313864707946777344e+00,-4.075812816619873047e+00,-5.012626171112060547e+00,-4.251594543457031250e+00,-2.476201057434082031e+00,-1.506551504135131836e+00,-3.558119237422943115e-01,5.836319923400878906e-01,-2.872549533843994141e+00,-1.958698034286499023e+00,-2.821290016174316406e+00,-3.861158370971679688e+00,-7.368367195129394531e+00,-4.632521152496337891e+00,-4.916188240051269531e+00,-7.668226242065429688e+00,-9.301249504089355469e+00,-8.137759208679199219e+00,-1.150143241882324219e+01
-6.212230682373046875e+00,-8.516796112060546875e+00,-1.166522789001464844e+01,-1.014944267272949219e+01,-9.751259803771972656e+00,-8.661635398864746094e+00,-7.405415058135986328e+00,-6.077654838562011719e+00,-5.215578079223632812e+00,-7.240661621093750000e+00,-6.914943695068359375e+00,-6.898444175720214844e+00,-6.208148479461669922e+00,-3.919057130813598633e+00,-3.938154935836791992e+00,-2.558057069778442383e+00,-1.740185618400573730e+00,-1.384666413068771362e-01,-2.446809053421020508e+00,-2.276826381683349609e+00,-3.384524822235107422e+00,-4.122409820556640625e+00,-5.818281650543212891e+00,-2.551573514938354492e+00,-3.175312280654907227e+00,-5.874837875366210938e+00,-7.861959934234619141e+00,-6.522441864013671875e+00,-7.650455951690673828e+00,-9.488084793090820312e+00,-1.080112743377685547e+01,-1.153024959564208984e+01
1.780680060386657715e+00,-3.716163158416748047e+00,-7.884441852569580078e+00,-6.609143733978271484e+00,-4.920140266418457031e+00,-2.585564374923706055e+00,-1.064762592315673828e+00,-2.880434036254882812e+00,-2.150304317474365234e+00,-3.825136423110961914e+00,-4.194918572902679443e-01,1.497751951217651367e+00,4.807266712188720703e+00,2.924417734146118164e+00,1.722549557685852051e+00,2.845109224319458008e+00,3.543979167938232422e+00,4.774281382560729980e-01,-2.002728700637817383e+00,-2.736320972442626953e+00,-2.092223882675170898e+00,-3.573266565799713135e-01,-2.545954465866088867e+00,-1.646385788917541504e+00,-2.982911825180053711e+00,-2.074496507644653320e+00,-3.414412498474121094e+00,5.297112464904785156e-01,-4.364844560623168945e-01,-3.104671001434326172e+00,-7.146738052368164062e+00,-1.142147159576416016e+01
1.956775903701782227e+00,-6.474002599716186523e-01,-4.539933681488037109e+00,-4.134876728057861328e+00,-4.412215232849121094e+00,-2.373747110366821289e+00,-1.759508490562438965e+00,-2.930417060852050781e+00,-3.866168498992919922e+00,-4.121030807495117188e+00,4.757055342197418213e-01,2.192703008651733398e+00,3.038256883621215820e+00,3.601648285984992981e-02,-1.553591847419738770e+00,-3.097767531871795654e-01,2.425295352935791016e+00,9.794088006019592285e-01,-1.064386725425720215e+00,-2.952542781829833984e+00,-1.406329154968261719e+00,4.412448406219482422e-01,1.390666127204895020e+00,-2.206562757492065430e+00,-4.268002510070800781e+00,-3.441821336746215820e+00,-2.045638799667358398e+00,2.811432480812072754e-01,8.271415233612060547e-01,-9.785266518592834473e-01,-4.242577075958251953e+00,-3.856762170791625977e+00
-4.129879474639892578e+00,1.216246128082275391e+00,-7.193759679794311523e-01,-1.036582827568054199e+00,-2.979212999343872070e+00,-3.482023239135742188e+00,-3.949439764022827148e+00,-1.876798033714294434e+00,-3.790585279464721680e+00,-3.453273057937622070e+00,-2.410851955413818359e+00,-3.152892887592315674e-01,-2.275829553604125977e+00,-3.775570154190063477e+00,-5.523717403411865234e+00,-3.859407663345336914e+00,-2.629450559616088867e+00,-1.013579368591308594e+00,-2.095527172088623047e+00,-8.640313744544982910e-01,-9.328221082687377930e-01,-1.292193770408630371e+00,-1.971247792243957520e+00,-2.835611104965209961e+00,-3.355626583099365234e+00,-1.704048156738281250e+00,-3.037410736083984375e+00,-5.890293121337890625e+00,-4.486749649047851562e+00,-7.586247324943542480e-01,-2.085499316453933716e-01,3.927336692810058594e+00
2.129788637161254883e+00,9.013082504272460938e+00,9.105110168457031250e+00,8.814186096191406250e+00,6.961599826812744141e+00,5.643098831176757812e+00,4.139008045196533203e+00,4.437888622283935547e+00,4.022952079772949219e+00,4.291004180908203125e+00,4.362629413604736328e+00,5.080529689788818359e+00,4.022772789001464844e+00,9.004665613174438477e-01,3.880412280559539795e-01,1.703939199447631836e+00,1.241770625114440918e+00,-4.474416673183441162e-01,-3.501609563827514648e-01,2.957625865936279297e+00,4.738835811614990234e+00,4.696237564086914062e+00,2.292581796646118164e+00,1.630265593528747559e+00,3.023288011550903320e+00,8.685003280639648438e+00,7.557068824768066406e+00,4.251724243164062500e+00,4.596986770629882812e+00,9.935385704040527344e+00,1.206725120544433594e+01,1.616479110717773438e+01
5.673267364501953125e+00,9.264897346496582031e+00,8.778226852416992188e+00,7.891718387603759766e+00,8.431040763854980469e+00,8.766435623168945312e+00,6.631824016571044922e+00,4.740204334259033203e+00,4.183208942413330078e+00,5.273633956909179688e+00,6.828049182891845703e+00,6.464981555938720703e+00,5.606817245483398438e+00,2.648287534713745117e+00,2.174115657806396484e+00,2.902910947799682617e+00,2.333040475845336914e+00,-9.353299438953399658e-02,-1.118875384330749512e+00,1.515048295259475708e-01,3.343792200088500977e+00,6.274626255035400391e+00,5.776147842407226562e+00,4.535569667816162109e+00,5.863616943359375000e+00,8.384467124938964844e+00,1.038199234008789062e+01,1.179901504516601562e+01,1.264454269409179688e+01,1.155823421478271484e+01,1.107163715362548828e+01,1.417138576507568359e+01
-2.949603796005249023e+00,1.263948976993560791e-01,1.005704328417778015e-01,-5.621093511581420898e-01,-4.168410897254943848e-01,3.808603882789611816e-01,-4.655979573726654053e-01,-1.079181313514709473e+00,-3.703033685684204102e+00,-2.900944948196411133e+00,-1.073577761650085449e+00,-1.366508156061172485e-01,-1.378349959850311279e-01,-1.963140070438385010e-01,-1.371082901954650879e+00,-1.740938186645507812e+00,-3.365539550781250000e+00,-2.556224822998046875e+00,-4.728205680847167969e+00,-3.871368646621704102e+00,-3.850652456283569336e+00,-5.772415399551391602e-01,-8.662657141685485840e-01,3.873297452926635742e+00,5.278272151947021484e+00,2.299205064773559570e+00,1.551953434944152832e+00,3.253651380538940430e+00,4.813691616058349609e+00,2.340276479721069336e+00,1.738249421119689941e+00,1.615165948867797852e+00
-5.038185119628906250e+00,4.392287731170654297e+00,5.583022117614746094e+00,4.743733406066894531e+00,-3.022969365119934082e-01,-5.104013159871101379e-02,-2.981486022472381592e-01,-5.031243562698364258e-01,-1.760303974151611328e+00,-1.256135106086730957e+00,-4.148271977901458740e-01,-5.239581465721130371e-01,5.410609841346740723e-01,5.693474411964416504e-01,9.471729993820190430e-01,-4.524739086627960205e-02,-2.100557327270507812e+00,-1.686100602149963379e+00,-1.538200497627258301e+00,-5.292335152626037598e-01,-1.289743185043334961e+00,6.147795319557189941e-01,-9.524839520454406738e-01,3.113719224929809570e+00,4.350892543792724609e+00,4.672080516815185547e+00,1.832017064094543457e+00,-1.706285029649734497e-01,-7.218689322471618652e-01,1.270392179489135742e+00,5.422596454620361328e+00,1.227081680297851562e+01
5.208120346069335938e-01,5.338051319122314453e+00,7.121879100799560547e+00,7.457640647888183594e+00,4.977862834930419922e+00,2.829007863998413086e+00,1.624613165855407715e+00,1.188839197158813477e+00,4.650167465209960938e+00,7.922050476074218750e+00,5.983276844024658203e+00,2.400057077407836914e+00,2.292762756347656250e+00,2.348996877670288086e+00,8.424216508865356445e-01,-6.132518053054809570e-01,-1.237558126449584961e+00,-6.992347240447998047e-01,2.152422815561294556e-01,-1.278102844953536987e-01,1.672756075859069824e+00,3.763966321945190430e+00,3.442968130111694336e+00,2.989878892898559570e+00,3.239208221435546875e+00,5.146303653717041016e+00,5.882919788360595703e+00,4.378031730651855469e+00,1.531660199165344238e+00,4.296443760395050049e-01,5.525313377380371094e+00,1.863983154296875000e+01
5.485073328018188477e-01,-2.220389842987060547e+00,-1.011883974075317383e+00,-6.247828006744384766e-01,8.957925438880920410e-01,-2.006882190704345703e+00,-1.160491466522216797e+00,-6.573268771171569824e-01,2.990647792816162109e+00,6.470775604248046875e+00,2.557041883468627930e+00,4.384875670075416565e-02,3.803046792745590210e-02,7.809205651283264160e-01,-4.076623916625976562e+00,-6.735326290130615234e+00,-8.203593254089355469e+00,-6.151207447052001953e+00,-7.386505126953125000e+00,-6.901399135589599609e+00,-5.042090892791748047e+00,-1.646450519561767578e+00,-1.526973962783813477e+00,1.757946252822875977e+00,2.672535419464111328e+00,1.559471368789672852e+00,1.628095149993896484e+00,1.575706720352172852e+00,8.280141353607177734e-01,-6.947745680809020996e-01,2.225304603576660156e+00,7.114937782287597656e+00
2.581740915775299072e-01,9.505597949028015137e-01,-1.907726824283599854e-01,-3.194343566894531250e+00,-3.282263755798339844e+00,-2.380667686462402344e+00,1.579695105552673340e+00,1.205412268638610840e+00,-2.469486892223358154e-01,1.642863512039184570e+00,2.017901837825775146e-01,1.449347972869873047e+00,2.651268005371093750e+00,2.870046615600585938e+00,1.167438149452209473e+00,-2.649312019348144531e+00,-5.308904170989990234e+00,-5.007872104644775391e+00,-4.742741107940673828e+00,-5.149918079376220703e+00,-4.685263633728027344e+00,-2.282382249832153320e+00,-1.894782543182373047e+00,1.590807914733886719e+00,9.800515770912170410e-01,1.119994148612022400e-01,-5.813348889350891113e-01,4.515466690063476562e-01,1.085437178611755371e+00,3.484701871871948242e+00,1.772507905960083008e+00,-4.347174167633056641e+00
6.345185279846191406e+00,7.481046199798583984e+00,2.528475046157836914e+00,-1.302322387695312500e+00,4.350453913211822510e-01,4.716136932373046875e+00,6.460062026977539062e+00,2.013366460800170898e+00,2.967771887779235840e-01,4.435390472412109375e+00,7.752318859100341797e+00,9.241726875305175781e+00,8.197631835937500000e+00,7.251518726348876953e+00,8.486222267150878906e+00,7.739987373352050781e+00,6.791298866271972656e+00,5.945709705352783203e+00,7.603318214416503906e+00,6.050160408020019531e+00,6.721900463104248047e+00,6.618074417114257812e+00,7.634249210357666016e+00,5.195599555969238281e+00,2.217150211334228516e+00,1.258652448654174805e+00,3.378233671188354492e+00,6.559491157531738281e+00,6.130317211151123047e+00,5.112514495849609375e+00,1.260898232460021973e+00,1.826364994049072266e+00
7.120485782623291016e+00,4.269462585449218750e+00,-4.340010643005371094e+00,-6.239347934722900391e+00,1.123213529586791992e+00,6.278324604034423828e+00,4.203486442565917969e+00,-2.837638854980468750e+00,-3.200214147567749023e+00,2.178221225738525391e+00,6.630379199981689453e+00,9.094221115112304688e+00,6.861726284027099609e+00,4.927257061004638672e+00,3.639532566070556641e+00,5.478842735290527344e+00,5.770419597625732422e+00,5.726376533508300781e+00,5.829333782196044922e+00,6.125840663909912109e+00,7.190091133117675781e+00,6.294011592864990234e+00,6.378832817077636719e+00,6.192461967468261719e+00,4.609817028045654297e+00,5.494813323020935059e-01,-1.134041920304298401e-01,2.903427600860595703e+00,4.155307769775390625e+00,8.882787823677062988e-01,-9.068260788917541504e-01,4.983152866363525391e+00
1.804164409637451172e+00,1.948195338249206543e+00,-8.391969680786132812e+00,-1.030267524719238281e+01,-2.302308559417724609e+00,2.390563249588012695e+00,7.096525281667709351e-02,-4.616563796997070312e+00,-6.863387107849121094e+00,-5.190054416656494141e+00,-1.566648483276367188e+00,3.588926315307617188e+00,3.096626996994018555e+00,1.583779096603393555e+00,-4.477570354938507080e-01,-8.703609108924865723e-01,-1.478091120719909668e+00,-2.891920328140258789e+00,-1.454935193061828613e+00,-8.290151357650756836e-01,-1.116573452949523926e+00,-2.686999797821044922e+00,-2.302991628646850586e+00,-1.624942570924758911e-01,-2.330260515213012695e+00,-4.018761157989501953e+00,-6.602427482604980469e+00,-4.087931156158447266e+00,-4.644219577312469482e-01,-6.891878247261047363e-01,-2.834474086761474609e+00,-2.605879306793212891e+00
-1.637983918190002441e+00,3.713705539703369141e+00,-3.879689216613769531e+00,-6.265333175659179688e+00,-5.886316895484924316e-01,7.777514457702636719e-01,-4.979850649833679199e-01,-2.399380922317504883e+00,-3.936099052429199219e+00,-3.592669248580932617e+00,-1.294203281402587891e+00,1.530416727066040039e+00,6.221165060997009277e-01,2.868293046951293945e+00,2.766582250595092773e+00,8.178679943084716797e-01,-5.265837535262107849e-02,-1.044977664947509766e+00,1.758539319038391113e+00,6.484525799751281738e-01,-8.695340156555175781e-01,-4.548755645751953125e+00,-2.874531269073486328e+00,-5.466578960418701172e+00,-9.447679519653320312e+00,-7.162596225738525391e+00,-5.046783447265625000e+00,-2.613187551498413086e+00,-1.447238564491271973e+00,-3.180341005325317383e+00,-7.018609523773193359e+00,-4.902629375457763672e+00
1.060487270355224609e+00,1.407335400581359863e+00,1.952225863933563232e-01,-1.626586794853210449e+00,5.134182453155517578e+00,1.485799074172973633e+00,7.701197266578674316e-01,-5.055792927742004395e-01,-9.747378230094909668e-01,2.051974058151245117e+00,3.665987968444824219e+00,1.817149043083190918e+00,1.132339954376220703e+00,2.804558038711547852e+00,2.983615398406982422e+00,2.473028659820556641e+00,3.255934715270996094e+00,3.656278371810913086e+00,3.948777198791503906e+00,4.207471847534179688e+00,3.813812017440795898e+00,8.770735263824462891e-01,1.070008158683776855e+00,-1.780289530754089355e+00,-1.957282781600952148e+00,-1.081970453262329102e+00,8.450978398323059082e-01,7.375147938728332520e-02,-2.441089153289794922e+00,-3.686658859252929688e+00,-3.480429410934448242e+00,2.111859083175659180e+00
6.469527721405029297e+00,4.324368953704833984e+00,5.952317237854003906e+00,2.911946296691894531e+00,8.130974769592285156e+00,4.318244934082031250e+00,4.285558700561523438e+00,3.420066833496093750e+00,1.815190076828002930e+00,5.209883213043212891e+00,5.712042331695556641e+00,3.154573440551757812e+00,4.249940395355224609e+00,1.729263186454772949e+00,1.248919129371643066e+00,2.731465101242065430e+00,5.164520740509033203e+00,4.016069412231445312e+00,1.903547167778015137e+00,2.730957031250000000e+00,4.068004131317138672e+00,5.948266029357910156e+00,5.671631336212158203e+00,4.032594203948974609e+00,6.727680206298828125e+00,7.131977558135986328e+00,5.793229579925537109e+00,2.947970390319824219e+00,6.857701539993286133e-01,3.661836147308349609e+00,8.721959114074707031e+00,1.214382362365722656e+01
6.680463314056396484e+00,5.113560676574707031e+00,5.500791549682617188e+00,2.521486520767211914e+00,6.105817794799804688e+00,3.424741268157958984e+00,3.647690773010253906e+00,3.968303442001342773e+00,1.685352444648742676e+00,4.945806503295898438e+00,3.636672735214233398e+00,4.134238719940185547e+00,3.650162458419799805e+00,1.817974686622619629e+00,2.419694185256958008e+00,5.093777179718017578e+00,7.496127128601074219e+00,7.409585952758789062e+00,6.374400615692138672e+00,4.398445606231689453e+00,4.491809368133544922e+00,6.847273826599121094e+00,7.309647083282470703e+00,3.450954675674438477e+00,2.627036333084106445e+00,2.873363256454467773e+00,3.513381958007812500e+00,4.378144741058349609e+00,3.670438051223754883e+00,3.633725881576538086e+00,6.614451408386230469e+00,1.147375488281250000e+01
-1.155751943588256836e+00,-3.252607583999633789e+00,-4.700266361236572266e+00,-6.961836814880371094e+00,3.409659564495086670e-01,-3.819104909896850586e+00,-3.885368824005126953e+00,-2.321918964385986328e+00,-4.262067317962646484e+00,-1.074986100196838379e+00,-3.352477550506591797e+00,-1.976101875305175781e+00,-1.732744932174682617e+00,-1.772799640893936157e-01,3.004276275634765625e+00,4.311318397521972656e+00,5.532716274261474609e+00,7.456462383270263672e+00,6.758739948272705078e+00,5.824107170104980469e+00,4.626922130584716797e+00,4.081424236297607422e+00,2.444938659667968750e+00,4.178348928689956665e-02,-1.551204442977905273e+00,-3.977280378341674805e+00,-2.821146726608276367e+00,-1.314848423004150391e+00,-1.064683914184570312e+00,-3.934894084930419922e+00,-3.300664424896240234e+00,1.542839288711547852e+00
-4.012037754058837891e+00,-4.411263465881347656e+00,-5.106536388397216797e+00,-6.601190090179443359e+00,-9.608416557312011719e-01,-3.521700143814086914e+00,-3.516407251358032227e+00,-1.984993219375610352e+00,-2.709853887557983398e+00,-1.357699871063232422e+00,-4.560376167297363281e+00,-5.061371803283691406e+00,-2.345727682113647461e+00,-1.125515341758728027e+00,2.620568275451660156e+00,2.289334535598754883e+00,3.783854007720947266e+00,3.932064294815063477e+00,3.553939819335937500e+00,3.491274356842041016e+00,2.543765783309936523e+00,2.338026762008666992e+00,-1.101101189851760864e-02,1.637357473373413086e+00,4.058213233947753906e+00,4.157331943511962891e+00,7.857295870780944824e-01,-1.766070127487182617e+00,-1.158627152442932129e+00,1.126085281372070312e+00,1.158615469932556152e+00,-4.542106091976165771e-01
1.538908123970031738e+00,2.753555297851562500e+00,4.986323833465576172e+00,3.454301834106445312e+00,3.746377706527709961e+00,2.191226005554199219e+00,3.212482929229736328e+00,3.992215156555175781e+00,4.931049346923828125e+00,5.931996822357177734e+00,2.251049518585205078e+00,-2.055248431861400604e-02,3.941170275211334229e-01,1.085182189941406250e+00,2.582767963409423828e+00,2.703119993209838867e+00,3.364216327667236328e+00,2.163854598999023438e+00,3.696025609970092773e+00,3.683678388595581055e+00,2.914985895156860352e+00,1.690945744514465332e+00,9.762439131736755371e-01,2.487470865249633789e+00,6.648358345031738281e+00,1.018201255798339844e+01,7.280892372131347656e+00,5.041683673858642578e+00,5.914807319641113281e+00,9.336688995361328125e+00,8.666490554809570312e+00,7.040900707244873047e+00
3.947940587997436523e+00,2.494907140731811523e+00,4.378623008728027344e+00,3.663772344589233398e+00,4.573088169097900391e+00,3.369719982147216797e+00,3.458730220794677734e+00,3.456052780151367188e+00,5.913400650024414062e+00,6.022225856781005859e+00,3.773106098175048828e+00,2.443473339080810547e+00,9.866445660591125488e-01,7.843186855316162109e-01,1.810154914855957031e+00,2.898468255996704102e+00,3.068751573562622070e+00,1.329718947410583496e+00,1.073544740676879883e+00,1.914791345596313477e+00,2.597629070281982422e+00,2.467561066150665283e-01,6.523893475532531738e-01,6.771388649940490723e-01,4.216247081756591797e+00,6.371263980865478516e+00,6.883739471435546875e+00,4.877242088317871094e+00,5.978645801544189453e+00,7.837829113006591797e+00,5.646969795227050781e+00,2.217633724212646484e-01
-9.864314794540405273e-01,-6.990341544151306152e-01,-1.546537399291992188e+00,-1.981158256530761719e+00,-5.297345519065856934e-01,4.204440116882324219e-02,-2.053603172302246094e+00,-2.117892742156982422e+00,-1.429219841957092285e+00,-2.662790060043334961e+00,-4.172411441802978516e+00,-3.903351783752441406e+00,-4.146189689636230469e+00,-4.668817043304443359e+00,-2.768769264221191406e+00,-2.383162975311279297e+00,-1.241577982902526855e+00,-3.243078470230102539e+00,-5.586215972900390625e+00,-6.588654041290283203e+00,-6.075671672821044922e+00,-5.417557239532470703e+00,-2.611883878707885742e+00,-2.155356884002685547e+00,9.700210690498352051e-01,3.228060960769653320e+00,2.671289682388305664e+00,-2.376981496810913086e+00,-2.001885175704956055e+00,3.258753538131713867e+00,2.377427816390991211e+00,-1.020006656646728516e+01
-3.222949266433715820e+00,-9.284687638282775879e-01,-2.976289272308349609e+00,-3.968868017196655273e+00,-3.138242244720458984e+00,-6.261084675788879395e-01,-1.851520061492919922e+00,-4.090586662292480469e+00,-5.040753364562988281e+00,-5.691827774047851562e+00,-5.347505569458007812e+00,-5.410842895507812500e+00,-6.632687568664550781e+00,-6.659458637237548828e+00,-6.626478672027587891e+00,-5.404574871063232422e+00,-3.301801443099975586e+00,-3.209250450134277344e+00,-4.438930988311767578e+00,-7.189366817474365234e+00,-8.131479263305664062e+00,-6.761811256408691406e+00,-3.182427644729614258e+00,-1.712889790534973145e+00,7.855964303016662598e-01,2.196332216262817383e+00,4.268646612763404846e-02,-2.754785060882568359e+00,-2.519338607788085938e+00,1.891893863677978516e+00,3.480989933013916016e+00,-2.562706232070922852e+00
5.447168827056884766e+00,-6.114798784255981445e-01,-4.974423885345458984e+00,-6.280423164367675781e+00,-1.851142287254333496e+00,4.225218296051025391e+00,4.242708683013916016e+00,-3.526440620422363281e+00,-2.906057357788085938e+00,-2.184965133666992188e+00,3.194804430007934570e+00,5.019804477691650391e+00,4.400587558746337891e+00,9.810369014739990234e-01,-6.305357217788696289e-01,3.302708387374877930e+00,6.333497524261474609e+00,6.928351402282714844e+00,6.116488456726074219e+00,7.046975612640380859e+00,7.393854141235351562e+00,4.989511013031005859e+00,3.723004817962646484e+00,4.418023109436035156e+00,4.731193542480468750e+00,1.935370922088623047e+00,2.689194202423095703e+00,5.014354228973388672e+00,4.450631618499755859e+00,2.476859331130981445e+00,2.327472209930419922e+00,2.930526733398437500e+00
1.133359622955322266e+01,-8.345927596092224121e-01,-8.167249679565429688e+00,-9.469465255737304688e+00,-3.684293508529663086e+00,7.788273334503173828e+00,6.684632778167724609e+00,-4.321523189544677734e+00,-4.890198230743408203e+00,-2.460224390029907227e+00,6.300365924835205078e+00,1.078520774841308594e+01,1.080372428894042969e+01,7.242036342620849609e+00,7.121905803680419922e+00,1.076363468170166016e+01,1.278206634521484375e+01,1.118812942504882812e+01,9.850484848022460938e+00,1.107959651947021484e+01,1.245792675018310547e+01,1.103484725952148438e+01,8.130494117736816406e+00,6.792747974395751953e+00,4.484498500823974609e+00,1.718879222869873047e+00,4.147222995758056641e+00,5.593853473663330078e+00,2.982895851135253906e+00,4.958277940750122070e-01,-3.467519998550415039e+00,-8.502309799194335938e+00
1.308200955390930176e+00,-4.031820297241210938e+00,-1.187347769737243652e+00,4.360673017799854279e-03,-5.500658512115478516e+00,7.341095209121704102e-01,6.356230378150939941e-01,-1.891514778137207031e+00,-2.773602962493896484e+00,-3.457089900970458984e+00,-7.730761766433715820e-01,2.014165163040161133e+00,1.459096789360046387e+00,1.141411900520324707e+00,9.866496324539184570e-01,2.373843193054199219e+00,2.949769973754882812e+00,1.846446394920349121e+00,9.116904139518737793e-01,6.451179981231689453e-01,9.707939028739929199e-01,-1.739964485168457031e+00,-9.277228116989135742e-01,1.904983520507812500e-01,-1.431556820869445801e+00,-1.708435535430908203e+00,-3.447600603103637695e+00,-3.624413490295410156e+00,-5.092130661010742188e+00,-3.601937055587768555e+00,-6.628460407257080078e+00,-3.902773380279541016e+00
-8.476269721984863281e+00,-1.703283667564392090e+00,5.354510307312011719e+00,6.689145088195800781e+00,8.326447606086730957e-01,-6.354789733886718750e+00,-4.820333003997802734e+00,2.367355346679687500e+00,4.311629772186279297e+00,1.781947135925292969e+00,-5.890248298645019531e+00,-7.252182960510253906e+00,-7.482815265655517578e+00,-6.125185489654541016e+00,-6.684672355651855469e+00,-5.565504550933837891e+00,-3.899464130401611328e+00,-3.958594322204589844e+00,-6.012685298919677734e+00,-5.137590408325195312e+00,-5.195536136627197266e+00,-7.576233386993408203e+00,-7.996879100799560547e+00,-4.446356296539306641e+00,-1.664146542549133301e+00,-9.865962266921997070e-01,-3.796801567077636719e+00,-5.334077835083007812e+00,-4.013071060180664062e+00,-8.773005604743957520e-01,2.324239164590835571e-01,1.056042194366455078e+01
-6.934918761253356934e-01,9.250024795532226562e+00,1.097975349426269531e+01,9.935539245605468750e+00,8.054383277893066406e+00,-8.717599511146545410e-01,-9.220163822174072266e-01,4.294258594512939453e+00,5.787743091583251953e+00,6.741630554199218750e+00,-1.829269289970397949e+00,-3.109440088272094727e+00,-5.145922303199768066e-01,-1.088392734527587891e+00,-9.666894078254699707e-01,1.277220368385314941e+00,4.405306816101074219e+00,4.363842964172363281e+00,1.050321578979492188e+00,3.061445713043212891e+00,3.861993074417114258e+00,3.355836391448974609e+00,8.371565937995910645e-01,-9.490835666656494141e-01,-1.161775112152099609e+00,1.708319932222366333e-01,4.521646976470947266e+00,4.446002006530761719e+00,4.274525642395019531e+00,4.004261493682861328e+00,6.027175426483154297e+00,1.840970611572265625e+01
2.615463495254516602e+00,6.429275035858154297e+00,6.017135620117187500e+00,5.668167591094970703e+00,3.283167600631713867e+00,1.889778494834899902e+00,2.307389736175537109e+00,2.506896495819091797e+00,1.264750361442565918e+00,2.693666458129882812e+00,1.095820069313049316e+00,2.640633583068847656e+00,3.793291091918945312e+00,3.950282096862792969e+00,3.440449714660644531e+00,4.715991020202636719e+00,5.894255638122558594e+00,6.564286708831787109e+00,5.262478828430175781e+00,3.800700187683105469e+00,2.527326345443725586e+00,3.883705377578735352e+00,4.384642601013183594e+00,-3.991484940052032471e-01,-5.819898605346679688e+00,-5.399303913116455078e+00,-1.266002748161554337e-02,3.114070892333984375e+00,9.847077727317810059e-01,-3.845406770706176758e+00,-2.357097387313842773e+00,7.464525699615478516e+00
-4.989648342132568359e+00,9.153000712394714355e-01,2.536370992660522461e+00,3.112874507904052734e+00,5.153699591755867004e-02,-4.429811477661132812e+00,-2.616401910781860352e+00,4.155332446098327637e-01,2.220922231674194336e+00,6.620374321937561035e-01,-5.642349720001220703e-01,9.022415280342102051e-01,1.413238763809204102e+00,1.730801820755004883e+00,-4.872203171253204346e-01,-1.788911521434783936e-01,-3.820699453353881836e-01,3.987995162606239319e-02,-3.007117986679077148e+00,-3.636291980743408203e+00,-4.695612430572509766e+00,-2.867769479751586914e+00,-1.304576396942138672e-01,1.234042569994926453e-01,-7.868153095245361328e+00,-1.166319179534912109e+01,-1.047394943237304688e+01,-4.438501358032226562e+00,-4.884427547454833984e+00,-1.023848628997802734e+01,-9.167391777038574219e+00,3.982097625732421875e+00
-1.484436273574829102e+00,9.232704162597656250e+00,1.398316001892089844e+01,1.397250843048095703e+01,6.931855678558349609e+00,-2.767205476760864258e+00,-2.822302103042602539e+00,4.290350437164306641e+00,9.717392921447753906e+00,7.344844818115234375e+00,2.290132761001586914e+00,2.055040121078491211e+00,3.444729566574096680e+00,1.335209369659423828e+00,-2.371370315551757812e+00,4.082960486412048340e-01,2.700928449630737305e+00,1.336719036102294922e+00,-3.327408075332641602e+00,-2.624710559844970703e+00,-1.599362850189208984e+00,1.044371008872985840e+00,2.471001386642456055e+00,4.250834941864013672e+00,-1.354567885398864746e+00,-5.495981693267822266e+00,-3.758709669113159180e+00,-3.831975162029266357e-01,1.118999838829040527e+00,-1.885743141174316406e-01,1.643769025802612305e+00,2.119534301757812500e+01
3.204107522964477539e+00,9.252574920654296875e+00,1.116269111633300781e+01,1.122164535522460938e+01,5.736961841583251953e+00,2.214442253112792969e+00,1.583355426788330078e+00,4.511823177337646484e+00,5.721561908721923828e+00,5.942389011383056641e+00,4.337479114532470703e+00,5.235454082489013672e+00,4.998277664184570312e+00,3.918270349502563477e+00,-6.343831419944763184e-01,3.100025653839111328e+00,5.273597240447998047e+00,4.440811634063720703e+00,3.330238580703735352e+00,2.461924314498901367e+00,2.199270009994506836e+00,3.212903738021850586e+00,2.756047725677490234e+00,1.111873149871826172e+00,2.124947071075439453e+00,2.706559181213378906e+00,4.701828479766845703e+00,3.474920034408569336e+00,2.817758798599243164e+00,1.962584733963012695e+00,3.618094682693481445e+00,1.592955970764160156e+01
-6.222246170043945312e+00,-8.799504041671752930e-01,1.765903234481811523e+00,3.151862621307373047e+00,-2.381193399429321289e+00,-5.071943759918212891e+00,-4.409236907958984375e+00,4.906073808670043945e-01,2.269560843706130981e-01,-2.011038780212402344e+00,-2.961771965026855469e+00,-6.870531439781188965e-01,-8.778072595596313477e-01,1.361902713775634766e+00,-1.221034407615661621e+00,-2.486693143844604492e+00,-4.055218696594238281e+00,-4.200470447540283203e+00,-5.185504913330078125e+00,-4.762230396270751953e+00,-5.749193668365478516e+00,-5.355471134185791016e+00,-6.497416496276855469e+00,-7.832239151000976562e+00,-5.058094024658203125e+00,-2.959083080291748047e+00,-3.564378023147583008e+00,-4.250651836395263672e+00,-6.853255271911621094e+00,-9.865130424499511719e+00,-1.059727954864501953e+01,2.859334945678710938e-01
-1.056174659729003906e+01,-1.670439839363098145e+00,7.032777667045593262e-01,1.659025073051452637e+00,-4.693359851837158203e+00,-1.111003684997558594e+01,-1.058951187133789062e+01,-2.030994415283203125e+00,1.036498785018920898e+00,-1.527934312820434570e+00,-6.107918739318847656e+00,-7.372859954833984375e+00,-6.193129539489746094e+00,-2.382447957992553711e+00,-2.461278676986694336e+00,-7.300893306732177734e+00,-9.199769020080566406e+00,-1.067467117309570312e+01,-1.335577678680419922e+01,-1.262848663330078125e+01,-1.369949531555175781e+01,-1.229751014709472656e+01,-1.175535392761230469e+01,-1.008165550231933594e+01,-7.533228874206542969e+00,-6.714001178741455078e+00,-7.632987499237060547e+00,-9.821347236633300781e+00,-9.358240127563476562e+00,-1.055987644195556641e+01,-1.112144279479980469e+01,-2.518838167190551758e+00
-2.536856889724731445e+00,4.093302249908447266e+00,7.272190451622009277e-01,-1.056885495781898499e-01,-1.156981587409973145e+00,-3.225016593933105469e+00,-2.803617954254150391e+00,-9.187844991683959961e-01,-4.527928531169891357e-01,1.664839863777160645e+00,1.009532690048217773e+00,-1.741976857185363770e+00,-2.859158754348754883e+00,-1.936708688735961914e+00,-1.810562014579772949e+00,-3.835167169570922852e+00,-3.127328634262084961e+00,-5.746111869812011719e+00,-5.481062889099121094e+00,-6.170660972595214844e+00,-6.338401794433593750e+00,-6.703753948211669922e+00,-6.548079013824462891e+00,-6.419644832611083984e+00,-2.694425582885742188e+00,-9.008554816246032715e-01,-1.318264245986938477e+00,-5.136023998260498047e+00,-1.076672434806823730e+00,3.395905196666717529e-01,1.294882744550704956e-01,3.603972196578979492e+00
-4.133183956146240234e+00,5.369604229927062988e-01,-3.618451356887817383e+00,-2.660495996475219727e+00,8.941040933132171631e-02,2.304855883121490479e-01,9.877681136131286621e-01,1.842710614204406738e+00,-6.144638657569885254e-01,-1.949664950370788574e+00,1.223796084523200989e-01,1.354501128196716309e+00,9.600225687026977539e-01,-1.111800968647003174e-02,-4.706417620182037354e-01,-8.898432850837707520e-01,-1.407493591308593750e+00,-2.862743616104125977e+00,-1.318862080574035645e+00,-3.134990483522415161e-02,-2.876695990562438965e-01,-3.522627115249633789e+00,-5.669257164001464844e+00,-5.983840465545654297e+00,-2.359984874725341797e+00,1.110934559255838394e-02,-1.700508952140808105e+00,-3.374939441680908203e+00,-7.722789049148559570e-01,1.063913106918334961e+00,-2.289047002792358398e+00,1.394253730773925781e+00
-8.020680427551269531e+00,-1.517605543136596680e+00,-2.086076974868774414e+00,-2.324852228164672852e+00,-3.482572793960571289e+00,-5.202721118927001953e+00,-3.944766044616699219e+00,-9.116602689027786255e-02,4.653699100017547607e-01,-3.161226272583007812e+00,-5.122200489044189453e+00,-4.837013244628906250e+00,-2.296221971511840820e+00,-1.564394235610961914e+00,-1.103634953498840332e+00,-4.161633491516113281e+00,-6.891510963439941406e+00,-6.696495532989501953e+00,-7.008460044860839844e+00,-6.349535465240478516e+00,-7.710075855255126953e+00,-9.354108810424804688e+00,-1.046736717224121094e+01,-7.584434986114501953e+00,-7.638527393341064453e+00,-6.893801689147949219e+00,-7.354868412017822266e+00,-5.581521034240722656e+00,-6.735747337341308594e+00,-4.486327648162841797e+00,-7.281804084777832031e+00,-3.406281948089599609e+00
-3.260766267776489258e+00,4.857447445392608643e-01,7.172783613204956055e-01,-1.836373925209045410e+00,-5.277979850769042969e+00,-4.537469863891601562e+00,-1.526773333549499512e+00,-1.617476820945739746e+00,-2.563763260841369629e-01,7.376991510391235352e-01,-4.664277434349060059e-01,-4.752285480499267578e+00,-5.948440551757812500e+00,-5.443298816680908203e+00,-4.037730216979980469e+00,-6.669613361358642578e+00,-8.721255302429199219e+00,-8.771057128906250000e+00,-8.059883117675781250e+00,-1.058600902557373047e+01,-1.129414463043212891e+01,-1.105202198028564453e+01,-8.325646400451660156e+00,-4.668694019317626953e+00,-5.159720897674560547e+00,-6.522844314575195312e+00,-6.444181442260742188e+00,-5.520724773406982422e+00,-5.952752590179443359e+00,-2.964410543441772461e+00,-2.428180932998657227e+00,-1.619306802749633789e+00
-2.441934108734130859e+00,-3.515028476715087891e+00,-4.887094020843505859e+00,-3.926057100296020508e+00,-3.203106641769409180e+00,-1.354772210121154785e+00,4.054806232452392578e-01,1.520536184310913086e+00,1.964220702648162842e-01,-2.454106658697128296e-01,-2.964197099208831787e-01,-1.578374147415161133e+00,-6.014529705047607422e+00,-6.978311061859130859e+00,-5.100141048431396484e+00,-4.101160526275634766e+00,-5.359463214874267578e+00,-6.127160549163818359e+00,-4.298757076263427734e+00,-6.666485786437988281e+00,-5.636831283569335938e+00,-5.572215557098388672e+00,-2.713593244552612305e+00,-1.320106029510498047e+00,1.181442290544509888e-01,-1.867577791213989258e+00,-5.987731933593750000e+00,-7.885708808898925781e+00,-3.767966747283935547e+00,-4.606088101863861084e-01,-1.591798782348632812e+00,-1.759240031242370605e+00
-5.603349685668945312e+00,-6.929056167602539062e+00,-9.359826087951660156e+00,-6.778127193450927734e+00,-4.453976631164550781e+00,-4.925842285156250000e+00,-5.557355880737304688e+00,-6.061937212944030762e-01,-2.628230571746826172e+00,-6.824323177337646484e+00,-8.858512878417968750e+00,-6.115823745727539062e+00,-6.716691970825195312e+00,-5.757772922515869141e+00,-3.085843801498413086e+00,-3.781610965728759766e+00,-4.886444091796875000e+00,-2.700689554214477539e+00,-1.051292181015014648e+00,-4.225735187530517578e+00,-4.079109191894531250e+00,-3.435758829116821289e+00,-3.110730171203613281e+00,-3.156954765319824219e+00,-4.238964080810546875e+00,-5.386995792388916016e+00,-6.937664031982421875e+00,-6.889335155487060547e+00,-4.716173648834228516e+00,-4.325009822845458984e+00,-6.671975135803222656e+00,-7.474587440490722656e+00
-4.606791019439697266e+00,-8.335603713989257812e+00,-7.370500087738037109e+00,-5.655687332153320312e+00,-7.161643505096435547e+00,-8.525652885437011719e+00,-7.637755870819091797e+00,-6.354927062988281250e+00,-7.198774814605712891e+00,-8.512877464294433594e+00,-9.544323921203613281e+00,-1.044962787628173828e+01,-8.221013069152832031e+00,-4.095026016235351562e+00,4.663740098476409912e-01,-4.675131797790527344e+00,-7.104653358459472656e+00,-3.140968084335327148e+00,5.275184512138366699e-01,-3.822763204574584961e+00,-4.837725162506103516e+00,-4.616755962371826172e+00,-5.987595081329345703e+00,-7.012127399444580078e+00,-8.825856208801269531e+00,-8.321417808532714844e+00,-2.489736080169677734e+00,-1.824786663055419922e+00,-4.071089744567871094e+00,-8.557171821594238281e+00,-7.149597167968750000e+00,-1.211412525177001953e+01
-1.114143490791320801e+00,-3.289962530136108398e+00,4.069809019565582275e-01,2.582019329071044922e+00,-9.897159337997436523e-01,-3.453771591186523438e+00,-3.078863620758056641e+00,-2.694552183151245117e+00,-1.190497875213623047e+00,-1.024018883705139160e+00,-1.039716124534606934e+00,-3.129954576492309570e+00,-1.747157096862792969e+00,8.389585018157958984e-01,6.595092773437500000e+00,2.642992973327636719e+00,-1.793198227882385254e+00,-2.002973318099975586e+00,1.436593770980834961e+00,-1.751475453376770020e+00,-2.115642547607421875e+00,-2.425230979919433594e+00,-2.520022630691528320e+00,-2.655052900314331055e+00,-3.389656305313110352e+00,-2.452157020568847656e+00,4.908798217773437500e+00,4.435700416564941406e+00,2.699983358383178711e+00,-2.235252380371093750e+00,8.417447805404663086e-01,-4.838292121887207031e+00
-2.925148963928222656e+00,-4.953012466430664062e-01,3.567126035690307617e+00,6.586760997772216797e+00,2.225645780563354492e+00,-1.746975421905517578e+00,-2.490815639495849609e+00,2.921643018722534180e+00,4.677866458892822266e+00,3.561741352081298828e+00,1.521721124649047852e+00,2.880039215087890625e+00,3.546426296234130859e+00,4.270039558410644531e+00,7.933134078979492188e+00,7.191485881805419922e+00,5.579582691192626953e+00,4.176414489746093750e+00,4.478216648101806641e+00,-1.035627245903015137e+00,-2.545455694198608398e+00,-1.193082928657531738e+00,-8.971526622772216797e-01,-2.103676795959472656e+00,-2.690554857254028320e+00,-1.662153005599975586e+00,4.049862384796142578e+00,3.902086496353149414e+00,2.509841442108154297e+00,3.586741909384727478e-02,3.454178571701049805e+00,-1.185341954231262207e+00
-7.699255466461181641e+00,-6.251261234283447266e+00,-2.242515087127685547e+00,-4.398445487022399902e-01,-3.992179632186889648e+00,-6.245971679687500000e+00,-4.711635112762451172e+00,-1.457360625267028809e+00,-9.098753929138183594e-01,-1.055567145347595215e+00,-2.736848354339599609e+00,-3.153927087783813477e+00,-1.864368796348571777e+00,-1.666128873825073242e+00,-7.246597409248352051e-01,-2.362488508224487305e+00,-2.166329920291900635e-01,5.158057808876037598e-01,1.656097412109375000e+00,-4.790037631988525391e+00,-7.298789978027343750e+00,-6.401030540466308594e+00,-7.503818035125732422e+00,-8.924811363220214844e+00,-8.351217269897460938e+00,-6.769426822662353516e+00,-1.720388174057006836e+00,-1.977330327033996582e+00,-4.429777145385742188e+00,-6.955757141113281250e+00,-1.271846652030944824e+00,-6.857853889465332031e+00
-1.142404174804687500e+01,-1.360087490081787109e+01,-1.236981201171875000e+01,-9.763618469238281250e+00,-9.281505584716796875e+00,-1.092459011077880859e+01,-9.156116485595703125e+00,-6.123758316040039062e+00,-5.083646297454833984e+00,-6.028050422668457031e+00,-8.883711814880371094e+00,-1.050510692596435547e+01,-8.248292922973632812e+00,-6.433418750762939453e+00,-6.405607700347900391e+00,-8.052721977233886719e+00,-8.420158386230468750e+00,-9.605731010437011719e+00,-7.603087425231933594e+00,-7.586575031280517578e+00,-9.049931526184082031e+00,-1.139821147918701172e+01,-1.253973865509033203e+01,-1.207325363159179688e+01,-1.060904502868652344e+01,-1.145099353790283203e+01,-6.929781913757324219e+00,-8.199112892150878906e+00,-9.381940841674804688e+00,-1.292208480834960938e+01,-8.390452384948730469e+00,-1.264937973022460938e+01
-4.710414886474609375e+00,-5.444149017333984375e+00,-8.054081916809082031e+00,-6.028446197509765625e+00,-3.243834257125854492e+00,-5.252291679382324219e+00,-5.110019207000732422e+00,-3.385503888130187988e-01,1.103702634572982788e-01,-2.758546590805053711e+00,-5.679045200347900391e+00,-3.403571367263793945e+00,-2.569471120834350586e+00,-1.045969367027282715e+00,-2.547756910324096680e+00,-1.509387254714965820e+00,-3.200628280639648438e+00,-4.756139278411865234e+00,-6.370454311370849609e+00,-2.079886198043823242e+00,-1.835993885993957520e+00,-4.100972652435302734e+00,-4.342385768890380859e+00,-2.517887592315673828e+00,-3.122727870941162109e+00,-7.012312412261962891e+00,-3.042416572570800781e+00,-2.514915704727172852e+00,-1.541451692581176758e+00,-3.161523103713989258e+00,-2.535351753234863281e+00,-9.131621360778808594e+00
3.474579811096191406e+00,5.143111705780029297e+00,3.408136844635009766e+00,3.598466157913208008e+00,4.840877056121826172e+00,3.609663248062133789e+00,3.112003326416015625e+00,3.406426191329956055e+00,3.035322666168212891e+00,2.793247222900390625e+00,3.830601692199707031e+00,4.853604316711425781e+00,3.149982690811157227e+00,1.105499148368835449e+00,-3.061411857604980469e+00,-4.401104748249053955e-01,1.110754966735839844e+00,3.017031431198120117e+00,-3.522635698318481445e-01,2.657979488372802734e+00,3.092829227447509766e+00,4.101665496826171875e+00,3.765453100204467773e+00,5.551909446716308594e+00,4.092748641967773438e+00,3.677962541580200195e+00,6.740461349487304688e+00,7.968951702117919922e+00,7.703322887420654297e+00,8.387624740600585938e+00,8.135643005371093750e+00,-1.624179840087890625e+00
3.538483858108520508e+00,2.602846622467041016e+00,2.993765830993652344e+00,3.511623859405517578e+00,3.155047893524169922e+00,3.107719659805297852e+00,3.333073139190673828e+00,8.251661062240600586e-01,5.371237397193908691e-01,5.492804646492004395e-01,2.721144914627075195e+00,1.095024943351745605e+00,-7.868893146514892578e-01,-3.523931503295898438e+00,-7.195086479187011719e+00,-4.058585643768310547e+00,-2.398295640945434570e+00,-2.826328039169311523e+00,-5.303083896636962891e+00,-2.885236501693725586e+00,-2.370622158050537109e+00,1.696052029728889465e-02,5.056688785552978516e-01,1.276098042726516724e-01,7.879066281020641327e-03,3.582427024841308594e+00,6.029189586639404297e+00,5.637284278869628906e+00,4.600708007812500000e+00,4.906544208526611328e+00,5.822543621063232422e+00,1.178650140762329102e+00
3.041484594345092773e+00,1.039726138114929199e+00,2.930335998535156250e-01,1.344172835350036621e+00,3.638738095760345459e-01,2.022314548492431641e+00,2.016390323638916016e+00,1.837306499481201172e+00,-3.164594769477844238e-01,-2.581654071807861328e+00,-7.882515192031860352e-01,-1.404331028461456299e-01,-1.809825897216796875e+00,-2.957519769668579102e+00,-5.025413513183593750e+00,-1.590304970741271973e+00,-1.125989079475402832e+00,-3.876085996627807617e+00,-6.136102199554443359e+00,-3.443711757659912109e+00,-2.726711511611938477e+00,-1.934413313865661621e+00,-8.480613827705383301e-01,-3.300392627716064453e+00,-3.385797262191772461e+00,-2.614865064620971680e+00,8.449973165988922119e-02,1.516354531049728394e-01,1.727580070495605469e+00,1.308950066566467285e+00,2.896115541458129883e+00,3.232270717620849609e+00
1.138870120048522949e+00,-1.897742748260498047e+00,4.891113936901092529e-01,3.336933612823486328e+00,2.358302623033523560e-01,8.306980878114700317e-02,1.201666355133056641e+00,3.282158374786376953e+00,1.939867615699768066e+00,7.591699361801147461e-01,1.988729953765869141e+00,4.673300981521606445e-01,-7.122026681900024414e-01,5.428216457366943359e-01,-5.677838325500488281e-01,3.311485052108764648e-01,1.377679824829101562e+00,1.077712059020996094e+00,4.450442641973495483e-02,3.335770845413208008e+00,2.792026042938232422e+00,1.158089518547058105e+00,4.003809690475463867e-01,-6.716091185808181763e-02,-8.694265484809875488e-01,-2.179469108581542969e+00,2.431338131427764893e-01,7.500240951776504517e-02,1.654438853263854980e+00,2.151772975921630859e+00,4.432111740112304688e+00,2.835166692733764648e+00
-1.093265056610107422e+00,-5.814554214477539062e+00,-1.142651319503784180e+00,3.520494222640991211e+00,5.487380176782608032e-02,-2.568967103958129883e+00,-2.557110071182250977e+00,-6.129565834999084473e-01,2.145937919616699219e+00,1.669937372207641602e+00,3.872477114200592041e-01,-3.795450687408447266e+00,-2.077944278717041016e+00,-3.837793767452239990e-01,-2.168298959732055664e+00,-3.494374752044677734e+00,-3.172376155853271484e+00,-1.903982877731323242e+00,-2.323179006576538086e+00,8.663972616195678711e-01,4.433318674564361572e-01,7.403253018856048584e-02,-9.834043681621551514e-02,2.682795047760009766e+00,3.623985528945922852e+00,5.227157115936279297e+00,6.194865703582763672e+00,5.234169960021972656e+00,3.523960828781127930e+00,2.884626388549804688e+00,3.598181962966918945e+00,6.899660825729370117e-01
-9.527410268783569336e-01,-3.400634050369262695e+00,-3.555590629577636719e+00,-2.320847988128662109e+00,-3.235051393508911133e+00,-2.415920019149780273e+00,-3.196885108947753906e+00,-2.702250003814697266e+00,-2.521154165267944336e+00,-3.645894765853881836e+00,-3.929933071136474609e+00,-3.385952711105346680e+00,-1.120563745498657227e+00,-2.587167620658874512e-01,-2.177363872528076172e+00,-2.301336050033569336e+00,-1.768027186393737793e+00,-9.447086453437805176e-01,-2.704497098922729492e+00,-2.656979322433471680e+00,-1.654171943664550781e+00,1.931102424860000610e-01,1.417042493820190430e+00,2.409988880157470703e+00,4.544278621673583984e+00,5.689448356628417969e+00,5.779736518859863281e+00,4.952929973602294922e+00,3.379195451736450195e+00,2.701985359191894531e+00,4.363693714141845703e+00,-1.146834969520568848e+00
1.888876318931579590e+00,1.805476188659667969e+00,-2.914001703262329102e+00,-4.522780418395996094e+00,-2.261952497065067291e-02,3.226840972900390625e+00,2.873624801635742188e+00,-4.504314363002777100e-01,-3.945951223373413086e+00,-2.858731031417846680e+00,3.335376083850860596e-01,4.192224502563476562e+00,4.686293125152587891e+00,2.698709964752197266e+00,9.091918170452117920e-02,1.220467567443847656e+00,4.178229808807373047e+00,5.359493732452392578e+00,3.414208412170410156e+00,5.005908012390136719e+00,7.840095043182373047e+00,8.538584709167480469e+00,7.701750755310058594e+00,5.261856555938720703e+00,4.246350765228271484e+00,3.489173650741577148e+00,5.853236675262451172e+00,6.323070526123046875e+00,5.077005863189697266e+00,4.960093021392822266e+00,7.345094203948974609e+00,-3.866176605224609375e-01
3.713932752609252930e+00,2.965535640716552734e+00,-1.601942658424377441e+00,9.487206935882568359e-01,7.476155757904052734e+00,7.496675491333007812e+00,4.219168663024902344e+00,1.618424654006958008e+00,4.512552022933959961e-01,1.476435899734497070e+00,3.228560924530029297e+00,5.182738304138183594e+00,6.077198028564453125e+00,2.372795581817626953e+00,-1.296832412481307983e-01,6.959633827209472656e-01,2.950801849365234375e+00,2.772063016891479492e+00,3.090311288833618164e+00,8.570477485656738281e+00,1.112865447998046875e+01,9.793427467346191406e+00,9.660599708557128906e+00,7.136270046234130859e+00,4.625529766082763672e+00,4.655093669891357422e+00,7.070871353149414062e+00,7.450130462646484375e+00,7.293468475341796875e+00,6.919748306274414062e+00,6.427389621734619141e+00,4.463989734649658203e+00
4.607261180877685547e+00,5.103362560272216797e+00,1.622395634651184082e+00,4.285262107849121094e+00,6.321550846099853516e+00,5.631431579589843750e+00,3.033961772918701172e+00,2.080414772033691406e+00,5.263490080833435059e-01,-5.768261551856994629e-01,6.246682405471801758e-01,2.139400482177734375e+00,2.483035087585449219e+00,5.129632353782653809e-01,-2.347460091114044189e-01,3.385559022426605225e-01,3.814423680305480957e-01,2.339778691530227661e-01,6.855282783508300781e-01,1.762996435165405273e+00,1.955965280532836914e+00,1.866000294685363770e+00,4.681793212890625000e+00,5.729543685913085938e+00,6.005726814270019531e+00,5.628427982330322266e+00,5.406105518341064453e+00,4.759471416473388672e+00,6.781111240386962891e+00,6.497767925262451172e+00,5.590255260467529297e+00,8.175939559936523438e+00
3.055599927902221680e+00,7.313359737396240234e+00,3.080360889434814453e+00,1.801323056221008301e+00,2.971918821334838867e+00,3.368253469467163086e+00,3.436048746109008789e+00,1.191837668418884277e+00,-5.419586300849914551e-01,-1.901893317699432373e-01,9.346256256103515625e-01,6.091200709342956543e-01,4.058714956045150757e-02,6.659117341041564941e-01,1.483789205551147461e+00,1.564005017280578613e+00,1.086700677871704102e+00,2.188547134399414062e+00,1.860688567161560059e+00,-3.722013533115386963e-01,-3.972029983997344971e-01,3.609628379344940186e-01,1.814831137657165527e+00,3.831119775772094727e+00,4.058096408843994141e+00,2.971467256546020508e+00,2.109509468078613281e+00,2.047428846359252930e+00,3.719206333160400391e+00,3.790451526641845703e+00,3.385720014572143555e+00,3.382559299468994141e+00
-1.371654570102691650e-01,8.972362279891967773e-01,-1.855792880058288574e+00,2.830052673816680908e-01,3.965388059616088867e+00,2.600691556930541992e+00,2.736197412014007568e-01,9.623357057571411133e-01,2.361802101135253906e+00,3.403363943099975586e+00,2.424011677503585815e-01,-1.185086369514465332e+00,-8.624588251113891602e-01,9.518209844827651978e-02,1.262296438217163086e+00,1.159847974777221680e+00,-4.075783491134643555e-01,4.383152127265930176e-01,2.965546846389770508e+00,4.187819480895996094e+00,3.737314462661743164e+00,2.471169233322143555e+00,3.395651102066040039e+00,2.893175840377807617e+00,4.009003937244415283e-01,-3.203749284148216248e-02,1.126506924629211426e+00,1.341903924942016602e+00,3.265501856803894043e-01,-1.026669610291719437e-02,-3.098080158233642578e+00,-6.245375156402587891e+00
-1.280316352844238281e+00,-2.438805103302001953e+00,-3.619771480560302734e+00,-7.149205356836318970e-02,4.153184890747070312e+00,2.820175409317016602e+00,9.769328236579895020e-01,1.841555595397949219e+00,1.283191442489624023e+00,-2.478799968957901001e-01,-3.436046600341796875e+00,-2.940934181213378906e+00,-2.458676815032958984e+00,-1.378731131553649902e+00,1.159569859504699707e+00,-4.728609346784651279e-04,-2.291393518447875977e+00,-5.323177576065063477e-01,4.193970680236816406e+00,4.310557842254638672e+00,3.097082138061523438e+00,1.328508257865905762e+00,2.321997165679931641e+00,3.563782870769500732e-01,-3.996783494949340820e-01,4.316992461681365967e-01,2.644760131835937500e+00,1.505367636680603027e+00,-9.737154841423034668e-01,-2.432934522628784180e+00,-4.055562973022460938e+00,-5.255201816558837891e+00
-3.599458217620849609e+00,1.437680482864379883e+00,1.032291278243064880e-01,-1.830121755599975586e+00,6.497010588645935059e-01,1.116077303886413574e+00,4.572670936584472656e+00,1.333036899566650391e+00,-1.977739810943603516e+00,-2.964962720870971680e+00,-2.128016710281372070e+00,-1.847963571548461914e+00,-1.602230668067932129e+00,5.089095234870910645e-01,3.024665594100952148e+00,1.083918333053588867e+00,5.179652571678161621e-01,3.534085035324096680e+00,6.310575008392333984e+00,1.935885429382324219e+00,1.339037269353866577e-01,-4.947886466979980469e-01,-2.997598171234130859e+00,-2.853596210479736328e+00,-3.989552259445190430e-01,8.646311759948730469e-01,2.968276143074035645e-01,-7.206379771232604980e-01,-1.672262191772460938e+00,-3.286726236343383789e+00,-1.488858699798583984e+00,2.053638696670532227e+00
-1.278864383697509766e+00,3.302828788757324219e+00,2.545418977737426758e+00,2.056030273437500000e+00,4.260454654693603516e+00,2.113745450973510742e+00,2.710457563400268555e+00,1.523211121559143066e+00,2.127079725265502930e+00,4.199720859527587891e+00,2.854980945587158203e+00,2.699017286300659180e+00,3.961776018142700195e+00,6.008770942687988281e+00,6.422610759735107422e+00,5.347330093383789062e+00,5.527108192443847656e+00,6.313030719757080078e+00,8.603733062744140625e+00,5.405579090118408203e+00,4.169889926910400391e+00,3.134600400924682617e+00,2.876760065555572510e-01,1.132305860519409180e+00,3.037746667861938477e+00,3.329839944839477539e+00,1.023955225944519043e+00,1.744577169418334961e+00,9.186476469039916992e-01,-4.621296525001525879e-01,-8.898020386695861816e-01,1.961262702941894531e+00
4.260941505432128906e+00,4.585738658905029297e+00,3.649448394775390625e+00,6.455379962921142578e+00,8.372926712036132812e+00,6.580840587615966797e+00,3.647140264511108398e+00,5.086999416351318359e+00,5.923603534698486328e+00,7.758545875549316406e+00,3.703299045562744141e+00,5.350901603698730469e+00,6.540358066558837891e+00,8.369751930236816406e+00,8.892518043518066406e+00,9.584561347961425781e+00,8.326727867126464844e+00,6.802791595458984375e+00,1.017809772491455078e+01,8.814765930175781250e+00,7.773603439331054688e+00,5.581087589263916016e+00,6.478861808776855469e+00,5.559077739715576172e+00,7.854277610778808594e+00,7.470787048339843750e+00,6.719672679901123047e+00,6.010564327239990234e+00,3.833920717239379883e+00,4.885779857635498047e+00,4.658717155456542969e+00,9.117675423622131348e-01
-8.679182082414627075e-02,3.484412908554077148e+00,1.322105765342712402e+00,7.355206608772277832e-01,1.550187587738037109e+00,3.418255329132080078e+00,4.577999591827392578e+00,3.190787553787231445e+00,1.892826080322265625e+00,3.006147384643554688e+00,1.074870467185974121e+00,4.719941616058349609e-01,7.920915484428405762e-01,3.991071701049804688e+00,4.984965801239013672e+00,4.796298503875732422e+00,3.061492443084716797e+00,2.376432895660400391e+00,4.797555923461914062e+00,4.090061187744140625e+00,4.036065578460693359e+00,5.241110324859619141e-01,-9.619069099426269531e-01,-9.910535216331481934e-01,3.340748310089111328e+00,4.223995208740234375e+00,2.934641361236572266e+00,1.145960450172424316e+00,-9.902679920196533203e-01,1.390447139739990234e+00,3.061027288436889648e+00,1.858093500137329102e+00
-3.317422389984130859e+00,-3.302837610244750977e+00,-4.963138580322265625e+00,-5.678419113159179688e+00,-3.464188098907470703e+00,-2.827042579650878906e+00,-7.733595371246337891e-01,-2.611537933349609375e+00,-5.895419716835021973e-01,2.051906347274780273e+00,6.969498395919799805e-01,-3.138536453247070312e+00,-3.576119899749755859e+00,-2.119466781616210938e+00,-2.194234848022460938e+00,-3.659404516220092773e+00,-4.958658218383789062e+00,-4.550608158111572266e+00,-2.051146745681762695e+00,5.285323262214660645e-01,7.018162608146667480e-01,-2.937379121780395508e+00,-5.974826335906982422e+00,-3.675558567047119141e+00,-6.670970320701599121e-01,-1.605414748191833496e+00,-4.744694709777832031e+00,-3.821111202239990234e+00,-4.275283813476562500e+00,-4.690388679504394531e+00,-5.438338279724121094e+00,-7.381765246391296387e-01
7.412496566772460938e+00,-3.859332799911499023e+00,-5.564117908477783203e+00,-1.984616637229919434e+00,3.057534933090209961e+00,2.042818069458007812e+00,4.407348856329917908e-02,-1.859225392341613770e+00,-4.979757666587829590e-01,3.468509435653686523e+00,3.166265964508056641e+00,2.530096054077148438e+00,1.478397697210311890e-01,-2.309716939926147461e+00,-2.630993366241455078e+00,-3.746819496154785156e-01,-6.966734528541564941e-01,-6.717198491096496582e-01,8.649142384529113770e-01,3.126755475997924805e+00,3.012455940246582031e+00,2.753648519515991211e+00,4.003838062286376953e+00,2.217922449111938477e+00,3.235337257385253906e+00,9.523347020149230957e-01,1.906764626502990723e+00,2.696974277496337891e+00,2.368350982666015625e+00,1.626427024602890015e-01,-1.161179542541503906e+00,-1.030304908752441406e+00
9.955638885498046875e+00,7.951816320419311523e-01,-3.409730911254882812e+00,-1.816738367080688477e+00,4.692925453186035156e+00,5.649682998657226562e+00,4.967340946197509766e+00,6.033487319946289062e-01,-1.340239882469177246e+00,1.743534803390502930e+00,4.560657978057861328e+00,5.581341743469238281e+00,3.911153554916381836e+00,1.364492654800415039e+00,1.726023554801940918e+00,3.506826162338256836e+00,5.925398826599121094e+00,5.390813827514648438e+00,1.695246815681457520e+00,-1.382814198732376099e-01,2.414696693420410156e+00,6.916831493377685547e+00,8.150213241577148438e+00,2.106765031814575195e+00,5.023593902587890625e-01,3.563782930374145508e+00,7.891484737396240234e+00,7.546052455902099609e+00,4.547879695892333984e+00,4.361696720123291016e+00,1.983238458633422852e+00,-2.487441539764404297e+00
5.200035572052001953e-01,-3.882132768630981445e+00,-8.014653205871582031e+00,-8.700079917907714844e+00,-3.042564630508422852e+00,-2.660621166229248047e+00,-6.261453628540039062e-01,-2.118345975875854492e+00,-2.014218091964721680e+00,-2.128527909517288208e-01,2.530762434005737305e+00,3.244292259216308594e+00,3.465146780014038086e+00,1.961374044418334961e+00,1.784640908241271973e+00,-5.623149275779724121e-01,1.381910681724548340e+00,7.805420160293579102e-01,-2.719703912734985352e+00,-3.154669046401977539e+00,-3.956625238060951233e-02,2.783352136611938477e+00,7.552829384803771973e-01,-1.057908296585083008e+00,-4.318427085876464844e+00,-2.016103267669677734e+00,-1.980371475219726562e+00,4.162448346614837646e-01,-3.937107086181640625e+00,-4.626199722290039062e+00,-1.103296470642089844e+01,-1.472805213928222656e+01
