Fp1,Fp2,F7,F3,Fz,F4,F8,FT7,FC3,FCz,FC4,FT8,T3,C3,Cz,C4,T4,TP7,CP3,CPz,CP4,TP8,T5,P3,Pz,P4,T6,O1,Oz,O2,A1,A2
1.278422832489013672e+01,6.769699573516845703e+00,4.456741809844970703e+00,4.173878669738769531e+00,8.768042564392089844e+00,9.480181694030761719e+00,1.072705554962158203e+01,1.197217655181884766e+01,1.472361087799072266e+01,9.657093048095703125e+00,8.604331016540527344e+00,4.439531803131103516e+00,5.157875061035156250e+00,5.989850521087646484e+00,1.050237178802490234e+01,1.264359760284423828e+01,1.322746562957763672e+01,1.487789058685302734e+01,1.661026954650878906e+01,1.525063419342041016e+01,1.818706703186035156e+01,1.626498222351074219e+01,1.543348693847656250e+01,8.908143043518066406e+00,1.083321094512939453e+01,1.093577575683593750e+01,1.020005893707275391e+01,1.047612285614013672e+01,7.123689174652099609e+00,5.540410041809082031e+00,5.280504703521728516e+00,6.395952701568603516e+00
-1.170771598815917969e+01,-1.602704238891601562e+01,-1.310887718200683594e+01,-1.001909065246582031e+01,-8.978093147277832031e+00,-9.427334785461425781e+00,-9.513700485229492188e+00,-9.166275978088378906e+00,-5.549431800842285156e+00,-5.797228336334228516e+00,-8.049841880798339844e+00,-1.492616748809814453e+01,-1.806261444091796875e+01,-1.465597820281982422e+01,-1.167281818389892578e+01,-7.522500991821289062e+00,-6.216499805450439453e+00,-5.406522750854492188e+00,-3.959224224090576172e+00,-6.735941886901855469e+00,-3.738401412963867188e+00,-4.309691429138183594e+00,-2.325689792633056641e+00,-1.243143272399902344e+01,-1.244621372222900391e+01,-9.756092071533203125e+00,-3.525461435317993164e+00,-7.094976902008056641e+00,-1.303110027313232422e+01,-1.353134155273437500e+01,-1.326697635650634766e+01,-1.801208305358886719e+01
-1.971070861816406250e+01,-2.248036956787109375e+01,-2.161767578125000000e+01,-2.072330856323242188e+01,-1.806756591796875000e+01,-1.720813179016113281e+01,-1.540728473663330078e+01,-1.257419204711914062e+01,-1.212137126922607422e+01,-1.423481464385986328e+01,-1.563751411437988281e+01,-1.929178237915039062e+01,-1.859548950195312500e+01,-1.508558082580566406e+01,-1.324454879760742188e+01,-1.278043651580810547e+01,-1.246829319000244141e+01,-9.914655685424804688e+00,-6.765109062194824219e+00,-1.009055709838867188e+01,-1.090777969360351562e+01,-1.187033081054687500e+01,-1.243800449371337891e+01,-1.979170989990234375e+01,-2.088580703735351562e+01,-1.784404754638671875e+01,-1.172194004058837891e+01,-1.653305625915527344e+01,-2.190949630737304688e+01,-2.289535713195800781e+01,-2.203680992126464844e+01,-2.568953895568847656e+01
4.205080509185791016e+00,5.592937469482421875e+00,4.845009803771972656e+00,3.548100233078002930e+00,4.678289890289306641e+00,5.232799530029296875e+00,6.206190586090087891e+00,8.583394050598144531e+00,6.254475116729736328e+00,2.468750715255737305e+00,2.697993993759155273e+00,7.067784309387207031e+00,7.824856281280517578e+00,7.198256015777587891e+00,9.938656806945800781e+00,8.425812721252441406e+00,1.054263687133789062e+01,1.222353267669677734e+01,1.467204666137695312e+01,1.257773590087890625e+01,1.194346904754638672e+01,1.156437969207763672e+01,9.774789810180664062e+00,1.814883947372436523e+00,2.785997390747070312e+00,6.332310676574707031e+00,9.907258987426757812e+00,5.863614559173583984e+00,2.671360969543457031e+00,2.180359125137329102e+00,5.242632389068603516e+00,3.252127408981323242e+00
1.494537067413330078e+01,1.428778266906738281e+01,1.335594463348388672e+01,1.292451858520507812e+01,1.314253234863281250e+01,1.264390277862548828e+01,1.222328376770019531e+01,1.213656806945800781e+01,1.293808174133300781e+01,1.036562633514404297e+01,9.993761062622070312e+00,1.235368347167968750e+01,1.160267257690429688e+01,8.781160354614257812e+00,1.017846202850341797e+01,1.222384929656982422e+01,1.462899112701416016e+01,1.387579917907714844e+01,1.290778923034667969e+01,1.356422519683837891e+01,1.549918079376220703e+01,1.484360599517822266e+01,1.492922782897949219e+01,1.276199531555175781e+01,1.445944976806640625e+01,1.479386901855468750e+01,1.376838493347167969e+01,1.239766502380371094e+01,1.373473167419433594e+01,1.311761283874511719e+01,1.426547431945800781e+01,1.449868583679199219e+01
-7.120956420898437500e+00,-9.884071350097656250e+00,-1.085405445098876953e+01,-9.839318275451660156e+00,-8.721352577209472656e+00,-9.120888710021972656e+00,-8.931958198547363281e+00,-8.909554481506347656e+00,-5.864370822906494141e+00,-6.399032592773437500e+00,-8.104924201965332031e+00,-1.145818805694580078e+01,-1.158481121063232422e+01,-1.221949863433837891e+01,-1.370968341827392578e+01,-9.772413253784179688e+00,-9.011384963989257812e+00,-9.856310844421386719e+00,-1.164245223999023438e+01,-1.065499114990234375e+01,-9.749393463134765625e+00,-1.095897293090820312e+01,-9.719640731811523438e+00,-6.147307872772216797e+00,-6.739868640899658203e+00,-8.175325393676757812e+00,-1.011824703216552734e+01,-7.852955341339111328e+00,-7.640359878540039062e+00,-8.241841316223144531e+00,-1.082050228118896484e+01,-1.061543560028076172e+01
-1.718330764770507812e+01,-1.573513984680175781e+01,-1.623926925659179688e+01,-1.638738059997558594e+01,-1.551093196868896484e+01,-1.610685920715332031e+01,-1.461656761169433594e+01,-1.383338451385498047e+01,-1.323978137969970703e+01,-1.396547031402587891e+01,-1.522179508209228516e+01,-1.831422805786132812e+01,-1.784855079650878906e+01,-1.700116920471191406e+01,-1.835289764404296875e+01,-1.601825523376464844e+01,-1.570635795593261719e+01,-1.515951156616210938e+01,-1.500104808807373047e+01,-1.508879661560058594e+01,-1.613306808471679688e+01,-1.686080932617187500e+01,-1.665443420410156250e+01,-1.575084686279296875e+01,-1.713940429687500000e+01,-1.657307052612304688e+01,-1.622653198242187500e+01,-1.358231544494628906e+01,-1.575660324096679688e+01,-1.586809062957763672e+01,-2.005295372009277344e+01,-1.683891677856445312e+01
5.392393112182617188e+00,4.806067466735839844e+00,4.875722408294677734e+00,5.099383831024169922e+00,5.244744777679443359e+00,5.124111175537109375e+00,5.044790267944335938e+00,5.453300476074218750e+00,4.941927909851074219e+00,3.024715185165405273e+00,3.071306705474853516e+00,5.030873298645019531e+00,4.385353088378906250e+00,2.001657962799072266e+00,2.122841596603393555e+00,3.974406242370605469e+00,5.855717658996582031e+00,5.472839355468750000e+00,4.964857101440429688e+00,6.191240787506103516e+00,6.402931690216064453e+00,6.387416839599609375e+00,6.038380146026611328e+00,4.864756584167480469e+00,5.654987812042236328e+00,6.766296386718750000e+00,7.253616333007812500e+00,6.389864921569824219e+00,4.739372730255126953e+00,4.811799526214599609e+00,5.432616710662841797e+00,4.714880943298339844e+00
2.344851112365722656e+01,2.438751602172851562e+01,2.270053672790527344e+01,2.126369094848632812e+01,2.099426269531250000e+01,2.049529838562011719e+01,1.893547821044921875e+01,1.870594215393066406e+01,2.180720710754394531e+01,2.288294029235839844e+01,2.190208625793457031e+01,2.509246253967285156e+01,2.431578636169433594e+01,2.218371391296386719e+01,2.282839012145996094e+01,2.374041748046875000e+01,2.429700660705566406e+01,2.274589347839355469e+01,2.105496025085449219e+01,2.097580337524414062e+01,2.360439682006835938e+01,2.258323287963867188e+01,2.629432678222656250e+01,2.338970565795898438e+01,2.693807220458984375e+01,2.387178993225097656e+01,2.763620948791503906e+01,2.366595268249511719e+01,2.367492103576660156e+01,2.407532691955566406e+01,2.818041992187500000e+01,2.555308151245117188e+01
2.414265441894531250e+01,2.739836692810058594e+01,2.667302131652832031e+01,2.565718460083007812e+01,2.408792877197265625e+01,2.274917411804199219e+01,2.177865600585937500e+01,2.042285346984863281e+01,1.920962905883789062e+01,1.666357040405273438e+01,1.733314323425292969e+01,2.267179679870605469e+01,2.076705169677734375e+01,1.529841899871826172e+01,1.604405403137207031e+01,1.787923622131347656e+01,2.084581947326660156e+01,1.901165008544921875e+01,1.717212295532226562e+01,2.045946693420410156e+01,2.200212860107421875e+01,2.274747085571289062e+01,2.256101608276367188e+01,2.226166534423828125e+01,2.485315132141113281e+01,2.548538589477539062e+01,2.379353713989257812e+01,2.384898757934570312e+01,2.514810371398925781e+01,2.547787857055664062e+01,2.626976203918457031e+01,2.968622970581054688e+01
1.267483615875244141e+01,1.235066127777099609e+01,1.222265529632568359e+01,1.254395103454589844e+01,1.092149066925048828e+01,1.076883888244628906e+01,1.032140445709228516e+01,9.092856407165527344e+00,5.332354545593261719e+00,4.919788360595703125e+00,7.551619529724121094e+00,1.093569374084472656e+01,1.043341255187988281e+01,8.899989128112792969e+00,8.716937065124511719e+00,1.083666896820068359e+01,1.218552780151367188e+01,1.176078414916992188e+01,9.805297851562500000e+00,1.121406936645507812e+01,1.210209274291992188e+01,1.314045810699462891e+01,9.263319969177246094e+00,8.857061386108398438e+00,8.382339477539062500e+00,1.121787929534912109e+01,9.504298210144042969e+00,1.190333557128906250e+01,1.287863540649414062e+01,1.132200336456298828e+01,9.811083793640136719e+00,1.133524799346923828e+01
-8.469380378723144531e+00,-1.222902202606201172e+01,-1.209542560577392578e+01,-1.139710330963134766e+01,-1.050276470184326172e+01,-1.033753681182861328e+01,-1.033097171783447266e+01,-1.038913059234619141e+01,-1.008527565002441406e+01,-7.852089881896972656e+00,-8.725995063781738281e+00,-1.157467651367187500e+01,-1.049135208129882812e+01,-4.158000469207763672e+00,-2.645960330963134766e+00,-6.392837047576904297e+00,-9.769092559814453125e+00,-8.934222221374511719e+00,-8.768833160400390625e+00,-1.161160659790039062e+01,-1.012190341949462891e+01,-8.950484275817871094e+00,-1.083162593841552734e+01,-1.084655761718750000e+01,-1.256962680816650391e+01,-1.144003105163574219e+01,-1.211126995086669922e+01,-9.792351722717285156e+00,-9.634624481201171875e+00,-1.160912132263183594e+01,-1.094001293182373047e+01,-1.284159374237060547e+01
-2.895660161972045898e+00,-6.033611774444580078e+00,-6.150839805603027344e+00,-5.535399913787841797e+00,-3.597057580947875977e+00,-3.611185312271118164e+00,-5.082324028015136719e+00,-7.509404659271240234e+00,-7.507415771484375000e+00,-7.271159172058105469e+00,-8.752180099487304688e+00,-1.096340084075927734e+01,-1.059451389312744141e+01,-5.036298274993896484e+00,-3.803356170654296875e+00,-9.278376579284667969e+00,-1.268267917633056641e+01,-1.077987480163574219e+01,-9.712691307067871094e+00,-7.955366611480712891e+00,-5.705117225646972656e+00,-4.422979354858398438e+00,-3.960838079452514648e+00,-3.938421487808227539e+00,-5.295716285705566406e+00,-6.800976276397705078e+00,-6.148442745208740234e+00,-3.199662208557128906e+00,-3.069838285446166992e+00,-3.727887392044067383e+00,-2.296858072280883789e+00,-1.125960111618041992e+00
1.047440528869628906e+01,1.062451839447021484e+01,1.088915538787841797e+01,1.143423843383789062e+01,1.030093669891357422e+01,1.023360824584960938e+01,8.839909553527832031e+00,6.526257514953613281e+00,3.733466148376464844e+00,5.697404861450195312e+00,7.471934318542480469e+00,8.842184066772460938e+00,9.316061019897460938e+00,1.376320552825927734e+01,1.693662452697753906e+01,1.260161972045898438e+01,1.014738082885742188e+01,1.015138530731201172e+01,8.644496917724609375e+00,7.416707038879394531e+00,6.276051998138427734e+00,7.180103778839111328e+00,8.225189208984375000e+00,8.479870796203613281e+00,5.141472339630126953e+00,2.106313228607177734e+00,5.753971576690673828e+00,1.217572307586669922e+01,1.365127563476562500e+01,1.093939304351806641e+01,9.489775657653808594e+00,1.148000240325927734e+01
3.819071769714355469e+00,1.969054937362670898e+00,4.645919322967529297e+00,6.467571735382080078e+00,4.562834739685058594e+00,5.751754283905029297e+00,7.377119541168212891e+00,7.032591819763183594e+00,9.719518661499023438e+00,1.298218059539794922e+01,1.483735179901123047e+01,1.234390735626220703e+01,1.510557556152343750e+01,2.139823913574218750e+01,2.406060409545898438e+01,2.196953392028808594e+01,2.064890289306640625e+01,1.896459770202636719e+01,1.679364967346191406e+01,5.027477264404296875e+00,-3.276027441024780273e-01,-1.785445511341094971e-01,2.719050407409667969e+00,-1.752640008926391602e+00,-9.520038604736328125e+00,-1.026397609710693359e+01,-1.928424119949340820e+00,2.623628854751586914e+00,2.748864889144897461e+00,-7.718495130538940430e-01,-2.432761669158935547e+00,-3.035965442657470703e+00
-1.024635601043701172e+01,-1.382803821563720703e+01,-1.044055747985839844e+01,-7.203724861145019531e+00,-8.094944953918457031e+00,-5.864065170288085938e+00,-3.507705926895141602e+00,-4.204474925994873047e+00,3.896323442459106445e+00,5.819069862365722656e+00,5.997942447662353516e+00,-2.146302223205566406e+00,2.670364141464233398e+00,3.894423007965087891e+00,4.557363510131835938e+00,4.231233119964599609e+00,5.894748687744140625e+00,3.406201362609863281e+00,2.212267160415649414e+00,-6.478553771972656250e+00,-9.035332679748535156e+00,-9.450066566467285156e+00,-9.342278480529785156e+00,-7.997220993041992188e+00,-9.644505500793457031e+00,-1.029683399200439453e+01,-1.235425949096679688e+01,-1.383006191253662109e+01,-1.490209674835205078e+01,-1.440909576416015625e+01,-1.301638889312744141e+01,-1.547715091705322266e+01
-1.930032539367675781e+01,-1.858872795104980469e+01,-1.788938140869140625e+01,-1.681017494201660156e+01,-1.722435188293457031e+01,-1.821167182922363281e+01,-1.773988914489746094e+01,-1.610423278808593750e+01,-1.355738258361816406e+01,-1.044304180145263672e+01,-1.216019916534423828e+01,-1.654468345642089844e+01,-1.586716651916503906e+01,-1.692916107177734375e+01,-1.722635269165039062e+01,-1.877096176147460938e+01,-1.853520393371582031e+01,-1.722402572631835938e+01,-1.730026054382324219e+01,-1.711317634582519531e+01,-1.614888000488281250e+01,-1.653427314758300781e+01,-1.753079414367675781e+01,-9.569692611694335938e+00,-3.416783571243286133e+00,-5.691923618316650391e+00,-1.587955856323242188e+01,-1.885975456237792969e+01,-1.795225906372070312e+01,-1.649564743041992188e+01,-1.578415393829345703e+01,-1.655791473388671875e+01
3.143668174743652344e+00,8.307954788208007812e+00,5.064273357391357422e+00,2.709433794021606445e+00,3.180083274841308594e+00,5.596159100532531738e-01,-1.046117544174194336e+00,1.489961028099060059e+00,-5.508866786956787109e+00,-6.876453399658203125e+00,-7.017542362213134766e+00,4.309828281402587891e-01,-5.000348567962646484e+00,-9.790961265563964844e+00,-1.058661842346191406e+01,-9.903885841369628906e+00,-8.528720855712890625e+00,-5.621695518493652344e+00,-6.488705635070800781e+00,3.034035682678222656e+00,4.254617691040039062e+00,5.511911392211914062e+00,7.235064983367919922e+00,4.631262302398681641e+00,7.101464271545410156e+00,9.069066047668457031e+00,9.489681243896484375e+00,6.998409748077392578e+00,7.366717815399169922e+00,8.948938369750976562e+00,8.317822456359863281e+00,9.020500183105468750e+00
2.748803520202636719e+01,3.225585937500000000e+01,3.011261558532714844e+01,2.675723457336425781e+01,2.654013633728027344e+01,2.583399391174316406e+01,2.381823921203613281e+01,2.322809791564941406e+01,1.796833419799804688e+01,1.148070812225341797e+01,1.301513195037841797e+01,2.439784812927246094e+01,1.945096206665039062e+01,1.437886810302734375e+01,1.381182193756103516e+01,1.774778366088867188e+01,1.910575866699218750e+01,1.963957405090332031e+01,1.914635086059570312e+01,2.451169204711914062e+01,2.746438217163085938e+01,2.776417160034179688e+01,2.785168075561523438e+01,2.615527725219726562e+01,2.546007347106933594e+01,2.880458641052246094e+01,3.144982337951660156e+01,2.927705764770507812e+01,2.956046295166015625e+01,3.140964126586914062e+01,3.324772262573242188e+01,3.427099227905273438e+01
1.707298851013183594e+01,1.808804702758789062e+01,1.723655891418457031e+01,1.508796596527099609e+01,1.495335865020751953e+01,1.616274833679199219e+01,1.564583683013916016e+01,1.453948307037353516e+01,1.495222282409667969e+01,1.426661205291748047e+01,1.492537975311279297e+01,1.599967479705810547e+01,1.580190658569335938e+01,1.134843921661376953e+01,1.121848678588867188e+01,1.131775093078613281e+01,1.258350944519042969e+01,1.036738014221191406e+01,1.180667591094970703e+01,1.461753082275390625e+01,1.594770050048828125e+01,1.547876453399658203e+01,1.520600318908691406e+01,1.441673564910888672e+01,1.900904273986816406e+01,1.776996612548828125e+01,1.793280410766601562e+01,1.663637733459472656e+01,1.611085891723632812e+01,1.762896347045898438e+01,1.876494026184082031e+01,1.919483184814453125e+01
-8.599655032157897949e-01,-1.999372124671936035e+00,-2.570363521575927734e+00,-5.569190502166748047e+00,-4.164002418518066406e+00,-2.423139095306396484e+00,-2.170055627822875977e+00,-4.052952766418457031e+00,6.598782539367675781e-01,1.972141981124877930e+00,1.823751449584960938e+00,-2.945652961730957031e+00,-2.713598012924194336e+00,-8.903820991516113281e+00,-1.266292572021484375e+01,-1.072040939331054688e+01,-1.026226425170898438e+01,-1.182524776458740234e+01,-8.204335212707519531e+00,-4.936176300048828125e+00,-5.042898178100585938e+00,-5.876281261444091797e+00,-6.150061607360839844e+00,-4.095445156097412109e+00,3.192045390605926514e-01,-2.928335189819335938e+00,-4.185814380645751953e+00,-5.281676292419433594e+00,-2.651154041290283203e+00,-2.679696798324584961e+00,-2.706650495529174805e+00,-7.570079565048217773e-01
1.100446987152099609e+01,1.159651756286621094e+01,1.046601104736328125e+01,6.795597076416015625e+00,8.910883903503417969e+00,1.088422012329101562e+01,1.018209743499755859e+01,9.324716567993164062e+00,7.491084098815917969e+00,3.113783597946166992e+00,3.781406641006469727e+00,6.852824687957763672e+00,5.045757293701171875e+00,1.499040246009826660e+00,-8.977998495101928711e-01,1.882430553436279297e+00,1.469934940338134766e+00,3.177060186862945557e-01,4.182713508605957031e+00,9.113710403442382812e+00,1.047954177856445312e+01,9.681325912475585938e+00,9.201893806457519531e+00,7.405304908752441406e+00,8.093511581420898438e+00,9.032903671264648438e+00,1.239098644256591797e+01,1.116459178924560547e+01,1.020380783081054688e+01,1.250188732147216797e+01,1.350675868988037109e+01,1.302540016174316406e+01
9.809154510498046875e+00,1.328685665130615234e+01,1.368799972534179688e+01,1.413376235961914062e+01,1.015054225921630859e+01,1.152207565307617188e+01,1.254214382171630859e+01,1.376270771026611328e+01,7.125081062316894531e+00,3.831915616989135742e+00,4.832615852355957031e+00,1.271364307403564453e+01,1.273910903930664062e+01,1.000819396972656250e+01,1.144034671783447266e+01,1.430363845825195312e+01,1.502082443237304688e+01,1.093154716491699219e+01,1.291880512237548828e+01,1.422647666931152344e+01,1.633166122436523438e+01,1.479610252380371094e+01,1.064579391479492188e+01,1.144658184051513672e+01,1.584666347503662109e+01,1.756156921386718750e+01,1.497607326507568359e+01,1.230633926391601562e+01,9.904671669006347656e+00,1.091545867919921875e+01,1.101451778411865234e+01,1.129437828063964844e+01
-1.504522037506103516e+01,-1.635738754272460938e+01,-1.269162654876708984e+01,-7.604414939880371094e+00,-1.168449306488037109e+01,-1.359479713439941406e+01,-1.191379165649414062e+01,-8.720306396484375000e+00,-9.035810470581054688e+00,-7.590033531188964844e+00,-8.564496040344238281e+00,-6.673527240753173828e+00,-6.440304279327392578e+00,-9.020812034606933594e+00,-6.650663375854492188e+00,-3.685300350189208984e+00,-4.026297092437744141e+00,-8.918449401855468750e+00,-6.369617462158203125e+00,-9.281390190124511719e+00,-8.206076622009277344e+00,-8.302694320678710938e+00,-1.216992378234863281e+01,-9.809539794921875000e+00,-7.206729888916015625e+00,-8.339966773986816406e+00,-1.375062370300292969e+01,-1.712671470642089844e+01,-1.679021453857421875e+01,-1.520986366271972656e+01,-1.326869297027587891e+01,-1.598272132873535156e+01
-1.332643222808837891e+01,-1.666957092285156250e+01,-1.357116794586181641e+01,-8.400078773498535156e+00,-7.548624515533447266e+00,-9.913279533386230469e+00,-1.031359291076660156e+01,-8.913329124450683594e+00,-6.604430675506591797e+00,-4.900577545166015625e+00,-6.271122932434082031e+00,-7.703419685363769531e+00,-9.715165138244628906e+00,-8.095696449279785156e+00,-1.056986904144287109e+01,-8.483510017395019531e+00,-7.673414230346679688e+00,-5.943999767303466797e+00,-9.258178710937500000e+00,-1.032030582427978516e+01,-9.111856460571289062e+00,-5.301300048828125000e+00,-5.198627471923828125e+00,-9.963812828063964844e+00,-1.330564880371093750e+01,-1.291584777832031250e+01,-9.207903861999511719e+00,-1.575150203704833984e+01,-1.717082595825195312e+01,-1.273051166534423828e+01,-7.092236042022705078e+00,-1.016631507873535156e+01
8.650089263916015625e+00,1.080910587310791016e+01,8.322391510009765625e+00,7.505679130554199219e+00,9.452302932739257812e+00,9.830633163452148438e+00,9.844975471496582031e+00,8.436727523803710938e+00,8.262431144714355469e+00,9.629606246948242188e+00,9.843012809753417969e+00,9.183007240295410156e+00,8.661962509155273438e+00,9.979882240295410156e+00,3.341004371643066406e+00,2.996011972427368164e+00,4.668179512023925781e+00,7.824119567871093750e+00,5.290101051330566406e+00,4.152070999145507812e+00,5.679610729217529297e+00,9.429606437683105469e+00,1.227041244506835938e+01,1.098944759368896484e+01,7.017362117767333984e+00,6.997016429901123047e+00,1.085422706604003906e+01,8.430728912353515625e+00,7.441895008087158203e+00,9.402351379394531250e+00,9.026622772216796875e+00,1.088559436798095703e+01
1.004786300659179688e+01,1.310056209564208984e+01,1.117264747619628906e+01,7.882160186767578125e+00,7.777376174926757812e+00,7.398952960968017578e+00,5.753623485565185547e+00,3.452101230621337891e+00,7.097061634063720703e+00,1.034228324890136719e+01,1.055759811401367188e+01,8.437939643859863281e+00,7.850521087646484375e+00,6.095178604125976562e+00,1.737521648406982422e+00,2.926664948463439941e-01,-2.826724946498870850e-01,1.409859299659729004e+00,4.367193698883056641e+00,6.554734706878662109e+00,4.227869033813476562e+00,1.952651977539062500e+00,3.345287561416625977e+00,1.146718692779541016e+01,1.002562618255615234e+01,7.241333961486816406e+00,3.719395637512207031e+00,8.009340286254882812e+00,1.032493782043457031e+01,1.017374324798583984e+01,5.447170734405517578e+00,7.006393909454345703e+00
2.898859500885009766e+00,4.840624332427978516e+00,2.917870759963989258e+00,1.406052708625793457e+00,2.412134170532226562e+00,1.101933002471923828e+00,-1.906318664550781250e+00,-3.380625009536743164e+00,-8.544523119926452637e-01,2.886362373828887939e-01,9.919825792312622070e-01,9.123320579528808594e-01,-1.197253227233886719e+00,-3.275541663169860840e-01,-9.427056908607482910e-01,-1.488871455192565918e+00,-2.630984544754028320e+00,1.378927111625671387e+00,4.848006725311279297e+00,6.737761020660400391e+00,1.133297562599182129e+00,-4.357647418975830078e+00,-5.169057369232177734e+00,-9.913818538188934326e-02,-3.954389989376068115e-01,-1.548454314470291138e-01,-2.320463180541992188e+00,1.233609795570373535e+00,3.642177104949951172e+00,4.916255950927734375e+00,7.191050648689270020e-01,1.752605289220809937e-01
1.331204295158386230e+00,4.555381774902343750e+00,1.693000078201293945e+00,7.912530303001403809e-01,1.811504960060119629e+00,2.194456100463867188e+00,1.862969160079956055e+00,1.272636532783508301e+00,-2.083853483200073242e+00,-4.219228267669677734e+00,-1.340585708618164062e+00,3.320679903030395508e+00,1.423611283302307129e+00,2.553164958953857422e+00,-2.237324476242065430e+00,-1.810034513473510742e+00,-1.760808467864990234e+00,1.628563165664672852e+00,6.230646371841430664e-01,1.528811216354370117e+00,-1.522605895996093750e+00,-4.091610431671142578e+00,-4.450626373291015625e+00,-1.473408937454223633e+00,2.296667248010635376e-01,1.816804528236389160e+00,-1.911525249481201172e+00,5.562196969985961914e-01,1.888813376426696777e+00,1.961425781250000000e+00,-2.494506835937500000e+00,2.579723358154296875e+00
-7.472304344177246094e+00,-5.344019889831542969e+00,-4.826689720153808594e+00,-6.041934013366699219e+00,-6.738476753234863281e+00,-5.667376995086669922e+00,-4.348778247833251953e+00,-6.183067798614501953e+00,-8.072619438171386719e+00,-8.656051635742187500e+00,-6.297796249389648438e+00,-4.006137847900390625e+00,-4.947846412658691406e+00,-4.288411140441894531e+00,-8.063974380493164062e+00,-9.307096481323242188e+00,-1.204232120513916016e+01,-1.162707519531250000e+01,-1.237818527221679688e+01,-9.849422454833984375e+00,-1.157504653930664062e+01,-1.092950344085693359e+01,-1.128524780273437500e+01,-9.652132034301757812e+00,-1.171671295166015625e+01,-9.572689056396484375e+00,-1.189854049682617188e+01,-9.258234977722167969e+00,-8.123627662658691406e+00,-8.738865852355957031e+00,-1.086253356933593750e+01,-4.872708797454833984e+00
-1.445124530792236328e+01,-1.508742427825927734e+01,-1.368678665161132812e+01,-1.401186466217041016e+01,-1.375226593017578125e+01,-1.354725742340087891e+01,-1.368074417114257812e+01,-1.456948661804199219e+01,-1.301579189300537109e+01,-1.151352024078369141e+01,-1.381785488128662109e+01,-1.452472114562988281e+01,-1.420220851898193359e+01,-1.026738643646240234e+01,-5.559562683105468750e+00,-6.634093284606933594e+00,-8.767232894897460938e+00,-9.808320999145507812e+00,-9.496587753295898438e+00,-1.082400989532470703e+01,-1.212773990631103516e+01,-1.186422443389892578e+01,-1.245981121063232422e+01,-2.314663887023925781e+01,-2.775751304626464844e+01,-2.291610527038574219e+01,-1.208521556854248047e+01,-1.356827640533447266e+01,-1.382963943481445312e+01,-1.249591827392578125e+01,-1.111641502380371094e+01,-1.411596679687500000e+01
-6.729865550994873047e+00,-1.055637645721435547e+01,-1.116602230072021484e+01,-1.099307823181152344e+01,-9.124310493469238281e+00,-1.067668342590332031e+01,-9.511816978454589844e+00,-6.598822116851806641e+00,-4.574231624603271484e+00,-5.900758743286132812e+00,-1.033108139038085938e+01,-8.660129547119140625e+00,-6.280529499053955078e+00,-4.196083068847656250e+00,-2.325608253479003906e+00,2.652873992919921875e-01,2.743830680847167969e+00,1.219328761100769043e+00,-1.566811442375183105e+00,-4.950353145599365234e+00,-4.648495674133300781e+00,-4.542220115661621094e+00,-2.876320838928222656e+00,-1.169384384155273438e+01,-1.243725872039794922e+01,-1.142853450775146484e+01,-2.597223520278930664e+00,-3.063867092132568359e+00,-4.797379493713378906e+00,-5.041716098785400391e+00,-5.244936466217041016e+00,-1.145115375518798828e+01
1.800187230110168457e+00,-3.266604185104370117e+00,-4.138438701629638672e+00,-3.533497571945190430e+00,-1.066568732261657715e+00,-1.755937814712524414e+00,-1.654276847839355469e-01,1.234208583831787109e+00,2.475863695144653320e+00,1.607138276100158691e+00,1.363387346267700195e+00,2.052779912948608398e+00,2.268390893936157227e+00,3.878572285175323486e-01,-3.185091018676757812e+00,-1.763743758201599121e+00,-2.287285327911376953e-01,1.254716962575912476e-01,-3.935831308364868164e+00,-3.389383316040039062e+00,-2.408967256546020508e+00,5.646796822547912598e-01,3.210243701934814453e+00,5.483213901519775391e+00,4.061196327209472656e+00,1.618431568145751953e+00,-1.204203009605407715e+00,1.785980224609375000e+00,1.512677192687988281e+00,-1.595431923866271973e+00,-2.098997831344604492e+00,-4.716061115264892578e+00
-5.160076618194580078e+00,-6.680816650390625000e+00,-5.866800785064697266e+00,-3.407527446746826172e+00,-2.902432441711425781e+00,-1.010039687156677246e+00,-2.142680644989013672e+00,-2.380116701126098633e+00,-4.211605548858642578e+00,-9.758182168006896973e-01,6.946356296539306641e-01,-2.093567371368408203e+00,-6.052389144897460938e+00,-4.590834617614746094e+00,5.123587250709533691e-01,-1.247218251228332520e+00,-2.599917888641357422e+00,-2.695595979690551758e+00,-4.612204551696777344e+00,-6.335347652435302734e+00,-4.416506767272949219e+00,-1.686024546623229980e+00,-1.348365902900695801e+00,1.679695993661880493e-01,-8.312583565711975098e-01,-2.266609430313110352e+00,-5.976787567138671875e+00,-4.550483703613281250e+00,-4.290918827056884766e+00,-7.800330162048339844e+00,-4.481057643890380859e+00,-6.952668190002441406e+00
-1.933307075500488281e+01,-1.925457191467285156e+01,-1.781886291503906250e+01,-1.632219886779785156e+01,-1.696621704101562500e+01,-1.571036720275878906e+01,-1.508580970764160156e+01,-1.263831520080566406e+01,-1.421110534667968750e+01,-1.361684226989746094e+01,-1.461408615112304688e+01,-1.598837757110595703e+01,-1.723234939575195312e+01,-1.343560600280761719e+01,-5.368890762329101562e+00,-6.302248954772949219e+00,-6.904897689819335938e+00,-9.102395057678222656e+00,-8.210433006286621094e+00,-1.460650634765625000e+01,-1.345180225372314453e+01,-1.395070075988769531e+01,-1.410168361663818359e+01,-1.405978202819824219e+01,-1.236852455139160156e+01,-1.425446701049804688e+01,-1.491061401367187500e+01,-1.515814971923828125e+01,-1.643009567260742188e+01,-1.988324737548828125e+01,-1.889452743530273438e+01,-1.853116416931152344e+01
-2.562228393554687500e+01,-2.649269676208496094e+01,-2.257593727111816406e+01,-2.181723976135253906e+01,-2.426518440246582031e+01,-2.476371955871582031e+01,-2.148558044433593750e+01,-1.879906272888183594e+01,-1.563269805908203125e+01,-1.724215888977050781e+01,-2.016280364990234375e+01,-2.430441665649414062e+01,-2.306412696838378906e+01,-1.916125679016113281e+01,-1.990307044982910156e+01,-2.235585594177246094e+01,-2.462277412414550781e+01,-2.257101821899414062e+01,-1.950767707824707031e+01,-2.027318572998046875e+01,-2.293045043945312500e+01,-2.448530197143554688e+01,-2.358199882507324219e+01,-2.268665313720703125e+01,-2.415691184997558594e+01,-2.305360603332519531e+01,-2.137128829956054688e+01,-2.364849472045898438e+01,-2.518150711059570312e+01,-2.566193389892578125e+01,-2.583213424682617188e+01,-2.081710815429687500e+01
-2.110649299621582031e+01,-2.058085250854492188e+01,-1.768094635009765625e+01,-1.593948650360107422e+01,-1.892270278930664062e+01,-1.848111152648925781e+01,-1.500479316711425781e+01,-1.513748550415039062e+01,-1.615604209899902344e+01,-1.647128868103027344e+01,-1.597883033752441406e+01,-2.001701927185058594e+01,-2.200595283508300781e+01,-1.942822456359863281e+01,-2.067398452758789062e+01,-2.428428077697753906e+01,-2.648451232910156250e+01,-2.180166435241699219e+01,-1.911193847656250000e+01,-1.683548927307128906e+01,-1.882965087890625000e+01,-2.017671585083007812e+01,-2.244890403747558594e+01,-2.347370529174804688e+01,-2.370036888122558594e+01,-1.871161270141601562e+01,-1.660043525695800781e+01,-2.124323654174804688e+01,-2.270271682739257812e+01,-2.038153648376464844e+01,-1.803390312194824219e+01,-1.615368843078613281e+01
-1.012736606597900391e+01,-1.023847579956054688e+01,-1.017467784881591797e+01,-8.328059196472167969e+00,-9.112699508666992188e+00,-8.955970764160156250e+00,-6.415020465850830078e+00,-4.341228961944580078e+00,-8.039083480834960938e+00,-9.921344757080078125e+00,-9.658626556396484375e+00,-7.942089080810546875e+00,-8.164916038513183594e+00,-6.299822807312011719e+00,-2.092120647430419922e+00,-5.409211158752441406e+00,-6.404988765716552734e+00,-6.639614582061767578e+00,-2.518613338470458984e+00,-4.770102977752685547e+00,-5.204898834228515625e+00,-8.776082992553710938e+00,-8.559003829956054688e+00,-8.044709205627441406e+00,-4.913952350616455078e+00,-4.423419952392578125e+00,-4.294507026672363281e+00,-6.745534896850585938e+00,-8.277693748474121094e+00,-8.560643196105957031e+00,-1.024360370635986328e+01,-1.438321495056152344e+01
-6.249243259429931641e+00,-1.088711452484130859e+01,-7.465034484863281250e+00,-5.675026893615722656e+00,-4.807878971099853516e+00,-7.012156486511230469e+00,-5.654842853546142578e+00,-2.145961999893188477e+00,5.899121761322021484e+00,6.182578086853027344e+00,-1.132019400596618652e+00,-5.509675502777099609e+00,-2.031322717666625977e+00,4.329166412353515625e+00,8.904095649719238281e+00,2.213794946670532227e+00,-1.835105419158935547e+00,-4.828381538391113281e+00,-9.875294566154479980e-02,-1.036013513803482056e-01,-4.854408800601959229e-01,-6.332101821899414062e+00,-4.029598236083984375e+00,1.020379352569580078e+01,1.395603656768798828e+01,7.486155033111572266e+00,-5.461136341094970703e+00,-4.262149810791015625e+00,-5.383966922760009766e+00,-6.812778472900390625e+00,-8.748252868652343750e+00,-1.335614871978759766e+01
-1.813048171997070312e+01,-2.094619941711425781e+01,-1.666479110717773438e+01,-1.533883380889892578e+01,-1.536666584014892578e+01,-1.663273811340332031e+01,-1.607812309265136719e+01,-1.597247695922851562e+01,-4.201975822448730469e+00,1.889207720756530762e+00,-5.025815486907958984e+00,-1.461760139465332031e+01,-1.196414470672607422e+01,-5.484915733337402344e+00,-3.530038356781005859e+00,-1.075352382659912109e+01,-1.393176364898681641e+01,-1.739445686340332031e+01,-1.843845367431640625e+01,-1.635173606872558594e+01,-1.384033107757568359e+01,-1.672889518737792969e+01,-1.847076034545898438e+01,-5.015802860260009766e+00,-3.284088611602783203e+00,-8.257262229919433594e+00,-2.043103790283203125e+01,-2.130672454833984375e+01,-1.961030578613281250e+01,-1.738916015625000000e+01,-1.596676540374755859e+01,-1.940987777709960938e+01
-2.082439994812011719e+01,-1.868192672729492188e+01,-1.781181716918945312e+01,-1.774917602539062500e+01,-1.931185340881347656e+01,-2.043365287780761719e+01,-1.864577102661132812e+01,-1.817536544799804688e+01,-1.657352638244628906e+01,-1.396137428283691406e+01,-1.486811923980712891e+01,-1.531863689422607422e+01,-1.512661743164062500e+01,-1.374016857147216797e+01,-1.131997489929199219e+01,-1.510796833038330078e+01,-1.453651809692382812e+01,-1.683968925476074219e+01,-1.970801734924316406e+01,-2.237510681152343750e+01,-2.113200569152832031e+01,-1.904099464416503906e+01,-1.996587371826171875e+01,-2.256333160400390625e+01,-2.355906867980957031e+01,-1.949416732788085938e+01,-1.719045829772949219e+01,-1.968441772460937500e+01,-1.906042671203613281e+01,-1.751717948913574219e+01,-1.622563552856445312e+01,-1.807483291625976562e+01
9.083430767059326172e-01,2.658097505569458008e+00,9.445632696151733398e-01,1.186609387397766113e+00,2.243384599685668945e+00,1.167091012001037598e+00,2.362777709960937500e+00,3.266330718994140625e+00,2.548705935478210449e-01,-3.229620218276977539e+00,-2.553886651992797852e+00,1.628398656845092773e+00,-9.221714138984680176e-01,-6.776805520057678223e-01,3.841743707656860352e+00,9.856606125831604004e-01,-1.069698691368103027e+00,1.440150380134582520e+00,1.790097236633300781e+00,-1.228672489523887634e-01,-1.995787620544433594e+00,8.599890470504760742e-01,4.170528411865234375e+00,-6.774479866027832031e+00,-1.272455787658691406e+01,-7.570293903350830078e+00,6.632319927215576172e+00,4.546583652496337891e+00,2.908752918243408203e+00,2.369809627532958984e+00,3.758776187896728516e+00,3.449266672134399414e+00
9.405376434326171875e+00,7.822232246398925781e+00,2.465557813644409180e+00,3.976485252380371094e+00,9.013767242431640625e+00,1.195332622528076172e+01,8.376916885375976562e+00,5.761921405792236328e+00,5.607384681701660156e+00,5.917307853698730469e+00,4.683857440948486328e+00,3.491265058517456055e+00,2.836788415908813477e+00,5.445478439331054688e+00,1.041042995452880859e+01,6.627154350280761719e+00,2.892263889312744141e+00,5.479532718658447266e+00,6.695923328399658203e+00,9.400957107543945312e+00,7.193891525268554688e+00,5.951704978942871094e+00,7.247369289398193359e+00,-1.648942589759826660e+00,-7.240037918090820312e+00,-5.729070186614990234e+00,6.188903808593750000e+00,5.674156188964843750e+00,6.235660076141357422e+00,7.387969970703125000e+00,7.839914798736572266e+00,4.900704860687255859e+00
-6.546380519866943359e+00,-7.065687179565429688e+00,-1.234332370758056641e+01,-1.070753002166748047e+01,-8.969435691833496094e+00,-5.280138969421386719e+00,-9.337563514709472656e+00,-1.191185188293457031e+01,-1.255998325347900391e+01,-1.028497886657714844e+01,-1.140148162841796875e+01,-1.185181903839111328e+01,-9.641654014587402344e+00,-9.147470474243164062e+00,-3.717568159103393555e+00,-6.060447216033935547e+00,-5.353380203247070312e+00,-5.459944725036621094e+00,-3.330888509750366211e+00,-3.802837371826171875e+00,-4.982030868530273438e+00,-8.263181686401367188e+00,-8.197554588317871094e+00,-1.541375541687011719e+01,-1.560019016265869141e+01,-1.486292552947998047e+01,-8.522109031677246094e+00,-1.016142177581787109e+01,-1.015910911560058594e+01,-7.411972522735595703e+00,-6.892608642578125000e+00,-1.429784584045410156e+01
-6.306476116180419922e+00,-7.955228805541992188e+00,-8.559051513671875000e+00,-5.639312744140625000e+00,-7.248096466064453125e+00,-7.836359500885009766e+00,-1.086250972747802734e+01,-1.117840194702148438e+01,-1.076733970642089844e+01,-9.920969963073730469e+00,-1.104414558410644531e+01,-9.275446891784667969e+00,-9.312990188598632812e+00,-1.033990097045898438e+01,-3.509242057800292969e+00,-1.659148812294006348e+00,-1.103306770324707031e+00,-2.155502557754516602e+00,-1.380589842796325684e+00,-3.527798175811767578e+00,-2.857069253921508789e+00,-3.684587001800537109e+00,-1.809864640235900879e+00,-2.706433296203613281e+00,-8.433097600936889648e-01,-1.132292866706848145e+00,-2.090702295303344727e+00,-4.004049777984619141e+00,-7.332149982452392578e+00,-7.298787117004394531e+00,-6.969329357147216797e+00,-1.297680282592773438e+01
6.375015258789062500e+00,3.733180761337280273e-01,-2.754246592521667480e-01,2.905473232269287109e+00,4.520475387573242188e+00,3.718969106674194336e+00,1.173572763800621033e-01,-1.531674623489379883e+00,-8.221157789230346680e-01,6.095692515373229980e-01,-2.460322380065917969e-01,2.308565855026245117e+00,-1.873203963041305542e-01,-1.352961659431457520e-01,6.710772514343261719e+00,9.799036979675292969e+00,6.558323383331298828e+00,4.399484157562255859e+00,1.902052164077758789e+00,4.729681015014648438e+00,7.989066123962402344e+00,7.608100891113281250e+00,7.881838321685791016e+00,1.401647186279296875e+01,1.583320713043212891e+01,1.101158618927001953e+01,5.461002349853515625e+00,6.675851821899414062e+00,3.605872631072998047e+00,3.499761223793029785e-01,-6.032927036285400391e-01,-3.315053701400756836e+00
3.201201438903808594e+00,2.559756487607955933e-02,-2.861905813217163086e+00,-2.071055173873901367e+00,-2.557449638843536377e-01,1.109059005975723267e-01,-2.448251008987426758e+00,-4.892125606536865234e+00,-4.577850818634033203e+00,-3.906956434249877930e+00,-4.932038784027099609e+00,-9.974365830421447754e-01,-1.666649222373962402e+00,-2.920496702194213867e+00,2.027467250823974609e+00,2.120187044143676758e+00,4.335452020168304443e-01,-1.007701396942138672e+00,-1.060015201568603516e+00,3.060928106307983398e+00,4.239116668701171875e+00,2.099178791046142578e+00,1.004273056983947754e+00,5.121873855590820312e+00,5.774747848510742188e+00,2.323884248733520508e+00,1.107710480690002441e+00,2.195811271667480469e+00,6.453567147254943848e-01,-1.071857213973999023e+00,-8.741903305053710938e-01,-2.925256729125976562e+00
5.780234813690185547e+00,7.569314479827880859e+00,7.449482440948486328e+00,8.687691688537597656e+00,6.864765167236328125e+00,5.620674610137939453e+00,5.875687122344970703e+00,6.325586795806884766e+00,1.015409564971923828e+01,9.929260253906250000e+00,6.830680847167968750e+00,6.535502433776855469e+00,6.648605823516845703e+00,5.795195579528808594e+00,8.901930809020996094e+00,6.459010601043701172e+00,6.334691047668457031e+00,4.991017818450927734e+00,4.486484527587890625e+00,5.342607021331787109e+00,6.557054519653320312e+00,5.281205177307128906e+00,6.756845474243164062e+00,3.979345560073852539e+00,4.938723564147949219e+00,6.557573318481445312e+00,1.018071174621582031e+01,6.072239875793457031e+00,5.995148658752441406e+00,7.842082500457763672e+00,1.038406848907470703e+01,8.193869590759277344e+00
6.124991893768310547e+00,5.078819751739501953e+00,7.823324203491210938e+00,1.114237785339355469e+01,1.014581680297851562e+01,7.918885231018066406e+00,1.028235149383544922e+01,1.002545547485351562e+01,1.375202369689941406e+01,1.304704189300537109e+01,1.015826320648193359e+01,8.425661087036132812e+00,8.399796485900878906e+00,9.712854385375976562e+00,1.142564201354980469e+01,9.190829277038574219e+00,7.523991107940673828e+00,5.191681385040283203e+00,2.426635742187500000e+00,2.782372236251831055e+00,4.797624111175537109e+00,3.757828235626220703e+00,5.545077800750732422e+00,4.525409221649169922e+00,4.731910228729248047e+00,5.237746715545654297e+00,8.089601516723632812e+00,3.453304529190063477e+00,4.259367942810058594e+00,4.535291194915771484e+00,6.198784828186035156e+00,6.890869617462158203e+00
-1.972112464904785156e+01,-1.956248283386230469e+01,-1.863542175292968750e+01,-1.745090484619140625e+01,-1.764752197265625000e+01,-1.871611785888671875e+01,-1.561272716522216797e+01,-1.357666015625000000e+01,-8.285683631896972656e+00,-7.984460830688476562e+00,-1.260650920867919922e+01,-1.675876045227050781e+01,-1.509742069244384766e+01,-1.321421909332275391e+01,-1.349449825286865234e+01,-1.695502853393554688e+01,-1.891065406799316406e+01,-1.941601371765136719e+01,-1.878815460205078125e+01,-1.740578460693359375e+01,-1.811220550537109375e+01,-2.016115379333496094e+01,-1.967485046386718750e+01,-1.835976982116699219e+01,-2.002879142761230469e+01,-1.877866554260253906e+01,-1.649705886840820312e+01,-1.969196319580078125e+01,-1.953732109069824219e+01,-1.871545791625976562e+01,-1.761223793029785156e+01,-1.903106880187988281e+01
-1.613134765625000000e+01,-1.102878665924072266e+01,-9.106258392333984375e+00,-1.091980266571044922e+01,-1.404890823364257812e+01,-1.451567554473876953e+01,-1.144379520416259766e+01,-8.861165046691894531e+00,-7.420345306396484375e+00,-7.388680458068847656e+00,-1.085114955902099609e+01,-1.219834136962890625e+01,-1.171956062316894531e+01,-6.853094577789306641e+00,-5.087917804718017578e+00,-8.994267463684082031e+00,-1.150693798065185547e+01,-9.769742965698242188e+00,-6.696880340576171875e+00,-5.627872467041015625e+00,-7.204956531524658203e+00,-9.703227996826171875e+00,-9.169693946838378906e+00,-1.089181232452392578e+01,-1.023724174499511719e+01,-6.164143085479736328e+00,-2.267023086547851562e+00,-6.840181827545166016e+00,-8.265963554382324219e+00,-4.387795448303222656e+00,1.162107214331626892e-01,-4.944818496704101562e+00
1.181176376342773438e+01,1.564780330657958984e+01,1.810690307617187500e+01,1.682014274597167969e+01,1.369381046295166016e+01,1.342120742797851562e+01,1.602088356018066406e+01,1.758303451538085938e+01,1.592712593078613281e+01,1.443336677551269531e+01,1.268660259246826172e+01,1.450721836090087891e+01,1.444547939300537109e+01,1.979064178466796875e+01,2.222464752197265625e+01,1.949465560913085938e+01,1.681928634643554688e+01,1.713059234619140625e+01,1.708040046691894531e+01,1.766326522827148438e+01,1.878254699707031250e+01,1.803163146972656250e+01,1.867796897888183594e+01,1.536418247222900391e+01,1.730945014953613281e+01,2.116977882385253906e+01,2.476497268676757812e+01,2.081615829467773438e+01,1.940240097045898438e+01,2.265888977050781250e+01,2.604500961303710938e+01,2.170592689514160156e+01
9.902340888977050781e+00,1.071039962768554688e+01,1.260229301452636719e+01,1.331400585174560547e+01,1.121063137054443359e+01,9.060701370239257812e+00,1.074010658264160156e+01,1.264981269836425781e+01,1.549061489105224609e+01,1.475409126281738281e+01,1.203815555572509766e+01,1.223468875885009766e+01,1.514371013641357422e+01,1.718839836120605469e+01,1.929965209960937500e+01,1.495099067687988281e+01,1.597665309906005859e+01,1.340966892242431641e+01,1.177733325958251953e+01,9.689365386962890625e+00,1.062702274322509766e+01,8.138970375061035156e+00,5.826578140258789062e+00,6.478812217712402344e+00,9.379831314086914062e+00,1.054205513000488281e+01,8.593325614929199219e+00,8.350830078125000000e+00,8.489819526672363281e+00,1.057758998870849609e+01,1.180033588409423828e+01,1.223936176300048828e+01
-4.006786346435546875e+00,-2.187736511230468750e+00,-1.376651406288146973e+00,1.013254165649414062e+00,-8.497616648674011230e-01,-4.278550624847412109e+00,-5.622585773468017578e+00,-4.684283256530761719e+00,5.173589229583740234e+00,6.427891254425048828e+00,2.618126153945922852e+00,-1.671058535575866699e+00,1.168271660804748535e+00,-4.179481983184814453e+00,-3.759610414505004883e+00,-5.670824050903320312e+00,-2.379493474960327148e+00,-6.205651283264160156e+00,-5.139512062072753906e+00,-6.552540779113769531e+00,-9.068915367126464844e+00,-1.050059795379638672e+01,-8.609857559204101562e+00,-1.293253421783447266e+01,-1.259325408935546875e+01,-6.090375900268554688e+00,-3.021795988082885742e+00,-5.052881240844726562e+00,-6.503097534179687500e+00,-3.107715845108032227e+00,-1.142778992652893066e+00,-1.034891977906227112e-01
2.886942863464355469e+00,4.881763935089111328e+00,6.393213748931884766e+00,7.466624736785888672e+00,6.336498260498046875e+00,5.346378326416015625e+00,4.857448577880859375e+00,5.042201519012451172e+00,1.099710273742675781e+01,1.308354854583740234e+01,1.052362060546875000e+01,6.775452136993408203e+00,6.172978878021240234e+00,4.391571521759033203e+00,4.839321613311767578e+00,6.211104869842529297e+00,5.503747463226318359e+00,4.026525974273681641e+00,5.706142425537109375e+00,5.463402271270751953e+00,3.099733591079711914e+00,2.056803226470947266e+00,5.070219993591308594e+00,-2.512351751327514648e+00,-4.254664897918701172e+00,1.548553824424743652e+00,8.964669227600097656e+00,5.042080402374267578e+00,2.957714557647705078e+00,4.833073616027832031e+00,7.359946250915527344e+00,5.975165367126464844e+00
-3.697736740112304688e+00,-5.968107223510742188e+00,-5.887130737304687500e+00,-6.552437782287597656e+00,-5.637500762939453125e+00,-5.223339557647705078e+00,-4.741768836975097656e+00,-4.765027999877929688e+00,-6.303572654724121094e+00,-6.824686050415039062e+00,-6.401802062988281250e+00,-3.337522983551025391e+00,-2.540361881256103516e+00,-5.650953389704227448e-03,9.726599454879760742e-01,7.470236420631408691e-01,-4.881923496723175049e-01,8.198922500014305115e-03,-4.885589703917503357e-02,-7.129409313201904297e-01,-2.252140045166015625e-01,-9.966719150543212891e-01,-2.435653686523437500e+00,1.471059918403625488e+00,1.259464144706726074e+00,-2.175456047058105469e+00,-6.241453647613525391e+00,-4.985078811645507812e+00,-5.420654773712158203e+00,-6.501439094543457031e+00,-6.878267765045166016e+00,-8.066276550292968750e+00
-4.145007610321044922e+00,-7.918173789978027344e+00,-9.687543869018554688e+00,-9.590250015258789062e+00,-8.130774497985839844e+00,-7.521731853485107422e+00,-7.544646263122558594e+00,-8.232750892639160156e+00,-8.419261932373046875e+00,-7.649570941925048828e+00,-7.244050025939941406e+00,-5.846696376800537109e+00,-3.914200544357299805e+00,-4.572956085205078125e+00,-3.866055250167846680e+00,-3.804119110107421875e+00,-1.033589839935302734e+00,-1.732646584510803223e+00,-2.874705076217651367e+00,-2.675855159759521484e+00,-1.763448476791381836e+00,-1.403546214103698730e+00,-3.872533082962036133e+00,5.497924327850341797e+00,6.694311141967773438e+00,7.833121418952941895e-01,-9.243699073791503906e+00,-5.907811164855957031e+00,-6.336711883544921875e+00,-7.993951797485351562e+00,-8.901077270507812500e+00,-7.222057342529296875e+00
2.386713027954101562e+01,2.241011619567871094e+01,1.947052574157714844e+01,1.943350410461425781e+01,2.033056640625000000e+01,2.116670608520507812e+01,1.918277549743652344e+01,1.591724491119384766e+01,1.401522922515869141e+01,1.343345546722412109e+01,1.595676994323730469e+01,2.353145599365234375e+01,2.098150634765625000e+01,1.903567314147949219e+01,2.087188911437988281e+01,2.185893249511718750e+01,2.356969833374023438e+01,2.308495521545410156e+01,2.251736831665039062e+01,2.374023818969726562e+01,2.555973815917968750e+01,2.574662399291992188e+01,2.574570655822753906e+01,2.627711296081542969e+01,2.640735244750976562e+01,2.198976135253906250e+01,2.087466430664062500e+01,2.159939002990722656e+01,2.110191154479980469e+01,1.859360504150390625e+01,1.918892097473144531e+01,1.985869216918945312e+01
2.405702590942382812e+01,2.495477485656738281e+01,2.315900230407714844e+01,2.254817581176757812e+01,2.211010360717773438e+01,2.267955398559570312e+01,2.045249366760253906e+01,1.932296943664550781e+01,1.538126277923583984e+01,1.481394577026367188e+01,1.566588020324707031e+01,1.981943321228027344e+01,1.779035186767578125e+01,1.529638481140136719e+01,1.567714214324951172e+01,1.793084335327148438e+01,1.677602767944335938e+01,1.790583801269531250e+01,1.532911777496337891e+01,1.779611396789550781e+01,2.073967361450195312e+01,2.238600540161132812e+01,2.569948005676269531e+01,1.876535224914550781e+01,1.694939041137695312e+01,1.711454200744628906e+01,2.407667350769042969e+01,2.227950668334960938e+01,2.334003257751464844e+01,2.388095664978027344e+01,2.445741653442382812e+01,2.093506431579589844e+01
-4.635111331939697266e+00,-3.961806058883666992e+00,-3.859056949615478516e+00,-3.526190757751464844e+00,-3.115863800048828125e+00,-1.729044437408447266e+00,-2.807790756225585938e+00,-1.029279828071594238e+00,-6.226413249969482422e+00,-5.547565460205078125e+00,-6.682966709136962891e+00,-9.770546913146972656e+00,-1.090729808807373047e+01,-9.245411872863769531e+00,-1.177278041839599609e+01,-8.527137756347656250e+00,-1.120789051055908203e+01,-1.010924530029296875e+01,-1.213204669952392578e+01,-1.049244213104248047e+01,-9.442143440246582031e+00,-6.996276855468750000e+00,-7.722563743591308594e-01,-9.201668739318847656e+00,-1.283347415924072266e+01,-1.135151195526123047e+01,-1.899729132652282715e+00,-2.613862752914428711e+00,-4.768809974193572998e-01,-2.729862928390502930e-01,-3.158948659896850586e+00,-4.392247200012207031e+00
-2.555258989334106445e+00,1.555042624473571777e+00,1.654916644096374512e+00,2.881349325180053711e-01,4.769827127456665039e-01,-2.843416631221771240e-01,-2.864506959915161133e+00,-3.934718608856201172e+00,-2.003762006759643555e+00,-1.912029266357421875e+00,-3.454215764999389648e+00,-3.416651010513305664e+00,-6.463072299957275391e+00,-7.068021774291992188e+00,-7.227400302886962891e+00,-2.307519674301147461e+00,-2.986039638519287109e+00,-4.607829570770263672e+00,-6.661469459533691406e+00,-2.897011280059814453e+00,-5.334885120391845703e+00,-4.690074920654296875e+00,2.568045258522033691e-01,-7.212913036346435547e+00,-1.286630344390869141e+01,-1.036197948455810547e+01,1.376785993576049805e+00,3.265431642532348633e+00,4.790000438690185547e+00,9.705291986465454102e-01,-1.982757925987243652e+00,3.769642829895019531e+00
1.930422019958496094e+01,2.338513374328613281e+01,2.219955825805664062e+01,1.799572944641113281e+01,1.492113971710205078e+01,1.695071220397949219e+01,1.733041000366210938e+01,1.517956447601318359e+01,2.152927398681640625e+01,2.193244171142578125e+01,2.127358055114746094e+01,2.124490165710449219e+01,1.898156738281250000e+01,1.608034515380859375e+01,1.436543464660644531e+01,1.319576930999755859e+01,1.235947513580322266e+01,1.038550949096679688e+01,1.253851127624511719e+01,1.435631084442138672e+01,1.002486515045166016e+01,7.735481739044189453e+00,1.580173015594482422e+01,1.629734230041503906e+01,1.352900314331054688e+01,1.301024913787841797e+01,1.640857887268066406e+01,1.579847335815429688e+01,1.681114768981933594e+01,1.683679008483886719e+01,1.673354911804199219e+01,2.104463577270507812e+01
1.419056224822998047e+01,7.515542030334472656e+00,7.787571430206298828e+00,8.413754463195800781e+00,6.134372711181640625e+00,9.766358375549316406e+00,1.147180461883544922e+01,1.069540691375732422e+01,1.034513473510742188e+01,1.357227039337158203e+01,1.697749519348144531e+01,1.980545043945312500e+01,1.944242858886718750e+01,1.636407470703125000e+01,1.162747383117675781e+01,9.557641983032226562e+00,9.929790496826171875e+00,9.120116233825683594e+00,8.496128082275390625e+00,5.823433399200439453e+00,3.392314910888671875e+00,3.272491931915283203e+00,6.503620147705078125e+00,1.848328018188476562e+01,2.181219863891601562e+01,1.993948745727539062e+01,4.385073661804199219e+00,4.341736793518066406e+00,6.018377780914306641e+00,9.715129852294921875e+00,9.628126144409179688e+00,8.841075897216796875e+00
-3.527179241180419922e+00,-1.083944892883300781e+01,-1.168460559844970703e+01,-8.362586021423339844e+00,-5.461120128631591797e+00,-3.010719537734985352e+00,-4.650783061981201172e+00,-4.838005542755126953e+00,-9.598500251770019531e+00,-4.935193061828613281e+00,-1.479618668556213379e+00,6.699253559112548828e+00,6.248685836791992188e+00,5.159207344055175781e+00,2.231482505798339844e+00,4.975071907043457031e+00,7.628919601440429688e+00,7.554213047027587891e+00,4.013300895690917969e+00,-1.623890697956085205e-01,-1.992033481597900391e+00,-9.606522917747497559e-01,-2.888203382492065430e+00,-2.901288747787475586e+00,-1.139201521873474121e+00,-2.238539218902587891e+00,-5.961479187011718750e+00,-4.756234645843505859e+00,-5.922914981842041016e+00,-6.605077266693115234e+00,-6.354622840881347656e+00,-5.637279510498046875e+00
-9.310197830200195312e+00,-9.186053276062011719e+00,-1.293261051177978516e+01,-1.453816127777099609e+01,-1.149967479705810547e+01,-9.070014953613281250e+00,-1.070073413848876953e+01,-1.153456401824951172e+01,-9.665502548217773438e+00,-6.700642108917236328e+00,-7.259048938751220703e+00,-5.016430377960205078e+00,-1.811138987541198730e+00,-3.135521650314331055e+00,-4.630526542663574219e+00,-3.310969114303588867e+00,1.672675967216491699e+00,2.274576187133789062e+00,8.810712099075317383e-01,-1.490447640419006348e+00,-2.943699359893798828e+00,-3.160027027130126953e+00,-2.806140899658203125e+00,-1.380249214172363281e+01,-1.942464065551757812e+01,-1.812059974670410156e+01,-6.334010124206542969e+00,-5.261230945587158203e+00,-9.248432159423828125e+00,-1.125613021850585938e+01,-1.045603752136230469e+01,-1.028122520446777344e+01
-3.462742805480957031e+00,-1.215885400772094727e+00,8.453603386878967285e-01,-6.738578081130981445e-01,-1.861676812171936035e+00,-4.625090122222900391e+00,-3.282490968704223633e+00,-2.964783191680908203e+00,5.963485836982727051e-01,-7.797809243202209473e-01,-2.426329135894775391e+00,-7.597984790802001953e+00,-4.264694213867187500e+00,-5.255061626434326172e+00,-5.090386390686035156e+00,-6.507501125335693359e+00,-2.308489322662353516e+00,-2.557833433151245117e+00,-3.546709060668945312e+00,-3.071804285049438477e+00,-1.160232782363891602e+00,1.085074022412300110e-01,-4.252998530864715576e-01,4.377185180783271790e-02,-2.872599124908447266e+00,-4.813903197646141052e-02,-2.101450681686401367e+00,-1.555377483367919922e+00,-2.044780254364013672e+00,1.096475958824157715e+00,4.763762950897216797e-01,-2.863619804382324219e+00
7.752094268798828125e+00,1.015922546386718750e+01,1.255774211883544922e+01,1.376704120635986328e+01,1.388879203796386719e+01,8.613503456115722656e+00,1.010933113098144531e+01,1.107254219055175781e+01,5.780999183654785156e+00,9.440452456474304199e-01,3.108876705169677734e+00,3.080303668975830078e+00,2.058231353759765625e+00,6.277923107147216797e+00,1.107002544403076172e+01,8.697894096374511719e+00,5.541611194610595703e+00,4.047255516052246094e+00,5.133385181427001953e+00,6.415534496307373047e+00,9.996455192565917969e+00,1.049036407470703125e+01,4.480584144592285156e+00,1.504407215118408203e+01,2.140926170349121094e+01,1.736741828918457031e+01,2.451287984848022461e+00,5.362339496612548828e+00,8.257835388183593750e+00,8.590517997741699219e+00,6.392980575561523438e+00,6.161141395568847656e+00
2.163181543350219727e+00,4.061313629150390625e+00,2.585240602493286133e+00,2.964484214782714844e+00,5.273552894592285156e+00,4.367861747741699219e+00,3.639264822006225586e+00,4.608517646789550781e+00,8.302974104881286621e-01,-2.898452997207641602e+00,-3.149528980255126953e+00,-2.402953863143920898e+00,-2.827965974807739258e+00,1.225792765617370605e+00,7.126668453216552734e+00,3.570716619491577148e+00,-2.337492227554321289e+00,-2.163630008697509766e+00,4.447071075439453125e+00,5.759079456329345703e+00,6.877097129821777344e+00,5.312879085540771484e+00,-2.945141792297363281e-01,4.903758049011230469e+00,9.380018234252929688e+00,2.873784065246582031e+00,-2.169011592864990234e+00,-6.903536319732666016e-01,3.002873957157135010e-01,-4.472682476043701172e+00,-2.489813089370727539e+00,1.091355800628662109e+00
-1.170635986328125000e+01,-1.528853130340576172e+01,-1.370092391967773438e+01,-1.245219421386718750e+01,-1.353916931152343750e+01,-1.239988803863525391e+01,-1.145271587371826172e+01,-9.738499641418457031e+00,-6.768929004669189453e+00,-8.718416213989257812e+00,-1.134310817718505859e+01,-1.663165092468261719e+01,-1.557517910003662109e+01,-1.635744857788085938e+01,-1.367371082305908203e+01,-1.501048564910888672e+01,-1.459041690826416016e+01,-1.070767211914062500e+01,-5.310369491577148438e+00,-3.951041460037231445e+00,-2.494974374771118164e+00,-3.655110359191894531e+00,-6.865304470062255859e+00,-1.055958461761474609e+01,-8.904937744140625000e+00,-1.100112628936767578e+01,-3.767118930816650391e+00,-6.790341854095458984e+00,-9.940167427062988281e+00,-1.304270362854003906e+01,-7.151605129241943359e+00,-8.625481605529785156e+00
-4.366134166717529297e+00,-4.048249244689941406e+00,6.052963137626647949e-01,2.342156171798706055e+00,-1.724895000457763672e+00,-4.867699146270751953e+00,-1.997875809669494629e+00,5.472851991653442383e-01,-4.224530756473541260e-01,-4.358925819396972656e+00,-3.064311504364013672e+00,-6.136567592620849609e+00,-8.001718521118164062e+00,-6.416281223297119141e+00,-5.390995502471923828e+00,-4.349822044372558594e+00,-3.525433301925659180e+00,6.940107941627502441e-01,1.186530947685241699e+00,4.161757946014404297e+00,8.495860099792480469e+00,7.944383144378662109e+00,2.689799308776855469e+00,-1.548800230026245117e+00,1.708397865295410156e+00,5.220546245574951172e+00,1.103522682189941406e+01,5.482674598693847656e+00,1.630390167236328125e+00,3.435201406478881836e+00,8.144545555114746094e+00,3.026626825332641602e+00
1.042765522003173828e+01,1.911221694946289062e+01,2.052810287475585938e+01,1.920275878906250000e+01,1.599344062805175781e+01,1.133039283752441406e+01,1.255773830413818359e+01,1.442498683929443359e+01,9.098433494567871094e+00,2.420816898345947266e+00,4.996980190277099609e+00,8.794318199157714844e+00,5.938094139099121094e+00,9.362636566162109375e+00,9.117694854736328125e+00,9.023501396179199219e+00,5.032845497131347656e+00,7.054323673248291016e+00,7.366447448730468750e+00,1.063259983062744141e+01,1.359980392456054688e+01,1.353019428253173828e+01,6.399537563323974609e+00,5.976879596710205078e+00,1.194167518615722656e+01,1.780169677734375000e+01,1.743373107910156250e+01,1.264193058013916016e+01,1.289591312408447266e+01,1.585064601898193359e+01,1.723560333251953125e+01,1.998502731323242188e+01
1.136260604858398438e+01,1.258096408843994141e+01,1.095607471466064453e+01,1.047954559326171875e+01,1.088789558410644531e+01,1.092541408538818359e+01,1.066299629211425781e+01,7.293537139892578125e+00,6.433667182922363281e+00,5.026190280914306641e+00,6.711983680725097656e+00,6.050887107849121094e+00,3.460807323455810547e+00,8.951526880264282227e-01,-1.857327938079833984e+00,-1.707140088081359863e+00,-3.462822198867797852e+00,-3.463335037231445312e+00,-3.342240333557128906e+00,-5.121151447296142578e+00,-4.130109310150146484e+00,-1.493837952613830566e+00,-6.653308868408203125e+00,-5.609943270683288574e-01,7.000569343566894531e+00,7.926420211791992188e+00,3.001219511032104492e+00,5.399237155914306641e+00,1.056483650207519531e+01,7.859177589416503906e+00,3.712502479553222656e+00,1.333973503112792969e+01
4.359887599945068359e+00,2.251640319824218750e+00,-1.357679069042205811e-01,-3.020242415368556976e-02,2.270136594772338867e+00,5.137669563293457031e+00,5.375483989715576172e+00,-1.714710831642150879e+00,3.974727392196655273e-01,4.846973419189453125e+00,8.177639007568359375e+00,-4.344766139984130859e-01,-3.237373590469360352e+00,-9.234807014465332031e+00,-1.413312911987304688e+01,-1.289612007141113281e+01,-1.077412796020507812e+01,-1.364744377136230469e+01,-1.647192192077636719e+01,-1.818699264526367188e+01,-1.509257221221923828e+01,-1.180591201782226562e+01,-1.505473041534423828e+01,-5.188786029815673828e+00,5.046103000640869141e-01,-2.132684707641601562e+00,-7.578454494476318359e+00,-8.668198585510253906e-01,5.118641376495361328e+00,2.450543880462646484e+00,-3.125765085220336914e+00,-1.200190424919128418e+00
-6.527873992919921875e+00,-1.904217123985290527e+00,-3.831405401229858398e+00,-5.143245220184326172e+00,-3.826432466506958008e+00,-4.086113929748535156e+00,-3.335011959075927734e+00,-6.372841358184814453e+00,-8.754987716674804688e+00,-9.753653526306152344e+00,-7.124175071716308594e+00,-9.443902015686035156e+00,-8.496385574340820312e+00,-1.059122562408447266e+01,-1.772874832153320312e+01,-1.699529647827148438e+01,-1.468371677398681641e+01,-1.715130043029785156e+01,-1.932170295715332031e+01,-1.556656265258789062e+01,-9.804767608642578125e+00,-1.083013629913330078e+01,-1.512369537353515625e+01,-1.110272312164306641e+01,-6.274882316589355469e+00,-4.797575473785400391e+00,-6.795884132385253906e+00,-9.114956855773925781e+00,-6.171844959259033203e+00,2.207720130681991577e-01,1.132437586784362793e+00,-5.899347305297851562e+00
-5.556576728820800781e+00,-1.533546209335327148e+00,-1.417594671249389648e+00,-1.890747547149658203e+00,-2.084885597229003906e+00,-4.644844532012939453e+00,-3.458357334136962891e+00,-2.545193195343017578e+00,-8.108126640319824219e+00,-1.617554664611816406e+01,-1.436825466156005859e+01,-7.325221538543701172e+00,-6.029772758483886719e+00,-1.181063365936279297e+01,-1.567858791351318359e+01,-1.282314872741699219e+01,-8.588640213012695312e+00,-7.592050075531005859e+00,-7.455045223236083984e+00,-4.273525714874267578e+00,-5.988276004791259766e-01,-3.069160223007202148e+00,-6.482294082641601562e+00,-8.174715042114257812e+00,-3.510230064392089844e+00,1.269837498664855957e+00,5.026937127113342285e-01,-6.096363544464111328e+00,-5.933645725250244141e+00,8.621192574501037598e-01,4.014955997467041016e+00,1.921338677406311035e+00
3.201908111572265625e+00,1.706556081771850586e+00,7.154903411865234375e-01,8.168731927871704102e-01,1.711009263992309570e+00,2.921574831008911133e+00,3.264895439147949219e+00,1.112314939498901367e+00,3.223255574703216553e-01,-3.047743558883666992e+00,-3.762380778789520264e-01,3.369315624237060547e+00,1.128082394599914551e+00,-5.134128093719482422e+00,-1.536084115505218506e-01,3.284338951110839844e+00,3.844812154769897461e+00,4.343411445617675781e+00,2.630134344100952148e+00,-1.213513493537902832e+00,-1.491719841957092285e+00,-1.727327853441238403e-01,-8.493859767913818359e-01,1.294267654418945312e+00,1.326160907745361328e+00,3.742623701691627502e-02,-1.108357191085815430e+00,2.049831390380859375e+00,2.853021860122680664e+00,7.009761929512023926e-01,-1.209350347518920898e+00,4.221299588680267334e-01
-1.189263057708740234e+01,-1.378043079376220703e+01,-1.428973388671875000e+01,-1.434855842590332031e+01,-1.355037307739257812e+01,-1.016707324981689453e+01,-1.038932514190673828e+01,-1.250209236145019531e+01,-8.167582511901855469e+00,-3.472212791442871094e+00,-4.784739017486572266e+00,-1.171509265899658203e+01,-1.163339614868164062e+01,-8.034117698669433594e+00,2.580921649932861328e+00,-1.666578203439712524e-01,-8.548816680908203125e+00,-9.053948402404785156e+00,-1.247237205505371094e+01,-1.568849182128906250e+01,-1.804445838928222656e+01,-1.764183807373046875e+01,-1.659637260437011719e+01,-1.194097995758056641e+01,-1.394634151458740234e+01,-1.591743850708007812e+01,-1.730405616760253906e+01,-1.365924072265625000e+01,-1.270319175720214844e+01,-1.528927707672119141e+01,-1.811436653137207031e+01,-1.917123794555664062e+01
-3.114729309082031250e+01,-3.460316848754882812e+01,-3.322682189941406250e+01,-3.154474067687988281e+01,-2.941479301452636719e+01,-2.889475440979003906e+01,-2.662396621704101562e+01,-2.404553794860839844e+01,-2.276410675048828125e+01,-1.822048377990722656e+01,-1.970211982727050781e+01,-2.749223136901855469e+01,-2.485548591613769531e+01,-1.580521011352539062e+01,-1.738695621490478516e+00,-9.669139862060546875e+00,-1.899366760253906250e+01,-1.511599731445312500e+01,-1.605577278137207031e+01,-1.993712615966796875e+01,-2.303008270263671875e+01,-2.451933860778808594e+01,-2.367958259582519531e+01,-2.556095504760742188e+01,-3.022176742553710938e+01,-2.891537284851074219e+01,-2.864588737487792969e+01,-2.934170913696289062e+01,-3.199652862548828125e+01,-3.181732940673828125e+01,-3.247000885009765625e+01,-3.375529098510742188e+01
-1.403330612182617188e+01,-1.645638275146484375e+01,-1.694967460632324219e+01,-1.669782066345214844e+01,-1.605067634582519531e+01,-1.546271610260009766e+01,-1.403060245513916016e+01,-1.272208690643310547e+01,-1.489304256439208984e+01,-1.352746677398681641e+01,-1.197358417510986328e+01,-1.013016128540039062e+01,-9.822882652282714844e+00,-3.748954296112060547e+00,5.860153675079345703e+00,1.972189664840698242e+00,-8.577873110771179199e-01,1.116282343864440918e+00,6.140548586845397949e-01,-7.035568714141845703e+00,-1.085641098022460938e+01,-1.053247165679931641e+01,-8.601852416992187500e+00,-1.109911823272705078e+01,-1.516232681274414062e+01,-1.490424537658691406e+01,-1.380322837829589844e+01,-1.374548339843750000e+01,-1.640834426879882812e+01,-1.701128005981445312e+01,-1.629353523254394531e+01,-1.637913703918457031e+01
8.455599784851074219e+00,7.864127159118652344e+00,6.287370681762695312e+00,5.643908023834228516e+00,6.353892803192138672e+00,8.121300697326660156e+00,7.369710445404052734e+00,5.588903427124023438e+00,8.019205093383789062e+00,1.025620651245117188e+01,9.989729881286621094e+00,1.172683143615722656e+01,1.184296512603759766e+01,1.019395732879638672e+01,7.114619255065917969e+00,8.992399215698242188e+00,1.093629455566406250e+01,9.292813301086425781e+00,8.598113059997558594e+00,1.022115516662597656e+01,9.060350418090820312e+00,9.151234626770019531e+00,1.158275985717773438e+01,9.772659301757812500e+00,7.128258228302001953e+00,7.070170879364013672e+00,7.343974113464355469e+00,8.744078636169433594e+00,7.826975822448730469e+00,7.188262462615966797e+00,6.503309249877929688e+00,7.084677219390869141e+00
8.244897842407226562e+00,3.109369039535522461e+00,4.951440334320068359e+00,6.099938869476318359e+00,5.089529514312744141e+00,6.348691940307617188e+00,5.885435581207275391e+00,6.401814460754394531e+00,8.774875640869140625e+00,1.090564060211181641e+01,9.986607551574707031e+00,8.158863067626953125e+00,9.287913322448730469e+00,8.453907966613769531e+00,4.042021930217742920e-02,2.563378095626831055e+00,5.783813953399658203e+00,5.038546085357666016e+00,6.189408302307128906e+00,1.008482551574707031e+01,8.025691986083984375e+00,4.770312309265136719e+00,9.250063896179199219e+00,8.644675254821777344e+00,5.504200935363769531e+00,3.678681135177612305e+00,4.891872406005859375e+00,5.597089290618896484e+00,3.811696290969848633e+00,4.165268421173095703e+00,5.310179233551025391e+00,5.585527420043945312e+00
-1.554589557647705078e+01,-1.851949882507324219e+01,-1.955656433105468750e+01,-1.953649902343750000e+01,-1.768682861328125000e+01,-1.558479785919189453e+01,-1.483129405975341797e+01,-1.440046977996826172e+01,-1.315160179138183594e+01,-9.267404556274414062e+00,-9.723814010620117188e+00,-8.840366363525390625e+00,-7.804451465606689453e+00,-3.740354537963867188e+00,-1.047206115722656250e+01,-8.579737663269042969e+00,-5.338199138641357422e+00,-5.584588527679443359e+00,-3.645738840103149414e+00,-6.179518699645996094e+00,-1.119933128356933594e+01,-1.107963657379150391e+01,-7.029416084289550781e+00,-1.043815708160400391e+01,-1.738967323303222656e+01,-1.699814414978027344e+01,-1.601745033264160156e+01,-1.442729091644287109e+01,-1.734298324584960938e+01,-1.858996963500976562e+01,-1.971037673950195312e+01,-1.983325195312500000e+01
-2.013169288635253906e+01,-2.120881652832031250e+01,-2.157291412353515625e+01,-2.123760414123535156e+01,-1.961846351623535156e+01,-1.750975036621093750e+01,-1.727357101440429688e+01,-1.619198799133300781e+01,-1.388768959045410156e+01,-1.118121719360351562e+01,-1.270144176483154297e+01,-1.413185024261474609e+01,-1.196844387054443359e+01,-9.249857902526855469e+00,-1.373630714416503906e+01,-1.279580783843994141e+01,-1.293640232086181641e+01,-1.407653617858886719e+01,-1.429161739349365234e+01,-1.457423400878906250e+01,-1.798805618286132812e+01,-1.568486881256103516e+01,-1.198379707336425781e+01,-1.388942241668701172e+01,-1.972396469116210938e+01,-1.994553184509277344e+01,-1.925470542907714844e+01,-1.845084953308105469e+01,-1.864588356018066406e+01,-2.063380813598632812e+01,-2.334884262084960938e+01,-2.547832870483398438e+01
-5.846415519714355469e+00,-7.535579204559326172e+00,-3.722266197204589844e+00,-2.706434726715087891e+00,-3.769555091857910156e+00,-4.869979381561279297e+00,-4.778885364532470703e+00,-1.774239182472229004e+00,-1.159876108169555664e+00,-4.158571958541870117e-01,-3.359463214874267578e+00,-4.203171253204345703e+00,-2.665837764739990234e+00,-2.286396026611328125e+00,-6.795985221862792969e+00,-5.173494338989257812e+00,-3.745187759399414062e+00,-3.817940473556518555e+00,-3.875386714935302734e+00,-3.498060226440429688e+00,-4.463828563690185547e+00,-4.215197086334228516e+00,-1.441411733627319336e+00,-3.616776704788208008e+00,-5.501112937927246094e+00,-6.455451011657714844e+00,-5.029543876647949219e+00,-5.723319053649902344e+00,-4.444855213165283203e+00,-4.782352447509765625e+00,-5.435730457305908203e+00,-6.555533885955810547e+00
1.554224872589111328e+01,1.740619468688964844e+01,2.048687934875488281e+01,1.977170562744140625e+01,1.749303054809570312e+01,1.366543197631835938e+01,1.334351158142089844e+01,1.670096015930175781e+01,1.070407867431640625e+01,6.373277187347412109e+00,7.111384868621826172e+00,1.560411167144775391e+01,1.489098072052001953e+01,9.253180503845214844e+00,5.863202095031738281e+00,1.016783428192138672e+01,1.427809715270996094e+01,1.342957019805908203e+01,1.396536445617675781e+01,1.396282672882080078e+01,1.395071601867675781e+01,1.593902587890625000e+01,2.086185073852539062e+01,1.284458637237548828e+01,1.141833400726318359e+01,1.321364402770996094e+01,2.040767478942871094e+01,1.812273788452148438e+01,1.984119987487792969e+01,2.046478080749511719e+01,2.148297309875488281e+01,1.972574043273925781e+01
1.572743225097656250e+01,1.814833259582519531e+01,2.104409408569335938e+01,2.080517768859863281e+01,1.855449295043945312e+01,1.650286674499511719e+01,1.513427162170410156e+01,1.758209419250488281e+01,1.686814880371093750e+01,1.527873134613037109e+01,1.265178203582763672e+01,1.668620300292968750e+01,1.747498893737792969e+01,1.408288383483886719e+01,1.147884654998779297e+01,1.315911388397216797e+01,1.477860450744628906e+01,1.279324150085449219e+01,1.084640121459960938e+01,1.340083312988281250e+01,1.516691684722900391e+01,1.802705001831054688e+01,2.087413978576660156e+01,1.670575714111328125e+01,1.682649803161621094e+01,1.593454170227050781e+01,1.889738082885742188e+01,1.726919555664062500e+01,2.065589904785156250e+01,1.998566627502441406e+01,1.894066810607910156e+01,1.779153251647949219e+01
-1.130772304534912109e+01,-1.158095741271972656e+01,-8.931810379028320312e+00,-8.027409553527832031e+00,-9.081657409667968750e+00,-1.003761863708496094e+01,-1.230898952484130859e+01,-1.001585769653320312e+01,-3.081789970397949219e+00,1.078614115715026855e+00,-5.369612693786621094e+00,-9.764734268188476562e+00,-8.229554176330566406e+00,-6.938550472259521484e+00,-9.647709846496582031e+00,-9.938489913940429688e+00,-8.496588706970214844e+00,-8.284864425659179688e+00,-1.011563014984130859e+01,-1.005701732635498047e+01,-8.368199348449707031e+00,-7.164928436279296875e+00,-7.956885814666748047e+00,-6.730900764465332031e+00,-5.483933925628662109e+00,-8.423867225646972656e+00,-1.155957698822021484e+01,-1.210587215423583984e+01,-1.127993774414062500e+01,-1.177626991271972656e+01,-1.278191852569580078e+01,-9.881913185119628906e+00
-1.725755214691162109e+00,2.099841117858886719e+00,-1.114609718322753906e+00,-3.241904735565185547e+00,-1.967136025428771973e+00,-2.833041191101074219e+00,-5.138281345367431641e+00,-3.542546510696411133e+00,-5.929468154907226562e+00,-6.038062572479248047e+00,-7.729358196258544922e+00,-4.264792442321777344e+00,-6.785717487335205078e+00,-5.922174453735351562e+00,-5.632277011871337891e+00,-4.795593738555908203e+00,-3.481082677841186523e+00,-1.021023273468017578e+00,2.706159353256225586e+00,2.184649229049682617e+00,3.225411176681518555e+00,4.005441665649414062e+00,4.163810253143310547e+00,-1.030840158462524414e+00,-4.541809082031250000e+00,-2.582324981689453125e+00,2.130326747894287109e+00,2.039836883544921875e+00,-2.109259605407714844e+00,-1.486425280570983887e+00,8.768824338912963867e-01,1.600856781005859375e-01
2.474031829833984375e+01,2.847867202758789062e+01,2.597486877441406250e+01,2.462501335144042969e+01,2.459895706176757812e+01,2.465470314025878906e+01,1.973821640014648438e+01,1.930099105834960938e+01,1.842464447021484375e+01,1.480803012847900391e+01,1.673462295532226562e+01,2.134330940246582031e+01,2.017537307739257812e+01,1.845643997192382812e+01,2.124019241333007812e+01,2.007303237915039062e+01,2.243870162963867188e+01,2.163480186462402344e+01,2.381730461120605469e+01,2.304272842407226562e+01,2.553712844848632812e+01,2.697541618347167969e+01,2.490868377685546875e+01,2.225250816345214844e+01,2.497047805786132812e+01,2.575946998596191406e+01,2.559110069274902344e+01,2.654523277282714844e+01,2.669722938537597656e+01,2.705673217773437500e+01,2.819273948669433594e+01,3.008857536315917969e+01
1.034532642364501953e+01,1.254923343658447266e+01,1.036926364898681641e+01,1.017593002319335938e+01,1.179814338684082031e+01,1.350446414947509766e+01,8.519087791442871094e+00,8.441756248474121094e+00,9.947745323181152344e+00,1.167294406890869141e+01,8.401423454284667969e+00,6.819003582000732422e+00,7.266789436340332031e+00,8.444799423217773438e+00,1.171252059936523438e+01,9.197348594665527344e+00,9.959646224975585938e+00,9.292795181274414062e+00,1.370453739166259766e+01,1.057671833038330078e+01,1.100242710113525391e+01,1.230124664306640625e+01,8.968637466430664062e+00,8.111815452575683594e+00,1.073969459533691406e+01,1.243081760406494141e+01,1.004315185546875000e+01,1.239630317687988281e+01,1.376156520843505859e+01,1.366801834106445312e+01,1.265835571289062500e+01,1.358642768859863281e+01
-1.447074222564697266e+01,-1.334275245666503906e+01,-1.417078399658203125e+01,-1.412633800506591797e+01,-1.256287765502929688e+01,-1.224066734313964844e+01,-1.442569541931152344e+01,-1.287885761260986328e+01,-9.378846168518066406e+00,-4.710099697113037109e+00,-9.432427406311035156e+00,-1.704616928100585938e+01,-1.609435272216796875e+01,-1.299551105499267578e+01,-1.284951496124267578e+01,-1.520732593536376953e+01,-1.654672241210937500e+01,-1.530600833892822266e+01,-1.086651420593261719e+01,-1.175780296325683594e+01,-1.373819255828857422e+01,-1.456843185424804688e+01,-1.547523498535156250e+01,-1.293654632568359375e+01,-1.243992424011230469e+01,-1.166175842285156250e+01,-1.359016036987304688e+01,-1.243145847320556641e+01,-1.207314395904541016e+01,-1.256404590606689453e+01,-1.354992485046386719e+01,-1.240334892272949219e+01
-1.575096845626831055e-01,2.340559482574462891e+00,1.214236140251159668e+00,3.429019153118133545e-01,3.285233080387115479e-01,-8.719845414161682129e-01,-2.877224922180175781e+00,-2.079968452453613281e+00,-2.095572233200073242e+00,-2.311524868011474609e+00,-2.136674880981445312e+00,-3.664021730422973633e+00,-3.622394084930419922e+00,-3.243157386779785156e+00,-3.107487678527832031e+00,-5.528103351593017578e+00,-6.496927738189697266e+00,-5.747050285339355469e+00,-2.560695171356201172e+00,-4.327370524406433105e-01,-1.769634842872619629e+00,-3.687884092330932617e+00,-3.266435384750366211e+00,5.786099433898925781e-01,-5.271154642105102539e-01,2.524535953998565674e-01,1.333621382713317871e+00,1.419237852096557617e+00,6.194686293601989746e-01,1.686166644096374512e+00,1.859055280685424805e+00,1.899324536323547363e+00
2.187531280517578125e+01,2.391418647766113281e+01,2.578537559509277344e+01,2.449256896972656250e+01,2.064907836914062500e+01,1.837011528015136719e+01,1.747432899475097656e+01,1.913915824890136719e+01,1.874781417846679688e+01,1.633541488647460938e+01,1.657956504821777344e+01,2.027364349365234375e+01,1.834993934631347656e+01,1.729121589660644531e+01,1.923456192016601562e+01,1.648151588439941406e+01,1.652812767028808594e+01,1.598215770721435547e+01,1.831860160827636719e+01,2.254975509643554688e+01,2.260810089111328125e+01,1.996827697753906250e+01,2.043949317932128906e+01,1.990238571166992188e+01,1.945398521423339844e+01,2.053423118591308594e+01,2.612450408935546875e+01,2.160293197631835938e+01,2.240576934814453125e+01,2.458250045776367188e+01,2.619956207275390625e+01,2.813040542602539062e+01
1.324891662597656250e+01,1.644982910156250000e+01,1.502557945251464844e+01,1.355394458770751953e+01,1.223696899414062500e+01,1.007654285430908203e+01,8.028036117553710938e+00,8.249804496765136719e+00,9.956136703491210938e+00,1.144088459014892578e+01,1.104617977142333984e+01,8.824517250061035156e+00,8.673163414001464844e+00,6.806195735931396484e+00,7.924830913543701172e+00,4.728400707244873047e+00,3.278915882110595703e+00,3.576794624328613281e+00,6.826059341430664062e+00,1.139332199096679688e+01,9.686299324035644531e+00,5.718772411346435547e+00,6.690696239471435547e+00,1.212869739532470703e+01,1.321935367584228516e+01,1.379514980316162109e+01,1.489217567443847656e+01,1.415864562988281250e+01,1.416259670257568359e+01,1.582502555847167969e+01,1.719469451904296875e+01,1.838934516906738281e+01
1.076311779022216797e+01,1.724512100219726562e+01,1.491431999206542969e+01,1.322772979736328125e+01,1.361419773101806641e+01,1.305696678161621094e+01,1.206590080261230469e+01,7.860428810119628906e+00,3.408853054046630859e+00,1.176474452018737793e+00,5.024744033813476562e+00,5.735900402069091797e+00,3.935483932495117188e+00,3.515349149703979492e+00,1.786635160446166992e+00,6.171303391456604004e-01,-8.691725730895996094e-01,-9.619032144546508789e-01,-2.501774787902832031e+00,1.261188268661499023e+00,9.134794473648071289e-01,1.367525935173034668e+00,4.923013687133789062e+00,1.356850624084472656e+01,1.311820411682128906e+01,1.272549819946289062e+01,1.190498638153076172e+01,1.415017127990722656e+01,1.473556137084960938e+01,1.415898418426513672e+01,1.305116081237792969e+01,1.279979515075683594e+01
1.450093746185302734e+01,1.867645072937011719e+01,1.840619087219238281e+01,1.692865180969238281e+01,1.610988807678222656e+01,1.762664794921875000e+01,1.784128189086914062e+01,1.515259265899658203e+01,1.189082813262939453e+01,7.608362197875976562e+00,1.153649425506591797e+01,1.617938804626464844e+01,1.359657669067382812e+01,1.493933868408203125e+01,1.638475799560546875e+01,1.802402496337890625e+01,1.540597248077392578e+01,1.727341079711914062e+01,1.659314346313476562e+01,1.723172569274902344e+01,1.674504661560058594e+01,1.548358535766601562e+01,1.684745216369628906e+01,1.368870925903320312e+01,1.383527755737304688e+01,1.542553043365478516e+01,1.774188613891601562e+01,1.653072547912597656e+01,1.851118850708007812e+01,1.986001586914062500e+01,2.012610054016113281e+01,1.752502632141113281e+01
3.737774372100830078e+00,7.669482380151748657e-02,7.351260185241699219e-01,-8.557378053665161133e-01,-1.760706186294555664e+00,1.391560792922973633e+00,2.783151865005493164e+00,1.413508296012878418e+00,3.702047109603881836e+00,6.559197425842285156e+00,8.122180938720703125e+00,9.669921875000000000e+00,8.995696067810058594e+00,6.634103775024414062e+00,8.358681678771972656e+00,1.209380149841308594e+01,1.203849983215332031e+01,1.188048744201660156e+01,1.091845226287841797e+01,8.604084014892578125e+00,8.884469985961914062e+00,9.084076881408691406e+00,7.128479003906250000e+00,-5.454500675201416016e+00,-5.895779609680175781e+00,-1.304885506629943848e+00,3.424710512161254883e+00,1.247090101242065430e+00,8.507017493247985840e-01,2.628165245056152344e+00,5.121829509735107422e+00,4.462330818176269531e+00
-3.994043588638305664e+00,-9.532250404357910156e+00,-9.599949836730957031e+00,-1.057976627349853516e+01,-8.888353347778320312e+00,-5.435815811157226562e+00,-2.734039545059204102e+00,-7.417101860046386719e+00,-8.832118988037109375e+00,-4.125808715820312500e+00,1.486950516700744629e+00,2.296113729476928711e+00,1.567928194999694824e+00,-2.109067201614379883e+00,-2.420215845108032227e+00,1.884709835052490234e+00,4.647877216339111328e+00,4.177922725677490234e+00,-2.753473520278930664e+00,-8.522603034973144531e+00,-6.293993949890136719e+00,-6.330428719520568848e-01,-4.426981210708618164e-01,-1.013870239257812500e+01,-1.291247177124023438e+01,-1.121468257904052734e+01,-9.419808387756347656e+00,-7.078787803649902344e+00,-6.627323150634765625e+00,-8.856691360473632812e+00,-1.115804195404052734e+01,-8.488417625427246094e+00
-2.243932008743286133e+00,-5.259697437286376953e+00,-5.459877967834472656e+00,-3.118836641311645508e+00,-3.330881595611572266e-01,1.469445824623107910e+00,3.958062171936035156e+00,6.241507530212402344e-01,-3.479686498641967773e+00,-3.505361557006835938e+00,1.736525297164916992e+00,6.789873123168945312e+00,5.501079559326171875e+00,3.177922010421752930e+00,3.980712413787841797e+00,8.543467521667480469e+00,1.214424037933349609e+01,9.738995552062988281e+00,2.113576829433441162e-01,-5.786312103271484375e+00,-4.074841976165771484e+00,3.146569803357124329e-02,6.997702121734619141e-01,2.222584009170532227e+00,2.177199363708496094e+00,-3.509049415588378906e+00,-6.112586498260498047e+00,-2.531157016754150391e+00,-5.503275990486145020e-01,-3.170104742050170898e+00,-7.544485569000244141e+00,-7.827877521514892578e+00
-1.112209415435791016e+01,-1.493496894836425781e+01,-1.101140689849853516e+01,-8.517765998840332031e+00,-8.906071662902832031e+00,-9.729606628417968750e+00,-6.680670261383056641e+00,-5.221425056457519531e+00,-3.992466688156127930e+00,-6.282291412353515625e+00,-8.487283706665039062e+00,-4.237876415252685547e+00,-3.024499177932739258e+00,-6.321228504180908203e+00,-5.095083713531494141e+00,-2.259412527084350586e+00,2.702864706516265869e-01,-4.623119831085205078e+00,-9.683989524841308594e+00,-9.694691658020019531e+00,-9.784438133239746094e+00,-8.702676773071289062e+00,-1.117481327056884766e+01,-1.962515592575073242e+00,2.398626565933227539e+00,-3.868119716644287109e+00,-1.092747211456298828e+01,-1.200376892089843750e+01,-1.394326686859130859e+01,-1.406553840637207031e+01,-1.229067420959472656e+01,-1.310709190368652344e+01
-1.189719963073730469e+01,-2.016477012634277344e+01,-1.475837039947509766e+01,-1.124483299255371094e+01,-1.144843482971191406e+01,-1.314919662475585938e+01,-9.084094047546386719e+00,-7.754568099975585938e+00,-5.968344688415527344e+00,-9.591019630432128906e+00,-1.211460685729980469e+01,-1.275370025634765625e+01,-9.855419158935546875e+00,-1.108596897125244141e+01,-1.182423305511474609e+01,-1.517513561248779297e+01,-1.555963134765625000e+01,-1.609123039245605469e+01,-1.555659675598144531e+01,-1.558420944213867188e+01,-1.393197250366210938e+01,-1.041635131835937500e+01,-1.260266304016113281e+01,-5.845762252807617188e+00,-3.452142715454101562e+00,-5.889630794525146484e+00,-1.364969825744628906e+01,-1.433851623535156250e+01,-1.791691017150878906e+01,-2.015082550048828125e+01,-1.848720932006835938e+01,-1.716368484497070312e+01
1.003071403503417969e+01,6.623393058776855469e+00,1.003914737701416016e+01,1.450040626525878906e+01,1.410150432586669922e+01,1.157041358947753906e+01,1.427540874481201172e+01,1.508981704711914062e+01,1.434669017791748047e+01,9.329077720642089844e+00,7.714838981628417969e+00,5.120537281036376953e+00,7.629104137420654297e+00,1.101107025146484375e+01,1.109345054626464844e+01,2.934091806411743164e+00,-1.454197615385055542e-01,2.364871740341186523e+00,6.495690822601318359e+00,5.972486972808837891e+00,8.541700363159179688e+00,6.825417041778564453e+00,5.111623764038085938e+00,1.072138977050781250e+01,1.546482563018798828e+01,1.442397308349609375e+01,8.739379882812500000e+00,9.427011489868164062e+00,8.320162773132324219e+00,6.827650070190429688e+00,7.788373947143554688e+00,7.895370483398437500e+00
8.688864707946777344e+00,8.276764869689941406e+00,1.176199626922607422e+01,1.375092506408691406e+01,1.204443645477294922e+01,1.023953628540039062e+01,1.161885833740234375e+01,1.156384181976318359e+01,1.159087276458740234e+01,8.233988761901855469e+00,7.477951049804687500e+00,6.779463768005371094e+00,8.072054862976074219e+00,8.693141937255859375e+00,9.340507507324218750e+00,6.730157852172851562e+00,6.606623172760009766e+00,5.528504848480224609e+00,6.916307926177978516e+00,8.534668922424316406e+00,1.144663143157958984e+01,4.609379291534423828e+00,1.796752810478210449e+00,1.072157478332519531e+01,1.862253761291503906e+01,1.689748001098632812e+01,1.043591499328613281e+01,9.060568809509277344e+00,7.739033699035644531e+00,8.395681381225585938e+00,1.197414302825927734e+01,1.214795303344726562e+01
-1.667323684692382812e+01,-1.914449501037597656e+01,-1.668534469604492188e+01,-1.603067398071289062e+01,-1.677022933959960938e+01,-1.670703697204589844e+01,-1.468167400360107422e+01,-1.421260261535644531e+01,-1.360211372375488281e+01,-1.451932716369628906e+01,-1.573472118377685547e+01,-1.760074806213378906e+01,-1.617211532592773438e+01,-1.521317672729492188e+01,-1.607757759094238281e+01,-1.609739112854003906e+01,-1.546021461486816406e+01,-1.607078552246093750e+01,-1.586967086791992188e+01,-1.482891082763671875e+01,-1.351197338104248047e+01,-1.527828311920166016e+01,-1.531632232666015625e+01,-6.902923583984375000e+00,-5.242658615112304688e+00,-9.685898780822753906e+00,-1.505610847473144531e+01,-1.430996227264404297e+01,-1.716298675537109375e+01,-1.839559364318847656e+01,-1.711198425292968750e+01,-1.752156448364257812e+01
-6.130911827087402344e+00,-4.157517433166503906e+00,-5.992938518524169922e+00,-7.397527217864990234e+00,-7.292069911956787109e+00,-6.733433246612548828e+00,-6.633057117462158203e+00,-7.458615303039550781e+00,-8.992484092712402344e+00,-1.196427917480468750e+01,-1.187291908264160156e+01,-9.600581169128417969e+00,-1.059146213531494141e+01,-1.230039787292480469e+01,-1.204093074798583984e+01,-1.086667633056640625e+01,-7.792928218841552734e+00,-6.723539352416992188e+00,-5.845692634582519531e+00,-4.197155475616455078e+00,-1.689384579658508301e+00,-4.872503280639648438e+00,-2.290771722793579102e+00,4.831209182739257812e+00,7.069217205047607422e+00,2.349746942520141602e+00,-2.223061323165893555e+00,-2.033483028411865234e+00,-3.559439420700073242e+00,-3.905998468399047852e+00,-3.356110095977783203e+00,-1.165494084358215332e+00
1.809114074707031250e+01,2.178201103210449219e+01,2.254498672485351562e+01,2.060107803344726562e+01,1.708064460754394531e+01,1.621245574951171875e+01,1.521787071228027344e+01,1.369218730926513672e+01,1.305127048492431641e+01,1.083069324493408203e+01,1.124516105651855469e+01,1.380495452880859375e+01,1.329289054870605469e+01,1.155658721923828125e+01,1.263764476776123047e+01,1.254330253601074219e+01,1.481359195709228516e+01,1.246574878692626953e+01,1.297166633605957031e+01,1.757292175292968750e+01,2.192896461486816406e+01,1.517933464050292969e+01,1.499822139739990234e+01,2.372576141357421875e+01,3.039945983886718750e+01,2.663781166076660156e+01,2.215318107604980469e+01,2.145775032043457031e+01,1.952262878417968750e+01,2.023184967041015625e+01,2.490009498596191406e+01,2.650147247314453125e+01
-4.372633934020996094e+00,-5.564892768859863281e+00,-5.294979095458984375e+00,-6.239677429199218750e+00,-8.697979927062988281e+00,-8.077282905578613281e+00,-7.402780532836914062e+00,-8.158711433410644531e+00,-4.514314174652099609e+00,-3.149807691574096680e+00,-4.842007160186767578e+00,-6.924078464508056641e+00,-5.772710800170898438e+00,-8.419955253601074219e+00,-9.365237236022949219e+00,-5.676934242248535156e+00,-1.891597390174865723e+00,-4.309959888458251953e+00,-5.350158214569091797e+00,-2.764322519302368164e+00,-3.586831688880920410e-01,-3.124072551727294922e+00,-4.248420715332031250e+00,5.784020423889160156e+00,9.957698822021484375e+00,3.777366876602172852e+00,-2.625467061996459961e+00,-1.389301180839538574e+00,-4.026875972747802734e+00,-4.676837921142578125e+00,-1.564887285232543945e+00,-3.431457042694091797e+00
-1.957326316833496094e+01,-1.573095321655273438e+01,-2.033104133605957031e+01,-2.043847274780273438e+01,-1.934130668640136719e+01,-1.841324806213378906e+01,-1.835029602050781250e+01,-1.786317443847656250e+01,-1.989185333251953125e+01,-2.151835060119628906e+01,-2.135107994079589844e+01,-2.207204437255859375e+01,-2.171324539184570312e+01,-2.009382629394531250e+01,-2.131276321411132812e+01,-2.142402839660644531e+01,-2.008811950683593750e+01,-1.983806991577148438e+01,-1.842821502685546875e+01,-1.938387680053710938e+01,-2.017984008789062500e+01,-1.823785972595214844e+01,-1.567582035064697266e+01,-9.689197540283203125e+00,-1.056016921997070312e+01,-1.526655483245849609e+01,-2.046095466613769531e+01,-1.875550079345703125e+01,-1.646966934204101562e+01,-1.752429008483886719e+01,-2.032758522033691406e+01,-1.830709266662597656e+01
1.186845111846923828e+01,1.593407440185546875e+01,1.236685371398925781e+01,1.098097896575927734e+01,1.216154479980468750e+01,1.299115276336669922e+01,1.157035160064697266e+01,9.767992019653320312e+00,4.305960178375244141e+00,1.954646706581115723e+00,5.876571178436279297e+00,9.115558624267578125e+00,7.373339176177978516e+00,5.525123596191406250e+00,5.633710384368896484e+00,5.826945304870605469e+00,7.678992748260498047e+00,7.647539138793945312e+00,8.453969955444335938e+00,8.789765357971191406e+00,1.091914558410644531e+01,1.060347366333007812e+01,1.231592082977294922e+01,1.355494689941406250e+01,1.423831748962402344e+01,1.240093612670898438e+01,1.126974391937255859e+01,1.226179313659667969e+01,1.461421680450439453e+01,1.394605636596679688e+01,1.238069820404052734e+01,1.419117641448974609e+01
-3.470039069652557373e-01,-2.260643243789672852e+00,7.577566504478454590e-01,5.420201420783996582e-01,-2.867867946624755859e-01,8.131292648613452911e-03,-8.109641075134277344e-01,-1.888616204261779785e+00,-1.844271659851074219e+00,-2.455758333206176758e+00,-2.271370887756347656e+00,5.346322655677795410e-01,2.238860726356506348e-01,-3.334892272949218750e+00,-3.753265857696533203e+00,-1.292768120765686035e+00,1.020227432250976562e+00,1.051002621650695801e+00,-2.917047739028930664e-01,-1.636043339967727661e-01,4.634734392166137695e-01,-9.071578979492187500e-01,-1.400653362274169922e+00,-2.200406640768051147e-01,1.179082274436950684e+00,2.754973411560058594e+00,1.487936973571777344e+00,4.549732506275177002e-01,-1.940115809440612793e+00,-1.983977913856506348e+00,-5.606983304023742676e-01,1.403317451477050781e-01
-2.174363517761230469e+01,-2.150116539001464844e+01,-2.196970367431640625e+01,-2.240628623962402344e+01,-2.115849304199218750e+01,-1.972112274169921875e+01,-1.992095947265625000e+01,-2.012442779541015625e+01,-2.194503211975097656e+01,-2.165084648132324219e+01,-2.067606163024902344e+01,-2.176718711853027344e+01,-2.174131774902343750e+01,-2.169377136230468750e+01,-2.360352706909179688e+01,-2.124755668640136719e+01,-2.000609588623046875e+01,-1.857253837585449219e+01,-1.781761741638183594e+01,-1.892895889282226562e+01,-2.012696075439453125e+01,-2.027055549621582031e+01,-1.930956459045410156e+01,-1.672278976440429688e+01,-1.873344612121582031e+01,-1.945763206481933594e+01,-2.168185424804687500e+01,-2.088691520690917969e+01,-2.077688217163085938e+01,-2.163908576965332031e+01,-2.358332633972167969e+01,-2.332793617248535156e+01
-4.343195438385009766e+00,-1.555624365806579590e+00,-4.186916351318359375e+00,-5.871369361877441406e+00,-5.618288516998291016e+00,-4.439605712890625000e+00,-5.876637458801269531e+00,-7.280961513519287109e+00,-9.688775062561035156e+00,-9.863111495971679688e+00,-7.979924201965332031e+00,-5.648062229156494141e+00,-6.704306125640869141e+00,-9.377077102661132812e+00,-1.037454223632812500e+01,-7.304382801055908203e+00,-4.385088443756103516e+00,-3.831943035125732422e+00,-3.988086223602294922e+00,-4.049871921539306641e+00,-4.027282714843750000e+00,-3.047360181808471680e+00,-1.721063733100891113e+00,2.179764211177825928e-01,-7.219203114509582520e-01,-2.661494731903076172e+00,-4.873717308044433594e+00,-3.795431375503540039e+00,-2.521320581436157227e+00,-3.255150556564331055e+00,-4.713853359222412109e+00,-3.170744180679321289e+00
2.193775939941406250e+01,2.453975486755371094e+01,2.250884819030761719e+01,2.034573554992675781e+01,1.928534507751464844e+01,1.998962783813476562e+01,1.684716606140136719e+01,1.363463592529296875e+01,1.063915157318115234e+01,9.928414344787597656e+00,1.301000499725341797e+01,2.025930404663085938e+01,1.757463836669921875e+01,1.055527782440185547e+01,1.102932262420654297e+01,1.485589790344238281e+01,2.013488578796386719e+01,1.946111297607421875e+01,1.768446922302246094e+01,1.853350448608398438e+01,2.039788055419921875e+01,2.208782577514648438e+01,2.357331848144531250e+01,2.352407455444335938e+01,2.462401390075683594e+01,2.273139190673828125e+01,2.153075408935546875e+01,2.210228157043457031e+01,2.390031051635742188e+01,2.360231590270996094e+01,2.365003013610839844e+01,2.529570770263671875e+01
9.502205848693847656e+00,1.413627719879150391e+01,1.049815082550048828e+01,7.837151527404785156e+00,7.525181770324707031e+00,8.764614105224609375e+00,5.893935203552246094e+00,3.070928096771240234e+00,1.852956712245941162e-01,5.540511608123779297e-01,3.425078392028808594e+00,8.799476623535156250e+00,6.344868659973144531e+00,3.166611492633819580e-01,-3.288171440362930298e-02,4.355596542358398438e+00,9.472832679748535156e+00,9.588982582092285156e+00,8.252707481384277344e+00,8.037197113037109375e+00,8.617725372314453125e+00,1.062055015563964844e+01,1.242883586883544922e+01,1.241197395324707031e+01,1.191697883605957031e+01,1.017926692962646484e+01,8.973268508911132812e+00,9.761915206909179688e+00,1.165309810638427734e+01,1.114839649200439453e+01,1.027905082702636719e+01,1.267021751403808594e+01
1.701291275024414062e+01,1.733107757568359375e+01,1.220914268493652344e+01,1.047317886352539062e+01,1.286905384063720703e+01,1.485124301910400391e+01,1.244216632843017578e+01,1.106375694274902344e+01,7.883167743682861328e+00,5.926670074462890625e+00,8.860659599304199219e+00,1.124491310119628906e+01,1.060702133178710938e+01,1.154502677917480469e+01,1.304687690734863281e+01,9.328077316284179688e+00,6.062021732330322266e+00,4.915740013122558594e+00,6.281411170959472656e+00,9.590146064758300781e+00,9.712766647338867188e+00,8.117137908935546875e+00,8.912887573242187500e+00,5.080385684967041016e+00,4.731644630432128906e+00,9.804543495178222656e+00,1.460778331756591797e+01,1.525349235534667969e+01,1.588224029541015625e+01,1.531984043121337891e+01,1.222577285766601562e+01,1.470355033874511719e+01
3.177309036254882812e+00,-9.487189054489135742e-01,-4.454117774963378906e+00,-2.689477205276489258e+00,3.156746387481689453e+00,7.594899177551269531e+00,5.215236663818359375e+00,3.775199890136718750e+00,4.448544979095458984e+00,7.988513946533203125e+00,8.808835983276367188e+00,3.336480140686035156e+00,2.645344495773315430e+00,4.875027656555175781e+00,6.860476493835449219e+00,-7.185028791427612305e-01,-3.222639560699462891e+00,-6.416203498840332031e+00,-4.795383930206298828e+00,-6.732107162475585938e+00,-9.329380989074707031e+00,-1.281860637664794922e+01,-9.873084068298339844e+00,-1.474994850158691406e+01,-1.435801887512207031e+01,-5.098364830017089844e+00,3.708027601242065430e+00,2.140462398529052734e+00,-1.429030001163482666e-01,-4.272513389587402344e-01,-2.769142866134643555e+00,-4.357494831085205078e+00
-2.269403839111328125e+01,-3.128257369995117188e+01,-3.258932113647460938e+01,-3.070458030700683594e+01,-2.580863380432128906e+01,-2.272647857666015625e+01,-2.134101867675781250e+01,-2.253971672058105469e+01,-2.188109779357910156e+01,-1.761658859252929688e+01,-1.797395133972167969e+01,-2.478062629699707031e+01,-2.402100753784179688e+01,-1.883617591857910156e+01,-1.741102027893066406e+01,-2.482988739013671875e+01,-3.031770515441894531e+01,-2.892354774475097656e+01,-2.523671150207519531e+01,-2.381949424743652344e+01,-2.869710922241210938e+01,-3.193878936767578125e+01,-3.153095626831054688e+01,-2.864561462402343750e+01,-3.108125495910644531e+01,-2.948654174804687500e+01,-2.762184715270996094e+01,-2.587566757202148438e+01,-2.717686080932617188e+01,-2.978926467895507812e+01,-3.432414245605468750e+01,-3.581956863403320312e+01
-9.003435134887695312e+00,-1.948071098327636719e+01,-2.011953544616699219e+01,-1.860862731933593750e+01,-1.546029472351074219e+01,-1.366447639465332031e+01,-1.136662292480468750e+01,-1.444015216827392578e+01,-1.345705223083496094e+01,-8.787074089050292969e+00,-9.241657257080078125e+00,-1.273839092254638672e+01,-1.264311027526855469e+01,-9.850841522216796875e+00,-6.561014175415039062e+00,-1.471380233764648438e+01,-1.984292984008789062e+01,-1.756289100646972656e+01,-1.416603469848632812e+01,-9.686536788940429688e+00,-1.400308799743652344e+01,-1.706300163269042969e+01,-1.804522705078125000e+01,-1.141885566711425781e+01,-1.235085201263427734e+01,-1.569162654876708984e+01,-1.708685874938964844e+01,-1.402006816864013672e+01,-1.478026199340820312e+01,-1.846225929260253906e+01,-2.225103759765625000e+01,-2.285672760009765625e+01
1.877747154235839844e+01,1.227362537384033203e+01,8.153429031372070312e+00,9.098842620849609375e+00,1.310272026062011719e+01,1.475450325012207031e+01,1.297487545013427734e+01,9.659153938293457031e+00,1.020229625701904297e+01,1.154310989379882812e+01,1.267706298828125000e+01,1.320974445343017578e+01,1.256767463684082031e+01,1.177906131744384766e+01,1.508779525756835938e+01,9.681836128234863281e+00,6.460901260375976562e+00,6.588312149047851562e+00,7.203541278839111328e+00,9.797800064086914062e+00,9.554921150207519531e+00,8.794527053833007812e+00,9.062658309936523438e+00,1.138393020629882812e+01,1.152453517913818359e+01,1.164198970794677734e+01,1.225118064880371094e+01,1.297790431976318359e+01,1.346786880493164062e+01,1.195397853851318359e+01,8.598149299621582031e+00,7.948468208312988281e+00
6.445910930633544922e+00,-2.241288870573043823e-01,-5.339145660400390625e+00,-3.508136749267578125e+00,2.630253314971923828e+00,4.783672809600830078e+00,2.115346670150756836e+00,1.549565494060516357e-01,1.160370826721191406e+00,1.770419359207153320e+00,2.709949493408203125e+00,6.873615980148315430e-01,1.039602160453796387e+00,1.890500783920288086e+00,3.567457914352416992e+00,-2.075363546609878540e-01,-4.274206161499023438e+00,-3.561264038085937500e+00,-3.189249515533447266e+00,-3.167087554931640625e+00,-3.236678123474121094e+00,-2.772943496704101562e+00,-1.853581309318542480e+00,-1.999032497406005859e-02,-2.066391468048095703e+00,-2.935987412929534912e-01,1.603303700685501099e-01,4.003361612558364868e-02,9.878414273262023926e-01,2.143611609935760498e-01,-4.774544239044189453e+00,-6.077766418457031250e+00
-1.981503677368164062e+01,-2.061066246032714844e+01,-2.396785163879394531e+01,-2.341333007812500000e+01,-1.940382575988769531e+01,-1.946768379211425781e+01,-2.199768638610839844e+01,-2.242981338500976562e+01,-2.054811286926269531e+01,-1.918890571594238281e+01,-1.929480743408203125e+01,-2.178102874755859375e+01,-2.044696235656738281e+01,-1.982386970520019531e+01,-1.992758750915527344e+01,-1.931641769409179688e+01,-2.185657691955566406e+01,-2.063692283630371094e+01,-2.013525390625000000e+01,-2.298099899291992188e+01,-2.340951538085937500e+01,-2.240989303588867188e+01,-2.227796363830566406e+01,-2.062017631530761719e+01,-2.214372062683105469e+01,-2.247253799438476562e+01,-2.643520164489746094e+01,-2.692256355285644531e+01,-2.596930503845214844e+01,-2.428636550903320312e+01,-2.443357086181640625e+01,-2.519557189941406250e+01
-6.006634235382080078e+00,2.243731915950775146e-02,-3.689243316650390625e+00,-5.231617927551269531e+00,-4.185107231140136719e+00,-6.689459323883056641e+00,-1.120808124542236328e+01,-1.219326972961425781e+01,-1.024361515045166016e+01,-1.012950134277343750e+01,-9.721545219421386719e+00,-6.839951038360595703e+00,-6.232810974121093750e+00,-1.023916149139404297e+01,-9.938403129577636719e+00,-5.496124267578125000e+00,-4.806674480438232422e+00,-4.983180522918701172e+00,-6.322543621063232422e+00,-9.944392204284667969e+00,-7.630045413970947266e+00,-5.402181625366210938e+00,-5.780569076538085938e+00,-6.043615818023681641e+00,-4.395304203033447266e+00,-6.265257835388183594e+00,-1.275358772277832031e+01,-1.424878978729248047e+01,-1.256656551361083984e+01,-8.326851844787597656e+00,-3.217334508895874023e+00,-1.847024440765380859e+00
4.154704570770263672e+00,7.710322856903076172e+00,5.360479354858398438e+00,4.167364120483398438e+00,4.009490013122558594e+00,6.304150581359863281e+00,4.997900962829589844e+00,2.422214984893798828e+00,3.288915872573852539e+00,2.703996181488037109e+00,3.059024572372436523e+00,6.989344120025634766e+00,7.718558788299560547e+00,4.936469078063964844e+00,6.393840789794921875e+00,6.841442584991455078e+00,6.968786239624023438e+00,4.447809696197509766e+00,3.953095197677612305e+00,1.845912098884582520e+00,1.546491384506225586e+00,1.245164871215820312e+00,8.210194110870361328e-01,4.147343635559082031e+00,5.610785007476806641e+00,3.114726305007934570e+00,-3.886328697204589844e+00,-3.522620439529418945e+00,-1.633155584335327148e+00,1.034535527229309082e+00,5.097477912902832031e+00,6.432095050811767578e+00
-1.502981281280517578e+01,-1.578467464447021484e+01,-1.817821121215820312e+01,-1.652455520629882812e+01,-1.478293323516845703e+01,-1.194819641113281250e+01,-1.159880352020263672e+01,-1.345201873779296875e+01,-1.266248798370361328e+01,-1.249505138397216797e+01,-1.337234306335449219e+01,-1.203194999694824219e+01,-1.113010692596435547e+01,-9.516345024108886719e+00,-9.249149322509765625e+00,-1.088251018524169922e+01,-1.264002609252929688e+01,-1.532738113403320312e+01,-1.382629585266113281e+01,-1.531781959533691406e+01,-1.681271553039550781e+01,-1.638418197631835938e+01,-1.497923946380615234e+01,-1.633541488647460938e+01,-1.839629554748535156e+01,-1.555154323577880859e+01,-1.501127052307128906e+01,-1.544247913360595703e+01,-1.511570453643798828e+01,-1.683215141296386719e+01,-1.795826339721679688e+01,-1.620649337768554688e+01
-4.331400871276855469e+00,-8.429999351501464844e+00,-5.700882911682128906e+00,-2.701416492462158203e+00,-2.349970817565917969e+00,-3.813571214675903320e+00,-4.841201305389404297e+00,-7.223795890808105469e+00,-7.824081420898437500e+00,-9.361646652221679688e+00,-7.101806640625000000e+00,-3.647412776947021484e+00,-3.327467441558837891e+00,-1.012255311012268066e+00,-9.510200023651123047e-01,-1.036093473434448242e+00,-4.033081531524658203e+00,-4.284535884857177734e+00,-4.582066535949707031e+00,-4.709035396575927734e+00,-4.626304149627685547e+00,-2.439533472061157227e+00,-2.630674362182617188e+00,-4.764972209930419922e+00,-6.869516849517822266e+00,-4.167599201202392578e+00,-4.580414772033691406e+00,-5.624002933502197266e+00,-4.487914085388183594e+00,-7.480560302734375000e+00,-7.015001296997070312e+00,-5.753747463226318359e+00
1.611497688293457031e+01,1.130484867095947266e+01,1.580410003662109375e+01,1.794390487670898438e+01,1.549152565002441406e+01,1.348445796966552734e+01,1.353430843353271484e+01,1.599520301818847656e+01,1.561520671844482422e+01,1.339003658294677734e+01,1.320872974395751953e+01,1.243038272857666016e+01,1.163840389251708984e+01,1.950949478149414062e+01,2.196380424499511719e+01,2.051753807067871094e+01,1.367505645751953125e+01,1.499820232391357422e+01,1.519467830657958984e+01,1.486309719085693359e+01,1.443545627593994141e+01,1.438696479797363281e+01,1.577457523345947266e+01,1.360854530334472656e+01,1.481894779205322266e+01,1.667071914672851562e+01,1.642864418029785156e+01,1.610068893432617188e+01,1.748982429504394531e+01,1.641248130798339844e+01,1.930320167541503906e+01,1.700148773193359375e+01
2.555557966232299805e+00,-2.414799213409423828e+00,1.230031371116638184e+00,3.305679559707641602e+00,1.026289224624633789e+00,7.893690466880798340e-01,1.951106429100036621e+00,5.350202083587646484e+00,6.561259746551513672e+00,7.207531929016113281e+00,4.130331993103027344e+00,-4.702203571796417236e-01,-1.085256814956665039e+00,1.026835536956787109e+01,1.336380767822265625e+01,8.277024269104003906e+00,1.522048950195312500e+00,3.992964267730712891e+00,4.589532852172851562e+00,9.332479476928710938e+00,9.278375625610351562e+00,5.830772876739501953e+00,4.091270923614501953e+00,6.196384429931640625e+00,9.131519317626953125e+00,1.036137580871582031e+01,1.026508045196533203e+01,1.091087532043457031e+01,7.097340583801269531e+00,4.223560810089111328e+00,5.168100357055664062e+00,1.660313963890075684e+00
-2.570467758178710938e+01,-2.580649185180664062e+01,-2.269836044311523438e+01,-2.198020744323730469e+01,-2.361160659790039062e+01,-2.365755462646484375e+01,-2.211669540405273438e+01,-2.096263885498046875e+01,-1.939813041687011719e+01,-1.824336051940917969e+01,-2.040220260620117188e+01,-2.377546882629394531e+01,-2.241813659667968750e+01,-1.386297893524169922e+01,-9.475470542907714844e+00,-1.357160377502441406e+01,-1.890966033935546875e+01,-1.683617591857910156e+01,-1.595481491088867188e+01,-1.029553604125976562e+01,-1.255644035339355469e+01,-1.621596908569335938e+01,-2.002305984497070312e+01,-1.744883918762207031e+01,-1.656544494628906250e+01,-1.551709556579589844e+01,-1.546441745758056641e+01,-1.550766563415527344e+01,-2.023392295837402344e+01,-2.322095108032226562e+01,-2.239201545715332031e+01,-2.395872116088867188e+01
-2.682249450683593750e+01,-2.253157234191894531e+01,-1.964361381530761719e+01,-1.943349266052246094e+01,-2.192385101318359375e+01,-2.343410301208496094e+01,-2.299491310119628906e+01,-1.963896942138671875e+01,-1.788682365417480469e+01,-1.697832489013671875e+01,-2.081714439392089844e+01,-2.508132362365722656e+01,-2.343983650207519531e+01,-1.265161132812500000e+01,-2.914443254470825195e+00,-9.077705383300781250e+00,-1.444086551666259766e+01,-1.159904193878173828e+01,-8.473361968994140625e+00,-9.326963424682617188e+00,-1.402170372009277344e+01,-1.570204544067382812e+01,-1.712273597717285156e+01,-1.579436397552490234e+01,-1.678374862670898438e+01,-1.487833595275878906e+01,-1.840155029296875000e+01,-1.990435600280761719e+01,-2.184135818481445312e+01,-1.859610748291015625e+01,-1.542333984375000000e+01,-1.820824813842773438e+01
-4.317798614501953125e+00,4.834003373980522156e-02,3.284649610519409180e+00,1.248995184898376465e+00,-1.535273432731628418e+00,-2.250092983245849609e+00,-1.122500658035278320e+00,1.243484854698181152e+00,3.027487754821777344e+00,4.149478912353515625e+00,6.581661105155944824e-01,-1.862424492835998535e+00,-2.252080202102661133e+00,8.180300712585449219e+00,1.612416076660156250e+01,9.390528678894042969e+00,4.180052280426025391e+00,4.076508522033691406e+00,3.290954589843750000e+00,-5.002768635749816895e-01,1.311064809560775757e-01,3.225222349166870117e+00,6.394330978393554688e+00,-3.276582956314086914e-01,-4.148168087005615234e+00,-8.602367639541625977e-01,1.909670472145080566e+00,1.116183876991271973e+00,1.195321917533874512e+00,4.911787509918212891e+00,6.029494762420654297e+00,1.996231436729431152e+00
3.396600246429443359e+00,9.938349723815917969e+00,1.259576702117919922e+01,7.025595188140869141e+00,4.888997554779052734e+00,4.814850807189941406e+00,9.238841056823730469e+00,9.399276733398437500e+00,7.980253219604492188e+00,8.182737350463867188e+00,8.140883445739746094e+00,7.130161285400390625e+00,7.444759845733642578e+00,1.158170127868652344e+01,1.147942447662353516e+01,6.690555095672607422e+00,-8.436663150787353516e-01,-3.731226682662963867e+00,-3.279389619827270508e+00,-4.668279647827148438e+00,-5.067496299743652344e+00,-3.494410753250122070e+00,-2.079638481140136719e+00,-6.071281909942626953e+00,-6.357927322387695312e+00,-3.459141969680786133e+00,-1.061941027641296387e+00,-2.157957315444946289e+00,4.014671325683593750e+00,8.296298027038574219e+00,4.245707035064697266e+00,7.514879226684570312e+00
3.920309543609619141e+00,7.795366764068603516e+00,6.578719615936279297e+00,3.069841623306274414e+00,2.555584907531738281e+00,1.627845644950866699e+00,5.798809051513671875e+00,6.659447669982910156e+00,2.755959331989288330e-01,-4.040397167205810547e+00,6.787744909524917603e-02,2.228975772857666016e+00,2.496520757675170898e+00,3.526627302169799805e+00,-9.111697673797607422e-01,-2.882097065448760986e-01,-5.756855010986328125e+00,-6.458907127380371094e+00,-5.484307289123535156e+00,-7.282659530639648438e+00,-7.562506675720214844e+00,-5.832863330841064453e+00,-6.838190078735351562e+00,1.172670125961303711e+00,2.984286069869995117e+00,-2.539854526519775391e+00,-1.067390632629394531e+01,-6.435911655426025391e+00,2.474881112575531006e-01,1.931324481964111328e+00,-3.772807121276855469e+00,4.586375236511230469e+00
7.805011749267578125e+00,9.405455589294433594e+00,6.821626186370849609e+00,5.759458541870117188e+00,6.797612190246582031e+00,7.191568851470947266e+00,7.441848754882812500e+00,7.892617702484130859e+00,2.607189416885375977e+00,6.401811242103576660e-01,4.717133998870849609e+00,6.935244083404541016e+00,6.435293197631835938e+00,8.315179824829101562e+00,5.240654945373535156e+00,1.022076892852783203e+01,1.009332942962646484e+01,1.117662143707275391e+01,8.742965698242187500e+00,3.042171716690063477e+00,6.703489303588867188e+00,1.162127017974853516e+01,1.156280899047851562e+01,1.631686782836914062e+01,1.520970249176025391e+01,6.362343311309814453e+00,6.609522342681884766e+00,1.167401599884033203e+01,1.072134494781494141e+01,7.166862964630126953e+00,5.387282371520996094e+00,9.330631256103515625e+00
6.770125389099121094e+00,7.305151939392089844e+00,6.440167903900146484e+00,5.825510978698730469e+00,8.261975288391113281e+00,9.410311698913574219e+00,7.297160148620605469e+00,7.863167285919189453e+00,6.385023117065429688e+00,7.461027622222900391e+00,1.071272563934326172e+01,1.231179046630859375e+01,1.128977012634277344e+01,9.221652030944824219e+00,8.224538803100585938e+00,1.741476821899414062e+01,1.955942153930664062e+01,1.986590766906738281e+01,1.937375450134277344e+01,1.737210083007812500e+01,2.039251899719238281e+01,2.108239364624023438e+01,2.074513626098632812e+01,1.211275291442871094e+01,9.555599212646484375e+00,4.579411506652832031e+00,2.257246017456054688e+01,1.808094596862792969e+01,1.173215389251708984e+01,8.924712181091308594e+00,1.197730255126953125e+01,9.776162147521972656e+00
7.982610225677490234e+00,6.582515716552734375e+00,4.551595211029052734e+00,4.602204799652099609e+00,5.348380565643310547e+00,5.327440261840820312e+00,5.435738563537597656e+00,6.414539337158203125e+00,3.783563137054443359e+00,2.550312280654907227e+00,6.951536178588867188e+00,1.280435085296630859e+01,9.749183654785156250e+00,3.198122739791870117e+00,2.427540779113769531e+00,1.236247730255126953e+01,1.489257240295410156e+01,1.385317325592041016e+01,1.223814773559570312e+01,1.531247520446777344e+01,1.772873497009277344e+01,1.862355422973632812e+01,1.946045494079589844e+01,1.069201087951660156e+01,7.532656192779541016e+00,2.309639692306518555e+00,1.402583026885986328e+01,1.264414310455322266e+01,8.509000778198242188e+00,5.793145656585693359e+00,7.489182472229003906e+00,7.104214668273925781e+00
1.245277595520019531e+01,1.666510391235351562e+01,1.560563278198242188e+01,1.560417366027832031e+01,1.413179016113281250e+01,1.276657962799072266e+01,1.367697143554687500e+01,1.375854015350341797e+01,1.261939144134521484e+01,1.070372581481933594e+01,1.136503696441650391e+01,1.455160045623779297e+01,1.417164707183837891e+01,1.327914047241210938e+01,1.331285762786865234e+01,1.335064315795898438e+01,1.372856140136718750e+01,1.335570049285888672e+01,1.211916351318359375e+01,1.245653343200683594e+01,1.417814922332763672e+01,1.430255603790283203e+01,1.394558429718017578e+01,1.562681293487548828e+01,1.837466812133789062e+01,1.361091041564941406e+01,1.169004344940185547e+01,1.397306823730468750e+01,1.438922786712646484e+01,1.411171054840087891e+01,1.446766662597656250e+01,1.627915763854980469e+01
7.197986602783203125e+00,9.672427177429199219e+00,1.023200607299804688e+01,1.169113349914550781e+01,1.172698497772216797e+01,1.017082786560058594e+01,1.147738933563232422e+01,1.152622413635253906e+01,1.228087615966796875e+01,1.096606063842773438e+01,1.040953254699707031e+01,1.015582466125488281e+01,9.979493141174316406e+00,9.103303909301757812e+00,1.018565464019775391e+01,9.793639183044433594e+00,9.833856582641601562e+00,1.005426120758056641e+01,1.052876377105712891e+01,1.129264545440673828e+01,1.081702995300292969e+01,8.466623306274414062e+00,7.987889289855957031e+00,8.228514671325683594e+00,1.079447746276855469e+01,7.845085144042968750e+00,6.842846393585205078e+00,6.619446277618408203e+00,6.389065265655517578e+00,7.655977725982666016e+00,8.986371040344238281e+00,8.453143119812011719e+00
-1.376924037933349609e+01,-1.487255668640136719e+01,-1.529950332641601562e+01,-1.210785961151123047e+01,-1.214424991607666016e+01,-1.320266914367675781e+01,-1.106027603149414062e+01,-9.458198547363281250e+00,-8.867187500000000000e+00,-9.683553695678710938e+00,-9.617971420288085938e+00,-8.617844581604003906e+00,-9.319399833679199219e+00,-1.124418544769287109e+01,-1.142249011993408203e+01,-8.753437042236328125e+00,-7.413104057312011719e+00,-6.994377613067626953e+00,-7.219095230102539062e+00,-4.672130584716796875e+00,-5.932185649871826172e+00,-7.740371227264404297e+00,-7.205278873443603516e+00,-8.334374427795410156e+00,-8.843527793884277344e+00,-1.317197322845458984e+01,-1.308636379241943359e+01,-1.116094589233398438e+01,-1.378279018402099609e+01,-1.580869960784912109e+01,-1.485441493988037109e+01,-1.675649261474609375e+01
-9.115033149719238281e+00,-4.126778125762939453e+00,-5.131513118743896484e+00,-4.809556007385253906e+00,-7.733855247497558594e+00,-8.490324020385742188e+00,-8.263607978820800781e+00,-6.040690898895263672e+00,-6.008909702301025391e+00,-6.434916973114013672e+00,-7.802366256713867188e+00,-6.599157810211181641e+00,-6.624705314636230469e+00,-3.289460420608520508e+00,-2.931351661682128906e+00,-6.259867668151855469e+00,-4.675345420837402344e+00,-3.747775793075561523e+00,-5.560078144073486328e+00,-2.033090114593505859e+00,1.639284729957580566e+00,3.052348136901855469e+00,2.281910896301269531e+00,-1.562400341033935547e+00,-2.553661584854125977e+00,-5.001904010772705078e+00,-4.951330661773681641e+00,-3.977523803710937500e+00,-4.183507919311523438e+00,-3.623891115188598633e+00,-4.217585563659667969e+00,-4.310626506805419922e+00
1.285539531707763672e+01,1.115254878997802734e+01,1.206105613708496094e+01,1.310060501098632812e+01,1.134446430206298828e+01,1.122421836853027344e+01,1.101983833312988281e+01,1.000753688812255859e+01,1.012255954742431641e+01,1.004946708679199219e+01,1.038649940490722656e+01,1.156268501281738281e+01,1.102043914794921875e+01,1.438732910156250000e+01,1.761925506591796875e+01,1.051928806304931641e+01,1.219679546356201172e+01,1.187298583984375000e+01,1.179369354248046875e+01,1.106139564514160156e+01,1.127087020874023438e+01,1.184101486206054688e+01,1.175340652465820312e+01,9.946120262145996094e+00,1.129079532623291016e+01,1.138221836090087891e+01,1.131699752807617188e+01,1.095921516418457031e+01,1.046355533599853516e+01,1.041441154479980469e+01,1.154550552368164062e+01,1.162395095825195312e+01
1.061158895492553711e+00,-1.147826790809631348e+00,5.892313718795776367e-01,1.822877287864685059e+00,-1.882985532283782959e-01,3.767148554325103760e-01,6.358052492141723633e-01,8.854078054428100586e-01,1.437154531478881836e+00,2.797932386398315430e+00,1.741592884063720703e+00,-2.429940849542617798e-01,8.220804333686828613e-01,6.644818782806396484e+00,7.657954216003417969e+00,-1.905728340148925781e+00,-2.040163725614547729e-01,1.358071528375148773e-02,1.508697032928466797e+00,1.731207132339477539e+00,9.552169442176818848e-01,5.766105651855468750e-01,3.013020753860473633e-01,5.595922470092773438e-02,3.109224736690521240e-01,1.279340505599975586e+00,3.619089424610137939e-01,4.482252001762390137e-01,-1.055844649672508240e-01,-3.391565680503845215e-01,-7.787252664566040039e-01,-1.463190078735351562e+00
-1.999258041381835938e+01,-2.245732879638671875e+01,-2.051431083679199219e+01,-1.916617202758789062e+01,-2.118999099731445312e+01,-2.019456672668457031e+01,-1.973125076293945312e+01,-1.856346321105957031e+01,-1.771331977844238281e+01,-1.609870338439941406e+01,-1.777739524841308594e+01,-2.203956604003906250e+01,-2.060109329223632812e+01,-9.826136589050292969e+00,-8.113369941711425781e+00,-2.001284790039062500e+01,-1.879684448242187500e+01,-1.716638755798339844e+01,-1.658082199096679688e+01,-1.795249366760253906e+01,-1.774409484863281250e+01,-1.565616130828857422e+01,-1.626602745056152344e+01,-1.864396858215332031e+01,-2.104743194580078125e+01,-1.860167694091796875e+01,-1.995405387878417969e+01,-2.019962692260742188e+01,-2.019806671142578125e+01,-1.968703079223632812e+01,-2.132608413696289062e+01,-2.249117469787597656e+01
-5.459220886230468750e+00,-2.403983354568481445e+00,2.288928031921386719e-01,-4.429915845394134521e-01,-2.038613319396972656e+00,-1.811239600181579590e+00,-2.694371700286865234e+00,-3.059626340866088867e+00,-1.799548983573913574e+00,-2.124861329793930054e-01,-2.449239253997802734e+00,-3.824031352996826172e+00,-3.781458616256713867e+00,3.929494619369506836e+00,5.104644298553466797e+00,-7.595355510711669922e-01,-2.117349147796630859e+00,-9.154068231582641602e-01,-6.952569484710693359e-01,-3.035792350769042969e+00,-4.923189640045166016e+00,-6.534553050994873047e+00,-5.250981807708740234e+00,-3.886410713195800781e+00,-4.074481964111328125e+00,-3.435237884521484375e+00,-7.253369331359863281e+00,-7.137653827667236328e+00,-6.292396545410156250e+00,-5.395881175994873047e+00,-5.404091358184814453e+00,-5.025123119354248047e+00
1.768685722351074219e+01,2.094739913940429688e+01,2.337144470214843750e+01,2.137253379821777344e+01,2.048051452636718750e+01,1.908118247985839844e+01,1.873694229125976562e+01,1.695890426635742188e+01,1.827103614807128906e+01,1.649800300598144531e+01,1.669275093078613281e+01,2.034037017822265625e+01,2.020380973815917969e+01,1.483875751495361328e+01,9.696802139282226562e+00,1.448348999023437500e+01,1.982225227355957031e+01,1.902761268615722656e+01,1.870056724548339844e+01,1.998867988586425781e+01,1.840844345092773438e+01,1.274046421051025391e+01,1.493768882751464844e+01,1.921323585510253906e+01,2.123162269592285156e+01,2.066029739379882812e+01,1.497606945037841797e+01,1.527137184143066406e+01,1.685909080505371094e+01,1.821439170837402344e+01,1.907094573974609375e+01,2.044276809692382812e+01
-2.378347873687744141e+00,-2.402161598205566406e+00,-3.107035398483276367e+00,-4.079971313476562500e+00,-3.886093378067016602e+00,-2.438568592071533203e+00,-1.936932325363159180e+00,-3.114393949508666992e+00,-3.223392724990844727e+00,-1.127127885818481445e+00,-1.889113068580627441e+00,-2.407056570053100586e+00,-1.560689330101013184e+00,-2.178294897079467773e+00,-9.314917564392089844e+00,-4.074512004852294922e+00,-9.919719696044921875e-01,-5.475536584854125977e-01,-2.244807958602905273e+00,-3.738432645797729492e+00,-1.759504199028015137e+00,-3.496383130550384521e-01,1.067085862159729004e-01,-4.736256599426269531e+00,-4.592402458190917969e+00,-1.202456355094909668e+00,-4.053176939487457275e-01,-1.326174736022949219e+00,7.179443240165710449e-01,1.355949282646179199e+00,1.241820216178894043e+00,1.604391574859619141e+00
3.360538959503173828e+00,1.999493479728698730e+00,-5.633423328399658203e-01,-3.052347183227539062e+00,-1.849826693534851074e+00,2.596744298934936523e-01,-2.400427341461181641e+00,-3.266500949859619141e+00,-1.151642799377441406e+00,4.460897445678710938e+00,4.231452345848083496e-01,-3.512495994567871094e+00,-2.626255512237548828e+00,-5.463356971740722656e+00,-1.402896308898925781e+01,-4.605283260345458984e+00,-2.235750675201416016e+00,-1.058671712875366211e+00,-3.966871201992034912e-01,-2.648408174514770508e+00,-3.027519226074218750e+00,1.500468134880065918e+00,8.126996457576751709e-03,-5.031988620758056641e+00,-5.211594104766845703e+00,2.565999746322631836e+00,-5.757907629013061523e-01,-1.271659016609191895e+00,-5.507154464721679688e-01,9.944396615028381348e-01,-4.249391257762908936e-01,1.103392601013183594e+00
