Fp1,Fp2,F7,F3,Fz,F4,F8,FT7,FC3,FCz,FC4,FT8,T3,C3,Cz,C4,T4,TP7,CP3,CPz,CP4,TP8,T5,P3,Pz,P4,T6,O1,Oz,O2,A1,A2
-2.088220834732055664e+00,-5.901167392730712891e+00,-1.755189323425292969e+01,-1.492980194091796875e+01,-2.944625377655029297e+00,1.558286905288696289e+00,-1.514227867126464844e+00,-3.685066699981689453e+00,-2.829207420349121094e+00,4.102724552154541016e+00,4.795937061309814453e+00,3.861712455749511719e+00,4.585213184356689453e+00,7.632225036621093750e+00,8.100195884704589844e+00,3.241150140762329102e+00,-2.289318561553955078e+00,-8.922895431518554688e+00,-6.103844165802001953e+00,-8.747436523437500000e+00,-1.184958457946777344e+01,-1.832747840881347656e+01,-1.808437156677246094e+01,-1.400022602081298828e+01,-6.038625717163085938e+00,-3.690076351165771484e+00,-8.974124908447265625e+00,-9.391963005065917969e+00,-3.761708021163940430e+00,-2.989517152309417725e-01,-6.344726562500000000e+00,-1.148259544372558594e+01
-1.226896858215332031e+01,-8.952322006225585938e+00,-8.565633773803710938e+00,-5.378940582275390625e+00,-1.027390956878662109e+00,-3.410291433334350586e+00,-5.843052387237548828e+00,-3.185123443603515625e+00,4.897855222225189209e-01,6.346540927886962891e+00,3.370763063430786133e+00,9.343474507331848145e-01,2.394086599349975586e+00,5.529267787933349609e+00,9.582878112792968750e+00,6.115373134613037109e+00,1.559611082077026367e+00,-5.212730884552001953e+00,-1.860867142677307129e+00,-5.566663265228271484e+00,-9.140309333801269531e+00,-1.087547492980957031e+01,-8.421899795532226562e+00,-8.969627380371093750e+00,-6.940117359161376953e+00,-6.985383987426757812e+00,-8.488124847412109375e+00,-1.164232444763183594e+01,-1.067771053314208984e+01,-1.015655326843261719e+01,-1.151965713500976562e+01,-1.174164581298828125e+01
-1.408798789978027344e+01,-1.106984519958496094e+01,1.063611507415771484e+00,-1.826704263687133789e+00,-1.305275726318359375e+01,-1.436075305938720703e+01,-8.175472259521484375e+00,-3.540384292602539062e+00,-2.331428766250610352e+00,-2.536079645156860352e+00,-4.006777763366699219e+00,1.891136169433593750e+00,4.457431316375732422e+00,3.433218479156494141e+00,4.499701023101806641e+00,6.985893726348876953e+00,6.749738216400146484e+00,5.108515739440917969e+00,4.431852817535400391e+00,1.926887273788452148e+00,5.671976804733276367e-01,1.206724524497985840e+00,1.170483976602554321e-01,-5.022142410278320312e+00,-6.171170711517333984e+00,-1.212226390838623047e+01,-1.143809700012207031e+01,-1.444999694824218750e+01,-1.518608283996582031e+01,-1.713066864013671875e+01,-1.579104518890380859e+01,-1.541639041900634766e+01
5.414215564727783203e+00,4.353004932403564453e+00,2.683635711669921875e+00,-1.165235519409179688e+00,-2.011636257171630859e+00,3.289970636367797852e+00,4.511030197143554688e+00,3.497940897941589355e-01,-3.140671014785766602e+00,-6.763140678405761719e+00,-3.009974241256713867e+00,5.395602703094482422e+00,5.599398612976074219e+00,-2.053595185279846191e-01,2.276662588119506836e-01,4.699517726898193359e+00,5.625521659851074219e+00,6.000810623168945312e+00,5.550168037414550781e+00,6.946173191070556641e+00,8.009909629821777344e+00,8.955947875976562500e+00,8.118015289306640625e+00,5.952966213226318359e+00,4.971602916717529297e+00,-3.010203599929809570e+00,2.464870452880859375e+00,6.037023067474365234e+00,8.042744636535644531e+00,3.163857460021972656e+00,-9.504241943359375000e-01,-3.812496662139892578e+00
1.442502021789550781e+01,1.506716918945312500e+01,7.332378387451171875e+00,9.378126144409179688e+00,1.873505210876464844e+01,1.845065689086914062e+01,9.196653366088867188e+00,3.006462812423706055e+00,4.235877513885498047e+00,-7.334208488464355469e-01,-1.289063096046447754e+00,-1.041362166404724121e+00,-1.008791804313659668e+00,-3.705479621887207031e+00,-1.111444830894470215e+00,-1.217368245124816895e+00,-3.582012414932250977e+00,-2.291542291641235352e+00,1.783745288848876953e+00,6.085688591003417969e+00,4.605673313140869141e+00,6.413819313049316406e+00,9.240630149841308594e+00,1.105195522308349609e+01,1.005745601654052734e+01,7.342644214630126953e+00,1.425418567657470703e+01,1.798725700378417969e+01,2.119442367553710938e+01,2.034688186645507812e+01,1.615442085266113281e+01,1.779379272460937500e+01
9.956052780151367188e+00,1.192929363250732422e+01,9.071083068847656250e+00,9.706335067749023438e+00,9.863175392150878906e+00,1.009346199035644531e+01,4.737854957580566406e+00,2.084219455718994141e+00,5.457519054412841797e+00,-8.494513034820556641e-01,-4.721489906311035156e+00,-7.402067661285400391e+00,-6.560702800750732422e+00,-4.974420070648193359e+00,-3.978163957595825195e+00,-5.325030803680419922e+00,-8.649018287658691406e+00,-5.957901000976562500e+00,-3.445910930633544922e+00,1.152720823884010315e-01,-6.876506805419921875e-01,1.809711098670959473e+00,3.912689447402954102e+00,3.881518602371215820e+00,4.739542007446289062e+00,2.544585943222045898e+00,5.693043708801269531e+00,5.535613059997558594e+00,8.944860458374023438e+00,1.278055191040039062e+01,1.253763103485107422e+01,1.624724197387695312e+01
1.368099784851074219e+01,1.299266242980957031e+01,6.705684661865234375e+00,2.593039512634277344e+00,2.004533052444458008e+00,9.003751754760742188e+00,8.728390693664550781e+00,4.781599521636962891e+00,2.813531875610351562e+00,-1.819216966629028320e+00,-1.775512814521789551e+00,-2.211889266967773438e+00,-3.418859004974365234e+00,-4.746062755584716797e+00,-6.784421443939208984e+00,-6.118871688842773438e+00,-5.406972885131835938e+00,-5.560929775238037109e+00,-8.261625289916992188e+00,-5.739226341247558594e+00,-7.018935680389404297e-01,3.401383638381958008e+00,6.842738628387451172e+00,3.523924827575683594e+00,1.563280940055847168e+00,-3.233841180801391602e+00,8.771455287933349609e-01,5.867168426513671875e+00,9.421513557434082031e+00,5.928155422210693359e+00,2.449485778808593750e+00,1.632046937942504883e+00
1.060519886016845703e+01,3.876306772232055664e+00,6.297959327697753906e+00,5.220355987548828125e+00,7.219646453857421875e+00,5.783885002136230469e+00,7.492547035217285156e+00,6.320280551910400391e+00,5.298418045043945312e+00,3.399482488632202148e+00,3.112569093704223633e+00,2.691202640533447266e+00,1.549599170684814453e+00,-1.808000922203063965e+00,-4.693552970886230469e+00,-4.842738151550292969e+00,-2.107108831405639648e+00,-5.634660720825195312e+00,-8.299487113952636719e+00,-5.517598152160644531e+00,-1.480400204658508301e+00,2.461355924606323242e+00,9.105581283569335938e+00,6.921991348266601562e+00,1.330469727516174316e+00,-1.317705512046813965e+00,4.562122344970703125e+00,1.084751033782958984e+01,1.148624515533447266e+01,4.844789028167724609e+00,1.176202654838562012e+00,1.363891959190368652e+00
-2.813407182693481445e+00,-7.875614166259765625e+00,-1.677422784268856049e-02,1.707602262496948242e+00,-1.070595979690551758e+00,-6.991683006286621094e+00,-4.253349781036376953e+00,-2.557216584682464600e-01,1.799711346626281738e+00,-1.585742384195327759e-01,-3.276946544647216797e+00,-4.914573192596435547e+00,-4.256144523620605469e+00,-1.500109910964965820e+00,-2.888159513473510742e+00,-4.824903964996337891e+00,-5.524562835693359375e+00,-7.013694763183593750e+00,-6.482584476470947266e+00,-3.782641649246215820e+00,-5.043221950531005859e+00,-6.056171894073486328e+00,-3.140612542629241943e-01,2.082837343215942383e+00,4.811230301856994629e-01,5.377819538116455078e-01,4.805544316768646240e-01,1.653602480888366699e+00,4.945615828037261963e-01,-1.853774189949035645e+00,6.069353818893432617e-01,4.205570697784423828e+00
-1.102896118164062500e+01,-5.537145614624023438e+00,-9.610969543457031250e+00,-1.190110492706298828e+01,-1.534232425689697266e+01,-9.679236412048339844e+00,-7.462888240814208984e+00,-3.848951339721679688e+00,-2.161455869674682617e+00,-2.687792539596557617e+00,-5.674418449401855469e+00,-9.441772460937500000e+00,-9.110919952392578125e+00,-1.983458757400512695e+00,-2.083321809768676758e+00,-4.851949214935302734e+00,-7.811659336090087891e+00,-7.793780326843261719e+00,-6.652768135070800781e+00,-3.283655166625976562e+00,-3.303278923034667969e+00,-7.653440475463867188e+00,-7.411301612854003906e+00,-3.804628133773803711e+00,-5.685135126113891602e-01,7.265576720237731934e-01,-7.558800697326660156e+00,-8.919969558715820312e+00,-7.384191036224365234e+00,-5.095361232757568359e+00,-2.394772529602050781e+00,-6.682185173034667969e+00
-7.952434539794921875e+00,-2.401549816131591797e+00,-6.516065597534179688e+00,-8.815076828002929688e+00,-8.484199523925781250e+00,-4.115343570709228516e+00,-3.022969245910644531e+00,9.321339130401611328e-01,4.662131786346435547e+00,7.097928524017333984e+00,3.271709203720092773e+00,-6.870810985565185547e-01,1.337427854537963867e+00,5.110199451446533203e+00,3.307026147842407227e+00,-6.560108661651611328e-01,-6.386499404907226562e-01,-9.340980648994445801e-01,-1.964190840721130371e+00,7.711066603660583496e-01,2.297318935394287109e+00,-7.607114911079406738e-01,-5.365205764770507812e+00,-4.058327674865722656e+00,5.363906621932983398e-01,4.782457828521728516e+00,-2.846048831939697266e+00,-6.613847732543945312e+00,-3.644807338714599609e+00,1.640113234519958496e+00,-4.593063592910766602e-01,-8.517229080200195312e+00
-4.070608615875244141e+00,-8.038801193237304688e+00,-5.684147834777832031e+00,-3.650124311447143555e+00,-1.852232813835144043e+00,-4.026490688323974609e+00,-2.661577701568603516e+00,2.709928750991821289e+00,5.808393955230712891e+00,9.106503486633300781e+00,5.257936000823974609e+00,5.477067947387695312e+00,8.761295318603515625e+00,1.021232891082763672e+01,6.213361263275146484e+00,3.669538974761962891e+00,6.324649333953857422e+00,5.186389446258544922e+00,1.975184440612792969e+00,1.448463559150695801e+00,1.453685998916625977e+00,-1.485697738826274872e-02,-2.101433753967285156e+00,-2.458631277084350586e+00,5.628538727760314941e-01,4.231023788452148438e+00,3.026905059814453125e+00,-1.193730950355529785e+00,-1.737828016281127930e+00,7.544138431549072266e-01,7.752580642700195312e-01,-3.904285430908203125e+00
-8.163875579833984375e+00,-9.213657379150390625e+00,-9.973199844360351562e+00,-9.288481712341308594e+00,-1.041246128082275391e+01,-8.416449546813964844e+00,-5.045911788940429688e+00,-1.237047910690307617e+00,-1.821918129920959473e+00,2.544701993465423584e-01,8.781219124794006348e-01,1.342951416969299316e+00,1.114561319351196289e+00,1.287132859230041504e+00,-2.467508316040039062e-01,1.496508717536926270e+00,3.170788526535034180e+00,1.099280238151550293e+00,-3.668281316757202148e+00,-4.988015174865722656e+00,-2.240326642990112305e+00,-9.100164175033569336e-01,1.330739498138427734e+00,-1.879200577735900879e+00,-2.405446529388427734e+00,-4.742240905761718750e+00,-4.573541581630706787e-01,-2.751816272735595703e+00,-7.716637611389160156e+00,-8.272199630737304688e+00,-2.703963756561279297e+00,-8.476240158081054688e+00
3.352303057909011841e-02,-1.166736006736755371e+00,-3.167589187622070312e+00,-4.808743953704833984e+00,-4.198361873626708984e+00,-2.946884393692016602e+00,4.981333762407302856e-02,-8.571151494979858398e-01,-1.645103096961975098e-02,2.520627021789550781e+00,8.065182685852050781e+00,8.382987022399902344e+00,6.253587722778320312e+00,2.021335363388061523e+00,1.308837413787841797e+00,6.494082927703857422e+00,7.987304210662841797e+00,7.000092506408691406e+00,-2.694826126098632812e-01,-2.776288390159606934e-01,4.826254367828369141e+00,1.173561000823974609e+01,1.297964286804199219e+01,8.170177459716796875e+00,2.134964466094970703e+00,-3.181971073150634766e+00,2.201303958892822266e+00,4.543477535247802734e+00,-6.454471945762634277e-01,-2.818354606628417969e+00,2.443057596683502197e-01,-6.376312732696533203e+00
2.233911895751953125e+01,1.606594085693359375e+00,2.255758762359619141e+00,5.285069942474365234e+00,1.366786670684814453e+01,1.189396572113037109e+01,1.309614086151123047e+01,6.473769664764404297e+00,5.569290637969970703e+00,9.598375320434570312e+00,1.750091171264648438e+01,2.326911163330078125e+01,2.260585975646972656e+01,1.594401931762695312e+01,1.112766075134277344e+01,1.800083160400390625e+01,2.276255416870117188e+01,2.332722854614257812e+01,1.394589614868164062e+01,1.381009674072265625e+01,1.597709751129150391e+01,2.334746360778808594e+01,2.208923339843750000e+01,1.820162391662597656e+01,1.236703491210937500e+01,1.039940929412841797e+01,1.331427574157714844e+01,1.920547103881835938e+01,1.718198204040527344e+01,1.174149322509765625e+01,8.930672645568847656e+00,7.288405895233154297e+00
2.343507957458496094e+01,6.811161041259765625e+00,5.299136638641357422e+00,8.106712341308593750e+00,1.432964420318603516e+01,1.645813941955566406e+01,1.634075546264648438e+01,1.070940113067626953e+01,5.089120388031005859e+00,5.524875164031982422e+00,1.160721969604492188e+01,1.917452430725097656e+01,1.662698173522949219e+01,1.031397247314453125e+01,4.447461128234863281e+00,1.180122089385986328e+01,1.761280441284179688e+01,1.979089927673339844e+01,1.202046871185302734e+01,1.263428306579589844e+01,1.274793243408203125e+01,1.739437484741210938e+01,1.689660263061523438e+01,1.326128959655761719e+01,1.210547065734863281e+01,1.311374664306640625e+01,1.390499591827392578e+01,1.848163032531738281e+01,1.818424797058105469e+01,1.278971958160400391e+01,9.745495796203613281e+00,1.402629566192626953e+01
1.097041034698486328e+01,1.098509216308593750e+01,1.082528495788574219e+01,9.437703132629394531e+00,4.686874866485595703e+00,6.655257225036621094e+00,6.319682598114013672e+00,6.530372619628906250e+00,3.843923330307006836e+00,-4.621297121047973633e-01,1.392421960830688477e+00,4.834743022918701172e+00,1.149895191192626953e+00,-4.318508625030517578e+00,-5.826457023620605469e+00,-9.805606603622436523e-01,1.620790481567382812e+00,4.639407634735107422e+00,2.936340808868408203e+00,5.166804313659667969e+00,3.800521373748779297e+00,5.704891204833984375e+00,6.423966884613037109e+00,4.833129882812500000e+00,3.777799844741821289e+00,4.498569488525390625e+00,5.461147308349609375e+00,8.807188034057617188e+00,9.740753173828125000e+00,8.107167243957519531e+00,6.582689762115478516e+00,1.304133415222167969e+01
1.174888134002685547e+01,7.384066104888916016e+00,8.682898521423339844e+00,9.955451965332031250e+00,8.652559280395507812e+00,9.045963287353515625e+00,7.194240570068359375e+00,2.856908798217773438e+00,2.044530630111694336e+00,4.932901561260223389e-01,2.247832775115966797e+00,2.243577480316162109e+00,2.056216001510620117e+00,1.936475515365600586e+00,3.630691289901733398e+00,1.870607614517211914e+00,2.494776487350463867e+00,6.051682949066162109e+00,9.453119277954101562e+00,9.349916458129882812e+00,5.243986129760742188e+00,1.692264556884765625e+00,-2.716380953788757324e-01,1.348377346992492676e+00,9.790974855422973633e-01,3.211102247238159180e+00,2.233263731002807617e+00,5.532415390014648438e+00,1.000034427642822266e+01,1.018902301788330078e+01,4.490197658538818359e+00,1.353915119171142578e+01
1.123743152618408203e+01,1.614503669738769531e+01,1.359274005889892578e+01,1.497679328918457031e+01,2.053240776062011719e+01,2.062944984436035156e+01,1.444283676147460938e+01,5.734542846679687500e+00,6.294447183609008789e-01,3.364960432052612305e+00,5.995662212371826172e+00,6.261050701141357422e+00,6.635365486145019531e+00,8.721814155578613281e+00,1.036395645141601562e+01,5.273513793945312500e+00,5.168761730194091797e+00,6.838216781616210938e+00,1.081629848480224609e+01,1.017902183532714844e+01,5.705204963684082031e+00,1.547748297452926636e-01,-2.435893297195434570e+00,6.156542897224426270e-01,5.196349620819091797e+00,9.365223884582519531e+00,4.887650012969970703e+00,2.965008497238159180e+00,7.411425590515136719e+00,1.023231601715087891e+01,6.200378894805908203e+00,1.806541633605957031e+01
-7.541432380676269531e+00,2.112837791442871094e+01,2.370492744445800781e+01,1.872593879699707031e+01,1.346803379058837891e+01,9.174617767333984375e+00,4.183573246002197266e+00,3.469071149826049805e+00,2.735140323638916016e-01,-7.875193357467651367e-01,-2.386759757995605469e+00,-2.218297481536865234e+00,-4.541104316711425781e+00,-4.844210624694824219e+00,-2.289529561996459961e+00,-5.505795001983642578e+00,-7.153996467590332031e+00,-5.990427970886230469e+00,-1.374774098396301270e+00,9.282118678092956543e-01,-2.254486322402954102e+00,-6.885205745697021484e+00,-8.584944725036621094e+00,-5.168847084045410156e+00,1.616948962211608887e+00,4.475432872772216797e+00,-1.526263356208801270e+00,-7.310651302337646484e+00,-5.802388191223144531e+00,2.598840892314910889e-01,4.082596302032470703e+00,1.573629379272460938e+01
-1.575368881225585938e+01,1.239100360870361328e+01,2.096764373779296875e+01,1.663258934020996094e+01,3.411646366119384766e+00,-4.265741825103759766e+00,-5.636886119842529297e+00,-2.448701858520507812e-01,2.170145750045776367e+00,-2.870549917221069336e+00,-9.210411071777343750e+00,-1.078639793395996094e+01,-1.152976226806640625e+01,-9.290042877197265625e+00,-6.328425884246826172e+00,-7.603754043579101562e+00,-1.003587341308593750e+01,-8.424250602722167969e+00,-2.953355550765991211e+00,9.218505620956420898e-01,-1.345041155815124512e+00,-8.906242370605468750e+00,-1.153275966644287109e+01,-8.887270927429199219e+00,-4.815796375274658203e+00,-3.993318080902099609e+00,-6.895074844360351562e+00,-1.135434818267822266e+01,-1.044928359985351562e+01,-7.475991249084472656e+00,-2.829300403594970703e+00,8.195351600646972656e+00
-7.265172481536865234e+00,-7.520969212055206299e-02,3.392415761947631836e+00,7.357957363128662109e+00,5.747210502624511719e+00,-1.386044144630432129e+00,-3.957225561141967773e+00,-1.263014316558837891e+00,3.010324239730834961e+00,1.350894212722778320e+00,-3.381279230117797852e+00,-6.888006687164306641e+00,-4.989411830902099609e+00,-1.938118934631347656e+00,-6.933096051216125488e-01,7.959066033363342285e-01,6.746036410331726074e-01,2.025231122970581055e+00,3.215299844741821289e+00,5.483922004699707031e+00,4.662504673004150391e+00,-6.182543635368347168e-01,-1.661911487579345703e+00,-3.108679771423339844e+00,-4.207883358001708984e+00,-4.822628974914550781e+00,-1.428527235984802246e+00,-5.649600982666015625e+00,-7.535383701324462891e+00,-1.007229709625244141e+01,-7.588748931884765625e+00,-2.084707736968994141e+00
-6.265952110290527344e+00,-2.977554082870483398e+00,9.370270967483520508e-01,4.757345676422119141e+00,4.466893196105957031e+00,-2.880535364151000977e+00,-4.447725772857666016e+00,-2.517889499664306641e+00,1.437199592590332031e+00,2.344355106353759766e+00,2.032193660736083984e+00,-8.033128380775451660e-01,-6.911542415618896484e-01,-4.128095149993896484e+00,-4.442157745361328125e+00,8.689096570014953613e-01,4.440373420715332031e+00,7.766267776489257812e+00,5.009748935699462891e+00,5.810378074645996094e+00,5.330715656280517578e+00,6.317546367645263672e+00,5.989481925964355469e+00,1.386904835700988770e+00,-1.192733645439147949e+00,-2.666662454605102539e+00,1.110549807548522949e+00,-3.059709310531616211e+00,-7.360305309295654297e+00,-8.763116836547851562e+00,-4.728727340698242188e+00,-3.920039653778076172e+00
-2.615683317184448242e+00,1.021482753753662109e+01,1.572568511962890625e+01,1.100704002380371094e+01,-1.372942477464675903e-01,-2.263612031936645508e+00,7.054046541452407837e-02,1.517542004585266113e+00,1.092140316963195801e+00,1.105204343795776367e+00,4.270313262939453125e+00,6.614326477050781250e+00,3.421249866485595703e+00,-2.518749713897705078e+00,-2.422997236251831055e+00,4.609962463378906250e+00,8.386716842651367188e+00,1.444099617004394531e+01,1.190020275115966797e+01,1.239784908294677734e+01,1.119314193725585938e+01,1.197793579101562500e+01,8.741638183593750000e+00,6.774956703186035156e+00,7.577874183654785156e+00,6.697968006134033203e+00,6.402824878692626953e+00,3.627753257751464844e+00,8.040221333503723145e-01,3.389656305313110352e+00,9.606386184692382812e+00,1.284252548217773438e+01
6.407300472259521484e+00,1.523192596435546875e+01,9.590765953063964844e+00,6.288112640380859375e+00,1.675499916076660156e+00,6.501296043395996094e+00,6.769646644592285156e+00,5.061315536499023438e+00,1.352871775627136230e+00,9.716468453407287598e-01,6.441030979156494141e+00,1.101208782196044922e+01,8.962752342224121094e+00,6.924508571624755859e+00,7.507604598999023438e+00,1.195131683349609375e+01,1.274429321289062500e+01,1.815396881103515625e+01,1.720957946777343750e+01,1.865538978576660156e+01,1.682765197753906250e+01,1.551038932800292969e+01,1.196025276184082031e+01,1.201202869415283203e+01,1.403309345245361328e+01,1.368476390838623047e+01,1.328376865386962891e+01,1.106753921508789062e+01,9.682132720947265625e+00,1.303676605224609375e+01,1.756729698181152344e+01,1.806277656555175781e+01
-2.825158357620239258e+00,-1.987056732177734375e+00,-1.053930091857910156e+01,-7.339343547821044922e+00,-3.764456510543823242e+00,-2.976851940155029297e+00,-4.355537891387939453e+00,-5.430726528167724609e+00,-6.306476116180419922e+00,-6.674774646759033203e+00,-1.203463435173034668e+00,9.701264500617980957e-01,1.059266448020935059e+00,-9.633675813674926758e-01,1.809231281280517578e+00,4.485660076141357422e+00,4.398777008056640625e+00,6.964474678039550781e+00,8.523623466491699219e+00,7.701577186584472656e+00,4.902139663696289062e+00,3.672141313552856445e+00,2.213166952133178711e+00,9.750179648399353027e-01,3.339643716812133789e+00,5.063335418701171875e+00,5.870150566101074219e+00,1.216050013899803162e-01,-5.955666542053222656e+00,-9.072765707969665527e-01,6.130661964416503906e+00,-1.611085891723632812e+00
-1.585908889770507812e+01,-1.601253128051757812e+01,-1.348251342773437500e+01,-1.241113090515136719e+01,-1.732755661010742188e+01,-2.027865791320800781e+01,-1.713582229614257812e+01,-1.571266174316406250e+01,-1.557246875762939453e+01,-1.412964057922363281e+01,-1.231613063812255859e+01,-9.930306434631347656e+00,-9.850874900817871094e+00,-9.753296852111816406e+00,-6.211866378784179688e+00,-2.596831321716308594e+00,-2.466967344284057617e+00,-2.348397731781005859e+00,1.737925767898559570e+00,-2.906651735305786133e+00,-6.981235027313232422e+00,-1.024210929870605469e+01,-1.073137664794921875e+01,-1.134524631500244141e+01,-6.286463260650634766e+00,-4.059785842895507812e+00,-5.486977100372314453e+00,-1.508229827880859375e+01,-2.233663940429687500e+01,-1.527526760101318359e+01,-3.748518466949462891e+00,-9.505609512329101562e+00
-1.166060924530029297e+01,-6.669450759887695312e+00,-2.747710943222045898e+00,-4.401174068450927734e+00,-1.422399616241455078e+01,-1.144961261749267578e+01,-8.633252143859863281e+00,-5.551609992980957031e+00,-7.685205459594726562e+00,-4.210072994232177734e+00,-6.011191368103027344e+00,-2.475142717361450195e+00,-1.354458093643188477e+00,2.682411432266235352e+00,6.845295906066894531e+00,6.986264228820800781e+00,4.289765834808349609e+00,2.714893817901611328e+00,7.383014678955078125e+00,4.422694683074951172e+00,6.128417253494262695e-01,-6.020492553710937500e+00,-8.244441032409667969e+00,-6.936427593231201172e+00,5.938109755516052246e-01,1.228677034378051758e+00,-3.433014392852783203e+00,-1.401382064819335938e+01,-1.627265930175781250e+01,-8.220958709716796875e+00,3.603262662887573242e+00,4.295102596282958984e+00
-7.217205524444580078e+00,-2.266152381896972656e+00,-3.994982242584228516e+00,-6.199219226837158203e-01,-2.194744110107421875e+00,6.748718768358230591e-02,-1.256005406379699707e+00,4.830592632293701172e+00,3.727349042892456055e+00,4.608484268188476562e+00,1.528786063194274902e+00,4.048820495605468750e+00,8.843142509460449219e+00,1.172296524047851562e+01,1.387305450439453125e+01,1.084414958953857422e+01,5.910023689270019531e+00,3.289532899856567383e+00,9.427132606506347656e+00,9.146656036376953125e+00,4.331721782684326172e+00,-2.342362642288208008e+00,-4.760403156280517578e+00,-9.916462898254394531e-01,5.388080596923828125e+00,4.567837238311767578e+00,1.564179509878158569e-01,-6.874236583709716797e+00,-7.562500476837158203e+00,-3.441944837570190430e+00,3.623066902160644531e+00,4.565476417541503906e+00
-1.637293243408203125e+01,-2.049820327758789062e+01,-1.716855430603027344e+01,-1.012427234649658203e+01,-9.792437553405761719e+00,-1.560045814514160156e+01,-1.459915542602539062e+01,-6.779329299926757812e+00,-4.429265022277832031e+00,-3.703704833984375000e+00,-1.033490848541259766e+01,-1.239255619049072266e+01,-6.733453273773193359e+00,6.893151998519897461e-01,2.060499429702758789e+00,-5.095587730407714844e+00,-8.563975334167480469e+00,-9.708580970764160156e+00,-7.927429676055908203e-01,-2.600716352462768555e+00,-8.425578117370605469e+00,-1.441963195800781250e+01,-1.570661544799804688e+01,-1.057936763763427734e+01,-6.638680458068847656e+00,-8.627478599548339844e+00,-1.200110054016113281e+01,-1.400613403320312500e+01,-1.312967300415039062e+01,-1.510551548004150391e+01,-1.660790252685546875e+01,-1.645288848876953125e+01
-2.115380096435546875e+01,-2.565947151184082031e+01,-2.141954040527343750e+01,-2.049370765686035156e+01,-2.272340011596679688e+01,-2.723880195617675781e+01,-2.436607742309570312e+01,-1.872862052917480469e+01,-1.367575740814208984e+01,-1.246495437622070312e+01,-2.060190391540527344e+01,-2.735507774353027344e+01,-2.399407196044921875e+01,-1.591327285766601562e+01,-1.078100967407226562e+01,-1.661058998107910156e+01,-2.060062217712402344e+01,-1.968428993225097656e+01,-1.091161823272705078e+01,-1.188483715057373047e+01,-1.458489036560058594e+01,-2.116656684875488281e+01,-2.134411430358886719e+01,-1.818328285217285156e+01,-1.331133556365966797e+01,-1.537065887451171875e+01,-1.802304840087890625e+01,-2.147851562500000000e+01,-1.788241577148437500e+01,-2.022617340087890625e+01,-2.481470870971679688e+01,-2.419489669799804688e+01
-1.319637584686279297e+01,-9.240188598632812500e+00,-1.327192687988281250e+01,-1.778059577941894531e+01,-1.501849746704101562e+01,-1.482346153259277344e+01,-1.441755485534667969e+01,-1.149601840972900391e+01,-5.381201744079589844e+00,-5.361124992370605469e+00,-1.313783073425292969e+01,-2.116907691955566406e+01,-1.911713600158691406e+01,-1.118996906280517578e+01,-7.179748058319091797e+00,-1.368045806884765625e+01,-1.934774398803710938e+01,-1.734609603881835938e+01,-1.067149734497070312e+01,-8.248850822448730469e+00,-6.969851016998291016e+00,-1.104302310943603516e+01,-1.094360351562500000e+01,-8.598296165466308594e+00,-3.141479015350341797e+00,-3.909647464752197266e+00,-6.168891429901123047e+00,-9.433854103088378906e+00,-5.561992645263671875e+00,-6.582094192504882812e+00,-1.228777217864990234e+01,-1.390933513641357422e+01
-6.392596721649169922e+00,-7.422628879547119141e+00,-9.513154983520507812e+00,-1.063422870635986328e+01,-3.463157415390014648e+00,-5.045025348663330078e+00,-4.212993621826171875e+00,-2.149914979934692383e+00,2.372330188751220703e+00,9.809753298759460449e-01,-4.709074020385742188e+00,-1.273084068298339844e+01,-1.203750705718994141e+01,-6.967003345489501953e+00,-3.106475114822387695e+00,-1.113612461090087891e+01,-1.476212692260742188e+01,-1.180788898468017578e+01,-6.403701782226562500e+00,-3.977560758590698242e+00,-1.634227991104125977e+00,-6.195245265960693359e+00,-7.229058265686035156e+00,-3.820978164672851562e+00,2.286501884460449219e+00,2.536659002304077148e+00,-1.572275400161743164e+00,-3.903137207031250000e+00,-1.776732087135314941e+00,-3.513122797012329102e-01,-7.881447315216064453e+00,-1.543361282348632812e+01
2.982223987579345703e+00,-1.000334262847900391e+01,-9.586904525756835938e+00,-8.455326080322265625e+00,-1.898255199193954468e-01,-2.555107831954956055e+00,-1.327975869178771973e+00,-3.330959081649780273e-01,2.342262029647827148e+00,2.620096683502197266e+00,-1.479305863380432129e+00,-7.219411373138427734e+00,-9.209146499633789062e+00,-8.030157089233398438e+00,-3.463075399398803711e+00,-6.024917602539062500e+00,-6.136777400970458984e+00,-2.612931728363037109e+00,-8.763480186462402344e-01,9.533765912055969238e-01,3.604070901870727539e+00,1.632652580738067627e-01,-1.092669129371643066e+00,8.335882425308227539e-01,6.962163448333740234e+00,4.344587326049804688e+00,-1.683666855096817017e-01,-4.669138431549072266e+00,-4.408028602600097656e+00,-3.588456869125366211e+00,-9.088338851928710938e+00,-1.910386085510253906e+01
8.533501625061035156e+00,4.218188285827636719e+00,2.299832820892333984e+00,1.208583638072013855e-01,3.642549514770507812e+00,5.077786922454833984e+00,4.473859786987304688e+00,1.993166446685791016e+00,2.544568061828613281e+00,2.295263290405273438e+00,3.019006252288818359e+00,2.184170246124267578e+00,-9.511028975248336792e-02,-1.880175471305847168e+00,-7.298049926757812500e-01,3.385059118270874023e+00,5.161590099334716797e+00,9.178131103515625000e+00,9.364378929138183594e+00,1.187682723999023438e+01,1.253104591369628906e+01,1.067577648162841797e+01,1.007713317871093750e+01,1.123638057708740234e+01,1.429452037811279297e+01,1.088106918334960938e+01,8.718183517456054688e+00,5.441275119781494141e+00,5.285116195678710938e+00,2.908635854721069336e+00,1.658081054687500000e+00,8.901685476303100586e-01
1.558290958404541016e+01,1.053007316589355469e+01,7.783209800720214844e+00,6.614685058593750000e+00,1.060892868041992188e+01,1.508678340911865234e+01,1.446864604949951172e+01,8.750612258911132812e+00,5.177368640899658203e+00,3.159819364547729492e+00,9.102549552917480469e+00,1.213631153106689453e+01,1.103902816772460938e+01,6.747953891754150391e+00,5.334661483764648438e+00,9.642834663391113281e+00,1.203735637664794922e+01,1.466996479034423828e+01,1.273177051544189453e+01,1.303386402130126953e+01,1.400508308410644531e+01,1.442691040039062500e+01,1.450193214416503906e+01,1.127727317810058594e+01,9.789893150329589844e+00,1.010312557220458984e+01,1.295447444915771484e+01,1.448306083679199219e+01,1.640753555297851562e+01,1.283944416046142578e+01,7.670661926269531250e+00,6.189267158508300781e+00
1.280429840087890625e+01,-2.412257432937622070e+00,-5.549551963806152344e+00,-4.159121513366699219e+00,4.666718006134033203e+00,9.950052261352539062e+00,1.091080665588378906e+01,6.058947563171386719e+00,1.883459210395812988e+00,2.271245956420898438e+00,8.082289695739746094e+00,8.155609130859375000e+00,7.252307891845703125e+00,4.520050048828125000e+00,3.749748706817626953e+00,6.747725009918212891e+00,6.660982131958007812e+00,6.706847190856933594e+00,4.287720680236816406e+00,1.927929282188415527e+00,5.224400520324707031e+00,8.321243286132812500e+00,9.609539031982421875e+00,6.620933532714843750e+00,3.384960174560546875e+00,3.466387987136840820e+00,8.843708038330078125e+00,1.018621349334716797e+01,1.138095092773437500e+01,7.323215484619140625e+00,2.388542443513870239e-01,-1.366914844512939453e+01
-2.606762886047363281e+00,-9.156848907470703125e+00,-1.340256977081298828e+01,-1.447546577453613281e+01,-8.070223808288574219e+00,-1.979705214500427246e+00,-1.660792708396911621e+00,-4.879104137420654297e+00,-7.810827732086181641e+00,-7.162858963012695312e+00,-2.059231042861938477e+00,-2.186159133911132812e+00,-1.704317092895507812e+00,-2.270540237426757812e+00,-2.099504232406616211e+00,1.437257081270217896e-01,-5.853401422500610352e-01,6.096665263175964355e-01,4.206180572509765625e+00,6.016185879707336426e-01,1.094459056854248047e+00,-2.046005576848983765e-01,-3.057560622692108154e-01,1.162665486335754395e+00,3.700670301914215088e-01,-3.201664090156555176e-01,9.860489964485168457e-01,-2.381119966506958008e+00,-3.292783498764038086e+00,-5.873240947723388672e+00,-7.817096710205078125e+00,-1.964848327636718750e+01
1.188091397285461426e+00,1.521156132221221924e-01,-4.355922222137451172e+00,-5.529336452484130859e+00,-2.416194677352905273e+00,3.722446203231811523e+00,2.123235225677490234e+00,-4.600478172302246094e+00,-1.076758003234863281e+01,-9.912193298339843750e+00,-7.606384158134460449e-01,4.952619075775146484e+00,4.575153350830078125e+00,1.989737391471862793e+00,1.808956623077392578e+00,5.393542289733886719e+00,8.425297737121582031e+00,1.164087390899658203e+01,1.483308887481689453e+01,1.084555053710937500e+01,8.230529785156250000e+00,4.638591766357421875e+00,2.121057987213134766e+00,3.490557074546813965e-01,4.703132808208465576e-01,1.370125055313110352e+00,8.454171419143676758e-01,6.256973743438720703e-01,2.968114137649536133e+00,-3.046451508998870850e-01,-7.329312324523925781e+00,-1.136935997009277344e+01
1.137397766113281250e+01,-3.669298589229583740e-01,-2.200114488601684570e+00,3.978953883051872253e-02,5.878086090087890625e+00,1.237217521667480469e+01,1.136347579956054688e+01,1.819605588912963867e+00,-6.997863292694091797e+00,-1.831856131553649902e+00,9.505566596984863281e+00,1.669794464111328125e+01,1.443880939483642578e+01,9.722070693969726562e+00,8.185034751892089844e+00,1.207678604125976562e+01,1.434714984893798828e+01,1.454085159301757812e+01,1.349897480010986328e+01,1.291704559326171875e+01,1.228675174713134766e+01,1.084504890441894531e+01,8.735416412353515625e+00,7.647675991058349609e+00,7.470658302307128906e+00,6.195673465728759766e+00,6.001026630401611328e+00,8.370375633239746094e+00,1.183215236663818359e+01,6.311645507812500000e+00,-4.584300041198730469e+00,-1.319670867919921875e+01
9.183063507080078125e+00,-9.430607795715332031e+00,-1.459949684143066406e+01,-1.181814289093017578e+01,-1.002112388610839844e+00,9.293553352355957031e+00,9.277456283569335938e+00,-1.630929708480834961e-01,-7.708136558532714844e+00,-1.710495352745056152e+00,5.095667839050292969e+00,8.543438911437988281e+00,7.223342418670654297e+00,5.132156372070312500e+00,5.371628284454345703e+00,7.054489612579345703e+00,6.202484130859375000e+00,3.287286996841430664e+00,5.103145539760589600e-02,1.959473609924316406e+00,1.704070329666137695e+00,4.403070449829101562e+00,5.244997024536132812e+00,5.731425285339355469e+00,5.487444400787353516e+00,2.880008220672607422e+00,2.683189153671264648e+00,3.571717023849487305e+00,3.751086950302124023e+00,-3.496572732925415039e+00,-1.115896034240722656e+01,-1.537909698486328125e+01
-7.579762458801269531e+00,-1.703510284423828125e+01,-2.004106903076171875e+01,-1.950032234191894531e+01,-1.515471267700195312e+01,-5.541878223419189453e+00,-4.449601173400878906e+00,-8.733527183532714844e+00,-9.463373184204101562e+00,-5.459055900573730469e+00,-7.572817325592041016e+00,-1.099304294586181641e+01,-9.798618316650390625e+00,-5.148581981658935547e+00,-2.655246496200561523e+00,-6.378798484802246094e+00,-7.499654769897460938e+00,-7.036657333374023438e+00,-8.389218330383300781e+00,-8.870471954345703125e+00,-1.041544818878173828e+01,-8.129459381103515625e+00,-6.981499671936035156e+00,-8.050525665283203125e+00,-4.599161624908447266e+00,-2.591966390609741211e+00,-4.913022518157958984e+00,-7.380979061126708984e+00,-7.765108585357666016e+00,-1.139572429656982422e+01,-1.709394454956054688e+01,-1.183739852905273438e+01
-1.766108131408691406e+01,-2.109183883666992188e+01,-1.674808883666992188e+01,-1.846863365173339844e+01,-2.280501747131347656e+01,-2.028600311279296875e+01,-1.849709129333496094e+01,-1.465112590789794922e+01,-6.297218799591064453e+00,-3.518925011157989502e-01,-6.697118282318115234e+00,-1.459080696105957031e+01,-1.279692840576171875e+01,-7.238662242889404297e+00,-6.317533493041992188e+00,-1.268591785430908203e+01,-1.472701263427734375e+01,-1.176668167114257812e+01,-9.592998504638671875e+00,-6.587088108062744141e+00,-4.640817165374755859e+00,-8.735032081604003906e+00,-9.122698783874511719e+00,-5.604699134826660156e+00,-3.128558695316314697e-01,5.919551849365234375e-01,-3.051404714584350586e+00,-9.016986846923828125e+00,-1.307406520843505859e+01,-1.172156047821044922e+01,-1.274720096588134766e+01,-1.475414466857910156e+01
-8.238589286804199219e+00,-1.935086441040039062e+01,-1.503215503692626953e+01,-1.697396659851074219e+01,-1.738289833068847656e+01,-1.758986091613769531e+01,-1.627112579345703125e+01,-1.195623302459716797e+01,-2.710514068603515625e+00,1.361928343772888184e+00,-4.835337162017822266e+00,-1.106403541564941406e+01,-9.093117713928222656e+00,-7.232809066772460938e+00,-6.708221912384033203e+00,-9.775197029113769531e+00,-1.169911670684814453e+01,-9.991889953613281250e+00,-8.717649459838867188e+00,-2.483765840530395508e+00,1.003634214401245117e+00,-2.076721906661987305e+00,-2.722132444381713867e+00,2.261951684951782227e+00,3.784866571426391602e+00,2.251331090927124023e+00,7.738516330718994141e-01,-1.364592313766479492e+00,-7.262682914733886719e+00,-7.389110088348388672e+00,-8.593774795532226562e+00,-2.034646987915039062e+01
-4.245672225952148438e+00,-1.259843540191650391e+01,-1.559129714965820312e+01,-1.508754253387451172e+01,-8.385159492492675781e+00,-9.672116279602050781e+00,-1.002801799774169922e+01,-6.090251922607421875e+00,-2.443250268697738647e-01,-2.035269260406494141e+00,-8.848200798034667969e+00,-1.198063468933105469e+01,-9.587839126586914062e+00,-5.594199657440185547e+00,-3.769526958465576172e+00,-5.371645450592041016e+00,-6.319828510284423828e+00,-6.963002681732177734e+00,-6.309612751007080078e+00,-7.944091320037841797e+00,-7.047804355621337891e+00,-6.523094177246093750e+00,-7.616767406463623047e+00,-6.789145946502685547e+00,-8.356498718261718750e+00,-5.570574760437011719e+00,-4.544779300689697266e+00,-3.098497629165649414e+00,-5.271456241607666016e+00,-5.919311523437500000e+00,-9.251308441162109375e+00,-1.661268806457519531e+01
-7.192040443420410156e+00,-1.558046460151672363e+00,-6.008705615997314453e+00,-4.400297641754150391e+00,-2.291903734207153320e+00,-6.157246589660644531e+00,-6.032000064849853516e+00,1.807188838720321655e-01,4.895789623260498047e+00,3.566297769546508789e+00,-1.634831666946411133e+00,-5.404056072235107422e+00,-3.874966859817504883e+00,1.751105546951293945e+00,2.271918058395385742e+00,-2.807113230228424072e-01,-1.139262557029724121e+00,-3.611107110977172852e+00,-2.479173421859741211e+00,-8.455799102783203125e+00,-9.191040039062500000e+00,-9.877552032470703125e+00,-1.108409786224365234e+01,-1.130234909057617188e+01,-1.525038528442382812e+01,-1.293731307983398438e+01,-9.968517303466796875e+00,-7.073173522949218750e+00,-6.533573627471923828e+00,-7.073733329772949219e+00,-9.294655799865722656e+00,-7.253314971923828125e+00
-7.648877501487731934e-01,-2.368973255157470703e+00,-1.255388736724853516e+00,8.340013027191162109e-01,-4.051797389984130859e-01,-4.627089500427246094e+00,4.870379269123077393e-01,4.114139080047607422e+00,5.948784351348876953e+00,7.496042728424072266e+00,6.865996837615966797e+00,4.674203872680664062e+00,4.071548461914062500e+00,2.568054199218750000e+00,-1.589630007743835449e+00,-2.073147296905517578e-01,3.092311620712280273e-01,-2.762076854705810547e+00,-4.097801208496093750e+00,-4.991050720214843750e+00,-5.622306823730468750e+00,-5.744602680206298828e+00,-5.616325378417968750e+00,-6.036877155303955078e+00,-8.211502075195312500e+00,-1.066979217529296875e+01,-9.183234214782714844e+00,-7.015839576721191406e+00,-5.711570739746093750e+00,-9.519688606262207031e+00,-1.152577781677246094e+01,-1.639922332763671875e+01
-4.602413177490234375e+00,-6.512474536895751953e+00,-5.632966041564941406e+00,-5.659294605255126953e+00,-3.665588855743408203e+00,-5.711495399475097656e+00,-1.049945950508117676e+00,-2.107281208038330078e+00,-3.670592308044433594e+00,-3.669296026229858398e+00,-1.930687069892883301e+00,-9.506914615631103516e-01,-2.789691209793090820e+00,-6.103567123413085938e+00,-1.045586776733398438e+01,-8.051092147827148438e+00,-7.925308227539062500e+00,-1.067542362213134766e+01,-1.455285453796386719e+01,-1.720169639587402344e+01,-1.789735794067382812e+01,-1.488743114471435547e+01,-1.421862983703613281e+01,-1.780174636840820312e+01,-1.439161682128906250e+01,-1.266464710235595703e+01,-1.619566154479980469e+01,-1.918751335144042969e+01,-1.649615859985351562e+01,-1.520841598510742188e+01,-1.115262126922607422e+01,-1.546881771087646484e+01
-1.535552978515625000e+01,-1.113362193107604980e+00,7.847404479980468750e-01,7.237760722637176514e-02,-2.124168634414672852e+00,-7.490253925323486328e+00,-7.712554454803466797e+00,-6.553859710693359375e+00,-6.514441013336181641e+00,-8.299154281616210938e+00,-1.081518840789794922e+01,-1.164903545379638672e+01,-1.220153331756591797e+01,-8.891121864318847656e+00,-9.257802009582519531e+00,-1.041231727600097656e+01,-1.298357677459716797e+01,-1.626940345764160156e+01,-2.030495834350585938e+01,-2.486877441406250000e+01,-2.429167938232421875e+01,-2.253061676025390625e+01,-2.183003997802734375e+01,-2.089816474914550781e+01,-1.782295036315917969e+01,-1.696102142333984375e+01,-2.105615806579589844e+01,-2.465332603454589844e+01,-2.234482192993164062e+01,-1.208694553375244141e+01,-6.580388069152832031e+00,4.841173648834228516e+00
-4.656885623931884766e+00,1.445960426330566406e+01,1.841869163513183594e+01,1.894272422790527344e+01,9.419588088989257812e+00,-3.918315768241882324e-01,-2.633919954299926758e+00,1.237430691719055176e+00,2.507244586944580078e+00,-7.458333969116210938e-01,-5.565487384796142578e+00,-7.322550296783447266e+00,-5.723902225494384766e+00,-2.194124221801757812e+00,-2.852096796035766602e+00,-3.581742525100708008e+00,-5.722989559173583984e+00,-5.919928550720214844e+00,-6.969480991363525391e+00,-3.291394948959350586e+00,-1.220606923103332520e+00,-2.094857215881347656e+00,-1.880577564239501953e+00,3.052657842636108398e+00,2.715824842453002930e+00,2.277150630950927734e+00,1.789592862129211426e+00,-7.472319006919860840e-01,-2.263245820999145508e+00,8.621584892272949219e+00,1.430338954925537109e+01,2.390811538696289062e+01
6.715806484222412109e+00,1.077897739410400391e+01,5.721354007720947266e+00,5.116206169128417969e+00,4.555442333221435547e+00,3.339672088623046875e+00,1.469966530799865723e+00,2.364645242691040039e+00,6.475315093994140625e-01,-2.166927337646484375e+00,-3.272039175033569336e+00,-2.541238546371459961e+00,-1.016190052032470703e+00,-7.596393227577209473e-01,-1.004500627517700195e+00,-2.456023454666137695e+00,-3.270412921905517578e+00,9.630589485168457031e-01,4.116711616516113281e+00,1.042074966430664062e+01,1.311293697357177734e+01,1.162242984771728516e+01,1.251410007476806641e+01,1.538541412353515625e+01,1.385765647888183594e+01,1.185045146942138672e+01,1.511238861083984375e+01,1.626723861694335938e+01,1.469681835174560547e+01,1.629792594909667969e+01,1.865263748168945312e+01,1.219275951385498047e+01
-6.791787147521972656e+00,-4.250769615173339844e+00,-1.257292366027832031e+01,-1.531736660003662109e+01,-9.015398979187011719e+00,-4.914129257202148438e+00,-6.028774738311767578e+00,-6.417457580566406250e+00,-7.724677562713623047e+00,-5.366717815399169922e+00,-5.058552742004394531e+00,-3.430577039718627930e+00,-3.003293037414550781e+00,-2.424881935119628906e+00,-9.720794558525085449e-01,-3.632820844650268555e+00,-5.446510791778564453e+00,-4.133226394653320312e+00,-1.853232026100158691e+00,4.524613618850708008e-01,2.098456859588623047e+00,1.247072339057922363e+00,2.074952840805053711e+00,3.684023380279541016e+00,2.810749292373657227e+00,3.746430158615112305e+00,4.326126098632812500e+00,5.850757122039794922e+00,5.325352191925048828e+00,6.423673152923583984e+00,7.592166423797607422e+00,-1.189361763000488281e+01
-1.499134063720703125e+01,-1.018120098114013672e+01,-1.022525119781494141e+01,-1.132454776763916016e+01,-1.215684700012207031e+01,-1.082405376434326172e+01,-1.158766651153564453e+01,-7.161553382873535156e+00,-4.210078716278076172e+00,2.738620638847351074e-01,-5.374373912811279297e+00,-7.016820907592773438e+00,-5.904150962829589844e+00,-3.527631521224975586e+00,-2.741314649581909180e+00,-3.416845798492431641e+00,-5.308351516723632812e+00,-9.586871147155761719e+00,-9.739344596862792969e+00,-6.423891544342041016e+00,-5.048537731170654297e+00,-6.711750030517578125e+00,-7.682593345642089844e+00,-3.544181108474731445e+00,-3.292886972427368164e+00,-4.363486766815185547e+00,-6.902193546295166016e+00,-6.855824947357177734e+00,-6.996891021728515625e+00,-6.510241985321044922e+00,-1.156592965126037598e+00,-3.948083400726318359e+00
-2.485916852951049805e+00,-6.269065380096435547e+00,-2.126106500625610352e+00,-9.284859150648117065e-02,-3.921191453933715820e+00,-8.022418975830078125e+00,-1.138764095306396484e+01,-4.066297531127929688e+00,2.718226909637451172e+00,3.545549631118774414e+00,-6.573370933532714844e+00,-1.081331348419189453e+01,-9.106204986572265625e+00,-6.403726577758789062e+00,-4.056967258453369141e+00,-4.095541954040527344e+00,-4.858276844024658203e+00,-6.523416042327880859e+00,-3.393935918807983398e+00,1.312550753355026245e-01,3.833830589428544044e-03,-1.469030022621154785e+00,-2.443628787994384766e+00,-3.102021455764770508e+00,-2.722377300262451172e+00,-3.065563440322875977e+00,-2.424698829650878906e+00,-3.022810935974121094e+00,-2.545429229736328125e+00,-1.847785711288452148e+00,5.222455024719238281e+00,2.869913578033447266e+00
1.680584669113159180e+00,6.422206759452819824e-01,4.190241336822509766e+00,6.158061981201171875e+00,5.766119003295898438e+00,-2.608305454254150391e+00,-8.862360000610351562e+00,-3.091457366943359375e+00,3.170817375183105469e+00,6.645157337188720703e-01,-7.495849609375000000e+00,-1.027700710296630859e+01,-8.748268127441406250e+00,-6.065186023712158203e+00,1.311294674873352051e+00,-9.287762045860290527e-01,-3.358468055725097656e+00,-2.507752418518066406e+00,5.759635448455810547e+00,7.559723854064941406e+00,4.398008346557617188e+00,6.235921978950500488e-01,1.764443755149841309e+00,4.452374935150146484e+00,9.473356246948242188e+00,1.143364429473876953e+01,1.126490402221679688e+01,3.744614601135253906e+00,2.147482872009277344e+00,9.786038398742675781e+00,2.083114051818847656e+01,1.453833770751953125e+01
-6.183183670043945312e+00,-5.281270146369934082e-01,1.326063346862792969e+01,1.390903377532958984e+01,5.669164657592773438e+00,-3.023657083511352539e+00,-4.728963851928710938e+00,3.500004529953002930e+00,5.100069046020507812e+00,6.317973136901855469e-01,-8.310537338256835938e+00,-9.850133895874023438e+00,-7.759149551391601562e+00,-2.992685317993164062e+00,6.217194080352783203e+00,8.963766098022460938e-01,-4.023347377777099609e+00,-4.849865913391113281e+00,5.780658721923828125e+00,1.008248710632324219e+01,3.703981161117553711e+00,-5.025375843048095703e+00,-5.995267391204833984e+00,2.178135871887207031e+00,6.530459403991699219e+00,5.094919204711914062e+00,3.014812707901000977e+00,-3.778177499771118164e+00,-7.277017116546630859e+00,-1.062374114990234375e+00,9.282775878906250000e+00,5.615553379058837891e+00
-9.937807083129882812e+00,-4.729819297790527344e+00,1.845222663879394531e+01,1.666414070129394531e+01,-2.242552042007446289e+00,-1.037062835693359375e+01,-4.161124229431152344e+00,8.121234893798828125e+00,7.700687408447265625e+00,3.185138225555419922e+00,-7.267247200012207031e+00,-9.812374114990234375e+00,-8.069413185119628906e+00,-2.922211408615112305e+00,2.807651042938232422e+00,-5.798576354980468750e+00,-8.230038642883300781e+00,-7.777721405029296875e+00,4.625512599945068359e+00,8.013348579406738281e+00,-3.138390481472015381e-01,-1.056653213500976562e+01,-1.455066871643066406e+01,-1.008712863922119141e+01,-5.737109661102294922e+00,-7.359387874603271484e+00,-1.127358341217041016e+01,-1.568345642089843750e+01,-1.808178138732910156e+01,-1.688985061645507812e+01,-7.050528049468994141e+00,6.447266578674316406e+00
-5.479862213134765625e+00,-3.591289520263671875e+00,8.209153175354003906e+00,7.151697158813476562e+00,-2.721874237060546875e+00,-8.225731849670410156e+00,-2.654671430587768555e+00,7.081406116485595703e+00,5.995274543762207031e+00,5.105688571929931641e+00,4.784446656703948975e-01,-1.026925206184387207e+00,-2.166777610778808594e+00,-3.559279918670654297e+00,-2.800755977630615234e+00,-8.326459884643554688e+00,-6.605750083923339844e+00,-6.461797714233398438e+00,2.154072999954223633e+00,1.084814071655273438e+00,-6.596068382263183594e+00,-1.194401741027832031e+01,-1.190368175506591797e+01,-1.045832824707031250e+01,-7.377300262451171875e+00,-7.021322250366210938e+00,-9.198002815246582031e+00,-1.306628322601318359e+01,-1.313326263427734375e+01,-1.143948936462402344e+01,-4.072766304016113281e+00,9.856325149536132812e+00
-1.212030768394470215e+00,8.782847404479980469e+00,1.282018470764160156e+01,1.407522106170654297e+01,8.695736885070800781e+00,5.130908489227294922e+00,5.142340183258056641e+00,9.352787017822265625e+00,6.698315620422363281e+00,6.150568485260009766e+00,7.406547546386718750e+00,8.396230697631835938e+00,6.075118541717529297e+00,1.504968166351318359e+00,-1.826560854911804199e+00,-9.645044803619384766e-01,2.013209015130996704e-01,-2.327472925186157227e+00,-3.647396087646484375e+00,-4.264123916625976562e+00,-6.991790771484375000e+00,-6.576493263244628906e+00,-3.727529764175415039e+00,-4.713329315185546875e+00,-6.019001483917236328e+00,-6.303151130676269531e+00,-7.188338279724121094e+00,-3.268522739410400391e+00,-3.099717497825622559e-01,-3.245351791381835938e+00,-2.364704847335815430e+00,1.848497581481933594e+01
1.051379299163818359e+01,1.632096672058105469e+01,2.610974693298339844e+01,2.494929313659667969e+01,1.577532577514648438e+01,1.242098617553710938e+01,1.393001461029052734e+01,1.444579887390136719e+01,1.053151416778564453e+01,1.064148616790771484e+01,1.347946357727050781e+01,1.521933650970458984e+01,1.240959453582763672e+01,8.587240219116210938e+00,3.212458372116088867e+00,4.753388881683349609e+00,6.540295600891113281e+00,6.706051826477050781e+00,3.570647165179252625e-02,-1.875299334526062012e+00,-1.388375878334045410e+00,7.038538932800292969e+00,8.628977775573730469e+00,-2.204697847366333008e+00,-9.884041786193847656e+00,-9.591151237487792969e+00,-4.692755222320556641e+00,8.935606002807617188e+00,1.485329723358154297e+01,1.866896390914916992e+00,-7.043768882751464844e+00,1.901181221008300781e+01
1.455319976806640625e+01,1.408248996734619141e+01,2.320070266723632812e+01,1.845145606994628906e+01,1.241002368927001953e+01,1.082897853851318359e+01,1.406479930877685547e+01,1.064313983917236328e+01,8.888967514038085938e+00,1.044610881805419922e+01,1.284801101684570312e+01,1.600075340270996094e+01,1.318346500396728516e+01,9.279870033264160156e+00,3.466386795043945312e+00,6.562018394470214844e+00,1.176022911071777344e+01,1.552518272399902344e+01,9.626926422119140625e+00,3.590323209762573242e+00,3.638072967529296875e+00,1.410719013214111328e+01,1.544386196136474609e+01,1.238053083419799805e+00,-3.009542703628540039e+00,-6.175441741943359375e-01,1.259908795356750488e+00,1.213043308258056641e+01,1.772721862792968750e+01,6.952505111694335938e+00,-5.132027268409729004e-01,1.773128509521484375e+01
8.311887741088867188e+00,9.390953063964843750e+00,2.963135957717895508e+00,2.561334371566772461e+00,1.110136985778808594e+01,1.383107566833496094e+01,1.078686046600341797e+01,4.758262157440185547e+00,4.041665554046630859e+00,2.817961215972900391e+00,5.440706253051757812e+00,1.062280941009521484e+01,1.000498867034912109e+01,5.195984363555908203e+00,-2.139494717121124268e-01,8.660844802856445312e+00,1.513558387756347656e+01,1.598891544342041016e+01,7.918874263763427734e+00,2.662701129913330078e+00,4.553496837615966797e+00,1.293264389038085938e+01,1.351279735565185547e+01,4.561066627502441406e+00,6.738502025604248047e+00,7.155665874481201172e+00,-8.553398847579956055e-01,6.927283763885498047e+00,1.073252677917480469e+01,3.102005958557128906e+00,-1.831778049468994141e+00,1.039165878295898438e+01
7.995024204254150391e+00,8.461071968078613281e+00,3.076014041900634766e+00,9.719511985778808594e+00,1.817712211608886719e+01,1.811359977722167969e+01,1.283253479003906250e+01,1.029341983795166016e+01,6.617434024810791016e+00,2.529229164123535156e+00,6.243548870086669922e+00,9.713994979858398438e+00,1.036055755615234375e+01,4.735381603240966797e+00,2.086480379104614258e+00,9.381737709045410156e+00,1.359013652801513672e+01,1.264599990844726562e+01,3.514090538024902344e+00,-6.492958664894104004e-01,4.328948974609375000e+00,1.372546482086181641e+01,1.440078830718994141e+01,4.512363433837890625e+00,-6.501072883605957031e+00,-1.127452659606933594e+01,-4.386723518371582031e+00,8.008162498474121094e+00,1.010004138946533203e+01,-2.562067985534667969e+00,-1.093132495880126953e+01,-5.050924420356750488e-01
1.032736110687255859e+01,1.019587612152099609e+01,1.604994392395019531e+01,1.766717910766601562e+01,1.524040317535400391e+01,1.152174282073974609e+01,1.118175506591796875e+01,1.006002712249755859e+01,7.419385910034179688e+00,2.764537572860717773e+00,5.057965278625488281e+00,7.934870719909667969e+00,8.850444793701171875e+00,6.664372920989990234e+00,7.395759105682373047e+00,1.040214061737060547e+01,1.087759017944335938e+01,1.257601642608642578e+01,8.191812515258789062e+00,5.719456672668457031e+00,1.038049125671386719e+01,1.585429573059082031e+01,1.703182983398437500e+01,1.001477050781250000e+01,-1.074317932128906250e+00,-2.113358497619628906e+00,1.055495929718017578e+01,1.520185756683349609e+01,1.249823665618896484e+01,5.958987712860107422e+00,2.160233020782470703e+00,1.992243170738220215e+00
1.295859718322753906e+01,7.632418155670166016e+00,9.195656776428222656e+00,6.978051185607910156e+00,8.542341232299804688e+00,7.822256565093994141e+00,8.977247238159179688e+00,4.287680625915527344e+00,2.309055089950561523e+00,1.059449195861816406e+00,5.324310302734375000e+00,9.527552604675292969e+00,8.430405616760253906e+00,4.876757144927978516e+00,5.812287330627441406e+00,1.152714920043945312e+01,1.158789634704589844e+01,1.290139675140380859e+01,1.066079807281494141e+01,1.258458614349365234e+01,1.560433578491210938e+01,1.316759204864501953e+01,1.235385990142822266e+01,1.709864997863769531e+01,1.555225276947021484e+01,1.579261779785156250e+01,2.052327346801757812e+01,1.606918716430664062e+01,1.167467880249023438e+01,1.593250274658203125e+01,1.495948791503906250e+01,-3.828086555004119873e-01
1.215535736083984375e+01,-3.590039968490600586e+00,-1.268773174285888672e+01,-1.223466300964355469e+01,7.742837667465209961e-01,5.192502498626708984e+00,5.239917278289794922e+00,-1.469563126564025879e+00,-3.284213542938232422e+00,1.925226926803588867e+00,8.578333854675292969e+00,8.985824584960937500e+00,6.932497501373291016e+00,3.024755477905273438e+00,3.891867876052856445e+00,5.952897071838378906e+00,6.735323905944824219e+00,7.916172027587890625e+00,8.363183021545410156e+00,9.152822494506835938e+00,9.016161918640136719e+00,4.316061973571777344e+00,1.306231617927551270e+00,1.041415977478027344e+01,1.065116214752197266e+01,9.795254707336425781e+00,1.074578666687011719e+01,5.570277690887451172e+00,4.295064449310302734e+00,1.114425945281982422e+01,4.375367164611816406e+00,-1.890028953552246094e+01
7.979145050048828125e+00,3.682280063629150391e+00,-4.096008300781250000e+00,-7.346368789672851562e+00,-3.210196971893310547e+00,2.909667253494262695e+00,3.181434392929077148e+00,-3.918205261230468750e+00,-4.253838062286376953e+00,-6.497424840927124023e-01,3.040506124496459961e+00,3.243616342544555664e+00,2.025624036788940430e+00,2.255533456802368164e+00,2.716162204742431641e+00,1.320571899414062500e-01,2.707306444644927979e-01,7.608245611190795898e-01,1.577032923698425293e+00,3.987013921141624451e-02,-8.114813566207885742e-01,-1.747347116470336914e+00,-2.795520305633544922e+00,2.595833301544189453e+00,1.190235042572021484e+01,1.695461082458496094e+01,9.711225509643554688e+00,1.451683044433593750e+00,2.363970994949340820e+00,1.394331836700439453e+01,1.484700202941894531e+01,1.049821472167968750e+01
-7.245996475219726562e+00,-2.968882322311401367e+00,-8.596164703369140625e+00,-1.124355697631835938e+01,-1.171177959442138672e+01,-6.422620296478271484e+00,-6.371229171752929688e+00,-1.197707557678222656e+01,-1.098650741577148438e+01,-1.058639717102050781e+01,-1.055597209930419922e+01,-9.287209510803222656e+00,-1.035720825195312500e+01,-5.105633735656738281e+00,-4.569752216339111328e+00,-6.252511501312255859e+00,-9.424139976501464844e+00,-9.936920166015625000e+00,-9.849159240722656250e+00,-7.847685813903808594e+00,-5.967709064483642578e+00,-8.640802383422851562e+00,-7.986359596252441406e+00,-2.224714040756225586e+00,1.169003963470458984e+01,1.694195747375488281e+01,6.057979106903076172e+00,-6.582497119903564453e+00,-7.370351314544677734e+00,7.842656135559082031e+00,1.553608703613281250e+01,1.340315055847167969e+01
-7.706485271453857422e+00,-6.117897987365722656e+00,-1.934011650085449219e+01,-1.726025772094726562e+01,-1.261730003356933594e+01,-8.223614692687988281e+00,-1.204492568969726562e+01,-1.483975124359130859e+01,-1.051744842529296875e+01,-9.651527404785156250e+00,-8.959799766540527344e+00,-9.167893409729003906e+00,-9.837135314941406250e+00,-4.552083492279052734e+00,-3.613964080810546875e+00,-5.495865345001220703e+00,-6.591904163360595703e+00,-7.478462696075439453e+00,-6.521655559539794922e+00,-5.115569591522216797e+00,-4.301433563232421875e+00,-7.704186439514160156e+00,-5.975825786590576172e+00,-6.822197437286376953e-01,7.965019702911376953e+00,9.560375213623046875e+00,4.570582866668701172e+00,-3.627969026565551758e+00,-4.517337799072265625e+00,3.400164842605590820e+00,6.616304397583007812e+00,1.012553095817565918e+00
9.975981712341308594e+00,8.489435195922851562e+00,-8.694014549255371094e+00,-6.592930793762207031e+00,-4.925405502319335938e+00,4.178343772888183594e+00,1.477002143859863281e+00,-1.980356693267822266e+00,2.012361735105514526e-01,1.024072617292404175e-01,4.525664329528808594e+00,7.065528392791748047e+00,6.983890056610107422e+00,8.458146095275878906e+00,8.593811988830566406e+00,7.634376049041748047e+00,1.010951328277587891e+01,1.119613552093505859e+01,1.087552928924560547e+01,1.001221084594726562e+01,8.417556762695312500e+00,9.309205055236816406e+00,1.107854747772216797e+01,1.129344367980957031e+01,1.385842037200927734e+01,1.215677165985107422e+01,1.288776493072509766e+01,1.139431476593017578e+01,1.171442222595214844e+01,1.228182888031005859e+01,1.033377265930175781e+01,1.111140060424804688e+01
1.500466918945312500e+01,1.027838420867919922e+01,-2.603277921676635742e+00,-4.449791431427001953e+00,-7.292507648468017578e+00,1.180550289154052734e+01,1.214945030212402344e+01,7.906734943389892578e-01,-3.158987283706665039e+00,-1.659282326698303223e+00,9.055119514465332031e+00,1.262759017944335938e+01,1.079032325744628906e+01,8.680746078491210938e+00,6.190239429473876953e+00,7.586099624633789062e+00,8.831420898437500000e+00,1.612374496459960938e+01,1.282701492309570312e+01,1.398916339874267578e+01,1.447953701019287109e+01,1.899239921569824219e+01,1.844767379760742188e+01,1.498141384124755859e+01,1.296175670623779297e+01,7.029617309570312500e+00,1.005206871032714844e+01,1.246097087860107422e+01,1.126229667663574219e+01,7.436559200286865234e+00,3.714349269866943359e+00,4.262763977050781250e+00
1.404466247558593750e+01,6.709286689758300781e+00,-9.593175053596496582e-01,-1.416167497634887695e+00,-5.220383167266845703e+00,1.322365093231201172e+01,1.176266288757324219e+01,-7.790349125862121582e-01,-4.223128795623779297e+00,-1.734105110168457031e+00,1.024576473236083984e+01,1.346886920928955078e+01,8.840234756469726562e+00,8.944078087806701660e-01,-3.354501247406005859e+00,1.202502131462097168e+00,5.418359279632568359e+00,1.186587238311767578e+01,5.699370861053466797e+00,3.858267545700073242e+00,6.443360328674316406e+00,1.559714889526367188e+01,1.609727096557617188e+01,9.038617134094238281e+00,2.101591587066650391e+00,-2.513823986053466797e+00,4.410157203674316406e+00,1.148069286346435547e+01,8.716845512390136719e+00,-6.839419603347778320e-01,-7.413755416870117188e+00,-6.608352184295654297e+00
2.355653762817382812e+01,1.197221946716308594e+01,5.208283901214599609e+00,4.570558547973632812e+00,4.107457637786865234e+00,1.663230323791503906e+01,1.282391929626464844e+01,2.236276388168334961e+00,3.906043291091918945e+00,4.469235897064208984e+00,1.242621612548828125e+01,1.837034225463867188e+01,1.475528907775878906e+01,4.977594852447509766e+00,3.827275991439819336e+00,1.107970714569091797e+01,1.605655288696289062e+01,1.673708152770996094e+01,1.202548313140869141e+01,5.367033004760742188e+00,6.050206184387207031e+00,1.557477855682373047e+01,1.751613998413085938e+01,1.002507877349853516e+01,4.531012058258056641e+00,6.203022956848144531e+00,1.329193019866943359e+01,2.003018569946289062e+01,1.819696617126464844e+01,1.257586193084716797e+01,4.095625400543212891e+00,7.205271720886230469e+00
1.817747116088867188e+01,2.002710580825805664e+00,-1.835268378257751465e+00,-3.201618432998657227e+00,-2.680011510848999023e+00,7.213888645172119141e+00,5.832339286804199219e+00,-4.674016952514648438e+00,-2.114689111709594727e+00,-3.014535188674926758e+00,3.177298069000244141e+00,1.087479496002197266e+01,9.025458335876464844e+00,4.510823249816894531e+00,6.768752574920654297e+00,1.373286056518554688e+01,1.413360786437988281e+01,1.462094497680664062e+01,1.437060546875000000e+01,1.051461791992187500e+01,8.361635208129882812e+00,9.094015121459960938e+00,7.060538768768310547e+00,6.790464878082275391e+00,7.841502189636230469e+00,1.134817504882812500e+01,1.051348018646240234e+01,1.073947334289550781e+01,1.000112056732177734e+01,1.595977783203125000e+01,1.271392631530761719e+01,1.290614223480224609e+01
-4.489205837249755859e+00,-1.911337471008300781e+01,-1.786368751525878906e+01,-1.585412311553955078e+01,-1.699547958374023438e+01,-1.017106437683105469e+01,-7.789328098297119141e+00,-1.251355552673339844e+01,-1.134543228149414062e+01,-1.081114864349365234e+01,-7.568711280822753906e+00,-5.147399425506591797e+00,-7.754434108734130859e+00,-7.269620418548583984e+00,-2.340528964996337891e+00,-1.565866351127624512e+00,-9.851449131965637207e-01,3.206867456436157227e+00,8.090003967285156250e+00,9.694491386413574219e+00,5.829604625701904297e+00,-1.283558607101440430e+00,-5.723161697387695312e+00,-5.010881900787353516e+00,-1.108216404914855957e+00,-3.924580812454223633e-01,-2.805243968963623047e+00,-9.179862976074218750e+00,-1.151994800567626953e+01,-7.293315887451171875e+00,-6.213515281677246094e+00,-1.104085731506347656e+01
-1.253859806060791016e+01,-1.968700981140136719e+01,-1.192220687866210938e+01,-8.180892944335937500e+00,-1.667327117919921875e+01,-1.600582122802734375e+01,-1.581816864013671875e+01,-1.101751518249511719e+01,-4.268651008605957031e+00,-5.928456783294677734e+00,-1.217159938812255859e+01,-1.529099559783935547e+01,-1.495609378814697266e+01,-1.078252983093261719e+01,-4.643240928649902344e+00,-9.649115562438964844e+00,-8.425111770629882812e+00,-1.796281695365905762e+00,5.910439491271972656e+00,9.375051498413085938e+00,4.724270820617675781e+00,-2.749779939651489258e+00,-4.610507965087890625e+00,-5.638407707214355469e+00,-5.451949834823608398e-01,-1.102730274200439453e+00,-2.436900138854980469e+00,-1.270307731628417969e+01,-1.473346424102783203e+01,-1.424921226501464844e+01,-1.268658256530761719e+01,-2.076911354064941406e+01
-7.648427486419677734e-01,-7.113458633422851562e+00,2.787674069404602051e-01,-3.602907806634902954e-02,-7.188133239746093750e+00,-8.825566291809082031e+00,-8.916481018066406250e+00,-3.403590679168701172e+00,-6.347174644470214844e-01,-3.925859689712524414e+00,-9.466142654418945312e+00,-7.794063568115234375e+00,-7.659883022308349609e+00,-4.982955455780029297e+00,1.362889766693115234e+00,-2.854025840759277344e+00,-4.451691150665283203e+00,-2.007561326026916504e-01,2.528139591217041016e+00,9.167646408081054688e+00,6.389848709106445312e+00,8.312034010887145996e-01,-8.398769795894622803e-02,2.671836137771606445e+00,1.160020923614501953e+01,9.555387496948242188e+00,6.229979038238525391e+00,-1.591563820838928223e+00,-2.983043432235717773e+00,9.363108277320861816e-01,2.172593116760253906e+00,3.411918580532073975e-01
4.767914712429046631e-01,-6.607036590576171875e+00,-7.184476375579833984e+00,-1.060127162933349609e+01,-6.649227619171142578e+00,-2.809604883193969727e+00,-1.794004440307617188e+00,-3.987960577011108398e+00,-8.273832321166992188e+00,-4.907188415527343750e+00,-3.797801256179809570e+00,-3.453445434570312500e+00,-7.124269008636474609e+00,-4.610692501068115234e+00,3.916249275207519531e-01,-7.397295951843261719e+00,-1.008557701110839844e+01,-1.040157794952392578e+01,-1.146318435668945312e+01,-5.673291683197021484e+00,-6.743572711944580078e+00,-9.399693489074707031e+00,-8.711536407470703125e+00,-6.740773677825927734e+00,-9.713053703308105469e-01,-1.876253485679626465e+00,-3.601742982864379883e+00,-3.686880350112915039e+00,-2.735493898391723633e+00,-6.450690031051635742e-01,-8.507527351379394531e+00,-1.144711685180664062e+01
-1.584721469879150391e+01,-2.092716598510742188e+01,-2.119937705993652344e+01,-2.186904335021972656e+01,-1.654070472717285156e+01,-1.230469131469726562e+01,-1.393103027343750000e+01,-1.368816566467285156e+01,-9.576178550720214844e+00,-3.136820554733276367e+00,-8.971452713012695312e+00,-1.726211929321289062e+01,-1.694129180908203125e+01,-7.659463882446289062e+00,-5.380144119262695312e+00,-1.562809276580810547e+01,-2.107485198974609375e+01,-2.210046005249023438e+01,-1.842977905273437500e+01,-1.789999771118164062e+01,-1.861210441589355469e+01,-2.143226432800292969e+01,-2.107636260986328125e+01,-1.982327270507812500e+01,-1.504481220245361328e+01,-1.424111175537109375e+01,-1.688117408752441406e+01,-1.953438186645507812e+01,-1.889130783081054688e+01,-1.869757080078125000e+01,-2.915346336364746094e+01,-3.556270980834960938e+01
-1.297346210479736328e+01,-1.234155559539794922e+01,-6.377350330352783203e+00,-5.400180339813232422e+00,-6.396493911743164062e+00,-6.151120185852050781e+00,-9.767089843750000000e+00,-6.087944984436035156e+00,-1.407286405563354492e+00,-1.295392960309982300e-01,-8.810802459716796875e+00,-1.550677204132080078e+01,-1.481380367279052734e+01,-9.774845123291015625e+00,-1.063863754272460938e+01,-1.276963138580322266e+01,-1.597160243988037109e+01,-1.227869033813476562e+01,-1.132963657379150391e+01,-1.121488857269287109e+01,-1.075032997131347656e+01,-1.170942306518554688e+01,-1.343848228454589844e+01,-1.013147926330566406e+01,-4.009220123291015625e+00,-2.026202678680419922e+00,-5.787114620208740234e+00,-1.537012481689453125e+01,-1.671608543395996094e+01,-1.007516860961914062e+01,-1.360305213928222656e+01,-1.379783916473388672e+01
-1.875573158264160156e+00,-2.680190086364746094e+00,1.027496051788330078e+01,8.266696929931640625e+00,4.473312497138977051e-01,-2.383944034576416016e+00,-2.201655149459838867e+00,1.801727056503295898e+00,-2.490492016077041626e-01,-1.171503067016601562e+00,-5.572055816650390625e+00,-5.963212966918945312e+00,-9.863710403442382812e+00,-1.042316532135009766e+01,-1.281300067901611328e+01,-9.745962142944335938e+00,-9.081948280334472656e+00,-3.027314424514770508e+00,-5.093595981597900391e+00,-5.106849670410156250e+00,-3.871174097061157227e+00,-3.765968084335327148e+00,-6.224296569824218750e+00,-1.710052013397216797e+00,6.199673175811767578e+00,7.113608837127685547e+00,2.066693544387817383e+00,-6.398910999298095703e+00,-5.044275760650634766e+00,1.433129072189331055e+00,1.056521534919738770e+00,5.017337322235107422e+00
6.877046585083007812e+00,-5.292278766632080078e+00,1.249591732025146484e+01,1.063951683044433594e+01,2.344104528427124023e+00,-3.395481824874877930e+00,-6.743233799934387207e-01,4.724195957183837891e+00,2.542290449142456055e+00,1.347336530685424805e+00,-3.205705165863037109e+00,6.641837358474731445e-01,-2.595263481140136719e+00,-3.452663183212280273e+00,-4.247284889221191406e+00,1.878874540328979492e+00,1.982170820236206055e+00,5.876973628997802734e+00,4.481913566589355469e+00,-9.795815944671630859e-01,1.085915835574269295e-03,4.975559234619140625e+00,4.379498481750488281e+00,2.361010789871215820e+00,3.814682006835937500e+00,4.708782196044921875e+00,6.136938095092773438e+00,3.221563577651977539e+00,3.920883655548095703e+00,1.397852063179016113e+00,-2.585858345031738281e+00,-6.103184446692466736e-02
1.757134628295898438e+01,3.486737251281738281e+00,5.223682403564453125e+00,7.366194248199462891e+00,1.338806247711181641e+01,1.035030841827392578e+01,9.085770606994628906e+00,8.746702194213867188e+00,6.940215110778808594e+00,3.546912193298339844e+00,2.969984769821166992e+00,9.929752349853515625e+00,7.883438110351562500e+00,8.924366831779479980e-01,-2.961687147617340088e-01,9.589715003967285156e+00,1.193353843688964844e+01,1.290076637268066406e+01,9.883816719055175781e+00,4.711483955383300781e+00,4.923924922943115234e+00,1.268901824951171875e+01,1.511674499511718750e+01,9.273723602294921875e+00,6.315847873687744141e+00,6.209224224090576172e+00,1.208667850494384766e+01,1.424386405944824219e+01,1.303070163726806641e+01,9.532262802124023438e+00,2.517329216003417969e+00,-3.520098701119422913e-02
1.464023876190185547e+01,5.143938541412353516e+00,-4.838175773620605469e+00,-3.066643953323364258e+00,7.763939857482910156e+00,8.391581535339355469e+00,6.083832740783691406e+00,2.801476001739501953e+00,1.792729854583740234e+00,2.239622354507446289e+00,4.936069488525390625e+00,1.032745170593261719e+01,9.588263511657714844e+00,3.056671142578125000e+00,-2.872935533523559570e-01,5.852283000946044922e+00,1.033263969421386719e+01,9.499591827392578125e+00,8.347601890563964844e+00,7.177131652832031250e+00,6.158443450927734375e+00,7.448689937591552734e+00,9.992924690246582031e+00,1.022353458404541016e+01,8.500927925109863281e+00,6.347578525543212891e+00,9.592381477355957031e+00,1.326238727569580078e+01,1.175286865234375000e+01,9.995572090148925781e+00,1.842408180236816406e+00,-2.519884705543518066e-01
7.974584102630615234e+00,-7.385683059692382812e+00,-1.270472717285156250e+01,-1.197046375274658203e+01,-3.585355997085571289e+00,-2.086277961730957031e+00,-2.255809545516967773e+00,-5.068224430084228516e+00,-4.572284698486328125e+00,-7.744941711425781250e-01,2.048433065414428711e+00,5.795837402343750000e+00,6.539047241210937500e+00,4.858412265777587891e+00,-7.263606190681457520e-01,2.350996732711791992e+00,7.392581462860107422e+00,4.908353805541992188e+00,3.993127107620239258e+00,9.185572862625122070e-01,-1.004036307334899902e+00,2.450052022933959961e+00,7.717262268066406250e+00,6.519306659698486328e+00,-2.924403250217437744e-01,-4.344526290893554688e+00,3.568613052368164062e+00,9.877912521362304688e+00,7.289728641510009766e+00,1.087292075157165527e+00,-1.151095867156982422e+01,-1.859831619262695312e+01
-4.224804341793060303e-01,-1.471771526336669922e+01,-1.671678352355957031e+01,-1.588068771362304688e+01,-8.440452575683593750e+00,-9.357829093933105469e+00,-1.079497337341308594e+01,-1.143826770782470703e+01,-9.297266960144042969e+00,-8.505884170532226562e+00,-8.165731430053710938e+00,-5.358773231506347656e+00,-2.386054277420043945e+00,2.298172712326049805e+00,-2.565653324127197266e+00,-4.204930305480957031e+00,-2.676632404327392578e+00,-8.568205833435058594e+00,-8.472808837890625000e+00,-9.416600227355957031e+00,-1.010339546203613281e+01,-8.573321342468261719e+00,-3.249946832656860352e+00,-2.252529621124267578e+00,-6.746073722839355469e+00,-9.979797363281250000e+00,-3.957651615142822266e+00,9.944913387298583984e-01,-2.882949352264404297e+00,-5.960453033447265625e+00,-1.737680244445800781e+01,-2.649998283386230469e+01
-1.214515972137451172e+01,-1.508307456970214844e+01,-2.027884864807128906e+01,-2.086548805236816406e+01,-1.436614131927490234e+01,-1.647775650024414062e+01,-1.645549201965332031e+01,-1.333586311340332031e+01,-1.128079605102539062e+01,-1.131667423248291016e+01,-1.343905639648437500e+01,-1.340355777740478516e+01,-1.115766811370849609e+01,-4.165184974670410156e+00,-4.121055603027343750e-01,-1.091025924682617188e+01,-1.243846416473388672e+01,-1.929681777954101562e+01,-1.813514900207519531e+01,-1.520415687561035156e+01,-1.539752674102783203e+01,-2.021005439758300781e+01,-1.771812438964843750e+01,-1.266324043273925781e+01,-7.549833297729492188e+00,-6.440823078155517578e+00,-1.165688991546630859e+01,-1.092982769012451172e+01,-1.369840621948242188e+01,-9.471184730529785156e+00,-1.494157505035400391e+01,-2.080040359497070312e+01
-1.126386642456054688e+01,-1.532902908325195312e+01,-2.334888076782226562e+01,-2.019271659851074219e+01,-9.256706237792968750e+00,-1.017184638977050781e+01,-8.962214469909667969e+00,-7.171666145324707031e+00,-4.438382625579833984e+00,-3.671590805053710938e+00,-5.548070907592773438e+00,-9.275295257568359375e+00,-9.815501213073730469e+00,-7.916092395782470703e+00,-3.612782001495361328e+00,-1.655340957641601562e+01,-1.681910514831542969e+01,-1.950396347045898438e+01,-1.744473075866699219e+01,-1.433812236785888672e+01,-1.575645732879638672e+01,-1.804846191406250000e+01,-1.398930358886718750e+01,-1.504677009582519531e+01,-1.048829364776611328e+01,-6.550164222717285156e+00,-1.287697124481201172e+01,-1.205565643310546875e+01,-1.098777484893798828e+01,-6.156054496765136719e+00,-1.353019618988037109e+01,-2.118074989318847656e+01
-2.005835056304931641e+00,-7.040129661560058594e+00,-1.596302986145019531e+01,-1.107758522033691406e+01,1.278807997703552246e+00,2.235957384109497070e+00,8.481271564960479736e-02,-1.612763851881027222e-01,3.701805591583251953e+00,3.135870695114135742e+00,5.131599903106689453e-01,-5.271218776702880859e+00,-5.855480670928955078e+00,-5.304844379425048828e+00,-9.319576263427734375e+00,-1.539467716217041016e+01,-1.793717384338378906e+01,-2.151639556884765625e+01,-1.613609504699707031e+01,-1.013608741760253906e+01,-1.031860542297363281e+01,-1.354415988922119141e+01,-9.834570884704589844e+00,-1.215839290618896484e+01,-1.224646472930908203e+01,-9.455645561218261719e+00,-9.593630790710449219e+00,-8.006294250488281250e+00,-4.772587776184082031e+00,2.012939304113388062e-01,-1.095004177093505859e+01,-1.445377445220947266e+01
4.062569141387939453e+00,8.148802757263183594e+00,-7.629433870315551758e-01,-2.617132425308227539e+00,2.365160465240478516e+00,8.678219795227050781e+00,8.416114807128906250e+00,7.148194789886474609e+00,4.008366584777832031e+00,4.835833549499511719e+00,6.941580772399902344e+00,7.821969985961914062e+00,4.773974418640136719e+00,1.548577427864074707e+00,-7.568722724914550781e+00,-4.716035842895507812e+00,-2.523285388946533203e+00,-5.279571533203125000e+00,-3.910795450210571289e+00,-2.370847225189208984e+00,-2.845574617385864258e+00,-5.131531238555908203e+00,-2.096962928771972656e+00,-5.430997848510742188e+00,-9.328233718872070312e+00,-9.654183387756347656e+00,-3.677240371704101562e+00,1.127426743507385254e+00,3.732272863388061523e+00,4.491540908813476562e+00,-8.125287055969238281e+00,-5.270906448364257812e+00
1.288517856597900391e+01,1.154606056213378906e+01,8.628768920898437500e+00,6.960612297058105469e+00,7.608891010284423828e+00,1.339431190490722656e+01,1.690354728698730469e+01,1.313018512725830078e+01,5.883713245391845703e+00,5.817871093750000000e+00,1.182975864410400391e+01,1.583243370056152344e+01,1.045337295532226562e+01,1.961162924766540527e+00,-7.520995616912841797e+00,-4.980264306068420410e-01,6.064991474151611328e+00,7.850214481353759766e+00,6.496214389801025391e+00,1.722869038581848145e+00,4.118502140045166016e-01,6.003916263580322266e+00,9.730973243713378906e+00,3.643690109252929688e+00,-5.101089954376220703e+00,-5.453684329986572266e+00,4.119037628173828125e+00,1.222966003417968750e+01,1.452004241943359375e+01,8.002720832824707031e+00,-3.888778924942016602e+00,-8.193558692932128906e+00
1.230646228790283203e+01,2.889875411987304688e+00,9.856112003326416016e-01,7.043374061584472656e+00,1.257191181182861328e+01,1.207803821563720703e+01,1.157984542846679688e+01,8.607705116271972656e+00,8.488075256347656250e+00,6.705321788787841797e+00,9.477811813354492188e+00,1.195256996154785156e+01,1.083097839355468750e+01,3.144505977630615234e+00,-1.915034651756286621e+00,5.764974594116210938e+00,9.417584419250488281e+00,9.643469810485839844e+00,1.264667510986328125e+01,8.201307296752929688e+00,7.309591770172119141e+00,1.031893157958984375e+01,1.054162216186523438e+01,8.214791297912597656e+00,3.496555089950561523e+00,3.296443462371826172e+00,8.193902969360351562e+00,1.045730972290039062e+01,9.382838249206542969e+00,5.859562873840332031e+00,2.159048557281494141e+00,-4.948677539825439453e+00
2.060182094573974609e+00,-3.487192630767822266e+00,-4.209080219268798828e+00,-8.259609937667846680e-01,4.041918754577636719e+00,2.978635549545288086e+00,3.626052379608154297e+00,4.058259963989257812e+00,6.361255168914794922e+00,7.582884311676025391e+00,7.767175197601318359e+00,8.385576248168945312e+00,9.355926513671875000e+00,6.864787578582763672e+00,8.590272903442382812e+00,7.951873302459716797e+00,9.897253990173339844e+00,8.420727729797363281e+00,1.065888309478759766e+01,1.047200870513916016e+01,1.055164337158203125e+01,5.761722564697265625e+00,3.592263698577880859e+00,4.486961841583251953e+00,6.705262184143066406e+00,6.300180435180664062e+00,4.807724952697753906e+00,2.089264154434204102e+00,-2.743141889572143555e+00,-3.656549453735351562e+00,3.791187405586242676e-01,-5.641250133514404297e+00
-6.861263275146484375e+00,-9.950558662414550781e+00,-3.529694795608520508e+00,-4.991096496582031250e+00,-7.059150695800781250e+00,-7.553279399871826172e+00,-3.358178377151489258e+00,-2.263490915298461914e+00,-2.640810489654541016e+00,-2.234228849411010742e+00,-2.250064849853515625e+00,-4.577270507812500000e+00,-4.634461879730224609e+00,1.335082411766052246e+00,9.339278221130371094e+00,-1.209572911262512207e+00,-5.216829776763916016e+00,-3.722765445709228516e+00,7.820242643356323242e-01,4.782268524169921875e+00,3.041616201400756836e+00,-3.989269018173217773e+00,-4.627027034759521484e+00,-3.694095849990844727e+00,-1.086099267005920410e+00,-1.189939752221107483e-01,-2.536015033721923828e+00,-4.528971195220947266e+00,-7.186229705810546875e+00,-9.213532447814941406e+00,-5.412550449371337891e+00,-1.701524543762207031e+01
-8.715803146362304688e+00,-1.322780132293701172e+01,-8.828101158142089844e+00,-8.457248687744140625e+00,-1.087182998657226562e+01,-1.218419647216796875e+01,-1.240380382537841797e+01,-1.171670818328857422e+01,-1.239528274536132812e+01,-1.210845661163330078e+01,-1.151598262786865234e+01,-1.020172595977783203e+01,-9.554974555969238281e+00,-5.382078170776367188e+00,3.371526718139648438e+00,5.510974526405334473e-01,-3.213858366012573242e+00,1.302841186523437500e+00,7.336381912231445312e+00,7.358352661132812500e+00,2.843312740325927734e+00,-1.902684807777404785e+00,-6.205461025238037109e+00,-4.331948280334472656e+00,-3.397004127502441406e+00,-3.216247320175170898e+00,-6.450099945068359375e+00,-8.607714653015136719e+00,-8.213244438171386719e+00,-7.653467655181884766e+00,-5.150258541107177734e+00,-1.421965503692626953e+01
-1.000183296203613281e+01,-6.083072185516357422e+00,-8.440380096435546875e+00,-9.848394393920898438e+00,-1.054595470428466797e+01,-1.245709133148193359e+01,-1.629446792602539062e+01,-1.421535110473632812e+01,-1.016941452026367188e+01,-7.771390438079833984e+00,-1.038096141815185547e+01,-1.206143665313720703e+01,-9.065848350524902344e+00,-5.537316322326660156e+00,4.415089786052703857e-01,2.889763712882995605e-01,-5.287673473358154297e-01,4.574664592742919922e+00,8.322224617004394531e+00,5.815098285675048828e+00,3.507257223129272461e+00,-8.164498209953308105e-01,-7.486918926239013672e+00,-4.217560291290283203e+00,-1.472764611244201660e+00,-8.854321241378784180e-01,-5.386226177215576172e+00,-9.803620338439941406e+00,-9.700999259948730469e+00,-7.360369682312011719e+00,-1.000829219818115234e+00,3.387306451797485352e+00
-1.632073783874511719e+01,-3.657905101776123047e+00,1.479247212409973145e+00,-2.589640378952026367e+00,-9.677152633666992188e+00,-1.432217884063720703e+01,-1.378754425048828125e+01,-9.621311187744140625e+00,-4.852902412414550781e+00,-3.403271913528442383e+00,-7.812551498413085938e+00,-1.413293933868408203e+01,-1.022748088836669922e+01,-1.930478811264038086e+00,5.405164241790771484e+00,-1.060781598091125488e+00,-5.790452480316162109e+00,-2.939579725265502930e+00,2.713644742965698242e+00,-3.664949536323547363e-02,-1.322389483451843262e+00,-7.273060321807861328e+00,-1.148266506195068359e+01,-8.978490829467773438e+00,-4.477823734283447266e+00,-2.220478296279907227e+00,-4.498759746551513672e+00,-1.230166912078857422e+01,-1.142018127441406250e+01,-7.634100437164306641e+00,3.241380691528320312e+00,8.078197479248046875e+00
-1.529277801513671875e+01,-5.809037685394287109e+00,3.634858131408691406e+00,5.939130187034606934e-01,-1.143446922302246094e+01,-1.302900123596191406e+01,-8.940559387207031250e+00,-5.162030696868896484e+00,-5.050549507141113281e+00,-5.064807415008544922e+00,-6.218781948089599609e+00,-1.099623584747314453e+01,-1.065887546539306641e+01,-6.915977954864501953e+00,-2.814275026321411133e-01,-4.944673061370849609e+00,-1.096253681182861328e+01,-1.024930095672607422e+01,-4.134806156158447266e+00,-3.589441537857055664e+00,-3.974069595336914062e+00,-1.082706260681152344e+01,-1.458545589447021484e+01,-1.071702289581298828e+01,-7.900959491729736328e+00,-6.670158863067626953e+00,-8.750192642211914062e+00,-1.622187423706054688e+01,-1.394710731506347656e+01,-9.009380340576171875e+00,2.138748407363891602e+00,3.272850513458251953e+00
-1.516776371002197266e+01,-1.005405998229980469e+01,-7.911111354827880859e+00,-8.695511817932128906e+00,-1.729718780517578125e+01,-1.331372165679931641e+01,-1.283116149902343750e+01,-8.321549415588378906e+00,-7.998533725738525391e+00,-4.803202152252197266e+00,-8.300611495971679688e+00,-1.380590820312500000e+01,-1.335701942443847656e+01,-1.019324398040771484e+01,-8.757962226867675781e+00,-1.300729942321777344e+01,-1.606464385986328125e+01,-1.625153923034667969e+01,-9.996170997619628906e+00,-2.158614158630371094e+00,-7.401084303855895996e-01,-1.069717025756835938e+01,-1.396463775634765625e+01,-7.378907680511474609e+00,-5.179476737976074219e+00,-8.472158432006835938e+00,-1.460448169708251953e+01,-1.831988525390625000e+01,-1.892199707031250000e+01,-1.654896926879882812e+01,-8.191447257995605469e+00,-1.968441486358642578e+00
-1.457641601562500000e+01,-7.390629291534423828e+00,-4.271764278411865234e+00,-3.544296503067016602e+00,-8.104336738586425781e+00,-7.736871719360351562e+00,-8.816218376159667969e+00,-3.853895425796508789e+00,-3.173662900924682617e+00,1.556658148765563965e-01,-5.660284519195556641e+00,-1.037416076660156250e+01,-7.863816738128662109e+00,-1.859353542327880859e+00,-4.625061750411987305e-01,-7.019037246704101562e+00,-9.644276618957519531e+00,-1.030304431915283203e+01,-3.128354549407958984e+00,6.882301568984985352e-01,3.684936761856079102e-01,-7.847038269042968750e+00,-7.622062683105468750e+00,-2.717287778854370117e+00,3.931472450494766235e-02,-4.393375396728515625e+00,-9.077573776245117188e+00,-1.118375110626220703e+01,-1.176710319519042969e+01,-1.392656803131103516e+01,-8.682370185852050781e+00,-6.396577954292297363e-01
-1.443887042999267578e+01,-1.029221439361572266e+01,-3.153776526451110840e-01,8.301467299461364746e-01,-3.256001949310302734e+00,-7.903233051300048828e+00,-7.540691375732421875e+00,-5.426643848419189453e+00,-3.202701330184936523e+00,-3.800095081329345703e+00,-9.065037727355957031e+00,-1.183499431610107422e+01,-1.014062595367431641e+01,-4.140957832336425781e+00,-2.326375544071197510e-01,-4.490961551666259766e+00,-9.643282890319824219e+00,-1.093864440917968750e+01,-6.557111263275146484e+00,-5.624930381774902344e+00,-6.040186405181884766e+00,-9.960501670837402344e+00,-9.347557067871093750e+00,-7.434524536132812500e+00,-2.282501935958862305e+00,-3.113454103469848633e+00,-6.483821868896484375e+00,-9.008737564086914062e+00,-5.861481189727783203e+00,-6.298631191253662109e+00,-4.853061199188232422e+00,-3.656309604644775391e+00
-6.263042449951171875e+00,-8.490201950073242188e+00,-2.604375839233398438e+00,-4.170563220977783203e+00,-9.027475357055664062e+00,-9.774651527404785156e+00,-7.731994152069091797e+00,-7.596476554870605469e+00,-5.644448280334472656e+00,-7.925931453704833984e+00,-1.200073432922363281e+01,-1.317002201080322266e+01,-1.239036083221435547e+01,-1.080254840850830078e+01,-9.850605010986328125e+00,-7.244787693023681641e+00,-9.019351959228515625e+00,-1.157399082183837891e+01,-1.457944393157958984e+01,-1.155164146423339844e+01,-8.274500846862792969e+00,-7.883964061737060547e+00,-7.957863807678222656e+00,-6.586625099182128906e+00,-1.243535280227661133e+00,9.187322854995727539e-01,-4.061754703521728516e+00,-5.849254608154296875e+00,-5.946658611297607422e+00,-2.878380298614501953e+00,-1.313419580459594727e+00,-4.440461158752441406e+00
7.547576904296875000e+00,6.870213031768798828e+00,2.768627882003784180e+00,1.710523962974548340e+00,1.543480992317199707e+00,5.005154132843017578e+00,6.912135124206542969e+00,6.213920116424560547e+00,3.228414297103881836e+00,-1.162048697471618652e+00,-1.673543453216552734e+00,-1.295324206352233887e+00,-1.524972796440124512e+00,-6.465099811553955078e+00,-8.582651138305664062e+00,-4.295485496520996094e+00,-1.168489694595336914e+00,-3.423613309860229492e+00,-8.462294578552246094e+00,-6.682972908020019531e+00,-1.637635588645935059e+00,3.446941375732421875e+00,6.465587615966796875e+00,6.978065490722656250e+00,7.747379779815673828e+00,1.004352188110351562e+01,9.384105682373046875e+00,9.564718246459960938e+00,4.493654727935791016e+00,5.472248554229736328e+00,8.565104484558105469e+00,5.917551517486572266e+00
1.814876365661621094e+01,1.469718647003173828e+01,2.950816869735717773e+00,4.470747947692871094e+00,1.611119461059570312e+01,2.042918014526367188e+01,2.003479576110839844e+01,1.461809825897216797e+01,8.474421501159667969e+00,4.180670738220214844e+00,9.139717102050781250e+00,1.388516998291015625e+01,1.242461204528808594e+01,4.197344303131103516e+00,1.991876482963562012e+00,6.534720897674560547e+00,9.701399803161621094e+00,6.639334678649902344e+00,2.249045372009277344e+00,2.253147840499877930e+00,6.619686126708984375e+00,1.394313716888427734e+01,1.873680305480957031e+01,1.577840137481689453e+01,1.272182369232177734e+01,1.209615707397460938e+01,1.555242061614990234e+01,1.902919197082519531e+01,1.755360794067382812e+01,1.445519542694091797e+01,1.263267707824707031e+01,1.238121128082275391e+01
1.616740989685058594e+01,1.049582576751708984e+01,2.220477342605590820e+00,9.380016922950744629e-01,1.040323925018310547e+01,1.693142509460449219e+01,1.841389083862304688e+01,9.870313644409179688e+00,2.925276517868041992e+00,1.472424864768981934e+00,5.674883365631103516e+00,1.183916759490966797e+01,9.888655662536621094e+00,4.826397418975830078e+00,3.127144336700439453e+00,8.418396949768066406e+00,1.064433288574218750e+01,7.056759834289550781e+00,3.184697389602661133e+00,5.148393630981445312e+00,8.758959770202636719e+00,1.318045902252197266e+01,1.611933135986328125e+01,1.406418704986572266e+01,9.997546195983886719e+00,8.089601516723632812e+00,1.058289051055908203e+01,1.397945785522460938e+01,1.600674629211425781e+01,1.347071743011474609e+01,9.179972648620605469e+00,1.152150058746337891e+01
4.122809410095214844e+00,8.864202499389648438e+00,1.483790397644042969e+01,1.281189250946044922e+01,5.045323371887207031e+00,4.630875587463378906e+00,6.970048904418945312e+00,7.363808155059814453e+00,6.259410381317138672e+00,4.358500003814697266e+00,-5.777092576026916504e-01,7.980747222900390625e-01,3.747942901100032032e-05,-3.895833492279052734e-01,-1.421690940856933594e+00,5.563984513282775879e-01,2.064595699310302734e+00,7.914749532938003540e-02,-7.656500339508056641e-01,6.785547733306884766e-01,2.447098255157470703e+00,4.960312366485595703e+00,7.499759197235107422e+00,4.875648498535156250e+00,1.943276047706604004e+00,3.324596405029296875e+00,6.816216945648193359e+00,7.782852172851562500e+00,7.824026584625244141e+00,7.533536911010742188e+00,6.150190830230712891e+00,1.032964897155761719e+01
2.315049409866333008e+00,1.665764427185058594e+01,2.815536117553710938e+01,2.935952949523925781e+01,1.721028137207031250e+01,3.533865690231323242e+00,-2.101865053176879883e+00,6.386210918426513672e+00,1.413491249084472656e+01,9.343611717224121094e+00,6.650261282920837402e-01,-9.207941293716430664e-01,4.624418020248413086e-01,-2.056249678134918213e-01,3.960498869419097900e-01,1.539242863655090332e+00,1.623126983642578125e+00,-2.620404958724975586e-01,-1.886565446853637695e+00,-3.471356391906738281e+00,-3.300872802734375000e+00,1.611722588539123535e+00,3.932548046112060547e+00,-1.146448493003845215e+00,-3.180502176284790039e+00,-5.604150295257568359e-01,3.398385524749755859e+00,7.143499374389648438e+00,9.694141387939453125e+00,8.572525024414062500e+00,6.962801456451416016e+00,1.832186889648437500e+01
7.272934436798095703e+00,1.805662918090820312e+01,1.409250545501708984e+01,1.615576934814453125e+01,2.006581497192382812e+01,9.653198242187500000e+00,-1.993772387504577637e+00,-1.333703637123107910e+00,3.978622674942016602e+00,5.508502125740051270e-01,-1.813133120536804199e+00,-2.059626579284667969e+00,1.165038347244262695e+00,1.105026006698608398e+00,2.516013622283935547e+00,4.671483039855957031e+00,4.430867671966552734e+00,4.038175106048583984e+00,2.191653251647949219e+00,2.336999654769897461e+00,1.685605287551879883e+00,5.801526546478271484e+00,6.927597045898437500e+00,5.339529514312744141e+00,2.942228794097900391e+00,1.903355240821838379e+00,2.376153230667114258e+00,8.365043640136718750e+00,1.419381999969482422e+01,1.293724632263183594e+01,7.979116916656494141e+00,1.823869514465332031e+01
1.166512489318847656e+01,1.399509334564208984e+01,3.037495374679565430e+00,2.315658569335937500e+00,9.585979461669921875e+00,1.130047035217285156e+01,5.896924018859863281e+00,1.188362956047058105e+00,-6.250293850898742676e-01,-3.960349261760711670e-01,4.657161712646484375e+00,5.715841770172119141e+00,8.566568374633789062e+00,6.952365398406982422e+00,6.952134132385253906e+00,9.147495269775390625e+00,1.276504230499267578e+01,1.415066623687744141e+01,1.170915985107421875e+01,9.534132003784179688e+00,8.932237625122070312e+00,1.200499820709228516e+01,1.428002262115478516e+01,1.285097122192382812e+01,9.062395095825195312e+00,7.553665161132812500e+00,1.016898536682128906e+01,1.282413101196289062e+01,1.392180633544921875e+01,1.465724563598632812e+01,1.373512554168701172e+01,1.189200687408447266e+01
6.413280963897705078e+00,1.003687953948974609e+01,1.183053207397460938e+01,9.031166076660156250e+00,3.841861963272094727e+00,6.105969429016113281e+00,8.636343955993652344e+00,9.651302337646484375e+00,8.104506492614746094e+00,9.656612396240234375e+00,1.436281013488769531e+01,1.587202548980712891e+01,1.648315238952636719e+01,1.147779941558837891e+01,1.063034534454345703e+01,1.342595005035400391e+01,1.814733886718750000e+01,1.693446159362792969e+01,1.451371097564697266e+01,9.195716857910156250e+00,9.309229850769042969e+00,9.757082939147949219e+00,1.221039867401123047e+01,7.735590457916259766e+00,5.631264686584472656e+00,5.494251251220703125e+00,1.181670093536376953e+01,1.006123447418212891e+01,6.540647506713867188e+00,6.924449920654296875e+00,1.233398246765136719e+01,8.101232528686523438e+00
-1.022029638290405273e+00,1.726372361183166504e+00,1.038107395172119141e+01,1.042292785644531250e+01,4.901065349578857422e+00,3.574244260787963867e+00,7.429617881774902344e+00,7.618738651275634766e+00,5.327658176422119141e+00,7.415859222412109375e+00,1.017374134063720703e+01,1.287196159362792969e+01,1.301305961608886719e+01,1.001082515716552734e+01,8.498546600341796875e+00,1.049034881591796875e+01,1.170852947235107422e+01,8.289766311645507812e+00,8.171005249023437500e+00,7.145144462585449219e+00,6.437253475189208984e+00,4.831737041473388672e+00,4.360127925872802734e+00,2.064741134643554688e+00,1.685530066490173340e+00,2.935510277748107910e-01,2.965934991836547852e+00,1.466370671987533569e-01,-2.012134075164794922e+00,-4.599558353424072266e+00,1.445405721664428711e+00,6.830965995788574219e+00
5.515643596649169922e+00,-2.979201793670654297e+00,-2.486697673797607422e+00,1.621584892272949219e-01,5.668173789978027344e+00,7.999187469482421875e+00,9.678153038024902344e+00,4.261051654815673828e+00,-2.292905569076538086e+00,2.888938784599304199e-01,6.691703796386718750e+00,1.065476131439208984e+01,1.018268966674804688e+01,6.991343021392822266e+00,4.184972763061523438e+00,4.566179275512695312e+00,7.449014186859130859e+00,8.069208145141601562e+00,6.152941226959228516e+00,5.556702613830566406e+00,4.438181877136230469e+00,6.997179031372070312e+00,5.769889354705810547e+00,4.870047569274902344e+00,2.340755224227905273e+00,1.017636656761169434e+00,1.536463379859924316e+00,1.353379487991333008e+00,1.159532144665718079e-01,-2.502932071685791016e+00,-3.783505856990814209e-01,2.649670124053955078e+00
1.014562034606933594e+01,-1.696194529533386230e+00,-6.458846569061279297e+00,-6.507168292999267578e+00,-5.669969320297241211e-01,5.298689365386962891e+00,6.215281963348388672e+00,2.203468322753906250e+00,-1.496749997138977051e+00,6.673627495765686035e-01,7.600611686706542969e+00,1.160469150543212891e+01,8.597881317138671875e+00,5.824153900146484375e+00,4.853360176086425781e+00,4.138309478759765625e+00,7.398972511291503906e+00,1.299780368804931641e+01,1.145802974700927734e+01,8.645839691162109375e+00,7.053197860717773438e+00,8.198945045471191406e+00,5.527354240417480469e+00,4.161434173583984375e+00,2.772598743438720703e+00,2.245643615722656250e+00,3.842201709747314453e+00,6.684091091156005859e+00,4.587095260620117188e+00,2.446202516555786133e+00,2.507917284965515137e-01,-3.891143321990966797e+00
2.411449670791625977e+00,-1.547438740730285645e+00,-1.612728834152221680e+00,-4.390255451202392578e+00,-7.066827297210693359e+00,-4.763571739196777344e+00,-3.338477134704589844e+00,-3.494043827056884766e+00,-9.388135671615600586e-01,4.570543766021728516e-01,1.806842207908630371e+00,3.544913530349731445e+00,8.708437681198120117e-01,1.781894087791442871e+00,3.856115341186523438e+00,3.095099210739135742e+00,1.615049958229064941e+00,7.418072700500488281e+00,1.309784507751464844e+01,1.310646915435791016e+01,7.960096359252929688e+00,1.632288455963134766e+00,-4.066687583923339844e+00,-2.238411188125610352e+00,1.309648752212524414e+00,1.572222471237182617e+00,-1.460237979888916016e+00,-6.846604943275451660e-01,-3.326860964298248291e-01,-4.003043174743652344e-01,-2.341885566711425781e+00,-3.020611286163330078e+00
2.808629274368286133e-01,-1.542582869529724121e+00,-2.528732828795909882e-02,-1.560830175876617432e-01,-3.170149087905883789e+00,-3.120820760726928711e+00,-2.635849237442016602e+00,-3.864238739013671875e+00,-1.884874463081359863e+00,-1.904253482818603516e+00,-1.936259150505065918e+00,-4.568281173706054688e+00,-5.524610042572021484e+00,-3.070802927017211914e+00,-1.522665262222290039e+00,-3.806289911270141602e+00,-6.795862197875976562e+00,-3.956893444061279297e+00,1.987030148506164551e+00,4.884760856628417969e+00,6.750705242156982422e-01,-5.212634086608886719e+00,-9.299858093261718750e+00,-5.478714942932128906e+00,-1.239924073219299316e+00,2.046007156372070312e+00,-5.210010051727294922e+00,-8.180356025695800781e+00,-4.441325664520263672e+00,8.971375823020935059e-01,-2.648180723190307617e-01,1.780010938644409180e+00
-3.668926477432250977e+00,-7.077692985534667969e+00,-6.218876361846923828e+00,-3.252116441726684570e+00,-3.576389312744140625e+00,-4.439690589904785156e+00,-4.945165157318115234e+00,-3.202783584594726562e+00,-1.233499288558959961e+00,-3.791424036026000977e+00,-5.215844154357910156e+00,-9.685271263122558594e+00,-1.050593090057373047e+01,-6.999018669128417969e+00,-5.877226352691650391e+00,-1.035651016235351562e+01,-1.077301597595214844e+01,-1.132178497314453125e+01,-1.177882862091064453e+01,-1.234274673461914062e+01,-1.172004699707031250e+01,-1.317013168334960938e+01,-1.418955898284912109e+01,-1.224036598205566406e+01,-1.077482604980468750e+01,-7.175127029418945312e+00,-1.252274799346923828e+01,-1.348824596405029297e+01,-8.996839523315429688e+00,-4.094076156616210938e+00,-8.511613845825195312e+00,-8.889122962951660156e+00
-1.046934413909912109e+01,-1.040255069732666016e+01,-2.908799648284912109e+00,-1.300920724868774414e+00,-5.776548385620117188e+00,-8.619791984558105469e+00,-7.989792346954345703e+00,-4.116533279418945312e+00,-2.858529388904571533e-01,-1.469296336174011230e+00,-5.949768543243408203e+00,-7.029450893402099609e+00,-7.638979434967041016e+00,-5.953455924987792969e+00,-2.537107467651367188e+00,-4.924640178680419922e+00,-4.468773365020751953e+00,-4.754013061523437500e+00,-4.929290771484375000e+00,-8.143101692199707031e+00,-8.128231048583984375e+00,-9.519194602966308594e+00,-1.167355632781982422e+01,-1.070380210876464844e+01,-9.448146820068359375e+00,-1.033109188079833984e+01,-1.257477283477783203e+01,-1.204622268676757812e+01,-1.186251354217529297e+01,-1.255109977722167969e+01,-1.246682643890380859e+01,-1.043274211883544922e+01
-7.361792922019958496e-01,-2.563179492950439453e+00,6.865921497344970703e+00,7.277806758880615234e+00,2.049411535263061523e+00,-1.333285570144653320e+00,-2.717778682708740234e-01,-1.118355512619018555e+00,1.454788446426391602e+00,2.723343372344970703e+00,9.325343966484069824e-01,2.886244535446166992e+00,1.909417152404785156e+00,2.271880865097045898e+00,4.680300712585449219e+00,4.054723262786865234e+00,2.577922105789184570e+00,5.700310230255126953e+00,7.876601696014404297e+00,8.125623703002929688e+00,6.988458156585693359e+00,7.046045780181884766e+00,6.122135639190673828e+00,5.301503658294677734e+00,4.653789997100830078e+00,2.114997625350952148e+00,4.423679351806640625e+00,2.952962398529052734e+00,-9.053575992584228516e-01,-3.188542366027832031e+00,2.376337528228759766e+00,5.073916912078857422e+00
1.287454700469970703e+01,5.773174762725830078e+00,4.099717617034912109e+00,4.724905490875244141e+00,5.323846340179443359e+00,1.868019461631774902e+00,3.730810582637786865e-01,-6.960912942886352539e-01,3.049025774002075195e+00,2.860368013381958008e+00,3.356646060943603516e+00,3.616746425628662109e+00,2.605178833007812500e+00,4.251540184020996094e+00,2.215797662734985352e+00,2.263492345809936523e+00,1.406735777854919434e+00,2.142073869705200195e+00,1.050361394882202148e+00,2.040532588958740234e+00,3.654366970062255859e+00,6.820942878723144531e+00,1.091929244995117188e+01,6.699791908264160156e+00,2.788940191268920898e+00,2.519839763641357422e+00,9.286638259887695312e+00,1.229087638854980469e+01,1.315706157684326172e+01,7.795296669006347656e+00,3.904280662536621094e+00,7.105324745178222656e+00
1.235386371612548828e+01,8.295495033264160156e+00,-7.951616048812866211e-01,-8.096464872360229492e-01,4.875584602355957031e+00,2.748428106307983398e+00,-3.266941308975219727e-01,-1.115471243858337402e+00,2.756241321563720703e+00,3.294794857501983643e-01,-6.347213983535766602e-01,-1.975698113441467285e+00,-2.564202547073364258e+00,-1.754051804542541504e+00,-3.640347719192504883e+00,1.737427115440368652e-01,2.964968085289001465e-01,6.843715161085128784e-02,-2.120955705642700195e+00,1.378231495618820190e-01,1.989651679992675781e+00,4.586412906646728516e+00,8.192233085632324219e+00,7.527373790740966797e+00,2.582368612289428711e+00,-2.649986743927001953e-01,5.719600200653076172e+00,1.433829212188720703e+01,1.734956550598144531e+01,8.294843673706054688e+00,-1.271082311868667603e-01,2.191242694854736328e+00
8.084218025207519531e+00,7.991254806518554688e+00,8.695744514465332031e+00,8.163507461547851562e+00,1.047182941436767578e+01,6.023606300354003906e+00,5.517441272735595703e+00,2.837040185928344727e+00,2.145547389984130859e+00,-2.083913534879684448e-01,4.518585503101348877e-01,1.993856549263000488e+00,3.094812333583831787e-01,-3.176271319389343262e-01,2.135358750820159912e-01,5.742670059204101562e+00,6.021176815032958984e+00,1.071162033081054688e+01,1.178458690643310547e+01,1.108957958221435547e+01,8.700020790100097656e+00,1.117600727081298828e+01,1.039339733123779297e+01,9.313991546630859375e+00,5.201383590698242188e+00,4.067243099212646484e+00,5.486033916473388672e+00,1.109444141387939453e+01,1.227205276489257812e+01,7.933376312255859375e+00,6.803046703338623047e+00,1.049741744995117188e+01
1.370977592468261719e+01,1.060936737060546875e+01,1.580959224700927734e+01,1.653524017333984375e+01,1.588276576995849609e+01,1.067444229125976562e+01,1.057042312622070312e+01,8.634857177734375000e+00,5.079730033874511719e+00,3.654090404510498047e+00,6.986089229583740234e+00,1.179473876953125000e+01,7.910323143005371094e+00,6.266856193542480469e+00,5.099303245544433594e+00,8.641586303710937500e+00,8.767308235168457031e+00,1.371551036834716797e+01,1.426746749877929688e+01,9.960268974304199219e+00,8.521576881408691406e+00,1.026139354705810547e+01,8.684081077575683594e+00,3.382058620452880859e+00,3.229726076126098633e+00,5.813774585723876953e+00,4.108376026153564453e+00,4.483499050140380859e+00,6.550158023834228516e+00,7.802125930786132812e+00,9.374046325683593750e+00,1.530363464355468750e+01
1.259179210662841797e+01,9.507788658142089844e+00,5.181212425231933594e+00,9.174133300781250000e+00,1.466597080230712891e+01,1.637123870849609375e+01,1.475174140930175781e+01,1.337541198730468750e+01,1.044903182983398438e+01,8.849946022033691406e+00,1.079285049438476562e+01,1.378936004638671875e+01,9.380244255065917969e+00,4.725792884826660156e+00,9.406798481941223145e-01,3.265416145324707031e+00,3.048877239227294922e+00,3.677331686019897461e+00,2.082251071929931641e+00,5.009000778198242188e+00,8.202841758728027344e+00,5.494909286499023438e+00,5.033318996429443359e+00,6.986305236816406250e+00,1.176908302307128906e+01,9.999261856079101562e+00,7.788607597351074219e+00,3.836226224899291992e+00,2.407908201217651367e+00,4.480725765228271484e+00,9.433544158935546875e+00,6.474015712738037109e+00
-7.245682239532470703e+00,-1.147363901138305664e+00,-4.595330238342285156e+00,-2.062634229660034180e+00,-1.128151565790176392e-01,5.523258209228515625e+00,7.681045532226562500e+00,8.344023704528808594e+00,6.911625862121582031e+00,7.099439144134521484e+00,6.934854030609130859e+00,6.489734172821044922e+00,3.722753763198852539e+00,9.832702875137329102e-01,-2.103621959686279297e+00,-2.709915876388549805e+00,-4.180384159088134766e+00,-4.785503387451171875e+00,-5.509571075439453125e+00,-1.280087709426879883e+00,9.048711061477661133e-01,-1.703518152236938477e+00,-2.960097789764404297e+00,2.389976024627685547e+00,8.431283950805664062e+00,8.454934120178222656e+00,5.226092338562011719e+00,-2.843509912490844727e+00,-7.458223819732666016e+00,-1.826838850975036621e+00,9.475535392761230469e+00,-1.329568028450012207e+00
-1.268468952178955078e+01,-5.544711589813232422e+00,-4.194002628326416016e+00,-6.471992969512939453e+00,-1.009774780273437500e+01,-7.851695060729980469e+00,-4.431831836700439453e+00,-2.150700569152832031e+00,-2.555474519729614258e+00,-7.337154150009155273e-01,-1.430158853530883789e+00,-5.087046027183532715e-01,-7.021507024765014648e-01,3.040852308273315430e+00,4.104753971099853516e+00,-1.467460036277770996e+00,-4.369040012359619141e+00,-5.704933643341064453e+00,-6.992086410522460938e+00,-6.806267738342285156e+00,-5.498341083526611328e+00,-5.674787044525146484e+00,-5.975288391113281250e+00,-5.166947841644287109e+00,-1.252698659896850586e+00,3.309121847152709961e+00,2.299059867858886719e+00,-5.862184047698974609e+00,-7.504202365875244141e+00,-4.106064140796661377e-01,6.567287445068359375e+00,-6.734594821929931641e+00
5.822029590606689453e+00,1.533748269081115723e+00,-4.794795513153076172e+00,-5.156732082366943359e+00,2.902483046054840088e-01,3.668435513973236084e-01,-1.829703569412231445e+00,-2.153896808624267578e+00,-8.942266702651977539e-01,-9.540390372276306152e-01,-3.260021686553955078e+00,-1.626206994056701660e+00,1.370580554008483887e+00,3.797027826309204102e+00,6.604108333587646484e+00,-2.587381601333618164e-01,-2.385431051254272461e+00,-5.968270778656005859e+00,-7.996068954467773438e+00,-9.398237228393554688e+00,-8.395146369934082031e+00,-7.577474117279052734e+00,-4.803979396820068359e+00,-3.478782653808593750e+00,-1.574376344680786133e+00,9.576990008354187012e-01,2.502514362335205078e+00,1.250025510787963867e+00,3.849115848541259766e+00,4.117225170135498047e+00,-1.411934852600097656e+00,-9.017585754394531250e+00
1.018628883361816406e+01,2.484067916870117188e+00,-9.417649269104003906e+00,-5.836971759796142578e+00,9.476091384887695312e+00,9.178050041198730469e+00,4.073444843292236328e+00,1.246937394142150879e+00,4.295446872711181641e+00,3.811359405517578125e+00,6.862906813621520996e-01,-3.331021547317504883e+00,-6.819684505462646484e-01,-3.124826431274414062e+00,-2.847175598144531250e+00,-8.336802482604980469e+00,-8.192940711975097656e+00,-1.246385765075683594e+01,-1.331719875335693359e+01,-1.432848739624023438e+01,-1.405185699462890625e+01,-1.417532730102539062e+01,-1.204962348937988281e+01,-8.430356979370117188e+00,-6.353677272796630859e+00,-5.152969837188720703e+00,-5.388347148895263672e+00,-8.657613992691040039e-01,2.446077108383178711e+00,-1.729039192199707031e+00,-1.050402832031250000e+01,-6.281232833862304688e+00
-8.760678291320800781e+00,-1.049714660644531250e+01,-1.196481895446777344e+01,-1.190490055084228516e+01,-2.270563125610351562e+00,-7.887347698211669922e+00,-9.663077354431152344e+00,-1.104766178131103516e+01,-5.264515399932861328e+00,-4.930675983428955078e+00,-1.011270427703857422e+01,-1.620590591430664062e+01,-1.517304992675781250e+01,-1.270042324066162109e+01,-1.176688957214355469e+01,-1.695562934875488281e+01,-1.903639793395996094e+01,-2.275296974182128906e+01,-2.220585060119628906e+01,-2.050631332397460938e+01,-1.891794204711914062e+01,-2.234050369262695312e+01,-2.169766235351562500e+01,-1.860437011718750000e+01,-1.534676456451416016e+01,-1.466243839263916016e+01,-1.685983085632324219e+01,-1.567045021057128906e+01,-1.253830146789550781e+01,-1.274486446380615234e+01,-1.534499073028564453e+01,-1.147483062744140625e+01
-1.858299446105957031e+01,-1.924559783935546875e+01,-7.355992794036865234e+00,-9.810189247131347656e+00,-1.570098495483398438e+01,-2.706882858276367188e+01,-2.490596199035644531e+01,-2.092992973327636719e+01,-1.262335681915283203e+01,-1.180954265594482422e+01,-1.972543525695800781e+01,-2.556318092346191406e+01,-2.126479530334472656e+01,-8.963655471801757812e+00,-7.807316780090332031e+00,-1.252831077575683594e+01,-1.720444488525390625e+01,-2.026815986633300781e+01,-1.870456886291503906e+01,-1.813364791870117188e+01,-1.655860137939453125e+01,-1.943318367004394531e+01,-1.851439285278320312e+01,-1.575838756561279297e+01,-1.323288059234619141e+01,-1.422344589233398438e+01,-1.677001953125000000e+01,-2.206527519226074219e+01,-2.041311454772949219e+01,-1.698419189453125000e+01,-1.494191169738769531e+01,-1.880175971984863281e+01
-1.072747516632080078e+01,-1.272829246520996094e+01,-6.724362373352050781e-01,1.235818862915039062e+00,-8.775161743164062500e+00,-1.930197143554687500e+01,-1.664089012145996094e+01,-8.714360237121582031e+00,-2.648868322372436523e+00,-4.584280014038085938e+00,-1.076331233978271484e+01,-1.598241424560546875e+01,-1.055074119567871094e+01,-1.972411870956420898e+00,-1.172363638877868652e+00,-2.134158611297607422e+00,-3.272382974624633789e+00,-4.221396923065185547e+00,-1.212912678718566895e+00,-2.422765016555786133e+00,-2.991042613983154297e+00,-3.920151472091674805e+00,-5.982715606689453125e+00,-4.434753894805908203e+00,-3.389073610305786133e+00,-4.138510227203369141e+00,-4.912353992462158203e+00,-9.526697158813476562e+00,-1.043642330169677734e+01,-9.375102043151855469e+00,-9.067121505737304688e+00,-1.400930976867675781e+01
-5.256819725036621094e+00,-8.172835350036621094e+00,-4.561363220214843750e+00,-1.327055335044860840e+00,-1.953201293945312500e+00,-6.152519702911376953e+00,-6.530488014221191406e+00,-4.534688889980316162e-01,1.790210127830505371e+00,-2.625745296478271484e+00,-5.474721908569335938e+00,-5.133800506591796875e+00,-4.749722957611083984e+00,-9.083541870117187500e+00,-8.624991416931152344e+00,-1.143147230148315430e+00,2.482218980789184570e+00,2.989082098007202148e+00,4.850074291229248047e+00,6.412561416625976562e+00,5.232231616973876953e+00,5.103811740875244141e+00,9.156780838966369629e-01,-7.725101113319396973e-01,-2.904222965240478516e+00,-3.093787908554077148e+00,-1.563443064689636230e+00,1.158136963844299316e+00,-1.589483171701431274e-01,-4.101991176605224609e+00,-3.832207918167114258e+00,-6.556079864501953125e+00
-3.672679424285888672e+00,-1.385640335083007812e+01,-1.093846511840820312e+01,-8.630184173583984375e+00,-5.541206359863281250e+00,-6.305951595306396484e+00,-6.485242366790771484e+00,-4.883555889129638672e+00,-4.256773471832275391e+00,-4.587323188781738281e+00,-4.902561664581298828e+00,-2.812794446945190430e+00,-3.726447105407714844e+00,-8.823259353637695312e+00,-1.065892887115478516e+01,-7.282520532608032227e-01,2.150881052017211914e+00,2.860564947128295898e+00,3.646914243698120117e+00,8.484749794006347656e+00,7.442323207855224609e+00,6.600767612457275391e+00,5.389222621917724609e+00,5.023923397064208984e+00,8.176741003990173340e-01,-3.033990144729614258e+00,-1.925798535346984863e+00,1.371783971786499023e+00,-1.494155287742614746e+00,-7.062075138092041016e+00,-2.575079441070556641e+00,-9.578077316284179688e+00
-1.394480705261230469e+00,-1.712629890441894531e+01,-8.924515724182128906e+00,-7.798849105834960938e+00,-1.104150676727294922e+01,-7.735266208648681641e+00,-4.018345355987548828e+00,-2.978186130523681641e+00,-4.927871704101562500e+00,-3.294801712036132812e+00,-1.509415626525878906e+00,-6.719948053359985352e-01,7.621586322784423828e-01,2.890116870403289795e-01,-2.011392414569854736e-01,2.827144145965576172e+00,1.948298811912536621e+00,4.150141239166259766e+00,5.285994052886962891e+00,5.769745826721191406e+00,5.157465934753417969e+00,3.882465124130249023e+00,4.324128627777099609e+00,4.822134494781494141e+00,9.589491784572601318e-02,-3.292303562164306641e+00,-4.842838764190673828e+00,-4.597084999084472656e+00,-8.429126739501953125e+00,-1.140604496002197266e+01,-6.716116428375244141e+00,-1.567567157745361328e+01
-3.885204553604125977e+00,-1.504009151458740234e+01,-9.624232292175292969e+00,-1.009029769897460938e+01,-1.212467193603515625e+01,-3.724790573120117188e+00,-1.192515373229980469e+00,1.296420216560363770e+00,-3.839826583862304688e+00,-3.361096143722534180e+00,-1.346232175827026367e+00,7.021196484565734863e-01,5.879891514778137207e-01,-6.958832740783691406e-01,-1.420059893280267715e-02,7.671099901199340820e-01,-1.171853065490722656e+00,4.046820402145385742e-01,5.578492879867553711e-01,-2.321005344390869141e+00,-3.612179517745971680e+00,-4.511514663696289062e+00,-6.550711631774902344e+00,-8.730957984924316406e+00,-1.297258567810058594e+01,-1.241015148162841797e+01,-1.686656761169433594e+01,-1.426829814910888672e+01,-1.190843391418457031e+01,-1.485942077636718750e+01,-1.678374290466308594e+01,-1.821981620788574219e+01
-6.460325241088867188e+00,-1.573577785491943359e+01,-1.703975486755371094e+01,-1.332148361206054688e+01,-9.114327430725097656e+00,-2.734168469905853271e-01,-9.149789214134216309e-01,-2.341988563537597656e+00,-6.008575916290283203e+00,-2.496806621551513672e+00,-6.484634876251220703e-01,2.868634223937988281e+00,8.655847907066345215e-01,-3.666850566864013672e+00,-7.261275768280029297e+00,-4.267910480499267578e+00,-2.286316156387329102e+00,-2.758539676666259766e+00,-4.099461078643798828e+00,-4.034281253814697266e+00,-5.460448265075683594e+00,-7.368509769439697266e+00,-1.049949550628662109e+01,-1.172861766815185547e+01,-1.519238662719726562e+01,-1.710804367065429688e+01,-1.960340309143066406e+01,-1.645796775817871094e+01,-1.125727653503417969e+01,-1.505521678924560547e+01,-2.293656539916992188e+01,-2.180948638916015625e+01
-5.653328895568847656e+00,-1.218168926239013672e+01,-5.238598346710205078e+00,-2.945784091949462891e+00,-8.104681015014648438e+00,-3.689286708831787109e+00,-1.283611297607421875e+00,-3.547604322433471680e+00,-1.369106411933898926e+00,1.066233754158020020e+00,-1.431058287620544434e+00,-1.448148369789123535e+00,3.978286986239254475e-04,-1.390407204627990723e+00,-3.587526321411132812e+00,-4.741907596588134766e+00,-2.997312784194946289e+00,-1.891510486602783203e+00,-1.070967197418212891e+00,-1.438552737236022949e+00,-3.171506404876708984e+00,-4.804538249969482422e+00,-4.878919601440429688e+00,-2.976759195327758789e+00,-6.002054691314697266e+00,-7.478829860687255859e+00,-6.274925708770751953e+00,-6.547143459320068359e+00,-7.881414890289306641e+00,-8.793209075927734375e+00,-1.091513156890869141e+01,-1.021012020111083984e+01
-1.127743721008300781e+01,-5.027859210968017578e-01,1.440766811370849609e+01,1.063937473297119141e+01,-1.100119018554687500e+01,-1.321022701263427734e+01,-8.437595367431640625e+00,-2.246166229248046875e+00,4.591612339019775391e+00,2.443426847457885742e+00,-7.874269962310791016e+00,-1.033656787872314453e+01,-9.443760871887207031e+00,-1.686113715171813965e+00,4.090021610260009766e+00,-4.296265125274658203e+00,-9.678568840026855469e+00,-7.884516239166259766e+00,-2.953380107879638672e+00,-5.591622829437255859e+00,-6.983224868774414062e+00,-7.378126144409179688e+00,-6.803809642791748047e+00,-3.438948392868041992e+00,-5.980721116065979004e-01,1.256609082221984863e+00,4.380795001983642578e+00,-1.572990775108337402e+00,-6.379848003387451172e+00,-5.114172697067260742e-01,2.393202781677246094e+00,1.039544105529785156e+01
-2.011943626403808594e+01,1.015254139900207520e+00,1.150658988952636719e+01,1.056001567840576172e+01,-1.213030815124511719e+01,-1.867172813415527344e+01,-1.944959449768066406e+01,-8.205217361450195312e+00,2.201318979263305664e+00,3.693615272641181946e-02,-1.415880107879638672e+01,-1.587144184112548828e+01,-1.690983581542968750e+01,-5.729598999023437500e+00,1.839911580085754395e+00,-7.924268722534179688e+00,-1.433507537841796875e+01,-1.238464832305908203e+01,-5.233476638793945312e+00,-7.322420120239257812e+00,-8.365956306457519531e+00,-1.212797832489013672e+01,-1.286703777313232422e+01,-7.793851852416992188e+00,4.172166824340820312e+00,5.521623134613037109e+00,5.762298107147216797e+00,-9.594321250915527344e+00,-1.156856727600097656e+01,2.841389179229736328e+00,7.274254798889160156e+00,1.375667667388916016e+01
-2.303380393981933594e+01,-6.555074691772460938e+00,9.126013517379760742e-01,1.020648956298828125e+00,-9.530194282531738281e+00,-1.784250640869140625e+01,-2.184054565429687500e+01,-1.430694103240966797e+01,-2.210144281387329102e+00,-3.129823207855224609e+00,-1.394444847106933594e+01,-1.846566963195800781e+01,-1.476224422454833984e+01,-6.804508209228515625e+00,-1.665810108184814453e+00,-8.889904975891113281e+00,-9.741829872131347656e+00,-6.092718601226806641e+00,2.504558086395263672e+00,7.195393443107604980e-01,-1.677929639816284180e+00,-9.983895301818847656e+00,-1.184242248535156250e+01,-7.233671665191650391e+00,6.039655685424804688e+00,7.987362861633300781e+00,3.405012369155883789e+00,-1.502294063568115234e+01,-1.515892696380615234e+01,1.586052775382995605e+00,1.099010467529296875e+01,8.736009597778320312e+00
-1.053933811187744141e+01,5.583243370056152344e-01,-2.954253435134887695e+00,-8.172306060791015625e+00,-6.007825374603271484e+00,-1.138479614257812500e+01,-1.553979396820068359e+01,-1.472835159301757812e+01,-5.920362949371337891e+00,-9.223986625671386719e+00,-1.408588027954101562e+01,-1.769165229797363281e+01,-1.439935970306396484e+01,-8.870593070983886719e+00,-3.904179096221923828e+00,-5.729065418243408203e+00,-6.186072349548339844e+00,-3.442843437194824219e+00,1.730746269226074219e+00,9.086111783981323242e-01,-2.611613869667053223e-01,-3.109163522720336914e+00,-5.201478004455566406e+00,-3.408993959426879883e+00,3.397387504577636719e+00,6.561450958251953125e+00,3.590888977050781250e+00,-5.946553707122802734e+00,-4.097348213195800781e+00,5.775155067443847656e+00,9.543081283569335938e+00,1.179231929779052734e+01
2.116012573242187500e+00,1.032606506347656250e+01,-1.888998031616210938e+00,-6.531460285186767578e+00,2.413903713226318359e+00,-1.966559648513793945e+00,-8.765437126159667969e+00,-1.030831146240234375e+01,-6.728473186492919922e+00,-1.079587364196777344e+01,-1.259176254272460938e+01,-1.304307842254638672e+01,-1.416096591949462891e+01,-8.132177352905273438e+00,-6.683748245239257812e+00,-6.198785781860351562e+00,-9.519729614257812500e+00,-8.292400360107421875e+00,-7.049988269805908203e+00,-4.134178161621093750e+00,-2.554528474807739258e+00,-7.585986852645874023e-01,-1.566743254661560059e+00,-3.769827783107757568e-01,4.010652065277099609e+00,6.494481086730957031e+00,5.716444969177246094e+00,1.286737084388732910e+00,6.108717441558837891e+00,1.054535007476806641e+01,8.771746635437011719e+00,1.760880470275878906e+01
-2.411212682723999023e+00,9.756929397583007812e+00,3.895141124725341797e+00,4.454113006591796875e+00,9.052626609802246094e+00,4.803172111511230469e+00,-2.759570121765136719e+00,-1.222298502922058105e+00,4.650544524192810059e-01,-3.674023628234863281e+00,-4.975231170654296875e+00,-4.444046497344970703e+00,-4.512976646423339844e+00,-2.613272190093994141e+00,-5.324113368988037109e+00,-3.938908576965332031e+00,-2.919364452362060547e+00,-2.437478065490722656e+00,-1.821581244468688965e+00,1.357828021049499512e+00,3.497984409332275391e+00,1.422966241836547852e+00,2.678576469421386719e+00,2.444465637207031250e+00,6.802598953247070312e+00,7.766217231750488281e+00,1.024747562408447266e+01,3.347521543502807617e+00,6.867147445678710938e+00,1.003778553009033203e+01,1.068364906311035156e+01,1.637129402160644531e+01
-5.255945205688476562e+00,1.488255882263183594e+01,1.150323581695556641e+01,8.454607009887695312e+00,4.920167922973632812e+00,6.521436691284179688e+00,2.782149314880371094e+00,5.373272418975830078e+00,4.701343536376953125e+00,1.586282849311828613e+00,1.807391643524169922e+00,6.617068290710449219e+00,5.499164104461669922e+00,2.477181911468505859e+00,1.159536361694335938e+00,8.388381958007812500e+00,1.164849567413330078e+01,1.058575630187988281e+01,9.181946754455566406e+00,1.190330219268798828e+01,1.317709255218505859e+01,1.046399211883544922e+01,1.042100429534912109e+01,8.806892395019531250e+00,9.989329338073730469e+00,1.072247600555419922e+01,1.476889514923095703e+01,9.237661361694335938e+00,8.635364532470703125e+00,1.186969852447509766e+01,1.586339855194091797e+01,2.241820526123046875e+01
5.258720397949218750e+00,1.688829994201660156e+01,8.922295570373535156e+00,1.521951436996459961e+00,4.744447171688079834e-01,8.727354049682617188e+00,8.136616706848144531e+00,5.692677021026611328e+00,-3.090752065181732178e-01,1.462710857391357422e+00,6.330595493316650391e+00,1.516922569274902344e+01,9.665217399597167969e+00,6.147326469421386719e+00,4.316443443298339844e+00,1.317793560028076172e+01,1.323399257659912109e+01,1.245470333099365234e+01,7.529362678527832031e+00,1.180090999603271484e+01,1.470212268829345703e+01,1.592797088623046875e+01,1.351667881011962891e+01,1.400153636932373047e+01,1.444178771972656250e+01,1.436919498443603516e+01,1.434891033172607422e+01,1.074031925201416016e+01,8.838645935058593750e+00,1.407579231262207031e+01,1.991532516479492188e+01,2.770423316955566406e+01
5.045297622680664062e+00,5.370104312896728516e+00,-5.983013153076171875e+00,-9.421384811401367188e+00,-1.389837980270385742e+00,7.202660083770751953e+00,7.932201862335205078e+00,2.121025562286376953e+00,-4.764355182647705078e+00,-8.246222138404846191e-01,4.388314247131347656e+00,1.156156826019287109e+01,7.614070892333984375e+00,4.660448551177978516e+00,2.159812927246093750e+00,5.363916873931884766e+00,5.699604988098144531e+00,6.043909549713134766e+00,3.352060794830322266e+00,6.336432456970214844e+00,9.632652282714843750e+00,8.362995147705078125e+00,5.944855690002441406e+00,8.781367301940917969e+00,1.086870765686035156e+01,9.939236640930175781e+00,6.738837242126464844e+00,1.976250290870666504e+00,1.138048648834228516e+00,1.019094371795654297e+01,1.357089996337890625e+01,1.036512565612792969e+01
-8.901360511779785156e+00,-7.453616619110107422e+00,-1.343448257446289062e+01,-1.526851940155029297e+01,-8.943127632141113281e+00,-6.440809249877929688e+00,-1.493078708648681641e+00,-3.947363615036010742e+00,-5.200263500213623047e+00,-1.590192198753356934e+00,-6.295478343963623047e-01,1.431152343750000000e+00,2.205168008804321289e+00,2.128678798675537109e+00,3.677154064178466797e+00,3.193150043487548828e+00,4.595661163330078125e+00,5.485111236572265625e+00,7.091480731964111328e+00,5.734201908111572266e+00,5.451562881469726562e+00,7.282918691635131836e-01,-1.570784926414489746e+00,-1.269414663314819336e+00,-1.258330941200256348e+00,-2.228319168090820312e+00,-2.905716657638549805e+00,-7.048814773559570312e+00,-8.857872009277343750e+00,-1.866406440734863281e+00,-1.736714005470275879e+00,-7.450306892395019531e+00
