Fp1,Fp2,F7,F3,Fz,F4,F8,T3,C3,Cz,C4,T4,T5,P3,Pz,P4,T6,O1,Oz,O2,A1
1.427019536495208740e-01,-9.192647784948348999e-02,-3.011665642261505127e-01,1.218578442931175232e-01,-3.080509006977081299e-01,5.166928768157958984e-01,2.428119927644729614e-01,2.087578549981117249e-02,-1.218087598681449890e-01,-4.115560650825500488e-01,9.268873333930969238e-01,3.708024919033050537e-01,-5.568721797317266464e-03,-1.030630022287368774e-01,1.975269168615341187e-01,1.039034649729728699e-01,-5.298900976777076721e-02,4.530701935291290283e-01,3.721392452716827393e-01,-1.221738979220390320e-01,1.718954443931579590e-01
8.826407045125961304e-02,6.944660097360610962e-02,-4.240739345550537109e-01,1.688849329948425293e-01,-2.246143519878387451e-01,3.978778421878814697e-01,1.662623584270477295e-01,1.608616560697555542e-01,-2.072129398584365845e-01,-6.526538729667663574e-02,8.417568802833557129e-01,4.098326265811920166e-01,1.341371089220046997e-01,-1.350130736827850342e-01,1.957461237907409668e-01,1.178644075989723206e-01,1.588623076677322388e-01,3.662946224212646484e-01,2.101705968379974365e-01,-7.102861255407333374e-02,2.398997917771339417e-02
-9.063681215047836304e-02,-1.874622404575347900e-01,-6.166999340057373047e-01,9.573766589164733887e-02,-2.864426374435424805e-01,5.882452130317687988e-01,-3.804233856499195099e-03,2.570284307003021240e-01,-9.200331568717956543e-02,-1.283135712146759033e-01,9.427452087402343750e-01,4.779897630214691162e-01,3.204243956133723259e-03,-1.243432983756065369e-01,2.630140259861946106e-02,7.297513633966445923e-02,5.636218003928661346e-03,1.557596623897552490e-01,3.551378548145294189e-01,-2.622067369520664215e-02,-8.176293224096298218e-03
1.046737730503082275e-01,-1.845930665731430054e-01,-7.254918217658996582e-01,4.040019810199737549e-01,-2.372020781040191650e-01,3.795452415943145752e-01,-1.607443951070308685e-02,4.037743806838989258e-01,-1.139175593852996826e-01,-2.809738814830780029e-01,5.567473769187927246e-01,7.720805406570434570e-01,8.860329538583755493e-02,-3.389689028263092041e-01,3.255597352981567383e-01,-6.017983332276344299e-02,2.438026107847690582e-02,3.171611726284027100e-01,4.158879220485687256e-01,-9.358038008213043213e-02,-1.893159560859203339e-02
1.121211871504783630e-01,-4.146879911422729492e-01,-7.069226503372192383e-01,1.918022334575653076e-01,2.676553837954998016e-02,3.192789554595947266e-01,9.352643974125385284e-03,1.087930426001548767e-01,-2.888542711734771729e-01,-2.802242040634155273e-01,6.910344362258911133e-01,4.862291812896728516e-01,8.679300546646118164e-02,-2.147389501333236694e-01,2.256838530302047729e-01,6.205292791128158569e-02,2.970391511917114258e-02,2.643720507621765137e-01,5.746733546257019043e-01,-1.249761879444122314e-01,-1.936393678188323975e-01
9.349485486745834351e-02,8.151520043611526489e-03,-8.761721253395080566e-01,-1.470768591389060020e-03,-3.307945728302001953e-01,3.778328001499176025e-01,7.846944779157638550e-02,3.231897652149200439e-01,-2.292725443840026855e-01,-2.749595046043395996e-01,6.207208633422851562e-01,6.834154725074768066e-01,1.022606119513511658e-01,-4.750528931617736816e-01,2.300257235765457153e-01,6.418900447897613049e-04,-1.273135542869567871e-01,1.633531004190444946e-01,4.337370991706848145e-01,-5.289654731750488281e-01,-4.433780312538146973e-01
7.889662683010101318e-02,-4.387200772762298584e-01,-7.047206163406372070e-01,7.583553344011306763e-02,-3.164689838886260986e-01,2.976791858673095703e-01,1.897471770644187927e-02,2.995063066482543945e-01,-3.104939758777618408e-01,-3.137744367122650146e-01,4.335476756095886230e-01,4.529068171977996826e-01,1.413308978080749512e-01,-2.883734107017517090e-01,1.974503993988037109e-01,-5.057364329695701599e-02,-3.541865646839141846e-01,-2.295886352658271790e-02,7.010350823402404785e-01,-2.817039787769317627e-01,-3.980451822280883789e-01
3.956870138645172119e-01,-4.178918600082397461e-01,-6.223741769790649414e-01,3.381983563303947449e-02,-2.992952764034271240e-01,2.699671983718872070e-01,1.316688656806945801e-01,3.733969628810882568e-01,-1.048689708113670349e-01,-4.912753105163574219e-01,4.273925125598907471e-01,6.501759290695190430e-01,2.440435886383056641e-01,-3.150420188903808594e-01,4.277074038982391357e-01,-3.222512602806091309e-01,-6.588408946990966797e-01,3.774839267134666443e-02,5.610231757164001465e-01,-2.645629346370697021e-01,-4.130251109600067139e-01
4.299971163272857666e-01,-3.565375804901123047e-01,-5.510891079902648926e-01,1.230156719684600830e-01,-2.686113417148590088e-01,3.565423786640167236e-01,-3.081102371215820312e-01,7.967238128185272217e-02,-3.545776009559631348e-01,-3.356669545173645020e-01,2.363038212060928345e-01,3.851921260356903076e-01,8.948242664337158203e-02,-4.698533713817596436e-01,3.397565186023712158e-01,-1.912413239479064941e-01,-6.284956336021423340e-01,1.687594056129455566e-01,7.387841343879699707e-01,-4.028750061988830566e-01,-3.498018085956573486e-01
5.109993219375610352e-01,-6.989585161209106445e-01,-5.671725869178771973e-01,8.779003471136093140e-02,-4.135856926441192627e-01,1.017899066209793091e-01,-1.120834797620773315e-01,3.530945479869842529e-01,-2.534190118312835693e-01,-6.435820460319519043e-01,-6.904470175504684448e-02,5.343707799911499023e-01,1.492197718471288681e-02,-2.550906240940093994e-01,3.060383498668670654e-01,-3.629640340805053711e-01,-6.484132409095764160e-01,2.444696575403213501e-01,6.546545028686523438e-01,-5.109623670578002930e-01,-3.279285430908203125e-01
3.526175916194915771e-01,-3.453682959079742432e-01,-4.629597365856170654e-01,3.003529608249664307e-01,-1.667823344469070435e-01,1.367025822401046753e-01,-2.460251003503799438e-01,1.670471429824829102e-01,-4.121311604976654053e-01,-5.265046954154968262e-01,1.208227127790451050e-01,6.133424639701843262e-01,-1.933187362737953663e-03,-1.423484832048416138e-01,4.804588258266448975e-01,-3.769167661666870117e-01,-6.378263235092163086e-01,3.650372475385665894e-02,7.609513401985168457e-01,-4.577650725841522217e-01,-2.682625651359558105e-01
5.064787864685058594e-01,-4.563528299331665039e-01,-3.193250894546508789e-01,1.987878978252410889e-01,-2.647118866443634033e-01,1.028852984309196472e-01,-3.544390499591827393e-01,3.194083571434020996e-01,-4.245994091033935547e-01,-3.759727776050567627e-01,-1.179232494905591011e-03,3.654421567916870117e-01,-3.431123495101928711e-02,-3.403047025203704834e-01,3.257701694965362549e-01,-2.091942876577377319e-01,-9.353679418563842773e-01,-1.455108523368835449e-01,8.260573744773864746e-01,-4.577177464962005615e-01,-1.750979870557785034e-01
4.983352124691009521e-01,-4.674901962280273438e-01,-1.078240200877189636e-01,3.020631074905395508e-01,-2.458340227603912354e-01,1.294012069702148438e-01,-3.815573751926422119e-01,1.533696502447128296e-01,-5.291471481323242188e-01,-4.417412281036376953e-01,-7.632808387279510498e-02,4.257783591747283936e-01,-9.288634359836578369e-02,-2.588132210075855255e-02,2.924332022666931152e-01,-6.161575913429260254e-01,-8.767902851104736328e-01,-2.392714768648147583e-01,6.878054738044738770e-01,-4.796703755855560303e-01,-1.977497152984142303e-02
4.499218761920928955e-01,-5.700024962425231934e-01,-3.347162604331970215e-01,5.162208080291748047e-01,-3.251818716526031494e-01,1.928079575300216675e-01,-1.992210745811462402e-01,1.191791221499443054e-01,-6.336466670036315918e-01,-5.100875496864318848e-01,6.034965626895427704e-03,4.406789243221282959e-01,-4.706556499004364014e-01,-2.296602725982666016e-01,3.923136293888092041e-01,-4.832915961742401123e-01,-9.166589379310607910e-01,-1.955148279666900635e-01,7.255737781524658203e-01,-5.314974188804626465e-01,2.352397702634334564e-02
3.916472494602203369e-01,-5.423538088798522949e-01,-1.154498755931854248e-01,5.384522080421447754e-01,-2.694242894649505615e-01,-7.248894125223159790e-02,-3.568025231361389160e-01,-6.452563405036926270e-02,-6.490492224693298340e-01,-5.925568938255310059e-01,6.078587472438812256e-02,5.963349342346191406e-01,-4.498894810676574707e-01,-2.760145068168640137e-01,3.296058773994445801e-01,-2.401082962751388550e-01,-9.634240865707397461e-01,-6.150270253419876099e-02,8.942276239395141602e-01,-4.993858635425567627e-01,2.478204816579818726e-01
3.179818093776702881e-01,-4.787184000015258789e-01,-2.243562191724777222e-01,5.399726033210754395e-01,-1.257002651691436768e-01,-6.934758275747299194e-02,-3.086178898811340332e-01,2.013863325119018555e-01,-6.340970396995544434e-01,-5.331654548645019531e-01,-1.916422247886657715e-01,5.323559641838073730e-01,-6.463213562965393066e-01,-2.950869202613830566e-01,5.741536021232604980e-01,-4.218152165412902832e-01,-9.167761802673339844e-01,5.678516998887062073e-02,8.293255567550659180e-01,-3.469639122486114502e-01,2.288261502981185913e-01
2.983814179897308350e-01,-4.704399704933166504e-01,-7.881060987710952759e-02,4.462413489818572998e-01,7.015447318553924561e-02,-8.997060358524322510e-02,-2.613883018493652344e-01,-9.827943518757820129e-03,-7.188162803649902344e-01,-5.779290795326232910e-01,-1.861639469861984253e-01,6.017588376998901367e-01,-6.129090189933776855e-01,-4.227977693080902100e-01,5.618206262588500977e-01,-6.525166034698486328e-01,-6.473400592803955078e-01,-6.405413895845413208e-02,9.820359945297241211e-01,-5.592325329780578613e-01,3.762688338756561279e-01
2.258291393518447876e-01,-3.971447944641113281e-01,-1.422234624624252319e-01,7.223889827728271484e-01,9.372317790985107422e-02,-4.918083921074867249e-02,-2.943556010723114014e-01,1.708654761314392090e-01,-1.002276062965393066e+00,-5.377088785171508789e-01,-6.825157999992370605e-02,7.533417344093322754e-01,-8.019596934318542480e-01,-1.309686601161956787e-01,4.676662683486938477e-01,-5.041921138763427734e-01,-5.524882078170776367e-01,3.463715314865112305e-02,8.601996302604675293e-01,-7.977587580680847168e-01,3.056873381137847900e-01
2.416854500770568848e-01,-3.597965538501739502e-01,-5.020170286297798157e-02,7.114185094833374023e-01,1.987053751945495605e-01,4.873195663094520569e-02,-1.584738940000534058e-01,1.227545589208602905e-01,-8.325849175453186035e-01,-5.723838806152343750e-01,4.568041115999221802e-02,8.907825350761413574e-01,-8.829987049102783203e-01,-4.685508310794830322e-01,5.241304636001586914e-01,-7.082167863845825195e-01,-8.953050971031188965e-01,5.943102762103080750e-02,9.268937110900878906e-01,-6.240314245223999023e-01,6.185163855552673340e-01
2.522671818733215332e-01,-2.396653592586517334e-01,-1.303615123033523560e-01,5.360117554664611816e-01,3.361303806304931641e-01,-1.884801238775253296e-01,-1.837782561779022217e-01,2.704150974750518799e-01,-7.697774767875671387e-01,-6.661262512207031250e-01,-8.911857008934020996e-02,8.833948373794555664e-01,-8.880684971809387207e-01,-3.617274463176727295e-01,4.358391761779785156e-01,-5.216850638389587402e-01,-6.375817656517028809e-01,1.732472032308578491e-01,7.713877558708190918e-01,-4.870555102825164795e-01,5.936896204948425293e-01
2.898703217506408691e-01,-1.608241945505142212e-01,1.046267524361610413e-01,7.303755879402160645e-01,4.663912057876586914e-01,-7.207041233777999878e-02,-2.939409576356410980e-02,3.238705396652221680e-01,-8.640984296798706055e-01,-7.400166988372802734e-01,-1.891631335020065308e-01,8.951282501220703125e-01,-9.143043756484985352e-01,-3.152663111686706543e-01,2.245932668447494507e-01,-4.650403261184692383e-01,-3.861182034015655518e-01,1.164535209536552429e-01,7.790011167526245117e-01,-3.608764708042144775e-01,5.855001807212829590e-01
4.665767848491668701e-01,-1.124950721859931946e-01,2.274401783943176270e-01,3.999315500259399414e-01,5.260402560234069824e-01,4.087403044104576111e-02,-1.277199983596801758e-01,4.969314634799957275e-01,-6.342201828956604004e-01,-4.142930805683135986e-01,5.812647938728332520e-02,7.209497690200805664e-01,-7.348256707191467285e-01,-4.753042161464691162e-01,4.201933741569519043e-01,-3.755493462085723877e-01,-3.451114594936370850e-01,1.738212555646896362e-01,4.880421161651611328e-01,-4.270062446594238281e-01,4.849779307842254639e-01
-4.766758158802986145e-02,4.124025255441665649e-02,3.137309104204177856e-02,2.970857322216033936e-01,4.069042801856994629e-01,1.649993509054183960e-01,-3.873831331729888916e-01,7.322757244110107422e-01,-6.268604397773742676e-01,-2.981416285037994385e-01,4.357882589101791382e-02,9.039921164512634277e-01,-8.109747767448425293e-01,-4.729184806346893311e-01,4.481016695499420166e-01,-4.808275401592254639e-02,-5.434324145317077637e-01,8.152072876691818237e-02,4.704695343971252441e-01,-2.935475707054138184e-01,6.080871224403381348e-01
-1.472139954566955566e-01,-2.273388803005218506e-01,2.831787467002868652e-01,2.660642266273498535e-01,5.741535425186157227e-01,2.081194519996643066e-01,-2.778448760509490967e-01,7.846174240112304688e-01,-3.858698904514312744e-01,-2.754899859428405762e-01,-4.262980818748474121e-02,7.882315516471862793e-01,-6.954653263092041016e-01,-4.570602178573608398e-01,2.867527902126312256e-01,7.755935937166213989e-02,-5.141112208366394043e-01,-5.337622016668319702e-02,5.629659891128540039e-01,-3.183235824108123779e-01,5.828853249549865723e-01
-2.101458758115768433e-01,-1.907360702753067017e-01,2.086145132780075073e-01,2.722440659999847412e-01,7.117714881896972656e-01,4.347781538963317871e-01,-4.957323074340820312e-01,7.946881055831909180e-01,-1.018007993698120117e-01,-3.480373620986938477e-01,-1.591864675283432007e-01,7.618728876113891602e-01,-7.738810181617736816e-01,-3.822095692157745361e-01,6.125226616859436035e-02,2.419387549161911011e-01,-4.243851304054260254e-01,-1.241293773055076599e-01,3.898374736309051514e-01,4.161396995186805725e-02,4.573529958724975586e-01
-1.139337122440338135e-01,4.572052136063575745e-02,6.486397236585617065e-02,-2.007665485143661499e-02,5.395013093948364258e-01,3.666211664676666260e-01,-5.836962461471557617e-01,8.689882159233093262e-01,-1.710149496793746948e-01,-1.553627699613571167e-01,-3.953616693615913391e-02,7.273591160774230957e-01,-6.262800097465515137e-01,-5.119898319244384766e-01,1.201186329126358032e-01,5.668673664331436157e-02,-3.161764442920684814e-01,-1.892698109149932861e-01,1.964133679866790771e-01,-1.129955202341079712e-01,5.126652121543884277e-01
-2.173776924610137939e-01,-4.576276242733001709e-01,2.823684811592102051e-01,8.324092254042625427e-03,6.251419782638549805e-01,2.773366570472717285e-01,-8.829997181892395020e-01,8.280575871467590332e-01,-1.336334347724914551e-01,3.852779045701026917e-02,1.629382185637950897e-02,4.277387857437133789e-01,-5.094054341316223145e-01,-7.275102138519287109e-01,-2.211701273918151855e-01,1.420215815305709839e-01,-1.487584412097930908e-01,-2.033287137746810913e-01,2.707800567150115967e-01,-9.577202051877975464e-02,6.566114425659179688e-01
-3.437336385250091553e-01,-3.071499764919281006e-01,2.169685661792755127e-01,-1.071015968918800354e-01,4.737212359905242920e-01,4.876700341701507568e-01,-7.264552116394042969e-01,8.085790276527404785e-01,1.253476589918136597e-01,-1.814793944358825684e-01,-1.352634280920028687e-01,1.576466560363769531e-01,-7.307623028755187988e-01,-6.845225095748901367e-01,-3.712667822837829590e-01,1.625806838274002075e-01,-1.975249648094177246e-01,-4.797780513763427734e-01,2.410927861928939819e-01,-1.151207238435745239e-01,3.198829293251037598e-01
-3.369773924350738525e-01,-5.495632290840148926e-01,2.268204689025878906e-01,4.239205643534660339e-02,3.532266020774841309e-01,4.496130347251892090e-01,-7.560465335845947266e-01,9.063426256179809570e-01,-4.421725496649742126e-02,3.522597625851631165e-02,3.431571274995803833e-02,2.905259430408477783e-01,-4.778241217136383057e-01,-8.180659413337707520e-01,-3.662976026535034180e-01,2.316558063030242920e-01,-5.437368527054786682e-02,-3.752985596656799316e-01,1.118642240762710571e-01,-2.817426025867462158e-01,6.514736413955688477e-01
-3.605040311813354492e-01,-5.792113542556762695e-01,1.399836242198944092e-01,1.485345065593719482e-01,1.547267436981201172e-01,2.719419300556182861e-01,-1.103703260421752930e+00,6.025550961494445801e-01,2.004291415214538574e-01,1.772109270095825195e-01,-2.248124592006206512e-02,-9.699896723031997681e-02,-6.968461871147155762e-01,-6.953495144844055176e-01,-1.585168093442916870e-01,1.143608391284942627e-01,-2.382970750331878662e-01,-3.386773169040679932e-01,-6.149816513061523438e-02,-2.962623834609985352e-01,5.325111746788024902e-01
-5.067309737205505371e-01,-5.210536718368530273e-01,-1.842065155506134033e-01,-1.141668558120727539e-01,3.040637075901031494e-01,7.939627021551132202e-02,-8.946287035942077637e-01,5.846486091613769531e-01,6.451081484556198120e-02,5.555285513401031494e-02,7.562924176454544067e-03,-1.105626970529556274e-01,-3.871878087520599365e-01,-9.658145308494567871e-01,-2.113018631935119629e-01,2.840878665447235107e-01,1.202360391616821289e-01,-1.960406452417373657e-01,3.911788109689950943e-03,-2.545883059501647949e-01,5.764739513397216797e-01
-2.713179290294647217e-01,-7.668834328651428223e-01,2.007648944854736328e-01,-6.234031915664672852e-02,3.268647789955139160e-01,6.832352839410305023e-03,-1.106018185615539551e+00,5.989412665367126465e-01,4.333994165062904358e-02,-6.044361740350723267e-03,-1.530763506889343262e-01,-1.110103577375411987e-01,-6.413758397102355957e-01,-9.424001574516296387e-01,-3.693946301937103271e-01,2.353453487157821655e-01,-5.981411784887313843e-02,-6.076531410217285156e-01,1.558967828750610352e-01,-6.584727764129638672e-01,6.993948817253112793e-01
-3.100726008415222168e-01,-6.813409924507141113e-01,-1.696810275316238403e-01,1.723387092351913452e-01,1.010334193706512451e-01,3.086762130260467529e-02,-1.046040534973144531e+00,6.043300032615661621e-01,7.899097353219985962e-02,5.414754524827003479e-02,4.240455571562051773e-03,-2.321457266807556152e-01,-5.816261768341064453e-01,-7.200769186019897461e-01,-9.229321777820587158e-02,7.104805856943130493e-02,-1.124786809086799622e-01,-3.249467909336090088e-01,3.652909696102142334e-01,-6.233809590339660645e-01,4.395823478698730469e-01
-3.946722149848937988e-01,-6.789818406105041504e-01,-2.090976983308792114e-01,1.762827783823013306e-01,1.452084332704544067e-01,-1.984738707542419434e-01,-9.478332400321960449e-01,4.718795418739318848e-01,-2.710608392953872681e-02,-1.061218455433845520e-01,-2.696817517280578613e-01,-2.891942560672760010e-01,-7.137201428413391113e-01,-7.467733621597290039e-01,-1.882081329822540283e-01,-4.106110334396362305e-02,1.742597073316574097e-01,-1.402076631784439087e-01,3.649713099002838135e-01,-6.047538518905639648e-01,5.904815196990966797e-01
-2.927569486200809479e-02,-8.213216662406921387e-01,4.312928393483161926e-02,4.398519992828369141e-01,2.304956912994384766e-01,-4.205009937286376953e-01,-9.066709280014038086e-01,4.308002889156341553e-01,3.139703273773193359e-01,-3.185998201370239258e-01,-7.347913086414337158e-02,-2.726374864578247070e-01,-7.137455940246582031e-01,-5.724789500236511230e-01,-5.131942778825759888e-02,1.123085394501686096e-01,-1.844147443771362305e-01,-2.800299227237701416e-01,2.241647243499755859e-01,-5.368766784667968750e-01,5.202687978744506836e-01
-1.144866719841957092e-01,-7.720506191253662109e-01,8.620382286608219147e-03,1.509618461132049561e-01,3.315726220607757568e-01,-3.497280478477478027e-01,-9.180209040641784668e-01,3.345184922218322754e-01,2.268749922513961792e-01,-4.913096725940704346e-01,-2.729651033878326416e-01,-2.953420281410217285e-01,-7.688778638839721680e-01,-2.582216560840606689e-01,1.699435338377952576e-02,-7.024765759706497192e-02,-6.074172630906105042e-02,-4.028341472148895264e-01,3.849995434284210205e-01,-6.246303319931030273e-01,3.631543219089508057e-01
-9.113620221614837646e-02,-7.356566786766052246e-01,1.818509548902511597e-01,1.597955673933029175e-01,3.233856856822967529e-01,-3.635700345039367676e-01,-8.362372517585754395e-01,3.313360810279846191e-01,7.936815172433853149e-02,-5.111022591590881348e-01,-4.745304882526397705e-01,-2.307785898447036743e-01,-8.756671547889709473e-01,-4.180997014045715332e-01,2.665445208549499512e-01,1.982316747307777405e-02,-2.015911489725112915e-01,7.295750081539154053e-02,4.567558765411376953e-01,-5.480070114135742188e-01,6.306095719337463379e-01
-1.273552775382995605e-01,-6.465020775794982910e-01,2.185039669275283813e-01,6.447205692529678345e-02,1.953621804714202881e-01,-2.546126842498779297e-01,-7.180498838424682617e-01,2.824700474739074707e-01,1.090644970536231995e-01,-3.337933421134948730e-01,-4.403214156627655029e-01,-3.266727626323699951e-01,-6.190279722213745117e-01,-2.727026045322418213e-01,1.471052467823028564e-01,-1.990513205528259277e-01,-2.757260948419570923e-02,-2.010252177715301514e-01,3.535983562469482422e-01,-6.013765335083007812e-01,5.712612271308898926e-01
-1.171359866857528687e-01,-7.575652003288269043e-01,4.300090372562408447e-01,2.533948421478271484e-01,4.509420692920684814e-01,-4.058308899402618408e-01,-8.608637452125549316e-01,1.771713942289352417e-01,4.998404160141944885e-02,-4.977495968341827393e-01,-5.128936171531677246e-01,-3.129089176654815674e-01,-8.291525840759277344e-01,-2.122295051813125610e-01,-1.035372465848922729e-01,1.979058142751455307e-03,-1.005684807896614075e-01,-6.535111367702484131e-02,5.871075987815856934e-01,-3.745206594467163086e-01,3.983474671840667725e-01
-5.001454055309295654e-02,-6.576362848281860352e-01,6.802598237991333008e-01,3.776659369468688965e-01,2.966818213462829590e-01,-4.380580186843872070e-01,-5.702063441276550293e-01,2.157969176769256592e-01,1.254606246948242188e-01,-3.626668155193328857e-01,-3.339939713478088379e-01,-4.018209576606750488e-01,-7.243021130561828613e-01,1.359815001487731934e-01,-8.757910132408142090e-02,8.663420379161834717e-02,-2.365150153636932373e-01,2.197615057229995728e-01,4.717198312282562256e-01,-2.354116886854171753e-01,8.112813830375671387e-01
-3.502777311950922012e-03,-6.610692143440246582e-01,4.949384033679962158e-01,4.308918714523315430e-01,2.623701393604278564e-01,-4.391522407531738281e-01,-6.123601794242858887e-01,7.480704039335250854e-02,8.413705974817276001e-02,-4.440715014934539795e-01,-3.642907440662384033e-01,-3.015109598636627197e-01,-7.356014251708984375e-01,8.197089284658432007e-02,-2.056560814380645752e-01,3.317642509937286377e-01,-9.641443938016891479e-02,1.409899890422821045e-01,6.196588873863220215e-01,-2.940815389156341553e-01,6.033627986907958984e-01
-2.840788662433624268e-01,-6.482397317886352539e-01,5.043591260910034180e-01,3.611078262329101562e-01,3.174013495445251465e-01,-3.714111149311065674e-01,-5.518887639045715332e-01,-1.931396722793579102e-01,1.977027952671051025e-01,-4.429971277713775635e-01,3.676357120275497437e-02,-3.342281281948089600e-01,-9.150367379188537598e-01,2.646626532077789307e-01,-2.619657814502716064e-01,3.326340913772583008e-01,2.395780943334102631e-02,1.580411046743392944e-01,3.600751757621765137e-01,-2.742070853710174561e-01,6.712113618850708008e-01
-3.009638786315917969e-01,-4.208238124847412109e-01,3.569124937057495117e-01,1.914394348859786987e-01,3.766688108444213867e-01,-5.692460536956787109e-01,-4.383398294448852539e-01,-2.104686573147773743e-02,1.452614814043045044e-01,-2.824753224849700928e-01,-2.366685122251510620e-02,-3.060593008995056152e-01,-9.607385396957397461e-01,4.078647121787071228e-02,-1.033732965588569641e-01,4.068375825881958008e-01,1.026308685541152954e-01,3.354007005691528320e-01,2.469753772020339966e-01,-2.914951443672180176e-01,9.383241534233093262e-01
-5.087821483612060547e-01,-5.502272844314575195e-01,4.755018949508666992e-01,3.345529735088348389e-01,4.330212771892547607e-01,-1.736492365598678589e-01,-4.347611069679260254e-01,5.395341198891401291e-03,-5.941276997327804565e-02,-3.240060508251190186e-01,2.080281823873519897e-01,-2.956613004207611084e-01,-8.393010497093200684e-01,-3.386239754036068916e-03,-2.535711228847503662e-01,2.959064543247222900e-01,3.722102642059326172e-01,4.112215936183929443e-01,2.783467173576354980e-01,1.745242923498153687e-01,8.491846323013305664e-01
-4.974829554557800293e-01,-5.216426849365234375e-01,4.676187634468078613e-01,1.061273068189620972e-01,2.979297041893005371e-01,-3.390023708343505859e-01,-4.690828621387481689e-01,3.709530457854270935e-02,1.845868304371833801e-02,-1.503295004367828369e-01,3.109552562236785889e-01,-2.768210768699645996e-01,-9.659418463706970215e-01,-2.518860064446926117e-02,-2.676147222518920898e-01,2.815477252006530762e-01,2.833430767059326172e-01,4.347925186157226562e-01,2.110195308923721313e-01,-1.289960443973541260e-01,8.491556644439697266e-01
-5.952261686325073242e-01,-2.175682038068771362e-01,6.302185654640197754e-01,8.940631896257400513e-02,3.147576451301574707e-01,-3.002706170082092285e-01,-6.274396181106567383e-02,-1.447111219167709351e-01,1.205717399716377258e-01,-3.093279898166656494e-01,2.630033791065216064e-01,-1.011753231287002563e-01,-7.953053116798400879e-01,-1.220148205757141113e-01,-4.341409206390380859e-01,3.720722496509552002e-01,3.748147487640380859e-01,5.244863629341125488e-01,2.686466574668884277e-01,-7.253766059875488281e-02,8.727811574935913086e-01
-5.519251227378845215e-01,-1.921617984771728516e-01,5.345647335052490234e-01,3.580555692315101624e-02,5.094202160835266113e-01,-3.819650411605834961e-01,-3.923528492450714111e-01,-2.971092704683542252e-03,2.343496382236480713e-01,-9.176412224769592285e-02,2.877698242664337158e-01,-9.891095757484436035e-02,-9.082886576652526855e-01,-4.573026206344366074e-03,-5.348317623138427734e-01,3.232109248638153076e-01,6.869606971740722656e-01,5.715122222900390625e-01,1.589776724576950073e-01,1.397901475429534912e-01,8.485354781150817871e-01
-5.784508585929870605e-01,-2.164499163627624512e-01,4.530862569808959961e-01,5.732211843132972717e-02,7.786534428596496582e-01,-2.824670374393463135e-01,-3.175241500139236450e-02,-7.432674616575241089e-02,1.991771608591079712e-01,-2.944236695766448975e-01,5.850536227226257324e-01,-1.862994581460952759e-01,-5.955558419227600098e-01,-1.499804705381393433e-01,-4.871258437633514404e-01,3.366836905479431152e-01,7.353779077529907227e-01,5.478107929229736328e-01,1.044712662696838379e-01,1.652292162179946899e-01,8.349003791809082031e-01
-5.966592431068420410e-01,-1.148168295621871948e-01,4.022703170776367188e-01,-2.202202565968036652e-02,6.789184212684631348e-01,-2.537475228309631348e-01,8.116402477025985718e-02,-3.452494367957115173e-02,3.280754387378692627e-01,-1.430896818637847900e-01,4.814856350421905518e-01,-1.464833468198776245e-01,-3.740586936473846436e-01,-8.660224080085754395e-02,-6.830535531044006348e-01,5.723932385444641113e-01,7.682963013648986816e-01,7.309760451316833496e-01,-9.630299359560012817e-02,2.486184388399124146e-01,4.333335459232330322e-01
-6.943952441215515137e-01,6.552045792341232300e-02,-8.883244358003139496e-03,-2.167141586542129517e-01,7.139997482299804688e-01,-5.829016491770744324e-02,8.104113489389419556e-02,2.316941022872924805e-01,3.533327281475067139e-01,2.327989041805267334e-02,3.535072803497314453e-01,-1.253175884485244751e-01,-3.941282033920288086e-01,-1.550820916891098022e-01,-5.622396469116210938e-01,6.783227920532226562e-01,9.465411305427551270e-01,6.238746047019958496e-01,-7.692955434322357178e-02,3.822597265243530273e-01,5.024239420890808105e-01
-4.791188538074493408e-01,-1.366782486438751221e-01,1.681930124759674072e-01,-2.379894256591796875e-01,8.146525025367736816e-01,6.972195953130722046e-02,-4.736131802201271057e-02,8.927906304597854614e-02,3.084776103496551514e-01,-2.364366203546524048e-01,5.968115329742431641e-01,-1.000327542424201965e-01,-3.301349580287933350e-01,-5.446781218051910400e-02,-3.858054280281066895e-01,6.189525723457336426e-01,8.500238656997680664e-01,7.182185649871826172e-01,-8.232329040765762329e-02,2.811680138111114502e-01,3.103685975074768066e-01
-7.480350732803344727e-01,1.726245284080505371e-01,6.236009672284126282e-02,-4.135642051696777344e-01,7.186877727508544922e-01,-1.476454269140958786e-02,-9.691151231527328491e-02,1.763403713703155518e-01,6.214893460273742676e-01,1.832204908132553101e-01,4.410704374313354492e-01,-6.142943352460861206e-02,8.156245201826095581e-02,-1.391028612852096558e-01,-6.127637028694152832e-01,7.533391118049621582e-01,7.211673855781555176e-01,4.485647976398468018e-01,-1.061856299638748169e-01,1.769740283489227295e-01,2.741957008838653564e-01
-7.581613659858703613e-01,-1.272854059934616089e-01,1.410195678472518921e-01,-4.662655591964721680e-01,8.137090802192687988e-01,3.792555257678031921e-02,9.417229145765304565e-02,2.679494619369506836e-01,5.243405103683471680e-01,1.126210838556289673e-01,5.961364507675170898e-01,-3.060890138149261475e-01,7.164560258388519287e-02,-2.131843119859695435e-01,-6.412655711174011230e-01,8.644226193428039551e-01,7.113106250762939453e-01,4.362747371196746826e-01,-8.066855370998382568e-02,5.565146207809448242e-01,3.345968425273895264e-01
-6.729499101638793945e-01,1.075717136263847351e-01,-1.275634169578552246e-01,-3.822968900203704834e-01,7.308537364006042480e-01,1.975664049386978149e-01,-2.604403197765350342e-01,2.508839406073093414e-02,8.424228429794311523e-01,1.132315918803215027e-01,4.866046905517578125e-01,-3.063966631889343262e-01,1.842282116413116455e-01,-3.282630145549774170e-01,-9.678780436515808105e-01,7.515168786048889160e-01,6.689206361770629883e-01,4.657654166221618652e-01,-2.775799036026000977e-01,3.269494473934173584e-01,1.111077815294265747e-01
-5.589570999145507812e-01,-3.428990840911865234e-01,-8.957914263010025024e-02,-6.521434187889099121e-01,4.695722162723541260e-01,3.225897252559661865e-01,-2.296847850084304810e-01,1.786194145679473877e-01,7.338265776634216309e-01,2.141666859388351440e-01,4.735289812088012695e-01,-3.520665168762207031e-01,1.383952051401138306e-01,-2.518912553787231445e-01,-8.267285227775573730e-01,8.293337225914001465e-01,5.876521468162536621e-01,2.047985941171646118e-01,-3.114829957485198975e-01,3.051517307758331299e-01,-1.712319552898406982e-01
-5.666040778160095215e-01,-6.580130010843276978e-02,-1.540189832448959351e-01,-2.463670074939727783e-01,3.718899488449096680e-01,1.596053689718246460e-01,-2.161477357149124146e-01,1.409326642751693726e-01,7.416307926177978516e-01,3.779926896095275879e-01,3.973492085933685303e-01,-5.154224038124084473e-01,4.027448296546936035e-01,-4.237486720085144043e-01,-8.988043665885925293e-01,8.513185977935791016e-01,7.645277380943298340e-01,9.297346323728561401e-02,-4.053748250007629395e-01,3.387126922607421875e-01,-1.697046905755996704e-01
-6.504440903663635254e-01,-1.466091275215148926e-01,-1.942374557256698608e-01,-2.613290548324584961e-01,1.847206056118011475e-01,2.273061424493789673e-01,-4.129272699356079102e-01,2.263843640685081482e-02,6.634543538093566895e-01,1.938783079385757446e-01,3.913488686084747314e-01,-5.451173186302185059e-01,3.512879610061645508e-01,-2.771345674991607666e-01,-8.700038790702819824e-01,8.064954876899719238e-01,4.883841276168823242e-01,5.306840315461158752e-02,-4.109016656875610352e-01,4.598366320133209229e-01,-3.310267925262451172e-01
-4.840450882911682129e-01,-3.585912883281707764e-01,-3.082639276981353760e-01,-1.779595017433166504e-01,2.675662934780120850e-01,3.805648535490036011e-02,-2.624573409557342529e-01,-1.002627909183502197e-01,7.597734928131103516e-01,2.104304879903793335e-01,5.421785116195678711e-01,-8.744201064109802246e-01,2.925270795822143555e-01,-3.135817646980285645e-01,-7.967025041580200195e-01,5.555841922760009766e-01,6.588119268417358398e-01,-3.897224378306418657e-04,-3.263194262981414795e-01,1.433602124452590942e-01,-9.697970002889633179e-02
-4.427676796913146973e-01,-5.524143576622009277e-01,-2.684667408466339111e-01,-2.415649890899658203e-01,1.769376844167709351e-01,7.489127665758132935e-02,-2.621383368968963623e-01,-2.601236402988433838e-01,4.099189043045043945e-01,2.326357513666152954e-01,5.282517671585083008e-01,-6.396410465240478516e-01,2.185180783271789551e-01,-3.016255497932434082e-01,-6.601275801658630371e-01,3.674683272838592529e-01,3.790985941886901855e-01,1.487626414746046066e-02,-3.907039165496826172e-01,2.325373888015747070e-01,-3.181579336524009705e-02
-3.410311937332153320e-01,-6.724815815687179565e-02,-5.213201642036437988e-01,-3.148692846298217773e-02,1.336521934717893600e-02,-6.153876334428787231e-02,-1.055597066879272461e-01,-2.145549207925796509e-01,6.547828316688537598e-01,-1.347946226596832275e-01,5.662116408348083496e-01,-7.041838765144348145e-01,3.479238152503967285e-01,-2.325041294097900391e-01,-6.235690712928771973e-01,3.521858751773834229e-01,4.695180952548980713e-01,1.199818179011344910e-01,-2.048353850841522217e-01,6.254113465547561646e-02,-8.527682721614837646e-02
-2.566182911396026611e-01,-2.928725779056549072e-01,-6.101975440979003906e-01,-6.106532365083694458e-02,1.230573430657386780e-01,-1.864833571016788483e-02,-1.507515311241149902e-01,-2.873952388763427734e-01,5.916444063186645508e-01,1.392762362957000732e-01,4.154179990291595459e-01,-3.250414729118347168e-01,1.365427579730749130e-02,-2.289842963218688965e-01,-7.008663415908813477e-01,3.181888461112976074e-01,3.415204882621765137e-01,2.029172778129577637e-01,-1.164454519748687744e-01,-1.226559132337570190e-01,-1.922211349010467529e-01
-2.078304141759872437e-01,-2.089287489652633667e-01,-3.990326821804046631e-01,1.284011304378509521e-01,1.244454979896545410e-01,-1.807525902986526489e-01,6.316480040550231934e-02,-5.709647536277770996e-01,5.146189332008361816e-01,-1.980648748576641083e-02,4.931451678276062012e-01,-5.282469987869262695e-01,-8.353921771049499512e-02,-9.983128309249877930e-02,-4.168227910995483398e-01,1.218938454985618591e-01,2.805802226066589355e-01,4.167128503322601318e-01,-6.796776503324508667e-02,-8.693563938140869141e-02,7.874213904142379761e-02
-8.849167078733444214e-02,-3.810722529888153076e-01,-3.994620740413665771e-01,1.604008972644805908e-01,1.987966448068618774e-01,-2.101241238415241241e-02,3.327305018901824951e-01,-4.244081079959869385e-01,2.183036357164382935e-01,-1.597482115030288696e-01,3.186134696006774902e-01,-5.822519063949584961e-01,1.326206475496292114e-01,-1.102146506309509277e-01,-8.709758520126342773e-03,-3.532685711979866028e-02,1.706362068653106689e-01,3.442411124706268311e-01,-7.366668432950973511e-02,-2.027169615030288696e-01,-3.127087354660034180e-01
5.439919885247945786e-03,-1.613653302192687988e-01,-4.677568078041076660e-01,2.715329229831695557e-01,3.855545520782470703e-01,-3.472413495182991028e-02,3.669433593750000000e-01,-2.667847871780395508e-01,3.409413397312164307e-01,-3.245490193367004395e-01,1.340154111385345459e-01,-4.983065426349639893e-01,9.102418273687362671e-02,1.371295899152755737e-01,1.507064141333103180e-02,2.744372002780437469e-02,9.735396504402160645e-02,2.546344101428985596e-01,-2.287285029888153076e-02,-1.757649481296539307e-01,-2.252065837383270264e-01
1.388724148273468018e-01,1.909494958817958832e-02,-4.698143526911735535e-02,2.434318959712982178e-01,3.303654193878173828e-01,1.380182504653930664e-01,2.632784545421600342e-01,-4.482989907264709473e-01,3.615107238292694092e-01,-1.521737128496170044e-01,2.456306368112564087e-01,-3.183436691761016846e-01,-2.259063534438610077e-02,2.225940227508544922e-01,-2.291037142276763916e-02,5.650494247674942017e-02,2.436152696609497070e-01,4.176689088344573975e-01,2.725019156932830811e-01,-4.108934104442596436e-02,-9.081459790468215942e-02
2.103053629398345947e-01,4.153484478592872620e-02,-2.730093896389007568e-01,2.198897153139114380e-01,2.222939282655715942e-01,2.111728340387344360e-01,2.691650688648223877e-01,-3.870155513286590576e-01,1.401441395282745361e-01,-3.732362091541290283e-01,1.969419121742248535e-01,-2.076068073511123657e-01,1.437633186578750610e-01,2.615580260753631592e-01,-3.468677029013633728e-02,3.059373795986175537e-01,1.843849867582321167e-01,5.591683983802795410e-01,1.774288117885589600e-01,-6.458532065153121948e-02,-2.082820534706115723e-01
2.715810537338256836e-01,6.321733444929122925e-02,-2.001646757125854492e-01,1.694119274616241455e-01,3.700603544712066650e-01,5.458304286003112793e-02,4.586786329746246338e-01,-9.642302989959716797e-02,3.021103739738464355e-01,-2.458076030015945435e-01,-2.564769238233566284e-02,-3.416646718978881836e-01,9.408913552761077881e-02,2.982836067676544189e-01,1.110520213842391968e-01,1.561415493488311768e-01,2.244347035884857178e-01,3.883737325668334961e-01,9.517836570739746094e-02,3.375266864895820618e-02,-1.432371735572814941e-01
9.192571789026260376e-02,3.950347304344177246e-01,-3.940401598811149597e-03,2.565631270408630371e-01,3.250406384468078613e-01,1.406173855066299438e-01,2.936035990715026855e-01,-1.685095131397247314e-01,6.051373109221458435e-02,-1.998666673898696899e-01,9.741062670946121216e-02,-2.472720146179199219e-01,2.435259521007537842e-01,2.833624780178070068e-01,-1.276615113019943237e-01,3.856389820575714111e-01,-2.031455188989639282e-02,4.676202833652496338e-01,-3.129658475518226624e-02,-4.467809200286865234e-02,-2.858650684356689453e-01
2.374144047498703003e-01,5.096467733383178711e-01,1.064488082192838192e-03,2.853644192218780518e-01,2.148812711238861084e-01,4.044351875782012939e-01,4.350528419017791748e-01,-1.790017038583755493e-01,2.568996548652648926e-01,-2.450802028179168701e-01,1.949934810400009155e-01,-1.019241735339164734e-01,1.542818695306777954e-01,3.407316505908966064e-01,2.128340490162372589e-02,3.636751472949981689e-01,9.097597002983093262e-02,4.209044575691223145e-01,-6.090340204536914825e-03,3.113827407360076904e-01,-5.153158679604530334e-03
2.579769492149353027e-01,3.380521237850189209e-01,1.340813636779785156e-01,3.045392334461212158e-01,1.163018643856048584e-01,5.929548740386962891e-01,3.366730213165283203e-01,-6.992056220769882202e-02,1.579118967056274414e-01,-5.859120562672615051e-02,3.389942348003387451e-01,-7.081010937690734863e-02,2.773544518277049065e-03,4.000446200370788574e-01,3.552263975143432617e-02,3.230712711811065674e-01,1.151026934385299683e-01,3.118280768394470215e-01,-3.021346926689147949e-01,3.283896669745445251e-02,2.914536558091640472e-02
1.801720857620239258e-01,3.539404273033142090e-01,-3.660470480099320412e-03,1.475734263658523560e-01,2.587124109268188477e-01,4.016910493373870850e-01,3.060835897922515869e-01,-1.258506029844284058e-01,4.401764869689941406e-01,5.828510969877243042e-02,2.755526304244995117e-01,-1.268578022718429565e-01,3.277083858847618103e-02,3.196758329868316650e-01,-1.962517946958541870e-02,4.086437523365020752e-01,2.709673345088958740e-01,2.553630471229553223e-01,-1.985254883766174316e-01,8.691787719726562500e-02,-2.267682403326034546e-01
-4.596569016575813293e-02,1.717960685491561890e-01,2.864216081798076630e-02,3.844656348228454590e-01,2.463129162788391113e-01,6.456323266029357910e-01,3.663719296455383301e-01,-1.705483533442020416e-02,3.026455044746398926e-01,1.858001947402954102e-02,6.292464137077331543e-01,-5.283304303884506226e-02,9.157957881689071655e-02,2.180901616811752319e-01,-2.138967663049697876e-01,7.383274435997009277e-01,1.949043869972229004e-01,4.541363194584846497e-02,-4.196304380893707275e-01,1.036739051342010498e-01,3.518048673868179321e-02
9.563977271318435669e-02,1.888674348592758179e-01,-2.833992540836334229e-01,3.182125985622406006e-01,1.260464787483215332e-01,5.408715009689331055e-01,3.718645274639129639e-01,1.378014236688613892e-01,6.185746788978576660e-01,5.568623915314674377e-02,5.465455651283264160e-01,-3.495709598064422607e-02,1.228018552064895630e-01,1.327577382326126099e-01,-1.598795205354690552e-01,6.492589116096496582e-01,4.196375608444213867e-01,1.418075263500213623e-01,-5.392091274261474609e-01,9.931407123804092407e-02,-1.258226577192544937e-02
-1.284185796976089478e-01,2.235028296709060669e-01,-2.067114263772964478e-01,3.480698764324188232e-01,1.624213606119155884e-01,7.444273233413696289e-01,3.060670495033264160e-01,3.194192349910736084e-01,4.832020103931427002e-01,1.120274886488914490e-01,4.465355575084686279e-01,-8.182458579540252686e-02,1.143851131200790405e-01,-4.255323484539985657e-02,-2.576079070568084717e-01,7.061990499496459961e-01,3.529285788536071777e-01,9.598825871944427490e-02,-4.046160280704498291e-01,3.889806941151618958e-02,5.284109152853488922e-03
3.894395008683204651e-02,1.446252912282943726e-01,-2.359591126441955566e-01,3.405135869979858398e-01,5.968431010842323303e-02,6.237183213233947754e-01,2.037112861871719360e-01,4.641801714897155762e-01,5.553371310234069824e-01,-8.965977281332015991e-02,5.854558348655700684e-01,7.069496810436248779e-02,5.502917803823947906e-03,-9.183811396360397339e-02,-1.663071364164352417e-01,5.827208757400512695e-01,5.045247673988342285e-01,2.683544456958770752e-01,-4.813204705715179443e-01,-4.422105848789215088e-02,-1.306875348091125488e-01
-3.121094591915607452e-02,1.695480793714523315e-01,-3.794586360454559326e-01,1.708553433418273926e-01,2.973876595497131348e-01,6.904216408729553223e-01,2.487369477748870850e-01,3.964297473430633545e-01,5.583083629608154297e-01,-4.079059232026338577e-03,3.887370228767395020e-01,-6.128363311290740967e-02,-2.046288223937153816e-03,3.100058995187282562e-02,-1.839308589696884155e-01,5.381709933280944824e-01,5.463857054710388184e-01,-7.450073957443237305e-02,-6.617811918258666992e-01,-8.631002157926559448e-02,-8.957453072071075439e-02
8.029532432556152344e-02,1.940521150827407837e-01,-4.030556380748748779e-01,3.310253322124481201e-01,5.972224846482276917e-02,6.309614777565002441e-01,3.972937166690826416e-01,4.968656301498413086e-01,4.934654831886291504e-01,1.423241049051284790e-01,4.684870243072509766e-01,5.287864804267883301e-02,7.824959605932235718e-02,-3.045874238014221191e-01,-1.469493061304092407e-01,6.565213799476623535e-01,5.408069491386413574e-01,-1.348667293787002563e-01,-5.813540816307067871e-01,-1.088540703058242798e-01,-8.905518800020217896e-02
-2.352625578641891479e-01,1.321334764361381531e-02,-3.038318753242492676e-01,2.134168893098831177e-01,-2.357119321823120117e-01,8.750230073928833008e-01,4.088605642318725586e-01,5.421171784400939941e-01,5.772260427474975586e-01,-4.127030447125434875e-02,5.212910175323486328e-01,1.438900246284902096e-03,3.248436450958251953e-01,-1.179202571511268616e-01,-1.608069688081741333e-01,6.681485772132873535e-01,4.400047957897186279e-01,-5.577769502997398376e-02,-4.677683115005493164e-01,-3.017886579036712646e-01,-4.218770861625671387e-01
8.633959293365478516e-02,-7.943998277187347412e-02,-4.029210507869720459e-01,4.386097490787506104e-01,-1.680374592542648315e-01,9.344398975372314453e-01,2.898854017257690430e-01,7.396065592765808105e-01,6.234214901924133301e-01,-5.815982818603515625e-02,4.287212789058685303e-01,-2.476795613765716553e-01,2.007633149623870850e-01,-2.000594735145568848e-01,-1.106247026473283768e-02,7.502054572105407715e-01,4.087509214878082275e-01,-2.163446247577667236e-01,-4.409656226634979248e-01,-3.240608870983123779e-01,-6.437250375747680664e-01
2.557076811790466309e-01,-1.652897000312805176e-01,-3.468746542930603027e-01,1.485882848501205444e-01,-2.263766527175903320e-02,8.016603589057922363e-01,1.188682243227958679e-01,7.971493601799011230e-01,5.901201963424682617e-01,-1.664782315492630005e-01,2.962567210197448730e-01,-1.038695424795150757e-01,4.812863469123840332e-01,-5.438104271888732910e-03,-9.962362051010131836e-02,4.136779904365539551e-01,2.529664337635040283e-01,-3.216242194175720215e-01,-2.684412002563476562e-01,-3.334084153175354004e-01,-7.887002229690551758e-01
1.665792614221572876e-01,-2.779329121112823486e-01,-2.078642845153808594e-01,3.402009308338165283e-01,-5.865731462836265564e-02,6.667699217796325684e-01,-2.970308624207973480e-02,6.470202207565307617e-01,4.127713739871978760e-01,-1.446231305599212646e-01,1.165907606482505798e-01,-3.809311985969543457e-01,3.324820697307586670e-01,-3.373405039310455322e-01,4.620747268199920654e-02,5.609825849533081055e-01,2.869238555431365967e-01,-5.918446779251098633e-01,-3.366094529628753662e-01,-3.124852776527404785e-01,-5.861191749572753906e-01
7.513124495744705200e-02,-2.960255742073059082e-01,-3.519939482212066650e-01,2.410574853420257568e-01,-3.218921124935150146e-01,6.896979808807373047e-01,-6.349561363458633423e-02,7.076820731163024902e-01,7.964270114898681641e-01,-1.068593561649322510e-01,1.491763740777969360e-01,-4.619092643260955811e-01,1.422736942768096924e-01,-9.048638492822647095e-02,1.449273824691772461e-01,6.751720309257507324e-01,1.251148134469985962e-01,-5.349126458168029785e-01,-3.818107843399047852e-01,-3.970007598400115967e-01,-6.419984102249145508e-01
3.315812721848487854e-02,-4.728928804397583008e-01,-1.450720131397247314e-01,2.654636502265930176e-01,-4.454822838306427002e-01,7.188753485679626465e-01,-1.883164644241333008e-01,4.999042749404907227e-01,8.267126083374023438e-01,-3.482377827167510986e-01,7.703583687543869019e-02,-4.783839881420135498e-01,3.736664652824401855e-01,5.771122872829437256e-02,-2.150821685791015625e-02,4.632740318775177002e-01,-1.156220678240060806e-02,-5.703024864196777344e-01,-3.504489362239837646e-01,-3.870112001895904541e-01,-6.643819212913513184e-01
2.007415294647216797e-01,-5.314170718193054199e-01,-6.785283237695693970e-02,4.634437263011932373e-01,-4.257225096225738525e-01,5.451517701148986816e-01,-2.236539274454116821e-01,7.411152124404907227e-01,7.036532759666442871e-01,-2.471935600042343140e-01,3.753270581364631653e-02,-4.116774797439575195e-01,2.868642210960388184e-01,3.106266073882579803e-02,1.647981107234954834e-01,3.711741268634796143e-01,-1.420293152332305908e-01,-7.070297598838806152e-01,-3.633285760879516602e-01,-5.630702376365661621e-01,-5.528898239135742188e-01
2.764010131359100342e-01,-6.730915904045104980e-01,-1.325895786285400391e-01,5.431781411170959473e-01,-5.592117905616760254e-01,4.854530692100524902e-01,-2.232680618762969971e-01,4.432258009910583496e-01,7.258521318435668945e-01,-3.881981670856475830e-01,8.812079578638076782e-02,-5.645598769187927246e-01,1.454208791255950928e-01,-1.859986931085586548e-01,3.353269025683403015e-02,2.543786168098449707e-01,-8.384799212217330933e-02,-6.635048985481262207e-01,-3.690795302391052246e-01,-4.844180047512054443e-01,-6.111158132553100586e-01
1.474251002073287964e-01,-6.142090559005737305e-01,3.353504836559295654e-02,6.578040122985839844e-01,-7.303739786148071289e-01,2.847237586975097656e-01,-1.622823178768157959e-01,5.012594461441040039e-01,5.178896188735961914e-01,-5.947592258453369141e-01,-4.849113151431083679e-02,-7.009696960449218750e-01,1.548190414905548096e-01,-7.755046244710683823e-03,2.165427356958389282e-01,1.578240096569061279e-01,-9.608621895313262939e-02,-7.655293345451354980e-01,-1.742152869701385498e-01,-6.846762299537658691e-01,-4.184725284576416016e-01
3.546260595321655273e-01,-6.048739552497863770e-01,1.196860373020172119e-01,7.927376031875610352e-01,-4.895159006118774414e-01,1.842423826456069946e-01,-1.419411897659301758e-01,3.683144152164459229e-01,5.584616661071777344e-01,-3.191409111022949219e-01,-2.061907798051834106e-01,-5.883213877677917480e-01,2.336943894624710083e-02,-4.318529739975929260e-02,8.905456960201263428e-02,-4.040613770484924316e-02,-1.132811605930328369e-01,-7.133405208587646484e-01,-5.681716650724411011e-02,-8.731151223182678223e-01,-3.552930057048797607e-01
1.603127717971801758e-01,-8.738471269607543945e-01,1.648502498865127563e-01,9.251379966735839844e-01,-4.978632628917694092e-01,1.462946683168411255e-01,4.956686124205589294e-02,2.933241724967956543e-01,1.496585011482238770e-01,-5.129855275154113770e-01,-7.814451307058334351e-02,-3.403962552547454834e-01,-2.643193602561950684e-01,2.947416901588439941e-02,1.391428560018539429e-01,-2.334922179579734802e-02,-2.144706435501575470e-03,-5.852875709533691406e-01,1.163315027952194214e-01,-9.727619886398315430e-01,-2.661284506320953369e-01
1.693557500839233398e-01,-7.789210677146911621e-01,-3.484660759568214417e-02,1.021430969238281250e+00,-4.492823183536529541e-01,-1.496134139597415924e-02,-6.137264147400856018e-02,2.084810882806777954e-01,1.279544681310653687e-01,-7.824143767356872559e-01,-1.492266356945037842e-01,-3.635927140712738037e-01,-2.577346563339233398e-01,-1.154394820332527161e-01,2.391075789928436279e-01,-1.077250987291336060e-01,-1.878500133752822876e-01,-6.330825686454772949e-01,2.234268337488174438e-01,-8.716742396354675293e-01,-1.358746588230133057e-01
1.650152653455734253e-01,-8.513224124908447266e-01,1.071262806653976440e-01,1.026810169219970703e+00,-4.648340642452239990e-01,-2.051595002412796021e-01,1.198511347174644470e-01,3.341328799724578857e-01,1.809809356927871704e-01,-7.893717885017395020e-01,-1.065974310040473938e-01,-2.136390209197998047e-01,-3.415447473526000977e-01,1.327347457408905029e-01,5.677717328071594238e-01,-2.144233286380767822e-01,-9.675514698028564453e-02,-4.424794614315032959e-01,2.608297467231750488e-01,-8.150624632835388184e-01,-2.192554324865341187e-01
2.836750149726867676e-01,-7.211523652076721191e-01,2.331365346908569336e-01,9.021445512771606445e-01,-2.772889137268066406e-01,-2.404497116804122925e-01,1.433357894420623779e-01,3.305770754814147949e-01,-1.754637956619262695e-01,-9.116938114166259766e-01,-2.437006086111068726e-01,-2.734920680522918701e-01,-4.752652943134307861e-01,1.332300603389739990e-01,4.478616714477539062e-01,-6.519006937742233276e-02,-2.449637092649936676e-02,-1.843218207359313965e-01,4.284038543701171875e-01,-8.578388094902038574e-01,7.896798662841320038e-03
3.131190538406372070e-01,-6.624056696891784668e-01,1.965915113687515259e-01,9.739680290222167969e-01,-5.648061167448759079e-03,-3.806835114955902100e-01,2.205235958099365234e-01,3.192158043384552002e-01,-1.087174639105796814e-01,-9.334620237350463867e-01,-8.483056724071502686e-02,-9.393274039030075073e-02,-3.971865773200988770e-01,1.437859386205673218e-01,4.681474268436431885e-01,-2.363827377557754517e-01,-1.793098002672195435e-01,-3.134689331054687500e-01,5.344364047050476074e-01,-7.553738951683044434e-01,-5.061894655227661133e-02
2.567504942417144775e-01,-5.746949315071105957e-01,4.460234940052032471e-01,8.223589062690734863e-01,-6.217531114816665649e-02,-3.349366188049316406e-01,5.105100274085998535e-01,3.585773110389709473e-01,-2.210042476654052734e-01,-9.534333348274230957e-01,-1.881312280893325806e-01,2.856302261352539062e-01,-4.927565753459930420e-01,2.065934538841247559e-01,5.324202179908752441e-01,-3.910489976406097412e-01,3.320942819118499756e-02,-4.301115572452545166e-01,3.341765999794006348e-01,-6.638008952140808105e-01,-1.205740049481391907e-01
-1.276419311761856079e-02,-3.484365344047546387e-01,5.126386284828186035e-01,8.989632129669189453e-01,9.665779769420623779e-02,-1.903698742389678955e-01,2.985944747924804688e-01,3.402375280857086182e-01,-9.502726048231124878e-02,-8.845240473747253418e-01,-2.007706314325332642e-01,9.730854630470275879e-02,-5.325259566307067871e-01,3.312109708786010742e-01,4.021822512149810791e-01,-1.383385211229324341e-01,-8.098230510950088501e-02,5.642170459032058716e-02,5.694337487220764160e-01,-6.931463479995727539e-01,-2.007069885730743408e-01
-1.204613819718360901e-01,-5.108112096786499023e-01,6.658821105957031250e-01,4.635646343231201172e-01,1.540553271770477295e-01,-1.295494735240936279e-01,3.889372050762176514e-01,5.519263148307800293e-01,-7.968368381261825562e-02,-8.266554474830627441e-01,-1.152210757136344910e-01,1.680480092763900757e-01,-5.833506584167480469e-01,1.290423274040222168e-01,1.881515681743621826e-01,-1.675128489732742310e-01,6.402786821126937866e-02,-1.361421197652816772e-01,5.501752495765686035e-01,-2.804213464260101318e-01,1.366241648793220520e-02
6.194652616977691650e-02,-3.161875307559967041e-01,7.268187403678894043e-01,4.890232384204864502e-01,3.883987367153167725e-01,-2.800052165985107422e-01,3.019583225250244141e-01,7.173590660095214844e-01,-6.202572211623191833e-02,-8.613679409027099609e-01,-5.471395328640937805e-02,3.805847764015197754e-01,-1.242129355669021606e-01,2.195342034101486206e-01,2.256834506988525391e-01,1.035442352294921875e-01,1.015191748738288879e-01,-3.183718323707580566e-01,3.305149972438812256e-01,-2.829332053661346436e-01,-2.175527811050415039e-01
-3.438526690006256104e-01,-4.400751590728759766e-01,6.901878118515014648e-01,5.258476138114929199e-01,1.718927770853042603e-01,-7.513548433780670166e-02,2.411945313215255737e-01,4.073342382907867432e-01,-1.932663172483444214e-01,-6.889160275459289551e-01,-1.538338065147399902e-01,7.172787934541702271e-02,-3.242500722408294678e-01,1.174381226301193237e-01,-1.044574230909347534e-01,2.156737446784973145e-02,8.271397650241851807e-02,-2.083180695772171021e-01,3.949854969978332520e-01,8.050585165619850159e-03,-5.191558972001075745e-03
-4.440844058990478516e-01,-6.067077517509460449e-01,5.973313450813293457e-01,4.561725556850433350e-01,2.533182799816131592e-01,-1.751904785633087158e-01,3.501920104026794434e-01,6.377431154251098633e-01,-1.705177873373031616e-01,-5.390499234199523926e-01,-8.194256573915481567e-02,1.910141706466674805e-01,-3.246869444847106934e-01,-6.006976589560508728e-03,4.059807583689689636e-02,-7.444578409194946289e-02,1.509255319833755493e-01,-2.807485759258270264e-01,2.778243422508239746e-01,-2.402881830930709839e-01,-2.115602344274520874e-01
-5.114474892616271973e-01,-3.900764882564544678e-01,6.930003166198730469e-01,2.126438170671463013e-01,2.126006036996841431e-01,-1.519329380244016647e-02,2.302774041891098022e-01,6.490059494972229004e-01,1.227858886122703552e-01,-4.291301071643829346e-01,-1.388023197650909424e-01,1.136500015854835510e-01,-1.323993355035781860e-01,-2.030581682920455933e-01,-3.515986800193786621e-01,2.213875651359558105e-01,9.678702056407928467e-02,-3.630878031253814697e-01,1.090077087283134460e-01,-1.801399588584899902e-01,-3.843406960368156433e-02
-5.999004244804382324e-01,-3.483443558216094971e-01,7.338918447494506836e-01,2.390457093715667725e-01,1.733676046133041382e-01,1.289969980716705322e-01,1.742103993892669678e-01,7.598367333412170410e-01,-7.042927294969558716e-02,-5.431530475616455078e-01,2.961703203618526459e-02,6.025184877216815948e-03,-1.772362589836120605e-01,-1.331393420696258545e-01,-3.489355146884918213e-01,-7.271339651197195053e-03,3.236890733242034912e-01,-3.546445667743682861e-01,1.339412927627563477e-01,-1.037305593490600586e-01,-1.045793294906616211e-01
-6.074139475822448730e-01,-5.755847692489624023e-01,4.846628606319427490e-01,2.318734526634216309e-01,3.473995923995971680e-01,-8.649510890245437622e-02,2.163013257086277008e-02,4.561485946178436279e-01,2.420176416635513306e-01,-3.223013877868652344e-01,1.113663613796234131e-01,-8.588778972625732422e-02,-2.117227166891098022e-01,-3.348951041698455811e-01,-4.721579849720001221e-01,-7.703788578510284424e-02,3.974041640758514404e-01,-4.633185267448425293e-01,3.041668236255645752e-01,-3.052924275398254395e-01,-8.904476463794708252e-02
-7.939134240150451660e-01,-4.798126518726348877e-01,5.207773447036743164e-01,9.420490264892578125e-02,4.089363217353820801e-01,6.129123643040657043e-02,1.221019551157951355e-01,7.252150774002075195e-01,2.205519080162048340e-01,-2.894087433815002441e-01,2.565122544765472412e-01,1.025788262486457825e-01,-2.247395813465118408e-01,-5.186253190040588379e-01,-3.895901143550872803e-01,-9.024323523044586182e-02,1.879440099000930786e-01,-3.714526891708374023e-01,1.259706914424896240e-01,-1.420812867581844330e-02,-1.595013886690139771e-01
-8.175239562988281250e-01,-5.909531116485595703e-01,5.276073217391967773e-01,-6.246094778180122375e-02,3.032174408435821533e-01,-1.009251475334167480e-01,-2.415786385536193848e-01,6.081686019897460938e-01,4.606239125132560730e-02,-2.374646961688995361e-01,1.937355101108551025e-01,4.996136575937271118e-02,-1.542813181877136230e-01,-7.587087750434875488e-01,-4.380573332309722900e-01,-6.268563866615295410e-02,3.688787817955017090e-01,-5.477911829948425293e-01,1.187558397650718689e-01,-2.571445144712924957e-02,-1.655426919460296631e-01
-8.550592064857482910e-01,-5.994174480438232422e-01,3.170477449893951416e-01,1.392867765389382839e-03,2.937756776809692383e-01,-2.512219548225402832e-01,-5.505467951297760010e-02,6.353020668029785156e-01,2.370394766330718994e-02,-2.783867120742797852e-01,3.883311524987220764e-02,-1.773414574563503265e-02,4.307795688509941101e-02,-6.905047893524169922e-01,-5.841476917266845703e-01,-1.947098821401596069e-01,5.683297514915466309e-01,-4.216820597648620605e-01,-9.318948537111282349e-02,-1.894741877913475037e-02,-2.724401354789733887e-01
-7.010973095893859863e-01,-7.155025601387023926e-01,9.090066701173782349e-02,-1.271316111087799072e-01,1.625669598579406738e-01,-4.818619489669799805e-01,-3.092154860496520996e-02,6.321933269500732422e-01,7.204446196556091309e-02,-2.790681421756744385e-01,-6.015405431389808655e-02,-1.101055666804313660e-01,-6.601203978061676025e-02,-8.753373026847839355e-01,-5.160416364669799805e-01,-2.693488895893096924e-01,4.314262270927429199e-01,-5.149773955345153809e-01,1.223234459757804871e-01,-2.703705132007598877e-01,-4.136120378971099854e-01
-5.841130018234252930e-01,-8.783454298973083496e-01,9.830874949693679810e-02,-1.256627887487411499e-01,4.016811251640319824e-01,-2.116335630416870117e-01,-1.999522745609283447e-01,6.211006641387939453e-01,1.292836368083953857e-01,-1.647822409868240356e-01,-2.180920541286468506e-01,5.608660867437720299e-04,2.990380674600601196e-02,-7.454386353492736816e-01,-6.419091224670410156e-01,-2.439182251691818237e-01,2.058748602867126465e-01,-3.702732026576995850e-01,2.053360342979431152e-01,-1.518172770738601685e-01,-3.070722222328186035e-01
-5.700930953025817871e-01,-6.811985373497009277e-01,2.478187531232833862e-01,-3.741473704576492310e-02,4.324880242347717285e-01,-4.080432355403900146e-01,4.064427688717842102e-02,4.063661694526672363e-01,2.335821986198425293e-01,-2.953952848911285400e-01,-4.087156653404235840e-01,-4.209140688180923462e-02,1.045392900705337524e-01,-6.340361237525939941e-01,-5.916138291358947754e-01,-2.332525700330734253e-01,1.612930446863174438e-01,-5.701434016227722168e-01,6.858181953430175781e-02,-2.619957923889160156e-01,-4.648918807506561279e-01
-4.806590080261230469e-01,-7.037320733070373535e-01,4.553374648094177246e-01,-2.262401878833770752e-01,5.014365315437316895e-01,-2.987182140350341797e-01,-2.734757959842681885e-01,3.624576926231384277e-01,2.654219865798950195e-01,-1.774443089962005615e-01,-4.956851899623870850e-01,-1.867134422063827515e-01,2.352174520492553711e-01,-6.669660210609436035e-01,-5.736584663391113281e-01,-4.684540629386901855e-01,2.381056845188140869e-01,-4.335493445396423340e-01,2.349604815244674683e-01,-9.597820043563842773e-02,-5.743736028671264648e-01
-4.667068123817443848e-01,-8.195727467536926270e-01,3.675229847431182861e-01,-4.936797022819519043e-01,4.208886325359344482e-01,-4.992279708385467529e-01,-3.138242363929748535e-01,4.278041720390319824e-01,-5.302913859486579895e-02,-2.479974180459976196e-01,-3.927768766880035400e-01,-1.225599497556686401e-01,3.312668800354003906e-01,-5.550603270530700684e-01,-4.087871313095092773e-01,-4.416050612926483154e-01,3.664898499846458435e-02,-6.239469051361083984e-01,2.658754289150238037e-01,-1.163378655910491943e-01,-5.346313714981079102e-01
-3.200255930423736572e-01,-6.053889393806457520e-01,4.399785399436950684e-01,-2.128234058618545532e-01,2.625701427459716797e-01,-3.988895714282989502e-01,-3.316366970539093018e-01,4.020725488662719727e-01,-5.625394172966480255e-03,-4.497028291225433350e-01,-6.277372837066650391e-01,-2.391895651817321777e-01,1.464829295873641968e-01,-5.433546304702758789e-01,-4.834468662738800049e-01,-4.735349714756011963e-01,-5.980112776160240173e-02,-7.576118707656860352e-01,2.595344185829162598e-01,2.903420105576515198e-02,-5.932924747467041016e-01
-2.972702682018280029e-01,-8.269711732864379883e-01,5.147524476051330566e-01,-1.918180435895919800e-01,1.858377754688262939e-01,-5.684565901756286621e-01,-2.336729913949966431e-01,3.282651305198669434e-01,6.542035192251205444e-02,-2.940149009227752686e-01,-6.302958726882934570e-01,-4.573977291584014893e-01,-4.944447800517082214e-02,-5.182253122329711914e-01,-4.956399798393249512e-01,-4.683332741260528564e-01,-1.378921419382095337e-02,-6.851091384887695312e-01,3.648200035095214844e-01,-2.961471974849700928e-01,-3.936439156532287598e-01
-2.799689173698425293e-01,-5.621712803840637207e-01,4.041951298713684082e-01,-1.072768941521644592e-01,3.371593654155731201e-01,-5.432528257369995117e-01,-2.928367257118225098e-01,2.237399071455001831e-01,-1.286694034934043884e-02,-1.550630629062652588e-01,-7.624234557151794434e-01,-1.543014794588088989e-01,1.066763233393430710e-02,-3.393852114677429199e-01,-1.687170714139938354e-01,-5.480844974517822266e-01,-1.635089665651321411e-01,-7.626305818557739258e-01,9.359215945005416870e-02,-6.457398831844329834e-02,-5.062506198883056641e-01
-2.358596920967102051e-01,-4.203469157218933105e-01,4.851648211479187012e-01,-2.302785813808441162e-01,3.699753880500793457e-01,-6.288359761238098145e-01,-1.271313279867172241e-01,8.582280576229095459e-02,1.336234211921691895e-01,-2.105977535247802734e-01,-8.069468140602111816e-01,-1.903268396854400635e-01,-1.414067000150680542e-01,-3.675313293933868408e-01,-4.721511602401733398e-01,-4.600560367107391357e-01,-4.531486928462982178e-01,-7.385238409042358398e-01,1.191119477152824402e-01,-1.808835119009017944e-01,-1.887359470129013062e-01
-2.709890305995941162e-01,-6.406648159027099609e-01,5.711695551872253418e-01,-1.012201607227325439e-01,3.267793059349060059e-01,-6.959879398345947266e-01,-2.482520639896392822e-01,-3.092223079875111580e-03,-1.309256404638290405e-01,-1.315696239471435547e-01,-7.899671792984008789e-01,-3.516111671924591064e-01,-7.794214785099029541e-02,-3.223762214183807373e-01,-4.523209929466247559e-01,-6.052086353302001953e-01,-4.202879667282104492e-01,-5.704144835472106934e-01,9.714829735457897186e-03,-2.426215261220932007e-01,-1.327942609786987305e-01
-3.491413891315460205e-01,-5.508053302764892578e-01,6.756985783576965332e-01,3.825046494603157043e-02,2.568704485893249512e-01,-7.037611603736877441e-01,-1.240442469716072083e-01,-6.992768496274948120e-02,-2.234233170747756958e-02,-1.372261643409729004e-01,-6.904687285423278809e-01,-2.324067950248718262e-01,-1.217439100146293640e-01,-1.692903339862823486e-01,-3.459520041942596436e-01,-5.425109863281250000e-01,-2.542507946491241455e-01,-5.079939365386962891e-01,5.151547957211732864e-03,-1.274382323026657104e-01,-1.451786514371633530e-02
-2.393409162759780884e-01,-6.478037238121032715e-01,5.968074202537536621e-01,6.295898556709289551e-02,3.971310555934906006e-01,-6.617390513420104980e-01,-1.783179938793182373e-01,3.275760635733604431e-02,-3.001347780227661133e-01,3.789659217000007629e-02,-8.678988218307495117e-01,-3.603402972221374512e-01,-3.692808449268341064e-01,-8.528390526771545410e-02,-3.779451251029968262e-01,-5.805364251136779785e-01,-9.522924572229385376e-02,-4.369379281997680664e-01,3.089232444763183594e-01,-1.222393661737442017e-01,-3.831726685166358948e-02
-4.863531589508056641e-01,-1.404397636651992798e-01,5.240800380706787109e-01,-1.779975295066833496e-01,3.997438848018646240e-01,-6.459855437278747559e-01,-3.870363533496856689e-02,-2.771908640861511230e-01,-1.846418231725692749e-01,-1.084275841712951660e-01,-6.156681180000305176e-01,-1.356811225414276123e-01,-4.181130826473236084e-01,-3.930706977844238281e-01,-2.644988298416137695e-01,-4.336990714073181152e-01,-1.262091845273971558e-01,-2.585099041461944580e-01,2.290631644427776337e-02,-1.988784968852996826e-01,1.371289193630218506e-01
-5.161229968070983887e-01,-5.094556808471679688e-01,6.771959066390991211e-01,-1.073991209268569946e-01,5.660429596900939941e-01,-9.290640950202941895e-01,4.614406079053878784e-02,-1.995706744492053986e-02,-2.914808094501495361e-01,-3.977045044302940369e-02,-4.426176249980926514e-01,-8.233154192566871643e-03,-4.023083448410034180e-01,7.599105685949325562e-02,-3.777128458023071289e-01,-6.229940056800842285e-01,1.146021857857704163e-01,-1.838602870702743530e-01,1.000918596982955933e-01,1.414225844200700521e-04,3.662590384483337402e-01
-3.290722072124481201e-01,-8.204631507396697998e-02,7.239803671836853027e-01,4.501397535204887390e-02,5.677040219306945801e-01,-1.011612653732299805e+00,1.738799959421157837e-01,9.395978599786758423e-02,-3.572404980659484863e-01,-6.825069338083267212e-02,-7.634180188179016113e-01,-9.484018385410308838e-02,-3.277808427810668945e-01,-3.033126592636108398e-01,-2.971256673336029053e-01,-5.003966093063354492e-01,2.960839122533798218e-02,-1.489094924181699753e-02,-7.392876595258712769e-02,1.977197676897048950e-01,2.720687985420227051e-01
-5.360974073410034180e-01,-1.271793991327285767e-01,5.324313640594482422e-01,-1.757243573665618896e-01,6.474196910858154297e-01,-8.498308062553405762e-01,1.957632601261138916e-01,-3.194159269332885742e-02,-1.263820976018905640e-01,-2.382704466581344604e-01,-5.829655528068542480e-01,1.073005050420761108e-01,-4.986885786056518555e-01,-3.405717909336090088e-01,-3.676981031894683838e-01,-4.334851801395416260e-01,1.305410563945770264e-01,-1.107470020651817322e-01,4.312100633978843689e-02,1.357139050960540771e-01,2.021719217300415039e-01
-4.207330644130706787e-01,1.111249774694442749e-01,6.129463911056518555e-01,-2.005825042724609375e-01,8.149258494377136230e-01,-6.719481945037841797e-01,2.756604850292205811e-01,9.735985100269317627e-02,-2.815376222133636475e-01,5.529005546122789383e-03,-5.907400250434875488e-01,-9.064628183841705322e-02,-3.572963178157806396e-01,-3.096994459629058838e-01,-2.058878242969512939e-01,-1.176933273673057556e-01,1.859011203050613403e-01,-8.536130189895629883e-02,8.914276957511901855e-02,-5.270218849182128906e-02,4.510452747344970703e-01
-4.795392453670501709e-01,1.278423368930816650e-01,7.390861511230468750e-01,-2.968339920043945312e-01,8.885810375213623047e-01,-4.665700793266296387e-01,7.070388644933700562e-02,1.677608303725719452e-02,-1.264379769563674927e-01,3.660171059891581535e-03,-6.852740049362182617e-01,5.592393502593040466e-02,-2.273681312799453735e-01,2.252176217734813690e-02,-4.152013063430786133e-01,-2.066018730401992798e-01,4.045320153236389160e-01,8.105516433715820312e-02,6.161631643772125244e-02,2.545200586318969727e-01,1.695161461830139160e-01
-4.817041754722595215e-01,1.591932177543640137e-01,4.705062210559844971e-01,-3.112736046314239502e-01,9.599394202232360840e-01,-4.902572035789489746e-01,2.696706950664520264e-01,2.953227162361145020e-01,1.090418100357055664e-01,1.777688264846801758e-01,-3.934105336666107178e-01,-6.029531359672546387e-02,-1.163348555564880371e-01,-1.583483368158340454e-01,-3.756889998912811279e-01,-7.367075234651565552e-02,2.790225446224212646e-01,-1.978161185979843140e-01,-2.272678613662719727e-01,4.952721595764160156e-01,2.564150691032409668e-01
-4.846763908863067627e-01,2.119637578725814819e-01,5.751790404319763184e-01,-5.949341058731079102e-01,7.090709209442138672e-01,-6.819401681423187256e-02,1.494513005018234253e-01,2.729014456272125244e-01,2.142978012561798096e-01,4.626528024673461914e-01,-6.414293050765991211e-01,-7.076223194599151611e-02,-5.737969279289245605e-02,1.277080625295639038e-01,-5.172787308692932129e-01,-6.038029491901397705e-02,3.750638365745544434e-01,-4.016564413905143738e-02,-5.645857453346252441e-01,5.124615430831909180e-01,1.416432484984397888e-02
-4.963588714599609375e-01,2.756780683994293213e-01,6.212605834007263184e-01,-6.800414323806762695e-01,7.267924547195434570e-01,-2.886245250701904297e-01,1.770564764738082886e-01,4.880335032939910889e-01,4.257497489452362061e-01,5.623170137405395508e-01,-6.175088286399841309e-01,-3.141216635704040527e-01,-6.572769582271575928e-02,-1.467418074607849121e-01,-5.717000365257263184e-01,2.302787154912948608e-01,4.020252227783203125e-01,-1.776510179042816162e-01,-4.729716181755065918e-01,3.849010765552520752e-01,9.603668749332427979e-02
-5.329647660255432129e-01,4.063937664031982422e-01,5.114315152168273926e-01,-5.499736666679382324e-01,6.377628445625305176e-01,-2.854243516921997070e-01,1.379287987947463989e-01,2.675462365150451660e-01,4.859269559383392334e-01,6.257379651069641113e-01,-4.895335137844085693e-01,-3.290036022663116455e-01,1.744573414325714111e-01,1.948018930852413177e-02,-7.332119345664978027e-01,3.058986365795135498e-01,4.986548423767089844e-01,-3.849877119064331055e-01,-5.316057205200195312e-01,5.516159534454345703e-01,-1.160718407481908798e-02
-6.463462710380554199e-01,2.144067138433456421e-01,4.886343777179718018e-01,-7.436127066612243652e-01,4.423529505729675293e-01,-1.473086327314376831e-01,3.228847682476043701e-02,3.277041316032409668e-01,4.907735288143157959e-01,9.822856783866882324e-01,-5.197237730026245117e-01,-4.728019237518310547e-01,2.508393526077270508e-01,-1.126853600144386292e-01,-7.543130517005920410e-01,4.165209233760833740e-01,6.649690270423889160e-01,-2.947199940681457520e-01,-6.885925531387329102e-01,6.669733524322509766e-01,1.326480358839035034e-01
-6.783307790756225586e-01,-3.997226804494857788e-02,4.162496626377105713e-01,-7.356072664260864258e-01,3.525159358978271484e-01,-1.451586931943893433e-01,-3.794735670089721680e-02,3.541461825370788574e-01,7.973430156707763672e-01,8.788526654243469238e-01,-2.250441163778305054e-01,-3.311276733875274658e-01,2.291347831487655640e-01,-1.012773439288139343e-01,-5.663024187088012695e-01,4.968805611133575439e-01,4.261768460273742676e-01,-4.016202092170715332e-01,-7.330337166786193848e-01,7.001872062683105469e-01,9.823427349328994751e-02
-6.030957102775573730e-01,1.496897786855697632e-01,4.245905578136444092e-01,-7.938126325607299805e-01,1.875342577695846558e-01,-1.803225129842758179e-01,-3.122809231281280518e-01,1.471056789159774780e-01,6.816241741180419922e-01,7.217659950256347656e-01,-3.461926877498626709e-01,-6.932242512702941895e-01,1.498523354530334473e-01,-2.070681750774383545e-01,-8.192021846771240234e-01,2.506238818168640137e-01,5.981181859970092773e-01,-5.174422860145568848e-01,-9.110745787620544434e-01,5.426791310310363770e-01,1.795372180640697479e-02
-5.761997103691101074e-01,1.253232080489397049e-02,1.732396185398101807e-01,-5.601764321327209473e-01,1.220654994249343872e-01,-1.339334398508071899e-01,-3.029135167598724365e-01,7.918517291545867920e-02,7.235330343246459961e-01,7.896470427513122559e-01,-3.625982105731964111e-01,-8.618626594543457031e-01,3.145717084407806396e-01,-1.751688867807388306e-01,-6.142282485961914062e-01,3.698541522026062012e-01,7.615224123001098633e-01,-4.686847627162933350e-01,-1.183470010757446289e+00,3.127077221870422363e-01,1.590031236410140991e-01
-3.982884883880615234e-01,5.365922302007675171e-02,2.310972213745117188e-01,-5.751172900199890137e-01,9.064740687608718872e-02,-3.853950798511505127e-01,-3.171157240867614746e-01,3.313286229968070984e-02,7.482687830924987793e-01,8.302037119865417480e-01,-3.595665693283081055e-01,-7.675198316574096680e-01,3.347062468528747559e-01,-9.523513913154602051e-02,-5.907192826271057129e-01,2.548068165779113770e-01,6.912305355072021484e-01,-3.983201086521148682e-01,-6.252647638320922852e-01,4.940420091152191162e-01,5.408422276377677917e-02
-2.924627661705017090e-01,-1.576251834630966187e-01,1.493888348340988159e-01,-4.453588426113128662e-01,4.675415903329849243e-02,-2.834422290325164795e-01,-2.559688389301300049e-01,-1.066944282501935959e-02,7.829023599624633789e-01,7.226043343544006348e-01,-3.360962867736816406e-01,-7.838976979255676270e-01,3.084557056427001953e-01,-4.536374472081661224e-03,-6.450480818748474121e-01,2.145406901836395264e-01,6.569864153861999512e-01,-3.774707317352294922e-01,-9.950514435768127441e-01,1.074129790067672729e-01,-2.410695888102054596e-03
-3.308615684509277344e-01,-2.166518121957778931e-01,1.594618335366249084e-02,-5.959663987159729004e-01,7.933275401592254639e-02,-5.725886821746826172e-01,-2.055693417787551880e-01,-2.614987790584564209e-01,8.065645694732666016e-01,5.970361828804016113e-01,-3.891485929489135742e-01,-1.013562679290771484e+00,2.431003898382186890e-01,-5.633355677127838135e-02,-5.760523080825805664e-01,2.357510328292846680e-01,6.384375691413879395e-01,-5.656374245882034302e-02,-6.416350603103637695e-01,8.160699158906936646e-02,-1.428265422582626343e-01
-6.765045970678329468e-02,-2.515812814235687256e-01,-8.421479910612106323e-02,-4.552253484725952148e-01,-1.006422340869903564e-01,-5.468578338623046875e-01,-9.152358770370483398e-02,-2.882060110569000244e-01,7.161430120468139648e-01,5.732982754707336426e-01,-4.885224699974060059e-01,-1.099239587783813477e+00,2.599005699157714844e-01,1.952586323022842407e-01,-4.367591440677642822e-01,1.504270453006029129e-02,5.332745313644409180e-01,-7.864270359277725220e-02,-7.467142939567565918e-01,1.768879033625125885e-02,-3.392302244901657104e-02
-6.535705178976058960e-02,-4.229890927672386169e-02,1.449019163846969604e-01,-5.341631770133972168e-01,-1.412986218929290771e-01,-6.108437180519104004e-01,1.438268721103668213e-01,-3.072960078716278076e-01,6.844187974929809570e-01,2.879505455493927002e-01,-5.191613435745239258e-01,-8.420408964157104492e-01,1.400459855794906616e-01,2.272820621728897095e-01,-3.162735104560852051e-01,-6.847129017114639282e-02,4.866163730621337891e-01,-7.566859573125839233e-02,-7.184685468673706055e-01,1.661254912614822388e-01,-2.337164059281349182e-02
-9.199306368827819824e-02,-4.470574110746383667e-02,1.982742697000503540e-01,-2.213521748781204224e-01,-1.123668719083070755e-02,-4.802341461181640625e-01,-3.993126004934310913e-02,-3.656630218029022217e-01,5.852096676826477051e-01,5.029947161674499512e-01,-5.723677277565002441e-01,-9.690595269203186035e-01,1.482932269573211670e-01,5.168808102607727051e-01,-2.305592745542526245e-01,-8.615543693304061890e-02,5.536471009254455566e-01,-4.051686450839042664e-02,-5.748870372772216797e-01,-6.553433090448379517e-02,-1.631764173507690430e-01
-6.080251932144165039e-02,1.328633874654769897e-01,9.037711471319198608e-02,-4.362016022205352783e-01,4.992559552192687988e-03,-8.048200607299804688e-01,1.446569859981536865e-01,-3.543990850448608398e-01,7.893813252449035645e-01,3.004034757614135742e-01,-5.514077544212341309e-01,-8.496342301368713379e-01,3.033033609390258789e-01,4.259305894374847412e-01,-1.103876531124114990e-01,-2.161466050893068314e-03,1.904028952121734619e-01,-1.055551543831825256e-01,-4.514537155628204346e-01,2.611380517482757568e-01,-2.408864498138427734e-01
-1.123737916350364685e-02,2.489644140005111694e-01,1.478734314441680908e-01,-3.392482697963714600e-01,2.335350960493087769e-02,-6.797575354576110840e-01,1.391254961490631104e-01,-2.969807386398315430e-01,6.599398851394653320e-01,3.235877752304077148e-01,-6.521216630935668945e-01,-6.581000685691833496e-01,-8.118417114019393921e-03,6.110069751739501953e-01,-1.451807469129562378e-01,-7.256822288036346436e-02,3.112137615680694580e-01,1.124200746417045593e-01,-3.469074368476867676e-01,-8.313522674143314362e-03,-2.472067326307296753e-01
1.580831557512283325e-01,6.493229418992996216e-02,3.366387188434600830e-01,-3.267753422260284424e-01,-1.704070866107940674e-01,-5.734449625015258789e-01,3.564477898180484772e-03,-1.943386793136596680e-01,7.212813496589660645e-01,2.990471124649047852e-01,-5.286088585853576660e-01,-6.868531107902526855e-01,2.778291404247283936e-01,7.736871838569641113e-01,-2.621760033071041107e-02,7.475537806749343872e-02,3.866212666034698486e-01,3.166911005973815918e-02,-3.152091205120086670e-01,7.873493432998657227e-02,-2.185231298208236694e-01
-1.962749473750591278e-02,2.114087194204330444e-01,2.153544127941131592e-02,-2.266764491796493530e-01,-1.837108731269836426e-01,-7.379111647605895996e-01,2.303737252950668335e-01,-4.584543108940124512e-01,7.871765494346618652e-01,2.201384603977203369e-01,-7.210640311241149902e-01,-7.774986624717712402e-01,3.322461843490600586e-01,6.825379133224487305e-01,-2.760907411575317383e-01,-5.664912611246109009e-02,2.672024667263031006e-01,2.665613591670989990e-01,-4.766553640365600586e-01,3.352822363376617432e-01,-1.120752692222595215e-01
1.264075636863708496e-01,1.152506023645401001e-01,4.605274796485900879e-01,-1.864407658576965332e-01,-3.289292752742767334e-01,-5.685085654258728027e-01,4.415222108364105225e-01,-5.297418236732482910e-01,4.456133842468261719e-01,3.981461524963378906e-01,-4.139356911182403564e-01,-8.160244822502136230e-01,2.171747982501983643e-01,1.015767216682434082e+00,-2.417836636304855347e-01,7.423257827758789062e-02,3.188601136207580566e-01,2.615939676761627197e-01,-2.432380914688110352e-01,3.847842812538146973e-01,3.699478507041931152e-02
-2.199963666498661041e-02,2.523422241210937500e-01,3.772509694099426270e-01,-1.219877675175666809e-01,-1.293810606002807617e-01,-5.655547380447387695e-01,2.650682032108306885e-01,-6.527023315429687500e-01,4.530562162399291992e-01,5.891720578074455261e-02,-5.271227955818176270e-01,-9.812924265861511230e-01,1.967406719923019409e-01,9.906678795814514160e-01,-2.920378446578979492e-01,2.174091041088104248e-01,4.907449185848236084e-01,1.496143341064453125e-01,-5.919173955917358398e-01,3.547519147396087646e-01,8.646535128355026245e-02
1.321692764759063721e-01,2.118933349847793579e-01,4.815817177295684814e-01,-3.481141850352287292e-02,-2.771539986133575439e-01,-4.938220381736755371e-01,4.406254589557647705e-01,-6.258947849273681641e-01,4.667383134365081787e-01,4.256727397441864014e-01,-2.765385806560516357e-01,-7.587150335311889648e-01,-6.757163256406784058e-02,1.033725619316101074e+00,-2.935504615306854248e-01,2.408270388841629028e-01,3.196417093276977539e-01,2.956457436084747314e-01,-5.069619417190551758e-01,5.069417953491210938e-01,5.000568553805351257e-02
6.964410096406936646e-02,1.060580313205718994e-01,1.916862428188323975e-01,-1.082249134778976440e-01,-1.299718469381332397e-01,-5.853227376937866211e-01,4.204961061477661133e-01,-6.255974173545837402e-01,3.991738259792327881e-01,2.659300565719604492e-01,-1.002413108944892883e-01,-7.038518786430358887e-01,1.061265394091606140e-01,9.710108041763305664e-01,-2.503119707107543945e-01,1.742089092731475830e-01,4.749041497707366943e-01,5.557510852813720703e-01,-4.958527386188507080e-01,4.777296483516693115e-01,-1.294015049934387207e-01
-2.711465954780578613e-01,4.234925210475921631e-01,1.969008594751358032e-01,-6.310188211500644684e-03,-3.474724590778350830e-01,-5.620136260986328125e-01,5.527502298355102539e-01,-6.893879175186157227e-01,5.423663258552551270e-01,4.785065054893493652e-01,1.567991822957992554e-01,-7.189731001853942871e-01,2.622024714946746826e-01,9.061825871467590332e-01,-2.737178206443786621e-01,2.469457983970642090e-01,4.687360227108001709e-01,4.685563743114471436e-01,-4.730629026889801025e-01,2.822868525981903076e-01,5.312898382544517517e-02
-1.317533105611801147e-01,3.603710532188415527e-01,3.230875432491302490e-01,-3.964616656303405762e-01,-1.954892724752426147e-01,-5.039895772933959961e-01,7.500338554382324219e-01,-6.184567213058471680e-01,4.795202016830444336e-01,2.013265639543533325e-01,1.781283617019653320e-01,-3.108041584491729736e-01,3.086696863174438477e-01,6.768726110458374023e-01,-7.845073193311691284e-02,1.374007575213909149e-02,6.518167853355407715e-01,4.587018787860870361e-01,-4.587224423885345459e-01,5.263930559158325195e-01,8.612500131130218506e-02
3.836342692375183105e-02,3.969152569770812988e-01,3.841908574104309082e-01,-2.250277101993560791e-01,-2.211634963750839233e-01,-5.584017634391784668e-01,8.412241339683532715e-01,-7.598736882209777832e-01,2.879075706005096436e-01,3.600018322467803955e-01,1.806877553462982178e-01,-3.059861958026885986e-01,1.730674654245376587e-01,6.542578339576721191e-01,-3.249317109584808350e-01,1.468937098979949951e-01,9.297161698341369629e-01,5.223963856697082520e-01,-6.114032268524169922e-01,6.737305521965026855e-01,-1.059072911739349365e-01
-3.123189508914947510e-01,5.101833343505859375e-01,2.016124874353408813e-01,-2.139967530965805054e-01,9.736090898513793945e-02,-4.166952073574066162e-01,9.346845149993896484e-01,-5.170875787734985352e-01,3.682531118392944336e-01,2.177941352128982544e-01,2.412828505039215088e-01,-3.701995313167572021e-02,2.765600681304931641e-01,8.670787215232849121e-01,-1.198196113109588623e-01,2.019650638103485107e-01,8.066657185554504395e-01,5.498198866844177246e-01,-5.145095586776733398e-01,6.095238327980041504e-01,5.894689355045557022e-03
-2.668686807155609131e-01,3.815924823284149170e-01,2.935822606086730957e-01,-3.374458253383636475e-01,2.575092762708663940e-02,-3.554589152336120605e-01,9.842134714126586914e-01,-4.483292996883392334e-01,2.584826648235321045e-01,4.261880218982696533e-01,2.876899838447570801e-01,-1.613701432943344116e-01,4.150038957595825195e-01,6.646164655685424805e-01,-2.685380876064300537e-01,3.679317533969879150e-01,7.704646587371826172e-01,5.729377865791320801e-01,-5.612316131591796875e-01,7.188262939453125000e-01,-2.337568700313568115e-01
-4.475368857383728027e-01,5.014410614967346191e-01,-6.864722818136215210e-02,-4.090526401996612549e-01,-3.079079836606979370e-02,-4.426422417163848877e-01,9.479030966758728027e-01,-3.537599444389343262e-01,4.203150272369384766e-01,3.503834009170532227e-01,3.465096056461334229e-01,-1.858287900686264038e-01,5.644672513008117676e-01,4.638380408287048340e-01,-3.377398848533630371e-01,1.418421864509582520e-01,9.964541792869567871e-01,6.153414845466613770e-01,-5.154806971549987793e-01,7.063422799110412598e-01,-3.873084485530853271e-01
-5.016724020242691040e-02,6.849706172943115234e-01,-3.383766487240791321e-02,-5.025174021720886230e-01,2.572285532951354980e-01,-1.658044755458831787e-01,9.998464584350585938e-01,-4.249612092971801758e-01,3.707269132137298584e-01,2.977656722068786621e-01,3.515530824661254883e-01,-1.406298279762268066e-01,5.138521790504455566e-01,5.558513998985290527e-01,-4.368108510971069336e-01,2.021657228469848633e-01,6.435862779617309570e-01,4.338515996932983398e-01,-4.295773506164550781e-01,7.611513733863830566e-01,-5.256673097610473633e-01
-8.523130416870117188e-02,5.340037941932678223e-01,-8.609455078840255737e-02,-5.402559041976928711e-01,8.580238372087478638e-02,-9.910321235656738281e-02,8.053045272827148438e-01,-2.307290285825729370e-01,4.104325771331787109e-01,4.151149392127990723e-01,3.957435190677642822e-01,-2.407028228044509888e-01,6.375671625137329102e-01,6.149168014526367188e-01,-3.055330514907836914e-01,1.720245033502578735e-01,4.314343929290771484e-01,4.761213362216949463e-01,-6.383181810379028320e-01,8.121646642684936523e-01,-6.006867885589599609e-01
-2.490084916353225708e-01,5.002594590187072754e-01,-1.810893118381500244e-01,-6.575939655303955078e-01,-1.085197627544403076e-01,-1.066988855600357056e-01,6.532818078994750977e-01,-2.958123087882995605e-01,6.210611462593078613e-01,3.971689045429229736e-01,1.906758844852447510e-01,-2.258489280939102173e-01,9.821200370788574219e-01,7.188416719436645508e-01,-3.965341448783874512e-01,3.421727716922760010e-01,5.886676311492919922e-01,2.481621950864791870e-01,-4.845767617225646973e-01,7.150626778602600098e-01,-8.456950783729553223e-01
1.035187765955924988e-02,5.906785726547241211e-01,-2.562230825424194336e-01,-6.796249747276306152e-01,-2.579012513160705566e-01,3.991359472274780273e-02,6.451024413108825684e-01,-3.120800852775573730e-01,5.720697641372680664e-01,5.774265527725219727e-01,2.001891285181045532e-01,-2.936988472938537598e-01,8.643215894699096680e-01,6.613931059837341309e-01,-3.705317974090576172e-01,3.803113400936126709e-01,4.047238528728485107e-01,3.056128621101379395e-01,-5.618195533752441406e-01,8.606138825416564941e-01,-8.299879431724548340e-01
-1.770699769258499146e-01,4.742147326469421387e-01,-3.994524776935577393e-01,-6.377740502357482910e-01,-2.569089531898498535e-01,2.717061638832092285e-01,5.780618190765380859e-01,-2.063191533088684082e-01,5.680924057960510254e-01,6.495088934898376465e-01,3.107200264930725098e-01,-8.962933719158172607e-02,1.076114058494567871e+00,6.147926449775695801e-01,-4.900886416435241699e-01,2.184001803398132324e-01,4.854584634304046631e-01,2.592335343360900879e-01,-4.949350059032440186e-01,7.161517143249511719e-01,-9.261538982391357422e-01
2.883178554475307465e-02,2.421534508466720581e-01,-3.937597870826721191e-01,-6.922845840454101562e-01,-6.596885919570922852e-01,1.428917199373245239e-01,7.163837552070617676e-01,-1.750095635652542114e-01,5.911454558372497559e-01,7.780365943908691406e-01,1.568682044744491577e-01,-3.615670204162597656e-01,1.203834652900695801e+00,4.691194295883178711e-01,-3.706070780754089355e-01,5.247554555535316467e-02,3.683975636959075928e-01,1.544881518930196762e-02,-7.629848122596740723e-01,5.727433562278747559e-01,-9.323856234550476074e-01
-4.412788525223731995e-02,2.889697253704071045e-01,-3.602147698402404785e-01,-6.138617992401123047e-01,-5.112886428833007812e-01,-1.688890606164932251e-01,7.167134284973144531e-01,-4.914790689945220947e-01,5.569068193435668945e-01,5.405150651931762695e-01,3.207998275756835938e-01,-3.021086454391479492e-01,1.046309351921081543e+00,5.838574767112731934e-01,-4.428417384624481201e-01,-1.113507673144340515e-01,1.142530217766761780e-01,-3.981854766607284546e-02,-5.699457526206970215e-01,4.977949559688568115e-01,-8.964771628379821777e-01
3.681453317403793335e-02,2.026379555463790894e-01,-3.989625275135040283e-01,-4.186730682849884033e-01,-3.438448607921600342e-01,1.154621839523315430e-01,4.338566064834594727e-01,-3.785170316696166992e-01,5.793818235397338867e-01,2.951768040657043457e-01,2.942763864994049072e-01,-3.669292926788330078e-01,1.038947105407714844e+00,2.041531205177307129e-01,-6.109714508056640625e-02,-5.842324346303939819e-02,1.818757355213165283e-01,5.144863575696945190e-02,-7.196611166000366211e-01,4.158547222614288330e-01,-9.424247145652770996e-01
7.083432376384735107e-02,5.341695621609687805e-02,-5.318951010704040527e-01,-2.710198462009429932e-01,-7.250688076019287109e-01,-1.225843057036399841e-01,5.391379594802856445e-01,-7.313088774681091309e-01,2.672407329082489014e-01,2.518975734710693359e-01,9.665518254041671753e-02,-3.039968907833099365e-01,8.210446834564208984e-01,5.972483158111572266e-01,-2.111313194036483765e-01,-1.868994086980819702e-01,1.453027129173278809e-01,3.886033780872821808e-03,-2.265647500753402710e-01,3.616342842578887939e-01,-8.550016880035400391e-01
6.610526144504547119e-02,1.186868622899055481e-01,-6.124477982521057129e-01,-3.587355613708496094e-01,-5.983826518058776855e-01,-1.825229525566101074e-01,7.420282363891601562e-01,-5.790909528732299805e-01,2.080873996019363403e-01,3.147436380386352539e-01,1.090625599026679993e-01,-3.444166779518127441e-01,8.212329745292663574e-01,4.284472167491912842e-01,-8.095408976078033447e-02,-3.301938176155090332e-01,-6.602324545383453369e-02,-7.639637589454650879e-02,-4.371096789836883545e-01,1.660412997007369995e-01,-8.859384655952453613e-01
4.237855672836303711e-01,3.360368777066469193e-03,-5.523660182952880859e-01,-5.705955252051353455e-02,-6.815642118453979492e-01,-3.249890506267547607e-01,7.611354589462280273e-01,-4.682062864303588867e-01,3.028308153152465820e-01,2.744306325912475586e-01,-3.692077845335006714e-02,-1.548995226621627808e-01,6.167032122611999512e-01,3.719511330127716064e-01,2.115587145090103149e-01,-4.352109134197235107e-01,5.705293267965316772e-02,1.573776639997959137e-02,-1.285461783409118652e-01,1.700058728456497192e-01,-8.220469951629638672e-01
5.007064342498779297e-01,2.243161648511886597e-01,-5.497850775718688965e-01,1.006051991134881973e-02,-7.320213317871093750e-01,-2.433013468980789185e-01,6.518047451972961426e-01,-8.388964533805847168e-01,1.322095543146133423e-01,1.067359298467636108e-01,-7.260865997523069382e-03,-5.718391761183738708e-02,7.123741507530212402e-01,2.202884256839752197e-01,3.316077888011932373e-01,-6.522854566574096680e-01,-1.002258658409118652e-01,-1.930659562349319458e-01,-1.060235425829887390e-01,9.565571695566177368e-02,-7.183433175086975098e-01
4.477721452713012695e-01,-2.803221531212329865e-02,-6.153371334075927734e-01,-1.753859966993331909e-02,-7.808609604835510254e-01,-4.643360376358032227e-01,6.617746353149414062e-01,-5.530873537063598633e-01,-1.958292871713638306e-01,8.151571452617645264e-02,-1.215827390551567078e-01,-2.393965870141983032e-01,5.557726621627807617e-01,4.556215405464172363e-01,4.424212574958801270e-01,-6.373801231384277344e-01,-3.548528850078582764e-01,7.864557951688766479e-02,-4.793384671211242676e-02,-1.529666632413864136e-01,-8.395399451255798340e-01
6.209685802459716797e-01,3.743465542793273926e-01,-4.025606513023376465e-01,-1.042928323149681091e-01,-4.347786903381347656e-01,-4.687464535236358643e-01,9.091619849205017090e-01,-4.636272192001342773e-01,-1.593055874109268188e-01,3.327095881104469299e-02,-2.188409715890884399e-01,3.306626975536346436e-01,6.813588738441467285e-01,6.134107112884521484e-01,3.737353682518005371e-01,-5.553708076477050781e-01,-1.732479631900787354e-01,9.788758307695388794e-02,7.015524804592132568e-02,2.894237823784351349e-02,-6.545724868774414062e-01
7.375826835632324219e-01,3.877010941505432129e-01,-2.921418845653533936e-01,2.650714851915836334e-02,-3.448511064052581787e-01,-2.576625049114227295e-01,9.677320122718811035e-01,-3.599931895732879639e-01,-2.224651724100112915e-01,-1.560409516096115112e-01,-1.753923445940017700e-01,1.011539623141288757e-01,6.520166397094726562e-01,5.800518393516540527e-01,7.569271922111511230e-01,-5.981896519660949707e-01,-4.939975738525390625e-01,1.422412544488906860e-01,9.328398853540420532e-02,-1.324684321880340576e-01,-6.513336300849914551e-01
8.988559246063232422e-01,3.185698091983795166e-01,-6.787811964750289917e-02,8.392568677663803101e-02,-2.753389477729797363e-01,-2.656516730785369873e-01,9.818534851074218750e-01,-6.068481802940368652e-01,-2.765701115131378174e-01,-1.600009649991989136e-01,-3.398330509662628174e-01,3.033473789691925049e-01,4.489951133728027344e-01,7.233648896217346191e-01,6.600801348686218262e-01,-6.022158861160278320e-01,-4.666186273097991943e-01,1.835291683673858643e-01,-2.213849872350692749e-02,1.347250491380691528e-01,-7.381269931793212891e-01
6.953197717666625977e-01,4.524730443954467773e-01,-5.445216968655586243e-02,-8.387912064790725708e-02,-3.185288608074188232e-01,-3.464252352714538574e-01,9.011868238449096680e-01,-3.485163152217864990e-01,-1.898995637893676758e-01,-8.027684688568115234e-02,-5.369635224342346191e-01,2.083898633718490601e-01,3.628399968147277832e-01,5.605814456939697266e-01,5.392532944679260254e-01,-5.824724435806274414e-01,-6.305301785469055176e-01,2.628086209297180176e-01,7.871758192777633667e-02,2.119601070880889893e-01,-4.712470769882202148e-01
7.246204018592834473e-01,4.192440509796142578e-01,-2.257306501269340515e-02,7.699496299028396606e-02,-2.803425490856170654e-01,-3.513859808444976807e-01,7.732188105583190918e-01,-2.839475870132446289e-01,-1.786279082298278809e-01,1.783724129199981689e-01,-2.362582087516784668e-01,3.823893368244171143e-01,3.612462580204010010e-01,5.877512693405151367e-01,6.838892698287963867e-01,-5.393922328948974609e-01,-7.648936510086059570e-01,4.179444313049316406e-01,1.388482749462127686e-01,3.621551692485809326e-01,-7.104181647300720215e-01
6.870805025100708008e-01,4.179091751575469971e-01,-5.126905813813209534e-02,-8.441754430532455444e-02,-3.231788873672485352e-01,2.152030356228351593e-02,8.189737796783447266e-01,-2.656740248203277588e-01,-2.454453110694885254e-01,-1.206275373697280884e-01,-5.773391127586364746e-01,2.801187336444854736e-01,2.087772488594055176e-01,5.174918770790100098e-01,6.371738910675048828e-01,-4.696316421031951904e-01,-7.263580560684204102e-01,-2.661154232919216156e-02,1.718464940786361694e-01,2.399719953536987305e-01,-5.085186958312988281e-01
5.348072648048400879e-01,4.500801265239715576e-01,1.362737268209457397e-01,2.448637224733829498e-02,-4.504788815975189209e-01,-3.744332119822502136e-02,6.597871780395507812e-01,-1.731771230697631836e-01,-1.540435850620269775e-01,-1.047719083726406097e-02,-3.772362768650054932e-01,4.435824751853942871e-01,3.814899921417236328e-01,6.651300787925720215e-01,4.574530720710754395e-01,-3.847866952419281006e-01,-6.064652204513549805e-01,3.348509594798088074e-02,7.216925173997879028e-02,1.644947230815887451e-01,-4.189663529396057129e-01
6.612595915794372559e-01,3.485624194145202637e-01,8.858279138803482056e-02,5.521235242486000061e-02,-2.033147066831588745e-01,-1.028628926724195480e-02,6.711229681968688965e-01,-3.331168293952941895e-01,-3.013086616992950439e-01,2.430608123540878296e-01,-1.466245800256729126e-01,4.642433822154998779e-01,2.065167874097824097e-01,6.555595397949218750e-01,5.066367387771606445e-01,-3.208896517753601074e-01,-4.307407438755035400e-01,-5.823309719562530518e-02,-4.461774230003356934e-02,3.562049567699432373e-01,-4.329548478126525879e-01
5.301093459129333496e-01,2.919630110263824463e-01,-4.379240423440933228e-02,-5.985165387392044067e-02,-5.346897840499877930e-01,1.093669757246971130e-01,9.523702859878540039e-01,-9.668916463851928711e-02,-3.711954355239868164e-01,2.211841344833374023e-01,-4.032387733459472656e-01,5.687315464019775391e-01,4.984845221042633057e-02,2.694888412952423096e-01,4.495397210121154785e-01,-3.439852893352508545e-01,-5.659680962562561035e-01,1.338026020675897598e-02,-2.066974788904190063e-01,2.338023930788040161e-01,-2.607692480087280273e-01
3.602512478828430176e-01,4.899229109287261963e-01,-1.820300519466400146e-01,-3.627906739711761475e-02,-3.804472982883453369e-01,-5.047350004315376282e-02,4.110811352729797363e-01,-7.396948058158159256e-03,-2.277210652828216553e-01,3.116210699081420898e-01,-8.793374150991439819e-02,3.292061388492584229e-01,2.521011829376220703e-01,3.281326293945312500e-01,3.905304074287414551e-01,-3.691380918025970459e-01,-3.784951269626617432e-01,-1.898750662803649902e-01,-8.775468915700912476e-02,3.009789884090423584e-01,-3.498563468456268311e-01
2.645060122013092041e-01,2.788775563240051270e-01,-2.006803825497627258e-02,5.844372138381004333e-02,-3.450568318367004395e-01,5.362097173929214478e-02,4.948687553405761719e-01,-3.410768508911132812e-02,-2.785169184207916260e-01,7.028609514236450195e-02,1.761987060308456421e-02,5.331026911735534668e-01,6.717810779809951782e-02,1.866270452737808228e-01,2.940596938133239746e-01,-5.316998362541198730e-01,-1.301249563694000244e-01,-1.937173455953598022e-01,-1.823471188545227051e-01,1.925400197505950928e-01,-5.861334502696990967e-02
2.154414355754852295e-01,3.231185674667358398e-01,-3.149726986885070801e-01,-8.173973858356475830e-02,-4.809218049049377441e-01,5.880231410264968872e-02,1.874873191118240356e-01,4.545850679278373718e-02,-3.228761851787567139e-01,2.482827007770538330e-01,-2.076739966869354248e-01,5.924742221832275391e-01,4.141497984528541565e-02,1.835526376962661743e-01,3.572276830673217773e-01,-2.682534456253051758e-01,-2.421401590108871460e-01,-2.507140040397644043e-01,-3.374757170677185059e-01,1.740054935216903687e-01,-2.497268766164779663e-01
4.375055730342864990e-01,1.725836843252182007e-01,-1.487979739904403687e-01,-8.272548764944076538e-02,-2.781671583652496338e-01,-1.478507667779922485e-01,2.821135520935058594e-01,2.504482567310333252e-01,-2.121862769126892090e-01,1.293936967849731445e-01,-2.804710268974304199e-01,6.923524737358093262e-01,6.775303184986114502e-02,8.317541331052780151e-03,1.948548406362533569e-01,-3.207713365554809570e-01,-1.612343341112136841e-01,-2.828521728515625000e-01,-2.530388534069061279e-01,9.244432300329208374e-02,-2.412163019180297852e-01
4.378765523433685303e-01,2.240894138813018799e-01,-3.734752237796783447e-01,-1.357616931200027466e-01,-2.052118331193923950e-01,3.080947995185852051e-01,3.546255230903625488e-01,3.011592924594879150e-01,-2.604003548622131348e-01,1.090737953782081604e-01,-1.791526079177856445e-01,6.028118729591369629e-01,2.990100681781768799e-01,1.828871294856071472e-02,5.166345834732055664e-01,-3.388792574405670166e-01,-2.327490746974945068e-01,-2.671456634998321533e-01,-1.986872851848602295e-01,1.914451867341995239e-01,-2.569395005702972412e-01
3.380381762981414795e-01,3.217970132827758789e-01,8.406197652220726013e-03,-2.421833276748657227e-01,-2.060032635927200317e-01,-1.892808973789215088e-01,2.793633341789245605e-01,3.832787871360778809e-01,-2.575047612190246582e-01,2.856036722660064697e-01,-2.843726575374603271e-01,5.878878831863403320e-01,2.918100450187921524e-03,-2.698384523391723633e-01,3.464263081550598145e-01,-2.266786098480224609e-01,-1.860609203577041626e-01,-3.425710797309875488e-01,-2.200652658939361572e-01,-2.027939558029174805e-01,-1.459708660840988159e-01
1.556333452463150024e-01,1.343415677547454834e-01,-1.044718250632286072e-01,-1.893928200006484985e-01,-2.816287577152252197e-01,-3.891101852059364319e-02,6.128807738423347473e-02,4.225417375564575195e-01,-5.993104353547096252e-02,1.964729875326156616e-01,-4.580782651901245117e-01,5.419445633888244629e-01,3.321012258529663086e-01,-7.022041827440261841e-02,3.717134892940521240e-01,-3.341207802295684814e-01,-2.289034426212310791e-01,-3.723527789115905762e-01,-1.660392582416534424e-01,4.101902619004249573e-02,-5.054087042808532715e-01
4.529172778129577637e-01,1.208822429180145264e-01,-2.027737945318222046e-01,-1.725048124790191650e-01,-2.928735911846160889e-01,-4.510045796632766724e-02,1.150351837277412415e-01,5.880937576293945312e-01,-1.590826809406280518e-01,1.136794015765190125e-01,-5.349239110946655273e-01,3.367803692817687988e-01,2.373034507036209106e-01,-1.067540720105171204e-01,2.579424977302551270e-01,-4.617402851581573486e-01,-2.788010835647583008e-01,-3.866016864776611328e-01,-8.690956234931945801e-02,-9.675798565149307251e-02,-5.262679457664489746e-01
5.152076482772827148e-01,-2.123444341123104095e-02,-2.174897938966751099e-01,-1.843178123235702515e-01,-6.811154484748840332e-01,-8.467015810310840607e-03,-1.480281818658113480e-02,2.489545792341232300e-01,-9.429339319467544556e-02,2.056498080492019653e-01,-4.465054869651794434e-01,3.943505883216857910e-01,2.518007159233093262e-01,-6.383979320526123047e-02,4.278787970542907715e-01,-5.071051716804504395e-01,-4.331315755844116211e-01,-3.266994357109069824e-01,-8.049459010362625122e-02,-7.740648090839385986e-02,-5.953876376152038574e-01
3.391127288341522217e-01,-7.806830853223800659e-02,-4.865701124072074890e-02,-1.159055754542350769e-01,-3.868303894996643066e-01,-8.613762259483337402e-02,-4.490616917610168457e-02,4.229505062103271484e-01,1.423317939043045044e-01,1.946969330310821533e-01,-6.479882597923278809e-01,2.930230498313903809e-01,1.174392998218536377e-01,1.279171705245971680e-01,5.136525034904479980e-01,-1.809369772672653198e-01,-6.140615344047546387e-01,-5.989437699317932129e-01,-1.015173122286796570e-01,6.459034193539991975e-05,-3.862905800342559814e-01
3.990859687328338623e-01,-2.170089632272720337e-01,-8.411353453993797302e-03,-1.204282268881797791e-01,-4.906195402145385742e-01,-2.949824370443820953e-02,-1.130633503198623657e-01,2.944833338260650635e-01,-3.654236346483230591e-02,2.456350922584533691e-01,-5.720804929733276367e-01,2.985120415687561035e-01,1.226472780108451843e-01,3.547130525112152100e-02,3.151909410953521729e-01,-4.100852012634277344e-01,-4.796526432037353516e-01,-6.555113792419433594e-01,-2.361725270748138428e-01,-2.028189599514007568e-01,-3.917106389999389648e-01
5.302909612655639648e-01,-2.349823415279388428e-01,7.730811834335327148e-02,-1.651200801134109497e-01,-7.483330965042114258e-01,-2.296834886074066162e-01,-5.814003944396972656e-01,2.374195158481597900e-01,6.417579948902130127e-02,1.349512487649917603e-01,-9.176505804061889648e-01,8.289215713739395142e-02,-1.180524155497550964e-01,2.621415257453918457e-02,3.533491194248199463e-01,-5.544566512107849121e-01,-4.790458083152770996e-01,-3.812928795814514160e-01,-5.438476055860519409e-02,-2.503184676170349121e-01,-4.410538375377655029e-01
3.283106684684753418e-01,-4.630015492439270020e-01,6.515146791934967041e-02,-1.901533603668212891e-01,-7.065050005912780762e-01,-4.770928323268890381e-01,-5.214592218399047852e-01,-7.344712503254413605e-03,1.686618849635124207e-02,-1.000571530312299728e-02,-8.486787676811218262e-01,-4.247253388166427612e-02,2.397728338837623596e-02,1.865841448307037354e-02,4.486687779426574707e-01,-4.005991518497467041e-01,-6.676259636878967285e-01,-3.661170303821563721e-01,2.064620889723300934e-02,-3.473095893859863281e-01,-1.308177411556243896e-01
2.942684590816497803e-01,-4.677234888076782227e-01,5.263610184192657471e-02,7.710283994674682617e-02,-8.541459441184997559e-01,-5.568900704383850098e-01,-3.343679904937744141e-01,8.172941207885742188e-02,-1.792795360088348389e-01,7.826323807239532471e-02,-9.204807877540588379e-01,-1.336593925952911377e-01,3.358763083815574646e-02,1.954802572727203369e-01,3.488331735134124756e-01,-3.643268346786499023e-01,-6.325846910476684570e-01,-4.938208758831024170e-01,1.670122593641281128e-01,-2.705899775028228760e-01,-5.516327545046806335e-02
5.142631530761718750e-01,-5.167505145072937012e-01,-6.631269305944442749e-02,8.955889195203781128e-02,-6.221568584442138672e-01,-5.953879356384277344e-01,-2.951352000236511230e-01,-7.833458483219146729e-02,-1.242198199033737183e-01,-3.899125382304191589e-02,-6.478402614593505859e-01,-8.289459347724914551e-02,-3.308407962322235107e-01,3.262058794498443604e-01,3.785294890403747559e-01,-7.587806582450866699e-01,-3.927774727344512939e-01,-6.082445979118347168e-01,1.664038896560668945e-01,-3.095885515213012695e-01,-1.140749305486679077e-01
4.415391981601715088e-01,-4.952560663223266602e-01,1.306970864534378052e-01,1.120476573705673218e-01,-4.884145855903625488e-01,-6.309384107589721680e-01,-3.083699941635131836e-01,-2.061723358929157257e-02,-2.394575625658035278e-01,-1.658031046390533447e-01,-7.031443715095520020e-01,-4.948350042104721069e-02,-2.770559787750244141e-01,5.360623355954885483e-03,5.016749501228332520e-01,-8.021925091743469238e-01,-5.218313336372375488e-01,-4.129162132740020752e-01,2.286036014556884766e-01,-4.279754757881164551e-01,2.364530563354492188e-01
3.888329267501831055e-01,-5.797839164733886719e-01,8.331240713596343994e-02,2.963413298130035400e-01,-4.864349365234375000e-01,-8.104206919670104980e-01,-1.292063742876052856e-01,-8.307485282421112061e-02,-3.644426167011260986e-01,-1.268898788839578629e-02,-6.603695154190063477e-01,1.967788636684417725e-01,-2.573926150798797607e-01,2.349485009908676147e-01,5.443871021270751953e-01,-8.862715959548950195e-01,-6.264922022819519043e-01,-3.191180229187011719e-01,3.325931131839752197e-01,-5.421710014343261719e-01,3.117199838161468506e-01
4.111616015434265137e-01,-5.004636645317077637e-01,3.015125989913940430e-01,3.409686088562011719e-01,-5.226100087165832520e-01,-9.959797859191894531e-01,-2.150282859802246094e-01,-2.078955024480819702e-01,-4.889251291751861572e-01,-3.429865837097167969e-01,-7.496652007102966309e-01,1.284619271755218506e-01,-5.253353118896484375e-01,3.541654348373413086e-01,5.437914133071899414e-01,-9.031932353973388672e-01,-4.675153493881225586e-01,-2.233790606260299683e-01,4.609170854091644287e-01,-4.506822824478149414e-01,2.379643470048904419e-01
3.542738556861877441e-01,-3.502656817436218262e-01,4.590101540088653564e-01,1.818150579929351807e-01,-4.405843317508697510e-01,-9.593032598495483398e-01,2.034059911966323853e-01,-8.951026201248168945e-02,-5.656284689903259277e-01,-2.062807977199554443e-01,-7.136006355285644531e-01,2.794733941555023193e-01,-6.648284196853637695e-01,2.195859700441360474e-01,6.470442414283752441e-01,-8.522434830665588379e-01,-4.590605199337005615e-01,1.435064375400543213e-01,4.020169675350189209e-01,-4.472826719284057617e-01,3.990528583526611328e-01
3.351371288299560547e-01,-2.995170354843139648e-01,4.491100311279296875e-01,2.140834629535675049e-01,-2.496875673532485962e-01,-9.466465711593627930e-01,6.468553841114044189e-02,-2.220963388681411743e-01,-6.471555233001708984e-01,-3.756732344627380371e-01,-6.305207014083862305e-01,4.084530770778656006e-01,-6.926669478416442871e-01,2.768605053424835205e-01,5.791954994201660156e-01,-8.782919049263000488e-01,-4.839978218078613281e-01,3.035838603973388672e-01,6.090857982635498047e-01,-2.433611601591110229e-01,3.387528955936431885e-01
4.049233794212341309e-01,-2.402947247028350830e-01,4.941325187683105469e-01,1.840536892414093018e-01,-3.254440799355506897e-02,-7.743821144104003906e-01,3.903252482414245605e-01,-1.351371258497238159e-01,-6.647968292236328125e-01,-3.424843251705169678e-01,-6.883000731468200684e-01,4.999397993087768555e-01,-5.965030789375305176e-01,1.991181224584579468e-01,4.239818453788757324e-01,-9.215482473373413086e-01,-5.882728099822998047e-01,2.071025073528289795e-01,7.614136934280395508e-01,-3.612041845917701721e-02,2.816489636898040771e-01
4.238355159759521484e-01,-4.576586931943893433e-02,6.769156455993652344e-01,5.089346319437026978e-03,-2.382303625345230103e-01,-1.023809194564819336e+00,1.856032460927963257e-01,-1.364316493272781372e-01,-5.729010701179504395e-01,-1.905895769596099854e-01,-6.315365433692932129e-01,4.758411645889282227e-01,-5.351756215095520020e-01,4.410980045795440674e-01,4.250367879867553711e-01,-8.765680193901062012e-01,-4.677765071392059326e-01,2.597648501396179199e-01,5.066434741020202637e-01,2.384183108806610107e-01,4.402824938297271729e-01
1.174517720937728882e-01,5.963169783353805542e-02,6.416550278663635254e-01,-1.419049948453903198e-01,2.572576142847537994e-02,-8.881304264068603516e-01,2.599701285362243652e-01,-1.826856434345245361e-01,-5.811709165573120117e-01,-3.056134879589080811e-01,-6.444046497344970703e-01,5.092645883560180664e-01,-5.585029721260070801e-01,5.259531140327453613e-01,2.834230363368988037e-01,-6.145855784416198730e-01,-3.339653313159942627e-01,2.747019827365875244e-01,5.756710171699523926e-01,1.588742434978485107e-01,3.243690729141235352e-01
-4.217498376965522766e-02,1.270072609186172485e-01,6.532183885574340820e-01,-3.537876904010772705e-01,-3.608812694437801838e-04,-6.418129205703735352e-01,2.439436912536621094e-01,2.377192489802837372e-02,-5.258587598800659180e-01,-9.513795375823974609e-02,-5.652905106544494629e-01,4.519030153751373291e-01,-4.299631714820861816e-01,3.700314760208129883e-01,2.081294655799865723e-01,-5.107616186141967773e-01,-2.255863696336746216e-01,3.007979989051818848e-01,7.403656244277954102e-01,1.373467445373535156e-01,4.664981365203857422e-01
-3.744897618889808655e-02,-1.136797070503234863e-01,6.807432770729064941e-01,-1.294094771146774292e-01,1.396305114030838013e-01,-7.356388568878173828e-01,1.095612868666648865e-01,2.074773311614990234e-01,-6.030221581459045410e-01,3.261964395642280579e-02,-5.233471393585205078e-01,3.103281557559967041e-01,-4.840574860572814941e-01,5.086427927017211914e-01,1.537049561738967896e-01,-4.269794225692749023e-01,-2.876685857772827148e-01,3.574747145175933838e-01,3.299800753593444824e-01,3.340545594692230225e-01,3.454410731792449951e-01
-2.329502105712890625e-01,1.933407038450241089e-01,4.720242321491241455e-01,-4.281887710094451904e-01,7.654735445976257324e-02,-6.282232999801635742e-01,1.685725748538970947e-01,-1.109980791807174683e-01,-2.822412848472595215e-01,1.082470789551734924e-01,-2.633360326290130615e-01,4.774491786956787109e-01,-3.492325246334075928e-01,5.108976960182189941e-01,-3.886565193533897400e-02,-2.009363919496536255e-01,-7.812405377626419067e-02,-8.666271716356277466e-02,2.661259472370147705e-01,3.748625218868255615e-01,3.188211619853973389e-01
-3.112910091876983643e-01,1.597344577312469482e-01,5.199998617172241211e-01,-4.899751543998718262e-01,2.264800071716308594e-01,-6.223997473716735840e-01,3.513626381754875183e-02,2.007210068404674530e-02,-3.254098296165466309e-01,2.550889849662780762e-01,-1.140551567077636719e-01,4.792510867118835449e-01,-2.678680419921875000e-01,2.165957093238830566e-01,-1.866398006677627563e-01,-3.148227334022521973e-01,-1.094706505537033081e-01,2.024243921041488647e-01,3.418079018592834473e-01,6.472005248069763184e-01,4.811238050460815430e-01
-3.648789823055267334e-01,-1.881134808063507080e-01,5.030465722084045410e-01,-4.835687279701232910e-01,2.196286767721176147e-01,-4.804570674896240234e-01,8.846658468246459961e-02,1.962881349027156830e-02,-7.203728705644607544e-02,1.898583173751831055e-01,-6.329246610403060913e-02,2.057570368051528931e-01,-2.895542085170745850e-01,2.262081950902938843e-01,-3.081153035163879395e-01,-1.982542574405670166e-01,-7.888617366552352905e-02,2.296096086502075195e-01,1.279694586992263794e-01,7.322340011596679688e-01,4.636167883872985840e-01
-3.581185340881347656e-01,-3.409659489989280701e-02,3.069279491901397705e-01,-3.608967065811157227e-01,1.675832569599151611e-01,-4.447488486766815186e-01,-2.373792789876461029e-02,8.710024505853652954e-02,-5.920702591538429260e-02,3.647324442863464355e-01,-5.992796272039413452e-02,2.786837816238403320e-01,-2.248660624027252197e-01,1.714051328599452972e-02,-3.718405365943908691e-01,-3.064673840999603271e-01,2.701119482517242432e-01,2.030369639396667480e-01,1.848185434937477112e-02,7.633470892906188965e-01,3.021266162395477295e-01
-6.869829297065734863e-01,8.501910418272018433e-02,3.917568027973175049e-01,-5.535544157028198242e-01,2.928347587585449219e-01,-4.633902609348297119e-01,-2.639879584312438965e-01,-3.365221619606018066e-01,-3.101711869239807129e-01,4.697276949882507324e-01,8.198790252208709717e-02,3.555557727813720703e-01,-2.684144377708435059e-01,-8.425425738096237183e-02,-4.781290590763092041e-01,-4.031470417976379395e-01,1.443415880203247070e-01,3.473320901393890381e-01,3.408449143171310425e-02,7.219466567039489746e-01,2.399492263793945312e-01
-4.468786716461181641e-01,-2.410803288221359253e-01,1.166902780532836914e-01,-6.212162375450134277e-01,8.567066490650177002e-02,-6.058245301246643066e-01,-2.203715592622756958e-01,-1.883105002343654633e-02,-1.670774370431900024e-01,5.577169060707092285e-01,-2.310103736817836761e-02,2.448566854000091553e-01,5.742300674319267273e-02,-2.812886834144592285e-01,-4.575581848621368408e-01,-3.687670230865478516e-01,4.595172405242919922e-02,2.499485164880752563e-01,1.138164289295673370e-02,4.704698324203491211e-01,2.638955116271972656e-01
-4.416644573211669922e-01,3.432768955826759338e-02,6.554245203733444214e-02,-7.163406610488891602e-01,2.198712527751922607e-01,-5.595671534538269043e-01,-2.399565279483795166e-01,-1.381543874740600586e-01,-3.302906155586242676e-01,4.575684070587158203e-01,1.211651191115379333e-01,3.179201483726501465e-01,1.454456243664026260e-02,-2.337355613708496094e-01,-4.318903684616088867e-01,-2.275684475898742676e-01,1.070284023880958557e-01,3.483047485351562500e-01,-4.877151548862457275e-02,5.843728780746459961e-01,4.401487112045288086e-01
-5.336228013038635254e-01,1.286993324756622314e-01,-3.293192088603973389e-01,-7.234926819801330566e-01,3.244703114032745361e-01,-7.326564192771911621e-01,-4.006178081035614014e-01,-9.577083587646484375e-02,-3.692322373390197754e-01,5.781389474868774414e-01,1.030635461211204529e-01,1.615848988294601440e-01,-1.515697389841079712e-01,-1.339417248964309692e-01,-5.774395540356636047e-03,-5.389773845672607422e-01,1.186452955007553101e-01,3.488286733627319336e-01,1.226689293980598450e-02,4.886121749877929688e-01,1.790146082639694214e-01
-4.337621927261352539e-01,5.259159579873085022e-02,-1.399673223495483398e-01,-8.862891793251037598e-01,1.134417131543159485e-01,-6.930909156799316406e-01,-1.819822490215301514e-01,-3.124005198478698730e-01,-2.941269874572753906e-01,4.138053655624389648e-01,-1.696065515279769897e-01,1.927727162837982178e-01,2.466270774602890015e-01,-1.733310371637344360e-01,-3.291121125221252441e-01,-3.425186574459075928e-01,2.734673023223876953e-01,2.961363792419433594e-01,-8.601566404104232788e-02,4.256174862384796143e-01,2.549099735915660858e-02
-1.908993422985076904e-01,8.492672443389892578e-02,-4.487931132316589355e-01,-8.475549817085266113e-01,1.807779818773269653e-01,-7.201974391937255859e-01,-7.490045577287673950e-02,-1.064678877592086792e-01,-1.598530113697052002e-01,4.659493565559387207e-01,-1.629099696874618530e-01,1.025571450591087341e-01,2.065123245120048523e-02,-3.052234351634979248e-01,-4.050991237163543701e-01,-5.521209239959716797e-01,5.313707143068313599e-02,2.850573360919952393e-01,-1.144349668174982071e-02,4.989671409130096436e-01,1.745959557592868805e-02
-1.904969811439514160e-01,5.530184134840965271e-02,-2.247657477855682373e-01,-8.285598754882812500e-01,7.195895910263061523e-02,-7.325475215911865234e-01,-9.184653311967849731e-02,-3.509567379951477051e-01,-9.989198297262191772e-02,4.256511330604553223e-01,-2.163962125778198242e-01,-1.118477899581193924e-02,3.104453980922698975e-01,-1.397546529769897461e-01,-8.411016315221786499e-02,-4.270722270011901855e-01,-5.788417533040046692e-02,2.996517419815063477e-01,2.493627369403839111e-01,4.064190983772277832e-01,5.647237598896026611e-02
-5.437855795025825500e-02,8.115372806787490845e-02,-3.391057848930358887e-01,-8.734130263328552246e-01,4.971674084663391113e-02,-7.104780673980712891e-01,-4.883797466754913330e-02,-1.361777931451797485e-01,-1.594468653202056885e-01,2.455192059278488159e-01,-1.278115659952163696e-01,-4.939885810017585754e-03,2.376701384782791138e-01,1.457546651363372803e-01,-2.817638814449310303e-01,-6.373609304428100586e-01,-2.458042800426483154e-01,3.778270184993743896e-01,3.975369632244110107e-01,5.106363296508789062e-01,-6.149858236312866211e-02
4.569781571626663208e-02,-1.171394437551498413e-02,-2.150183916091918945e-01,-9.579488039016723633e-01,-7.586181908845901489e-02,-5.630004405975341797e-01,-1.653304100036621094e-01,-3.741053640842437744e-01,-1.673578917980194092e-01,3.071148097515106201e-01,-3.251456618309020996e-01,1.589747704565525055e-02,1.107933074235916138e-01,9.774417430162429810e-02,-9.680294990539550781e-02,-5.506848096847534180e-01,-3.005725145339965820e-01,4.310097992420196533e-01,-2.269674278795719147e-02,4.644089937210083008e-01,-3.384529426693916321e-02
-3.908240795135498047e-02,1.392498314380645752e-01,-1.855971515178680420e-01,-7.429816722869873047e-01,-2.143034525215625763e-02,-5.307860374450683594e-01,-2.633968591690063477e-01,-3.479143083095550537e-01,-1.866496726870536804e-02,3.204723894596099854e-01,-3.427467942237854004e-01,-5.558847635984420776e-02,5.401074513792991638e-02,4.866082966327667236e-02,-1.844524592161178589e-01,-4.742678999900817871e-01,-3.845467567443847656e-01,2.038842141628265381e-01,8.965112268924713135e-02,5.048596262931823730e-01,2.228145115077495575e-02
8.608638308942317963e-03,7.204968482255935669e-02,-2.375200092792510986e-01,-6.300716996192932129e-01,-5.333338864147663116e-03,-6.105076074600219727e-01,-2.827445864677429199e-01,-5.702727437019348145e-01,-2.101849019527435303e-01,3.430221676826477051e-01,-5.346974134445190430e-01,-1.843897253274917603e-01,2.585516273975372314e-01,3.153706490993499756e-01,-1.436002403497695923e-01,-3.873797059059143066e-01,-4.412905871868133545e-01,2.695492506027221680e-01,2.452557235956192017e-01,4.313814640045166016e-01,-3.032873012125492096e-02
1.240371167659759521e-01,2.502739429473876953e-01,-8.261116594076156616e-02,-6.131280660629272461e-01,-3.357816860079765320e-02,-4.920603632926940918e-01,-1.496713161468505859e-01,-4.654226601123809814e-01,-1.151863932609558105e-01,4.620784223079681396e-01,-4.035753011703491211e-01,-1.246234700083732605e-01,1.054181009531021118e-01,1.658237725496292114e-01,-2.316976040601730347e-01,-4.606294631958007812e-01,-3.658030331134796143e-01,4.677683115005493164e-01,-2.948033623397350311e-02,4.325775504112243652e-01,2.550431489944458008e-01
9.851222485303878784e-02,7.262030988931655884e-02,-7.237651199102401733e-02,-5.461825132369995117e-01,-1.157438829541206360e-01,-6.978085041046142578e-01,-2.908905446529388428e-01,-6.324759125709533691e-01,-2.072868645191192627e-01,5.076128244400024414e-01,-4.342847466468811035e-01,-2.378704100847244263e-01,-2.000045590102672577e-02,3.531301021575927734e-01,-1.599022597074508667e-01,-4.200936555862426758e-01,-4.540789425373077393e-01,4.127724468708038330e-01,2.704325318336486816e-01,5.764122009277343750e-01,1.617173999547958374e-01
8.655433356761932373e-02,1.522402167320251465e-01,-1.833762228488922119e-01,-4.544579088687896729e-01,-2.058283984661102295e-01,-5.926407575607299805e-01,6.199951749294996262e-03,-9.567916989326477051e-01,-1.844139583408832550e-02,4.448575079441070557e-01,-3.047462999820709229e-01,-8.981887996196746826e-02,-4.680401459336280823e-02,1.959069520235061646e-01,-9.815806895494461060e-02,-5.397406816482543945e-01,-5.223962664604187012e-01,5.150004029273986816e-01,1.165681332349777222e-01,4.232245981693267822e-01,3.260731399059295654e-01
2.060663998126983643e-01,2.221813797950744629e-01,-3.551210761070251465e-01,-3.334488272666931152e-01,-2.393646836280822754e-01,-5.782400965690612793e-01,-3.343744948506355286e-02,-9.748539328575134277e-01,-2.387454509735107422e-01,4.058582782745361328e-01,-3.557552695274353027e-01,4.793409630656242371e-02,-2.018923312425613403e-01,3.687924444675445557e-01,-8.210092782974243164e-02,-5.994313955307006836e-01,-3.550539016723632812e-01,7.421828508377075195e-01,1.415130645036697388e-01,4.239220917224884033e-01,4.928542673587799072e-01
3.099654614925384521e-02,2.851934731006622314e-01,-1.863412857055664062e-01,-4.104489982128143311e-01,-6.708295643329620361e-02,-7.695770859718322754e-01,8.733442984521389008e-03,-9.595105648040771484e-01,-4.798682034015655518e-01,4.772672057151794434e-01,-3.027604222297668457e-01,4.834382981061935425e-02,-2.553184032440185547e-01,2.508656680583953857e-01,4.463480412960052490e-02,-2.929783761501312256e-01,-3.182908892631530762e-01,7.569961547851562500e-01,-3.403009846806526184e-02,4.842065870761871338e-01,4.978922009468078613e-01
2.870301902294158936e-01,4.388062953948974609e-01,-2.590094804763793945e-01,-3.534496128559112549e-01,1.832279860973358154e-01,-6.131844520568847656e-01,1.425045579671859741e-01,-8.879386782646179199e-01,-3.620525300502777100e-01,2.963723838329315186e-01,7.927789539098739624e-02,3.926271796226501465e-01,-2.467991709709167480e-01,3.110132217407226562e-01,-8.756366558372974396e-03,-3.902938067913055420e-01,-1.351566612720489502e-01,6.817383170127868652e-01,2.548350207507610321e-02,4.241608083248138428e-01,6.245402693748474121e-01
1.524481475353240967e-01,4.819107055664062500e-01,-4.556115269660949707e-01,-2.309285402297973633e-01,2.004446834325790405e-01,-6.444235444068908691e-01,2.100794464349746704e-01,-5.860834717750549316e-01,-3.194776773452758789e-01,4.104536473751068115e-01,3.629175946116447449e-02,6.995549052953720093e-02,-3.683514595031738281e-01,2.853437960147857666e-01,2.135182321071624756e-01,-4.376409947872161865e-01,-1.545878797769546509e-01,7.104244828224182129e-01,-1.156346686184406281e-02,5.289714336395263672e-01,5.882005095481872559e-01
1.470087468624114990e-01,7.393664121627807617e-01,-1.596321910619735718e-01,-3.914530277252197266e-01,2.633381485939025879e-01,-3.536497950553894043e-01,2.151404023170471191e-01,-7.172203063964843750e-01,-4.259241521358489990e-01,5.104638934135437012e-01,-1.195282936096191406e-01,2.166558355093002319e-01,-1.812160909175872803e-01,3.667920529842376709e-01,2.361208498477935791e-01,-2.009693682193756104e-01,-9.692874550819396973e-02,8.595132827758789062e-01,1.125141512602567673e-02,3.453832864761352539e-01,6.151944994926452637e-01
2.355104833841323853e-01,7.360389828681945801e-01,-1.866994202136993408e-01,-4.821010828018188477e-01,2.535639703273773193e-01,-3.390625119209289551e-01,3.631705343723297119e-01,-5.773380994796752930e-01,-4.237887561321258545e-01,3.850379586219787598e-01,-8.241568505764007568e-02,2.961640357971191406e-01,-1.805965602397918701e-01,2.598025500774383545e-01,1.368846297264099121e-01,-1.317147165536880493e-01,-5.449199676513671875e-02,8.913077116012573242e-01,-3.837132081389427185e-02,4.253348112106323242e-01,6.679590940475463867e-01
3.743998110294342041e-01,8.595818877220153809e-01,-2.849916815757751465e-01,-4.511572718620300293e-01,2.471249401569366455e-01,4.104132950305938721e-02,3.740919530391693115e-01,-5.756527185440063477e-01,-4.959859848022460938e-01,5.327733755111694336e-01,1.694770306348800659e-01,1.791337877511978149e-01,-3.423913121223449707e-01,4.652865231037139893e-01,2.247409522533416748e-01,8.349497616291046143e-02,1.614838838577270508e-01,8.714648485183715820e-01,-1.426396518945693970e-01,7.527377605438232422e-01,3.176436126232147217e-01
1.649376749992370605e-01,7.168691158294677734e-01,-1.472283601760864258e-01,-4.807803928852081299e-01,1.337529122829437256e-01,-1.380578987300395966e-02,9.775833785533905029e-02,-2.179361432790756226e-01,-2.833626866340637207e-01,6.455923914909362793e-01,2.276078462600708008e-01,2.727778255939483643e-01,-5.776117742061614990e-02,3.620688021183013916e-01,2.834489941596984863e-01,2.377044558525085449e-01,6.016733497381210327e-02,8.671686053276062012e-01,-2.412187755107879639e-01,5.732045769691467285e-01,4.201532006263732910e-01
