Fp1,Fp2,F7,F3,Fz,F4,F8,T3,C3,Cz,C4,T4,T5,P3,Pz,P4,T6,O1,Oz,O2,A1
-1.657868623733520508e-01,-4.736874252557754517e-02,-6.692930310964584351e-02,-6.361008435487747192e-02,1.840424239635467529e-01,-2.757995426654815674e-01,2.446192316710948944e-02,4.867768883705139160e-01,-1.523915529251098633e-01,3.698768615722656250e-01,-5.643234848976135254e-01,-6.434885412454605103e-02,7.282498478889465332e-01,3.556813597679138184e-01,2.225158549845218658e-02,-5.957328081130981445e-01,-1.117425858974456787e-01,-2.933167219161987305e-01,-1.595210433006286621e-01,7.535172253847122192e-02,-5.176386237144470215e-01
-3.544577360153198242e-01,1.428911983966827393e-01,1.927750557661056519e-01,1.119682192802429199e-02,1.587818115949630737e-01,-5.345532894134521484e-01,6.567724794149398804e-02,3.582684993743896484e-01,-2.050848901271820068e-01,5.127096176147460938e-01,-3.518062233924865723e-01,-2.474868148565292358e-01,6.353608369827270508e-01,5.527942776679992676e-01,2.095150994136929512e-03,-5.267615318298339844e-01,3.190662711858749390e-02,-3.781593739986419678e-01,-3.241522312164306641e-01,8.347937464714050293e-02,-5.104096531867980957e-01
-3.490997552871704102e-01,1.195316165685653687e-01,1.397051513195037842e-01,2.786841243505477905e-02,6.549860537052154541e-02,-4.123744368553161621e-01,-4.834937676787376404e-02,3.353624939918518066e-01,-4.825335144996643066e-01,3.118429183959960938e-01,-4.896051585674285889e-01,6.180801615118980408e-02,6.763862371444702148e-01,5.105457305908203125e-01,-7.794564124196767807e-03,-5.483582019805908203e-01,-6.042828410863876343e-02,-5.730541944503784180e-01,-2.974457740783691406e-01,1.785125583410263062e-01,-5.497627258300781250e-01
-4.925403892993927002e-01,2.746343426406383514e-02,1.727942824363708496e-01,-1.689374446868896484e-01,-1.392001360654830933e-01,-5.398331880569458008e-01,-1.263820976018905640e-01,8.676408231258392334e-02,-2.679226696491241455e-01,4.243969321250915527e-01,-3.805683553218841553e-01,1.434087455272674561e-01,9.631137847900390625e-01,3.804397881031036377e-01,-1.512330770492553711e-01,-6.834886670112609863e-01,-1.850854307413101196e-01,-6.319037675857543945e-01,-5.682338476181030273e-01,7.293667644262313843e-02,-6.755957603454589844e-01
-2.265032231807708740e-01,8.069164305925369263e-02,1.733131855726242065e-01,8.674349635839462280e-02,-7.779017835855484009e-02,-6.772078871726989746e-01,-2.037374377250671387e-01,6.281401216983795166e-02,-3.683769404888153076e-01,4.968113005161285400e-01,-3.347685635089874268e-01,1.469474732875823975e-01,8.536769151687622070e-01,2.027336806058883667e-01,-1.079109907150268555e-01,-7.756953835487365723e-01,-1.440735459327697754e-01,-6.144827008247375488e-01,-4.005780220031738281e-01,2.780233621597290039e-01,-5.581855177879333496e-01
-4.363628923892974854e-01,8.273026347160339355e-02,2.736238837242126465e-01,-1.235472708940505981e-01,-2.689128220081329346e-01,-5.339847207069396973e-01,-2.172269374132156372e-01,5.320284143090248108e-02,-5.990930795669555664e-01,3.650915324687957764e-01,-1.852768063545227051e-01,3.086983263492584229e-01,7.004612088203430176e-01,1.083101257681846619e-01,-1.274453103542327881e-01,-6.491755247116088867e-01,-6.973831355571746826e-02,-5.302234888076782227e-01,-4.922404289245605469e-01,3.234529793262481689e-01,-4.500251114368438721e-01
-4.574127495288848877e-01,-2.668293938040733337e-02,2.960441112518310547e-01,2.594463229179382324e-01,-2.768050134181976318e-01,-6.020402312278747559e-01,-3.232650756835937500e-01,-1.984494924545288086e-01,-5.294239521026611328e-01,1.321049183607101440e-01,-3.758294880390167236e-01,4.548175632953643799e-01,6.847714185714721680e-01,4.938952624797821045e-02,-1.601938158273696899e-01,-6.290580034255981445e-01,-2.408531866967678070e-02,-5.628708004951477051e-01,-2.430800497531890869e-01,8.192461729049682617e-02,-5.365473031997680664e-01
-4.776820838451385498e-01,-1.024756431579589844e-01,4.625421166419982910e-01,1.958195865154266357e-01,-3.595422804355621338e-01,-7.467638254165649414e-01,-3.192129135131835938e-01,-2.983683049678802490e-01,-6.889778971672058105e-01,2.709939181804656982e-01,-1.698472201824188232e-01,5.394686460494995117e-01,8.368810415267944336e-01,1.210737153887748718e-01,-1.096472814679145813e-01,-6.923526525497436523e-01,4.344245791435241699e-02,-5.686620473861694336e-01,-4.716921448707580566e-01,3.312818109989166260e-01,-4.347405731678009033e-01
-3.975789248943328857e-01,-2.564083971083164215e-02,6.096493005752563477e-01,2.021193206310272217e-01,-2.691860795021057129e-01,-8.501061201095581055e-01,-4.698128700256347656e-01,-3.418672382831573486e-01,-7.538048028945922852e-01,4.910674989223480225e-01,-4.444767832756042480e-01,6.769831776618957520e-01,9.941123127937316895e-01,-1.990299373865127563e-01,2.458481816574931145e-03,-6.072049736976623535e-01,2.281323224306106567e-01,-4.124209880828857422e-01,-1.947749257087707520e-01,1.020760163664817810e-01,-3.745977878570556641e-01
-6.698688864707946777e-01,-1.700004339218139648e-01,7.948405146598815918e-01,4.889622032642364502e-01,-4.764272272586822510e-01,-9.109710454940795898e-01,-4.392797052860260010e-01,-5.288507938385009766e-01,-5.428208112716674805e-01,3.211740553379058838e-01,-2.053790837526321411e-01,8.483095765113830566e-01,9.918743968009948730e-01,-2.323333770036697388e-01,-6.823400035500526428e-03,-5.198690891265869141e-01,3.516377806663513184e-01,-4.592458605766296387e-01,-4.443771243095397949e-01,2.910847961902618408e-01,-2.688927948474884033e-01
-4.646433591842651367e-01,-3.097983598709106445e-01,7.394914031028747559e-01,2.107386291027069092e-01,-2.337992489337921143e-01,-5.912629365921020508e-01,-4.892652928829193115e-01,-4.460853338241577148e-01,-6.102828979492187500e-01,3.127446472644805908e-01,-3.438530722633004189e-03,7.277922034263610840e-01,7.863305211067199707e-01,-2.226695865392684937e-01,1.221895888447761536e-01,-7.426466941833496094e-01,3.782049417495727539e-01,-4.913071393966674805e-01,-2.337395399808883667e-01,3.386165201663970947e-01,-3.700664043426513672e-01
-5.727786421775817871e-01,-2.974593937397003174e-01,7.305186986923217773e-01,4.322865903377532959e-01,-4.050615429878234863e-01,-6.406884193420410156e-01,-3.844493627548217773e-01,-3.518137633800506592e-01,-6.210241317749023438e-01,2.995130419731140137e-01,-2.519085109233856201e-01,7.878919839859008789e-01,6.059230566024780273e-01,-2.455966621637344360e-01,2.372993379831314087e-01,-5.406920313835144043e-01,3.404431343078613281e-01,-3.899517953395843506e-01,-3.896891772747039795e-01,2.864600718021392822e-01,-2.189689576625823975e-01
-4.043250977993011475e-01,-3.612859547138214111e-01,9.841706156730651855e-01,4.739781618118286133e-01,-3.461123108863830566e-01,-6.578054428100585938e-01,-3.650032579898834229e-01,-5.595160722732543945e-01,-6.335523128509521484e-01,-2.116416022181510925e-02,-8.650364726781845093e-02,7.602062821388244629e-01,6.375126838684082031e-01,-3.770820498466491699e-01,1.915328949689865112e-01,-6.340575218200683594e-01,3.857961893081665039e-01,-1.574148088693618774e-01,-2.590287923812866211e-01,2.741681039333343506e-01,-1.064636856317520142e-01
-2.988366186618804932e-01,-4.635612070560455322e-01,1.086991310119628906e+00,2.319039255380630493e-01,-3.218629956245422363e-01,-6.625820398330688477e-01,-2.270848751068115234e-01,-5.969619154930114746e-01,-6.824792623519897461e-01,-3.651696443557739258e-02,-1.293118298053741455e-02,9.673811793327331543e-01,3.986133635044097900e-01,-3.074817359447479248e-01,2.962787449359893799e-01,-5.460968613624572754e-01,6.398873329162597656e-01,-3.771167993545532227e-01,-2.011031657457351685e-01,-5.105334892868995667e-02,2.038191631436347961e-02
-2.164568305015563965e-01,-4.046197533607482910e-01,1.153239130973815918e+00,2.058098763227462769e-01,-6.888493895530700684e-01,-6.455680727958679199e-01,-2.277258783578872681e-01,-3.902325034141540527e-01,-5.346941947937011719e-01,-2.437127195298671722e-02,-3.465612605214118958e-02,1.152870893478393555e+00,4.929097592830657959e-01,-4.572705626487731934e-01,3.931963741779327393e-01,-5.918787717819213867e-01,7.568041086196899414e-01,-2.074981853365898132e-02,-1.391510665416717529e-02,1.590220034122467041e-01,-6.475005298852920532e-02
-1.671905964612960815e-01,-5.214038491249084473e-01,1.118821501731872559e+00,2.881803214550018311e-01,-5.859315991401672363e-01,-5.677680373191833496e-01,-2.454305142164230347e-01,-6.218146681785583496e-01,-6.033768057823181152e-01,-2.857770621776580811e-01,1.926461607217788696e-02,8.985452055931091309e-01,4.404665529727935791e-01,-5.782159566879272461e-01,5.002174377441406250e-01,-2.276835888624191284e-01,5.702612400054931641e-01,9.445077925920486450e-02,2.595374546945095062e-02,8.952809497714042664e-03,1.760639846324920654e-01
-1.433689706027507782e-02,-4.331084191799163818e-01,1.093703269958496094e+00,2.499955296516418457e-01,-6.922689676284790039e-01,-4.594738781452178955e-01,-3.309873864054679871e-02,-4.395607411861419678e-01,-4.046232998371124268e-01,-4.548515081405639648e-01,-1.399434506893157959e-01,8.407796025276184082e-01,4.632796347141265869e-01,-5.747155547142028809e-01,6.186214685440063477e-01,-1.771557480096817017e-01,7.632459402084350586e-01,-1.025117635726928711e-01,2.046331614255905151e-01,7.852530479431152344e-02,8.339715003967285156e-02
1.449308991432189941e-01,-7.490030527114868164e-01,1.022516250610351562e+00,2.423651814460754395e-01,-5.276650786399841309e-01,-3.216969668865203857e-01,3.347184136509895325e-02,-4.834596812725067139e-01,-3.746733665466308594e-01,-4.238679409027099609e-01,1.198286414146423340e-01,9.274962544441223145e-01,1.642388552427291870e-01,-8.747833967208862305e-01,6.203360557556152344e-01,-1.689995378255844116e-01,6.380744576454162598e-01,-4.797228425741195679e-02,1.234315410256385803e-01,1.304057985544204712e-01,2.253308296203613281e-01
1.515002846717834473e-01,-6.034200787544250488e-01,1.147963047027587891e+00,4.280333817005157471e-01,-6.394273638725280762e-01,-2.216622382402420044e-01,-3.971544653177261353e-02,-5.235348939895629883e-01,-2.906568348407745361e-01,-4.528715908527374268e-01,-8.120879530906677246e-02,9.076029062271118164e-01,1.532681733369827271e-01,-6.634301543235778809e-01,7.688004970550537109e-01,-2.740435898303985596e-01,6.711102128028869629e-01,-4.168075695633888245e-02,2.542102932929992676e-01,7.865464687347412109e-02,2.397744506597518921e-01
2.503874599933624268e-01,-6.983417272567749023e-01,1.037299633026123047e+00,2.178430259227752686e-01,-6.957460641860961914e-01,-7.494494318962097168e-02,1.973118931055068970e-01,-4.256238937377929688e-01,-3.590410947799682617e-01,-1.411879658699035645e-01,5.070570856332778931e-02,8.677676916122436523e-01,4.300542548298835754e-02,-7.000217437744140625e-01,5.310956239700317383e-01,-3.831922709941864014e-01,6.390125155448913574e-01,3.763470053672790527e-02,1.116170734167098999e-01,-7.246108353137969971e-02,3.798150718212127686e-01
2.003542482852935791e-01,-6.924120187759399414e-01,1.125933885574340820e+00,1.740263104438781738e-01,-6.119201183319091797e-01,-7.945249974727630615e-02,2.367172688245773315e-01,-3.491457700729370117e-01,-5.315193906426429749e-02,-3.594858050346374512e-01,8.885613828897476196e-02,9.613024592399597168e-01,1.491285711526870728e-01,-8.676361441612243652e-01,6.387394666671752930e-01,-2.178070396184921265e-01,7.370552420616149902e-01,-4.969960451126098633e-02,2.213342934846878052e-01,-2.468717843294143677e-01,3.887145221233367920e-01
4.734322428703308105e-01,-6.038935184478759766e-01,6.990053057670593262e-01,8.243425935506820679e-02,-5.994444489479064941e-01,1.320465654134750366e-01,3.561542928218841553e-01,-1.306173950433731079e-01,3.214153274893760681e-02,-2.490197271108627319e-01,-2.342528291046619415e-02,8.131604790687561035e-01,-7.140689343214035034e-02,-8.875945806503295898e-01,3.805522918701171875e-01,-5.229135975241661072e-02,5.121557712554931641e-01,-8.468510955572128296e-02,4.437852203845977783e-01,5.516147986054420471e-02,3.587505221366882324e-01
5.631989240646362305e-01,-7.922433614730834961e-01,8.691082596778869629e-01,-1.778964400291442871e-01,-7.383712530136108398e-01,2.016748674213886261e-02,3.882525563240051270e-01,-3.575193583965301514e-01,-1.971960999071598053e-02,-3.502553403377532959e-01,6.573218852281570435e-02,8.361563682556152344e-01,-3.743434697389602661e-02,-9.075220823287963867e-01,5.115036368370056152e-01,-3.092885911464691162e-01,7.175243496894836426e-01,-3.490323945879936218e-02,3.222424089908599854e-01,-1.141650825738906860e-01,5.213992595672607422e-01
7.403851151466369629e-01,-7.347989678382873535e-01,9.297500848770141602e-01,-9.525311738252639771e-02,-6.595110893249511719e-01,2.567955553531646729e-01,4.458455443382263184e-01,-3.830605149269104004e-01,1.511034667491912842e-01,-2.297102659940719604e-01,9.039656817913055420e-02,6.496609449386596680e-01,-1.940781623125076294e-01,-7.073424458503723145e-01,3.241763412952423096e-01,-3.199370205402374268e-01,6.487162113189697266e-01,-1.473146528005599976e-01,4.207839667797088623e-01,-6.432475894689559937e-02,5.503578782081604004e-01
4.047610759735107422e-01,-5.427028536796569824e-01,8.371895551681518555e-01,-3.492538928985595703e-01,-7.466664314270019531e-01,2.786538004875183105e-01,2.051531523466110229e-01,-9.570469707250595093e-02,1.133320778608322144e-01,-2.135773152112960815e-01,-5.715351924300193787e-02,4.561870098114013672e-01,9.477394074201583862e-02,-9.495519995689392090e-01,3.424039185047149658e-01,-1.772006899118423462e-01,6.158663034439086914e-01,-9.566392004489898682e-02,4.988716244697570801e-01,-1.099802106618881226e-01,3.744638264179229736e-01
3.892951309680938721e-01,-3.515082299709320068e-01,5.286033153533935547e-01,-4.292542934417724609e-01,-9.718443751335144043e-01,2.670976817607879639e-01,6.735976934432983398e-01,-1.165607795119285583e-01,-7.000380754470825195e-02,-1.835135221481323242e-01,2.408013492822647095e-01,4.868786633014678955e-01,9.088034182786941528e-02,-6.179267764091491699e-01,4.033674895763397217e-01,-2.408700287342071533e-01,6.335133314132690430e-01,1.764583215117454529e-02,4.185887575149536133e-01,-6.462711095809936523e-02,5.154117345809936523e-01
6.205409765243530273e-01,-4.107111096382141113e-01,5.408746004104614258e-01,-4.030731320381164551e-01,-7.882953882217407227e-01,2.756808400154113770e-01,6.325069665908813477e-01,6.561671197414398193e-02,2.058895491063594818e-02,-2.176170200109481812e-01,1.572619676589965820e-01,5.130859613418579102e-01,6.297943182289600372e-03,-5.272946357727050781e-01,3.726500272750854492e-01,-2.827677130699157715e-01,4.751602113246917725e-01,-5.906620621681213379e-02,2.278791740536689758e-03,3.140280023217201233e-04,3.922562003135681152e-01
4.647305011749267578e-01,-5.487524271011352539e-01,3.895601332187652588e-01,-6.627647280693054199e-01,-9.479426145553588867e-01,4.193374812602996826e-01,6.130819320678710938e-01,2.017506659030914307e-01,6.187828257679939270e-02,-1.151568368077278137e-01,1.913953572511672974e-01,3.126166164875030518e-01,7.698424905538558960e-02,-4.950841367244720459e-01,1.166085451841354370e-01,-2.361617535352706909e-01,6.698696017265319824e-01,-2.011892646551132202e-01,2.246182858943939209e-01,-3.338339179754257202e-02,4.466705322265625000e-01
7.540305256843566895e-01,-5.046970248222351074e-01,5.910674929618835449e-01,-5.716642737388610840e-01,-9.940858483314514160e-01,2.894726097583770752e-01,6.536784768104553223e-01,1.273455619812011719e-01,1.212071478366851807e-01,1.569671370089054108e-02,3.315899670124053955e-01,1.219140142202377319e-01,2.651717960834503174e-01,-5.288653969764709473e-01,7.166892290115356445e-02,-6.418073773384094238e-01,3.293631076812744141e-01,-4.199204742908477783e-01,4.327522218227386475e-01,-1.595727354288101196e-01,3.867496550083160400e-01
5.520021319389343262e-01,-5.535572767257690430e-01,3.290966451168060303e-01,-7.876347899436950684e-01,-1.047266006469726562e+00,2.289328724145889282e-01,8.025014996528625488e-01,-1.287850290536880493e-01,1.386041194200515747e-01,1.152961552143096924e-01,1.590004935860633850e-02,4.068147540092468262e-01,-5.377742648124694824e-02,-4.504591524600982666e-01,-7.403095718473196030e-03,-2.378578633069992065e-01,3.165612518787384033e-01,-5.230740904808044434e-01,2.349351346492767334e-01,-5.493390560150146484e-02,3.100646138191223145e-01
7.375047206878662109e-01,-1.038032323122024536e-01,3.376616835594177246e-01,-7.747706174850463867e-01,-1.004536867141723633e+00,4.820951223373413086e-01,5.594110488891601562e-01,-4.845834150910377502e-02,1.296525001525878906e-01,3.631773218512535095e-02,2.373407930135726929e-01,2.364234477281570435e-01,2.914842069149017334e-01,-1.990973204374313354e-01,-9.950224310159683228e-02,-1.236183941364288330e-01,3.235807120800018311e-01,-2.330406755208969116e-01,1.832862198352813721e-01,-2.097594738006591797e-01,2.741852700710296631e-01
5.454488992691040039e-01,-1.484681069850921631e-01,4.360412433743476868e-02,-8.227375745773315430e-01,-1.034940838813781738e+00,4.466805458068847656e-01,7.040656208992004395e-01,6.091357674449682236e-03,1.745126694440841675e-01,2.472847253084182739e-01,3.834874927997589111e-02,2.408941090106964111e-01,2.742604017257690430e-01,-2.590007185935974121e-01,-9.869430214166641235e-02,-1.811876446008682251e-01,3.596059978008270264e-01,-4.368083775043487549e-01,8.057451806962490082e-03,-1.488591134548187256e-01,1.422984898090362549e-01
7.372177839279174805e-01,-2.977206930518150330e-02,1.882695704698562622e-01,-7.863756418228149414e-01,-1.003015995025634766e+00,4.973535239696502686e-01,6.080424189567565918e-01,-5.691663920879364014e-02,3.746480643749237061e-01,1.797106117010116577e-01,1.801579296588897705e-01,1.141501888632774353e-01,3.597853938117623329e-03,-3.490614518523216248e-02,1.148759108036756516e-02,-3.192937076091766357e-01,4.900141060352325439e-01,-3.860591650009155273e-01,1.135253235697746277e-01,-2.458046078681945801e-01,1.590446978807449341e-01
4.448152482509613037e-01,2.028013169765472412e-01,1.054685488343238831e-01,-9.358454942703247070e-01,-9.208391308784484863e-01,4.984020888805389404e-01,6.257801651954650879e-01,1.454917043447494507e-01,5.581273436546325684e-01,2.026947140693664551e-01,-5.667120590806007385e-02,1.258092671632766724e-01,-3.733546764124184847e-04,-1.365891844034194946e-01,-3.118989169597625732e-01,-2.152944207191467285e-01,1.997463256120681763e-01,-6.147454977035522461e-01,-1.527756005525588989e-01,-4.866555929183959961e-01,1.020734906196594238e-01
6.152265667915344238e-01,5.833852291107177734e-02,-1.511784642934799194e-01,-8.810051083564758301e-01,-9.604495763778686523e-01,2.908059656620025635e-01,5.774955749511718750e-01,4.750587418675422668e-02,5.802596807479858398e-01,2.191857695579528809e-01,-1.288386732339859009e-01,-5.882943980395793915e-03,-1.788412332534790039e-01,-1.755816638469696045e-01,-4.056109786033630371e-01,-1.392528973519802094e-02,3.631157875061035156e-01,-6.914231181144714355e-01,-1.090259477496147156e-01,-4.135105609893798828e-01,1.475658863782882690e-01
7.122451066970825195e-01,2.854935526847839355e-01,1.171053270809352398e-03,-8.854210376739501953e-01,-7.097319960594177246e-01,3.442348241806030273e-01,8.158195614814758301e-01,1.093589235097169876e-02,4.564148187637329102e-01,-3.833843395113945007e-02,-2.532621920108795166e-01,1.137939542531967163e-01,-9.107421338558197021e-02,-1.485320180654525757e-01,-4.066049158573150635e-01,-1.521896123886108398e-01,2.302105873823165894e-01,-4.211964309215545654e-01,3.168939426541328430e-02,-5.283697843551635742e-01,1.666968315839767456e-01
5.852439403533935547e-01,3.776318430900573730e-01,-1.840077154338359833e-02,-7.576409578323364258e-01,-6.945484280586242676e-01,1.363375186920166016e-01,7.172066569328308105e-01,-1.105722412467002869e-02,5.856087803840637207e-01,3.202395737171173096e-01,-4.680493175983428955e-01,-2.002013102173805237e-02,-1.479577422142028809e-01,-1.029224991798400879e-01,-4.828200042247772217e-01,-1.126026213169097900e-01,3.918992578983306885e-01,-8.002768158912658691e-01,-8.087577670812606812e-02,-6.235262751579284668e-01,3.901333510875701904e-01
4.462153613567352295e-01,2.991035282611846924e-01,1.654211431741714478e-01,-6.726405024528503418e-01,-5.542315244674682617e-01,9.097021073102951050e-02,8.713629841804504395e-01,2.482315897941589355e-01,4.234209656715393066e-01,2.772365808486938477e-01,-5.402038693428039551e-01,-3.520699962973594666e-02,2.793758548796176910e-02,7.449544966220855713e-02,-4.389271438121795654e-01,-2.097673863172531128e-01,1.433375775814056396e-01,-4.416235685348510742e-01,-2.241207808256149292e-01,-5.279156565666198730e-01,1.064597144722938538e-01
5.721416473388671875e-01,5.448399186134338379e-01,7.757821679115295410e-02,-5.369055867195129395e-01,-3.937589228153228760e-01,1.916800886392593384e-01,6.596683859825134277e-01,1.580325365066528320e-01,7.706574201583862305e-01,2.189109176397323608e-01,-3.542658388614654541e-01,-8.039513230323791504e-02,7.929462939500808716e-03,-6.142117455601692200e-02,-3.630501031875610352e-01,-7.423887401819229126e-02,1.655257791280746460e-01,-6.325075030326843262e-01,-6.551319360733032227e-02,-6.463958024978637695e-01,1.739593297243118286e-01
1.915881037712097168e-01,5.238065719604492188e-01,2.335730940103530884e-01,-6.067265868186950684e-01,-1.845337152481079102e-01,-4.586350545287132263e-02,6.864421963691711426e-01,1.326653063297271729e-01,7.891796827316284180e-01,1.098855435848236084e-01,-6.211160421371459961e-01,-1.080163940787315369e-01,2.258722782135009766e-01,1.845838427543640137e-01,-4.575769901275634766e-01,-1.226603705435991287e-02,9.057032316923141479e-02,-6.736664175987243652e-01,-1.692806482315063477e-01,-5.751311182975769043e-01,5.262207239866256714e-02
5.580134987831115723e-01,2.871414124965667725e-01,1.636652797460556030e-01,-5.420358180999755859e-01,-2.172284871339797974e-01,2.033288627862930298e-01,9.964023232460021973e-01,3.723848164081573486e-01,7.680826187133789062e-01,2.008067816495895386e-01,-6.730132699012756348e-01,3.208791092038154602e-02,4.164274781942367554e-02,1.418268084526062012e-01,-6.280112266540527344e-01,-2.268073558807373047e-01,2.501406073570251465e-01,-6.741960048675537109e-01,-1.432583928108215332e-01,-5.587728023529052734e-01,-5.015213787555694580e-02
5.904741883277893066e-01,3.609260320663452148e-01,-3.835639730095863342e-02,-8.294045925140380859e-01,-1.194026172161102295e-01,4.498895257711410522e-03,9.298000335693359375e-01,5.683665871620178223e-01,6.124158501625061035e-01,1.250659674406051636e-01,-6.679791808128356934e-01,-3.554826378822326660e-01,1.674767434597015381e-01,2.312570810317993164e-01,-4.491788744926452637e-01,-3.154459297657012939e-01,3.177027404308319092e-01,-4.814784526824951172e-01,-2.049734294414520264e-01,-5.961406826972961426e-01,-4.923320189118385315e-02
4.072470366954803467e-01,3.999657928943634033e-01,3.086968362331390381e-01,-6.186175346374511719e-01,2.216473668813705444e-01,5.694709345698356628e-02,8.874915838241577148e-01,5.508166551589965820e-01,8.886302113533020020e-01,3.486774563789367676e-01,-6.138949990272521973e-01,-2.935581207275390625e-01,1.766100525856018066e-01,2.064931541681289673e-01,-6.829185485839843750e-01,-3.029417395591735840e-01,6.247124634683132172e-03,-5.557624697685241699e-01,-3.223736956715583801e-02,-4.712725579738616943e-01,-7.839100807905197144e-02
4.849500358104705811e-01,3.942507803440093994e-01,1.206912659108638763e-02,-6.090902090072631836e-01,-9.392037242650985718e-02,6.786728650331497192e-02,9.030202627182006836e-01,6.923203468322753906e-01,6.762330532073974609e-01,7.854027301073074341e-02,-7.307354211807250977e-01,-5.535972714424133301e-01,2.213037461042404175e-01,5.708262696862220764e-02,-4.781288504600524902e-01,-6.183973550796508789e-01,5.622311308979988098e-02,-5.078126192092895508e-01,-8.031194098293781281e-03,-4.023634493350982666e-01,-2.788040041923522949e-01
3.872180283069610596e-01,1.728100776672363281e-01,1.455996334552764893e-01,-5.801771283149719238e-01,1.964585781097412109e-01,-6.248378753662109375e-02,6.394212841987609863e-01,5.507913231849670410e-01,7.673101425170898438e-01,1.055516675114631653e-01,-2.620860934257507324e-01,-3.146081268787384033e-01,1.448303610086441040e-01,1.110626459121704102e-01,-6.680465936660766602e-01,-4.055284857749938965e-01,-3.053169250488281250e-01,-6.216179132461547852e-01,-1.307132095098495483e-01,-4.308795630931854248e-01,-3.425990045070648193e-01
6.356078386306762695e-01,2.513608932495117188e-01,1.238556113094091415e-02,-6.385257840156555176e-01,-3.230802342295646667e-02,2.252222746610641479e-01,9.203851819038391113e-01,5.948359370231628418e-01,8.690195083618164062e-01,1.797436550259590149e-02,-7.063420414924621582e-01,-5.755580663681030273e-01,2.418293654918670654e-01,1.451838910579681396e-01,-6.199687123298645020e-01,-4.548210501670837402e-01,-3.241551816463470459e-01,-6.031029224395751953e-01,2.147295624017715454e-01,-2.692984342575073242e-01,-3.399858474731445312e-01
3.923485279083251953e-01,3.287637233734130859e-01,6.336037069559097290e-02,-5.763316154479980469e-01,1.601349115371704102e-01,8.774095773696899414e-02,6.308518648147583008e-01,3.203902840614318848e-01,7.796687483787536621e-01,-1.176917776465415955e-01,-5.166503190994262695e-01,-4.916794002056121826e-01,2.981159090995788574e-01,2.836673557758331299e-01,-5.923972129821777344e-01,-5.082811713218688965e-01,-3.266293406486511230e-01,-4.128812849521636963e-01,-1.847699582576751709e-01,-2.916313707828521729e-01,-4.751809239387512207e-01
3.599248528480529785e-01,3.602276742458343506e-01,-5.379055440425872803e-02,-5.858715176582336426e-01,3.290494680404663086e-01,-1.272432506084442139e-01,6.242299675941467285e-01,6.580274105072021484e-01,8.135241270065307617e-01,-8.988869935274124146e-02,-5.213589072227478027e-01,-7.050105929374694824e-01,2.810955047607421875e-01,3.173941373825073242e-01,-5.647137165069580078e-01,-5.894576907157897949e-01,-3.185539543628692627e-01,-5.260463356971740723e-01,-2.346767336130142212e-01,-2.572347819805145264e-01,-2.776711583137512207e-01
2.419343441724777222e-01,2.900339961051940918e-01,-4.794392734766006470e-02,-4.458437561988830566e-01,2.208408266305923462e-01,2.671551704406738281e-01,6.517764925956726074e-01,5.172297358512878418e-01,4.951574802398681641e-01,-1.793549954891204834e-01,-6.236589550971984863e-01,-7.192645668983459473e-01,2.327981442213058472e-01,9.216345846652984619e-02,-6.705675721168518066e-01,-5.586165189743041992e-01,-6.484444141387939453e-01,-7.049676775932312012e-01,-1.855760514736175537e-01,-2.522088289260864258e-01,-4.942317605018615723e-01
1.783652305603027344e-01,3.464685976505279541e-01,-1.775314658880233765e-01,-5.028231143951416016e-01,2.997010350227355957e-01,1.320915967226028442e-01,5.172049999237060547e-01,5.820389389991760254e-01,7.672171592712402344e-01,1.796957664191722870e-02,-5.683212280273437500e-01,-3.684276640415191650e-01,2.089393287897109985e-01,1.469297409057617188e-01,-8.320581316947937012e-01,-6.898820400238037109e-01,-4.725032448768615723e-01,-6.506661176681518555e-01,2.078279666602611542e-02,-1.936439573764801025e-01,-5.169644951820373535e-01
5.478221178054809570e-02,4.032380282878875732e-01,-2.224857546389102936e-02,-3.905076384544372559e-01,2.590973377227783203e-01,-2.110403478145599365e-01,4.383429884910583496e-01,3.969912827014923096e-01,6.028532981872558594e-01,-7.648137956857681274e-02,-4.915784597396850586e-01,-5.223999619483947754e-01,4.200488924980163574e-01,3.107430338859558105e-01,-9.601260423660278320e-01,-5.543910861015319824e-01,-4.912523627281188965e-01,-6.403739452362060547e-01,-1.961202770471572876e-01,-3.815852105617523193e-02,-7.384037971496582031e-01
1.522866040468215942e-01,1.901725679636001587e-01,2.833975665271282196e-02,-4.259044229984283447e-01,3.083100318908691406e-01,-2.673573791980743408e-01,1.866073012351989746e-01,4.896832108497619629e-01,4.334526360034942627e-01,4.782932996749877930e-02,-3.172813653945922852e-01,-5.227785706520080566e-01,5.123294591903686523e-01,1.552391052246093750e-01,-7.203446030616760254e-01,-7.752727270126342773e-01,-5.125348567962646484e-01,-6.768790483474731445e-01,-5.252590402960777283e-02,-2.162249200046062469e-02,-8.509683012962341309e-01
-1.056343838572502136e-01,4.902187287807464600e-01,1.317600905895233154e-01,-2.187358438968658447e-01,3.156029284000396729e-01,-2.930143773555755615e-01,2.091159112751483917e-02,5.135516524314880371e-01,3.298737108707427979e-01,-1.162525713443756104e-01,-3.103618323802947998e-01,-5.294833779335021973e-01,6.944605708122253418e-01,2.437550127506256104e-01,-9.439746737480163574e-01,-7.716752290725708008e-01,-6.928008794784545898e-01,-7.601606845855712891e-01,-5.908009782433509827e-02,-1.217747554183006287e-01,-9.444092512130737305e-01
-2.167901843786239624e-01,4.013742208480834961e-01,-6.465074419975280762e-02,-2.896607220172882080e-01,2.708640992641448975e-01,-3.863587975502014160e-01,9.549412876367568970e-03,3.768366277217864990e-01,1.224636659026145935e-01,1.211979910731315613e-01,-3.305277824401855469e-01,-3.290087878704071045e-01,6.422101855278015137e-01,2.319366484880447388e-01,-6.265898346900939941e-01,-7.637913227081298828e-01,-4.728205502033233643e-01,-3.416133821010589600e-01,-9.599662385880947113e-03,1.118109002709388733e-01,-6.497017145156860352e-01
-3.155028522014617920e-01,2.632964849472045898e-01,1.068010404706001282e-01,-3.155134916305541992e-01,2.235909402370452881e-01,-4.070253074169158936e-01,6.236184854060411453e-03,1.899975389242172241e-01,1.718829423189163208e-01,4.526310600340366364e-03,-3.081555962562561035e-01,-4.477082788944244385e-01,5.626814365386962891e-01,1.742709279060363770e-01,-9.671199917793273926e-01,-1.008328318595886230e+00,-5.148199200630187988e-01,-5.385770797729492188e-01,1.622581668198108673e-02,2.301404811441898346e-02,-8.543913960456848145e-01
-2.342665791511535645e-01,3.846566379070281982e-01,1.243278682231903076e-01,-3.558595776557922363e-01,1.382476240396499634e-01,-5.374036431312561035e-01,-1.691394746303558350e-01,2.525496184825897217e-01,1.640035808086395264e-01,-1.554289907217025757e-01,-1.768320202827453613e-01,-4.170150756835937500e-01,5.843342542648315430e-01,2.641800343990325928e-01,-6.819455623626708984e-01,-7.785310745239257812e-01,-5.382816195487976074e-01,-5.269372463226318359e-01,-1.661928594112396240e-01,1.995749920606613159e-01,-1.008428215980529785e+00
-1.907273083925247192e-01,3.314661681652069092e-01,1.504381895065307617e-01,-6.782428920269012451e-02,2.783601544797420502e-02,-4.683306813240051270e-01,-1.388581842184066772e-01,9.583518654108047485e-02,-7.979765534400939941e-02,-2.094582170248031616e-01,-2.134661227464675903e-01,-3.705186545848846436e-01,7.745721340179443359e-01,2.541383504867553711e-01,-5.710192918777465820e-01,-9.415907263755798340e-01,-5.242335796356201172e-01,-2.593269646167755127e-01,1.797770857810974121e-01,2.850803779438138008e-03,-9.784495234489440918e-01
-4.038259387016296387e-01,3.265407383441925049e-01,5.029821991920471191e-01,-7.997453957796096802e-02,-3.171421959996223450e-02,-4.838056266307830811e-01,1.570462062954902649e-02,3.553161863237619400e-03,3.840231522917747498e-02,-2.310070693492889404e-01,-2.596527934074401855e-01,-3.407743573188781738e-01,5.720089077949523926e-01,3.370833098888397217e-01,-6.853033900260925293e-01,-6.613761782646179199e-01,-3.348195552825927734e-01,-1.856777518987655640e-01,1.453912109136581421e-01,1.319985091686248779e-01,-1.027331352233886719e+00
-3.724350333213806152e-01,2.457528114318847656e-01,3.119298219680786133e-01,2.358147203922271729e-01,-2.840955974534153938e-03,-6.435554623603820801e-01,-2.433411926031112671e-01,6.208339240401983261e-03,-4.644850641489028931e-02,-1.593748480081558228e-01,-1.533751189708709717e-01,-3.614980876445770264e-01,6.803563237190246582e-01,3.584875259548425674e-03,-8.141340613365173340e-01,-7.281860113143920898e-01,-4.024772047996520996e-01,-2.396958023309707642e-01,7.416863739490509033e-02,-8.768531493842601776e-03,-1.091149926185607910e+00
-4.507358074188232422e-01,3.593269586563110352e-01,2.983220517635345459e-01,1.560152024030685425e-01,-2.101281583309173584e-01,-6.140626072883605957e-01,-4.193108975887298584e-01,-3.498819191008806229e-03,-1.909718215465545654e-01,-5.866559743881225586e-01,9.297166019678115845e-02,-1.922376900911331177e-01,7.800514698028564453e-01,1.247437968850135803e-01,-5.655088424682617188e-01,-6.334776878356933594e-01,-6.288130581378936768e-02,-1.798723451793193817e-02,6.952790170907974243e-02,9.401039779186248779e-02,-8.726303577423095703e-01
-4.182601273059844971e-01,2.035259753465652466e-01,5.933197736740112305e-01,1.829218864440917969e-01,-1.552612036466598511e-01,-5.679180622100830078e-01,-4.253093600273132324e-01,-1.143653616309165955e-01,1.543400064110755920e-02,-4.162727296352386475e-01,-1.104870960116386414e-01,-7.891542278230190277e-03,5.182078480720520020e-01,-1.181438490748405457e-01,-4.501404166221618652e-01,-6.120607256889343262e-01,-1.221148073673248291e-01,6.006062030792236328e-02,1.779556870460510254e-01,2.741700783371925354e-02,-8.231675028800964355e-01
-5.138412714004516602e-01,3.436387777328491211e-01,5.091930627822875977e-01,2.459919899702072144e-01,-2.353940159082412720e-01,-5.058897733688354492e-01,-5.246367454528808594e-01,-2.111857980489730835e-01,1.004125997424125671e-01,-6.096800565719604492e-01,-1.011436954140663147e-01,2.763015963137149811e-02,4.010471403598785400e-01,-7.374469190835952759e-02,-2.349939197301864624e-01,-4.727068841457366943e-01,-1.736323684453964233e-01,-4.245043173432350159e-02,1.182066947221755981e-01,-1.479117870330810547e-01,-9.169360399246215820e-01
-2.366919219493865967e-01,3.979173898696899414e-01,6.469800472259521484e-01,4.971104562282562256e-01,-3.183657303452491760e-02,-6.452805995941162109e-01,-2.575089931488037109e-01,-1.627732217311859131e-01,8.499505370855331421e-02,-7.522734999656677246e-01,-1.830818355083465576e-01,-1.473753303289413452e-01,3.175030052661895752e-01,-2.269096672534942627e-01,-2.770888209342956543e-01,-3.303249478340148926e-01,1.320471316576004028e-01,1.912528723478317261e-01,4.351821243762969971e-01,-2.921248078346252441e-01,-8.291952013969421387e-01
-2.504537403583526611e-01,2.005586028099060059e-01,4.119725823402404785e-01,4.462650716304779053e-01,-4.517454504966735840e-01,-4.647065699100494385e-01,-5.787425041198730469e-01,-2.129901796579360962e-01,-1.277624350041151047e-02,-7.721202373504638672e-01,-2.876938581466674805e-01,1.140644866973161697e-02,2.256503105163574219e-01,-4.357859492301940918e-01,-1.830791532993316650e-01,-2.440261244773864746e-01,5.859149619936943054e-03,3.697995841503143311e-01,1.446366906166076660e-01,-4.447271227836608887e-01,-5.782899260520935059e-01
-3.013357520103454590e-01,3.326860964298248291e-01,6.458768844604492188e-01,5.899299979209899902e-01,-3.760836422443389893e-01,-4.581423997879028320e-01,-4.415076971054077148e-01,-1.193753927946090698e-01,1.549690663814544678e-01,-7.601234316825866699e-01,-2.680264115333557129e-01,3.050292283296585083e-02,1.380349099636077881e-01,-4.279231131076812744e-01,3.342485055327415466e-02,-2.703873217105865479e-01,2.573526501655578613e-01,3.191349506378173828e-01,3.419149518013000488e-01,-2.841694653034210205e-01,-6.489893198013305664e-01
-1.239498704671859741e-01,2.683787047863006592e-01,6.594536900520324707e-01,5.425335168838500977e-01,-1.601053960621356964e-02,-5.357101559638977051e-01,-3.763252496719360352e-01,-1.275464445352554321e-01,3.735668361186981201e-01,-1.040841698646545410e+00,-2.304704189300537109e-01,1.015964895486831665e-01,1.266266554594039917e-01,-5.708726644515991211e-01,-9.882846474647521973e-02,-4.959587752819061279e-02,2.776841521263122559e-01,3.268849253654479980e-01,7.846305370330810547e-01,-2.244253605604171753e-01,-5.312969684600830078e-01
-3.259035944938659668e-01,2.502510249614715576e-01,9.013587832450866699e-01,7.782229781150817871e-01,-1.224569901823997498e-01,-3.869177699089050293e-01,-4.119065403938293457e-01,-2.186978310346603394e-01,1.692025810480117798e-01,-7.743312120437622070e-01,-5.311224460601806641e-01,3.115047812461853027e-01,3.961514309048652649e-02,-4.816310405731201172e-01,-1.713708639144897461e-01,-3.160810843110084534e-02,5.402227044105529785e-01,5.477634668350219727e-01,6.503574252128601074e-01,-3.513746857643127441e-01,-2.577542066574096680e-01
-3.200428485870361328e-01,-3.722847672179341316e-03,8.295056819915771484e-01,7.195410728454589844e-01,-3.106606006622314453e-01,-3.771050870418548584e-01,-3.063431382179260254e-01,-2.778521925210952759e-02,3.597344160079956055e-01,-9.611288905143737793e-01,-3.211989700794219971e-01,1.723944693803787231e-01,-1.119715347886085510e-01,-8.249055147171020508e-01,2.073949724435806274e-01,-8.350071310997009277e-02,4.472036361694335938e-01,5.969659686088562012e-01,7.477285265922546387e-01,-4.781273007392883301e-01,-2.922164499759674072e-01
-1.783994883298873901e-01,-5.605027824640274048e-02,8.812329769134521484e-01,6.430369019508361816e-01,-8.642782270908355713e-02,-4.521325826644897461e-01,-3.423803448677062988e-01,3.172755986452102661e-02,2.435444146394729614e-01,-9.720697999000549316e-01,-2.314168363809585571e-01,-9.725360199809074402e-03,4.144395142793655396e-02,-6.609272360801696777e-01,1.834721714258193970e-01,1.365857869386672974e-01,5.096220970153808594e-01,4.263364076614379883e-01,8.583774566650390625e-01,-5.980994701385498047e-01,-2.092684358358383179e-01
-2.533839344978332520e-01,2.281750366091728210e-02,6.389162540435791016e-01,3.934630453586578369e-01,-3.150228857994079590e-01,-3.111060559749603271e-01,-1.828663051128387451e-01,2.138945609331130981e-01,3.200140595436096191e-01,-8.406972289085388184e-01,-1.224188655614852905e-01,7.738050073385238647e-02,2.431488223373889923e-02,-7.356485128402709961e-01,2.260705381631851196e-01,1.390447914600372314e-01,6.614423394203186035e-01,6.974776387214660645e-01,1.081951022148132324e+00,-6.468892097473144531e-01,-2.925012111663818359e-01
6.595213711261749268e-02,1.483588665723800659e-01,7.528312206268310547e-01,5.689383149147033691e-01,-2.103192359209060669e-01,-2.512819766998291016e-01,-1.688387691974639893e-01,9.135962277650833130e-02,4.123891592025756836e-01,-1.016239285469055176e+00,-2.624468803405761719e-01,1.296131461858749390e-01,4.758554324507713318e-02,-7.486374378204345703e-01,3.983159065246582031e-01,3.163500130176544189e-01,7.527282834053039551e-01,9.510463476181030273e-01,9.457839131355285645e-01,-4.720644652843475342e-01,-2.677604854106903076e-01
1.353394985198974609e-02,5.599081888794898987e-02,4.993132352828979492e-01,4.473006129264831543e-01,-3.052777945995330811e-01,3.100612014532089233e-02,3.640536591410636902e-02,2.401215881109237671e-01,2.210156023502349854e-01,-1.075430750846862793e+00,-2.255954742431640625e-01,-2.297412902116775513e-01,-1.929743140935897827e-01,-7.881990075111389160e-01,6.091410517692565918e-01,2.728462815284729004e-01,4.767857193946838379e-01,8.580099344253540039e-01,1.254234671592712402e+00,-5.083112120628356934e-01,-2.406367063522338867e-01
-6.029193475842475891e-02,-2.140757292509078979e-01,4.677742421627044678e-01,1.672671288251876831e-01,-3.376132845878601074e-01,-4.771042615175247192e-02,1.105116531252861023e-01,2.460015863180160522e-01,2.539345324039459229e-01,-1.163214683532714844e+00,-2.318111956119537354e-01,-2.166105061769485474e-01,1.808244176208972931e-02,-6.361523866653442383e-01,5.481711030006408691e-01,2.465604543685913086e-01,4.994256198406219482e-01,7.710675001144409180e-01,9.976930022239685059e-01,-4.561276733875274658e-01,-1.491890400648117065e-01
7.898491807281970978e-03,6.664466857910156250e-02,4.915344417095184326e-01,1.623499691486358643e-01,-5.145767331123352051e-01,1.358683258295059204e-01,8.027042448520660400e-02,4.078396856784820557e-01,5.094425678253173828e-01,-9.189617037773132324e-01,-2.282120659947395325e-02,-2.666126191616058350e-01,-8.682218939065933228e-02,-6.172668337821960449e-01,3.159713447093963623e-01,3.621289730072021484e-01,5.223432183265686035e-01,7.437864542007446289e-01,1.034774303436279297e+00,-5.313749313354492188e-01,-2.614087164402008057e-01
1.222035437822341919e-01,-1.042481660842895508e-01,5.476449131965637207e-01,1.306224465370178223e-01,-6.466990113258361816e-01,1.791744977235794067e-01,1.173864826560020447e-01,2.694883346557617188e-01,4.686153829097747803e-01,-8.053581118583679199e-01,-1.112827956676483154e-01,-1.735473275184631348e-01,5.064386501908302307e-02,-6.999628543853759766e-01,2.723214626312255859e-01,3.697944581508636475e-01,4.223447144031524658e-01,7.097291350364685059e-01,9.548331499099731445e-01,-3.350304067134857178e-01,-2.195422351360321045e-01
3.767639771103858948e-02,1.482736617326736450e-01,4.385688006877899170e-01,2.036041170358657837e-01,-6.055112481117248535e-01,1.215434521436691284e-01,-5.549237830564379692e-04,3.580334782600402832e-01,2.891117334365844727e-01,-8.910361528396606445e-01,-2.443834245204925537e-01,-3.984061479568481445e-01,1.636535823345184326e-01,-7.569971680641174316e-01,3.118928074836730957e-01,4.239724278450012207e-01,4.732011258602142334e-01,7.082340717315673828e-01,9.400904178619384766e-01,-7.228821516036987305e-01,-1.522516459226608276e-01
-5.312873050570487976e-03,3.107334077358245850e-01,2.876144349575042725e-01,1.990251988172531128e-01,-6.613496541976928711e-01,3.305111825466156006e-01,1.631929278373718262e-01,2.161340564489364624e-01,3.187769949436187744e-01,-8.012545704841613770e-01,-3.437636792659759521e-02,-3.056886494159698486e-01,1.090345606207847595e-01,-5.773581266403198242e-01,3.442277014255523682e-01,3.733053207397460938e-01,5.192409753799438477e-01,6.913249492645263672e-01,8.095698356628417969e-01,-6.388172507286071777e-01,-1.819480061531066895e-01
1.435242593288421631e-01,4.464788436889648438e-01,2.279885113239288330e-01,1.018985956907272339e-01,-7.194810509681701660e-01,6.167695298790931702e-02,2.461617738008499146e-01,2.861617803573608398e-01,2.258724570274353027e-01,-4.206578433513641357e-01,-1.881905794143676758e-01,-3.414962887763977051e-01,8.581726253032684326e-02,-3.625209331512451172e-01,4.464796185493469238e-01,5.297989845275878906e-01,4.237834513187408447e-01,7.112498283386230469e-01,9.413124322891235352e-01,-4.189805090427398682e-01,-1.285693794488906860e-01
6.697129458189010620e-02,3.406264781951904297e-01,1.140402480959892273e-01,-9.161876887083053589e-02,-6.955819129943847656e-01,1.763477772474288940e-01,2.511694133281707764e-01,4.779717028141021729e-01,4.294400811195373535e-01,-4.871536493301391602e-01,-1.838303804397583008e-01,-3.586531281471252441e-01,3.891795128583908081e-02,-6.962014436721801758e-01,2.211361974477767944e-01,4.262630045413970947e-01,4.992642700672149658e-01,4.037946462631225586e-01,7.582325339317321777e-01,-5.846412777900695801e-01,-2.458197921514511108e-01
-1.593871600925922394e-02,5.160027742385864258e-01,-1.090767905116081238e-01,-1.639734655618667603e-01,-7.030232548713684082e-01,1.763521283864974976e-01,2.684561312198638916e-01,3.046782314777374268e-01,2.682082056999206543e-01,-4.712797403335571289e-01,-3.892023861408233643e-01,-3.501240313053131104e-01,7.247206568717956543e-02,-4.540691971778869629e-01,7.917428016662597656e-02,4.862634241580963135e-01,4.679391384124755859e-01,3.143435418605804443e-01,6.431141495704650879e-01,-6.282535791397094727e-01,-6.572002544999122620e-03
4.881011694669723511e-02,4.249395430088043213e-01,6.035312265157699585e-02,-3.236532583832740784e-02,-7.522088289260864258e-01,6.847003847360610962e-02,2.686786949634552002e-01,3.544225692749023438e-01,3.341446816921234131e-01,-5.895474553108215332e-01,-2.702504992485046387e-01,-3.375675678253173828e-01,5.030198022723197937e-02,-4.982979893684387207e-01,2.621847689151763916e-01,4.861559867858886719e-01,5.848420858383178711e-01,2.881994247436523438e-01,8.125500679016113281e-01,-5.542558431625366211e-01,-6.686324626207351685e-02
-1.302285790443420410e-01,6.101342439651489258e-01,2.397930771112442017e-01,-7.422424852848052979e-02,-7.823408842086791992e-01,8.519032970070838928e-03,7.232856005430221558e-02,5.023750662803649902e-01,3.745553791522979736e-01,-4.452804625034332275e-01,-5.859504938125610352e-01,-3.171380460262298584e-01,1.133556067943572998e-01,-4.777969717979431152e-01,2.486298233270645142e-02,4.534655213356018066e-01,6.011457443237304688e-01,2.092726975679397583e-01,5.252039432525634766e-01,-6.657733917236328125e-01,-1.986764371395111084e-01
-1.756258308887481689e-01,7.573378086090087891e-01,-5.525180697441101074e-02,1.240853313356637955e-02,-7.712224721908569336e-01,-6.367076933383941650e-02,2.791337370872497559e-01,2.426536083221435547e-01,4.534070193767547607e-01,-2.421480119228363037e-01,-6.010324954986572266e-01,-1.893680244684219360e-01,2.459926903247833252e-01,-4.709111154079437256e-01,1.716030761599540710e-02,5.110282897949218750e-01,5.394286513328552246e-01,3.294803202152252197e-01,4.369859099388122559e-01,-4.311203360557556152e-01,-1.358483582735061646e-01
-2.284862697124481201e-01,7.140466570854187012e-01,1.865142732858657837e-01,-2.926994860172271729e-01,-6.426405906677246094e-01,-1.807753890752792358e-01,3.210704326629638672e-01,2.553261816501617432e-01,4.814765751361846924e-01,-3.142266571521759033e-01,-4.376056790351867676e-01,-3.199487030506134033e-01,1.497986465692520142e-01,-4.118656516075134277e-01,7.096852362155914307e-02,5.152019858360290527e-01,4.779696166515350342e-01,1.238482668995857239e-01,3.180724084377288818e-01,-5.981893539428710938e-01,-1.059544086456298828e-01
-4.422208666801452637e-01,7.913383841514587402e-01,7.014915347099304199e-02,-3.818496763706207275e-01,-5.861410498619079590e-01,-1.032501235604286194e-01,1.144552305340766907e-01,3.231914043426513672e-01,2.830418944358825684e-01,-1.342173516750335693e-01,-5.991185307502746582e-01,-3.717283308506011963e-01,2.643257975578308105e-01,-1.858831048011779785e-01,8.865255862474441528e-02,5.012117624282836914e-01,5.465711951255798340e-01,3.760865032672882080e-01,4.708331227302551270e-01,-6.455359458923339844e-01,-2.104254066944122314e-01
-2.843926846981048584e-01,8.560126423835754395e-01,1.481629759073257446e-01,-2.310305982828140259e-01,-5.555717349052429199e-01,-1.860335767269134521e-01,3.629385828971862793e-01,3.397997915744781494e-01,8.818665146827697754e-02,-1.821212768554687500e-01,-6.982277035713195801e-01,-3.680400252342224121e-01,3.999859094619750977e-01,-3.384930491447448730e-01,4.014540091156959534e-02,5.130227804183959961e-01,4.332708120346069336e-01,-1.099388003349304199e-01,3.345520198345184326e-01,-8.133575320243835449e-01,-2.179331779479980469e-01
-2.765189409255981445e-01,8.092231154441833496e-01,2.004648745059967041e-01,-4.556451439857482910e-01,-4.121068418025970459e-01,-1.342791020870208740e-01,4.970151185989379883e-01,1.785386055707931519e-01,1.721620708703994751e-01,-4.778545722365379333e-02,-9.225189685821533203e-01,-4.059569537639617920e-01,4.522429406642913818e-01,-2.559412121772766113e-01,1.224928498268127441e-01,7.008967399597167969e-01,5.757331252098083496e-01,1.116861328482627869e-01,2.130977511405944824e-01,-6.879483461380004883e-01,-1.853924989700317383e-01
-2.695964574813842773e-01,8.534203767776489258e-01,1.898453831672668457e-01,-2.466923743486404419e-01,-6.307948827743530273e-01,-2.439887523651123047e-01,2.519891560077667236e-01,3.261300325393676758e-01,4.760578870773315430e-01,-1.951142847537994385e-01,-7.424668073654174805e-01,-3.212437331676483154e-01,3.214152455329895020e-01,-3.006653189659118652e-01,2.016101181507110596e-01,6.589585542678833008e-01,4.212540388107299805e-01,6.633885949850082397e-02,1.691244840621948242e-01,-4.896388053894042969e-01,-6.761144846677780151e-02
-3.940157890319824219e-01,8.779711723327636719e-01,1.755149811506271362e-01,-3.842952847480773926e-01,-2.641950249671936035e-01,-2.519947290420532227e-01,3.993832767009735107e-01,1.741468906402587891e-01,2.344543188810348511e-01,-1.192130297422409058e-01,-8.481660485267639160e-01,-6.201625466346740723e-01,2.628892362117767334e-01,-2.277308702468872070e-01,-1.078482121229171753e-01,7.289922237396240234e-01,3.142551481723785400e-01,6.949928589165210724e-03,9.087789058685302734e-02,-6.396327018737792969e-01,-1.019500419497489929e-01
-2.895796298980712891e-01,6.975033283233642578e-01,9.565339237451553345e-02,-2.538627386093139648e-01,-6.151115298271179199e-01,-2.624809741973876953e-01,5.333741903305053711e-01,3.484223186969757080e-01,4.428258240222930908e-01,-5.520737171173095703e-02,-9.893010854721069336e-01,-5.665436387062072754e-01,2.340307533740997314e-01,-2.829976975917816162e-01,-9.083079546689987183e-02,5.975489616394042969e-01,2.769045233726501465e-01,1.180040761828422546e-01,3.570993244647979736e-02,-7.406566739082336426e-01,-3.973758965730667114e-02
-2.179440557956695557e-01,7.517094016075134277e-01,1.361089497804641724e-01,-3.281124830245971680e-01,-2.018920779228210449e-01,-2.229691892862319946e-01,6.986402869224548340e-01,3.314744532108306885e-01,2.732361853122711182e-01,-8.362807333469390869e-02,-1.084218144416809082e+00,-3.995701074600219727e-01,3.522509336471557617e-01,-2.757652699947357178e-01,2.237179689109325409e-02,6.527845859527587891e-01,1.598651558160781860e-01,6.690558046102523804e-02,1.581608057022094727e-01,-6.463984251022338867e-01,-1.935786306858062744e-01
-1.899835169315338135e-01,8.085341453552246094e-01,2.299021184444427490e-01,-3.009531795978546143e-01,-1.203920617699623108e-01,-2.867462337017059326e-01,6.039286255836486816e-01,1.490476876497268677e-01,3.376224339008331299e-01,3.938060719519853592e-03,-8.246498703956604004e-01,-3.806514441967010498e-01,4.101605415344238281e-01,-2.854586243629455566e-01,-2.283500321209430695e-02,4.633520543575286865e-01,2.213162183761596680e-01,-5.567332729697227478e-03,-1.149871125817298889e-01,-6.496468782424926758e-01,-1.561550348997116089e-01
-3.533924520015716553e-01,5.906698703765869141e-01,4.633438885211944580e-01,9.412686922587454319e-04,2.652400638908147812e-03,-2.817836999893188477e-01,7.242929339408874512e-01,1.776963472366333008e-01,4.427321851253509521e-01,3.473883494734764099e-02,-9.068475365638732910e-01,-3.071107864379882812e-01,3.191660344600677490e-01,-3.854983448982238770e-01,-5.354622751474380493e-02,7.542027831077575684e-01,1.254690289497375488e-01,-3.589722514152526855e-02,-5.766811966896057129e-02,-4.608280062675476074e-01,-9.528341889381408691e-02
-4.072788059711456299e-01,7.453396320343017578e-01,1.730346828699111938e-01,-1.698936372995376587e-01,1.037941426038742065e-01,-3.047881126403808594e-01,6.129431724548339844e-01,3.521746993064880371e-01,5.818853378295898438e-01,-8.950954675674438477e-02,-1.031196355819702148e+00,-4.025401771068572998e-01,3.391031324863433838e-01,-4.686215221881866455e-01,-1.264579296112060547e-01,6.670056581497192383e-01,-3.404199704527854919e-02,3.638182580471038818e-02,8.055089414119720459e-02,-5.117603540420532227e-01,-6.664420664310455322e-02
-4.815976619720458984e-01,7.257716059684753418e-01,3.550499379634857178e-01,-2.268750965595245361e-01,-1.078360751271247864e-01,-2.579716742038726807e-01,4.030257761478424072e-01,3.177045881748199463e-01,4.892362058162689209e-01,1.896283477544784546e-01,-9.995207190513610840e-01,-3.767468333244323730e-01,5.371761322021484375e-01,-2.392886579036712646e-01,-1.143254861235618591e-01,4.175091087818145752e-01,1.057496517896652222e-01,-1.031891107559204102e-01,-2.690588831901550293e-01,-4.531839787960052490e-01,-1.225948892533779144e-02
-3.227914869785308838e-01,6.896521449089050293e-01,4.007780551910400391e-01,-2.536813914775848389e-01,-3.998176753520965576e-02,-3.862818777561187744e-01,6.236988902091979980e-01,3.364386260509490967e-01,1.998189538717269897e-01,2.555481195449829102e-01,-9.986618757247924805e-01,-3.394706249237060547e-01,6.298091411590576172e-01,-3.745991885662078857e-01,3.058340772986412048e-02,3.862404227256774902e-01,1.471323892474174500e-02,-1.580435335636138916e-01,1.866143941879272461e-02,-2.336601316928863525e-01,-2.194159775972366333e-01
-4.827921092510223389e-01,4.214779436588287354e-01,3.849712014198303223e-01,-4.143224060535430908e-01,1.388149410486221313e-01,-3.860614597797393799e-01,5.549923777580261230e-01,2.923038005828857422e-01,1.743595749139785767e-01,4.159617722034454346e-01,-9.530764818191528320e-01,-4.843138754367828369e-01,7.997401952743530273e-01,-3.940536379814147949e-01,3.004896640777587891e-02,2.279324531555175781e-01,-2.662803232669830322e-01,-1.432896107435226440e-01,-1.859996169805526733e-01,1.637203502468764782e-03,-6.961469352245330811e-02
-4.207874238491058350e-01,6.214802861213684082e-01,4.591487646102905273e-01,-2.985574901103973389e-01,6.751549988985061646e-02,-3.258989155292510986e-01,5.928226113319396973e-01,3.125104010105133057e-01,1.499256640672683716e-01,2.068765908479690552e-01,-8.244507312774658203e-01,-4.171274006366729736e-01,6.516762971878051758e-01,-2.655279636383056641e-01,-2.308176159858703613e-01,1.695237606763839722e-01,-3.162436485290527344e-01,-1.501025706529617310e-01,-8.632431924343109131e-02,-3.600902110338211060e-02,-2.625419199466705322e-01
-5.288484096527099609e-01,1.536083221435546875e-01,3.178035616874694824e-01,-3.854593932628631592e-01,7.737336307764053345e-02,-1.409632563591003418e-01,7.096903920173645020e-01,2.082699388265609741e-01,-6.561920512467622757e-03,4.578763544559478760e-01,-7.262784242630004883e-01,-3.952135443687438965e-01,7.898433804512023926e-01,-3.935760855674743652e-01,-2.086304724216461182e-01,7.696318789385259151e-04,-3.568531572818756104e-01,-2.940700650215148926e-01,-1.892315298318862915e-01,2.629485428333282471e-01,-2.857319116592407227e-01
-3.800979256629943848e-01,4.095869958400726318e-01,3.137631714344024658e-01,-4.695542156696319580e-01,9.277331084012985229e-02,-3.052255213260650635e-01,3.813733756542205811e-01,1.353856474161148071e-01,-1.053491681814193726e-01,2.808386981487274170e-01,-5.586161613464355469e-01,-3.725726604461669922e-01,8.877679705619812012e-01,-4.110107421875000000e-01,-4.326871633529663086e-01,-1.752109378576278687e-01,-4.184139072895050049e-01,-8.728776872158050537e-02,-3.408703207969665527e-01,2.576063573360443115e-01,-3.391236364841461182e-01
-5.728142261505126953e-01,1.452660858631134033e-01,4.060007929801940918e-01,-2.304463386535644531e-01,2.678710594773292542e-02,-5.169633626937866211e-01,3.602575957775115967e-01,2.591477148234844208e-02,-1.276610139757394791e-02,3.246987164020538330e-01,-4.672337770462036133e-01,-4.476912617683410645e-01,1.215082883834838867e+00,-3.150722682476043701e-01,-3.270758092403411865e-01,-7.479534950107336044e-03,-5.550502538681030273e-01,-3.068427145481109619e-01,-2.771928012371063232e-01,3.688282370567321777e-01,-3.616146147251129150e-01
-5.974130034446716309e-01,1.918796151876449585e-01,4.540854096412658691e-01,-4.154035449028015137e-01,1.313337404280900955e-02,-3.087698221206665039e-01,4.667476713657379150e-01,1.652773320674896240e-01,-3.115369081497192383e-01,1.328513473272323608e-01,-3.232106566429138184e-01,-3.865001797676086426e-01,1.016048550605773926e+00,-2.592061161994934082e-01,-3.489070236682891846e-01,-4.138697385787963867e-01,-5.317130088806152344e-01,-3.860067129135131836e-01,-4.051930308341979980e-01,3.987363278865814209e-01,-6.260196566581726074e-01
-7.344401478767395020e-01,2.108026854693889618e-02,2.173703610897064209e-01,-3.748421669006347656e-01,-8.028847724199295044e-02,-1.411664932966232300e-01,3.985023200511932373e-01,-1.923013925552368164e-01,-4.971204400062561035e-01,1.778839379549026489e-01,-3.851376473903656006e-01,-5.385968089103698730e-01,9.320464134216308594e-01,-2.333433628082275391e-01,-3.386700153350830078e-01,-1.253749877214431763e-01,-7.958125472068786621e-01,-2.975340187549591064e-01,-5.760403275489807129e-01,5.528562664985656738e-01,-6.353014111518859863e-01
-7.766846418380737305e-01,1.353432685136795044e-01,5.179064273834228516e-01,-4.263702929019927979e-01,-1.057517230510711670e-01,-2.042786777019500732e-01,2.357863783836364746e-01,-3.130848407745361328e-01,-3.694623708724975586e-01,2.006005048751831055e-01,-1.312056332826614380e-01,-2.732479572296142578e-01,8.852745294570922852e-01,-1.751284003257751465e-01,-3.017897307872772217e-01,-3.661108016967773438e-01,-5.963245034217834473e-01,-2.327958494424819946e-01,-4.786664247512817383e-01,4.876640141010284424e-01,-4.953277409076690674e-01
-6.737928390502929688e-01,1.296372562646865845e-01,4.328320026397705078e-01,-2.274347245693206787e-01,-2.252529859542846680e-01,-3.767224550247192383e-01,4.327822849154472351e-02,-3.675968050956726074e-01,-2.756125628948211670e-01,2.431448400020599365e-01,-1.027366891503334045e-01,-3.526937961578369141e-01,7.982295155525207520e-01,-4.398009777069091797e-01,-4.870267808437347412e-01,-3.681884706020355225e-01,-7.057853341102600098e-01,-2.388427257537841797e-01,-5.872759819030761719e-01,6.265330910682678223e-01,-6.426886320114135742e-01
-6.964823007583618164e-01,1.313953846693038940e-01,2.403343468904495239e-01,-1.623096168041229248e-01,-1.885598003864288330e-01,-4.356460571289062500e-01,6.613035500049591064e-02,-3.273972570896148682e-01,-4.700656831264495850e-01,1.805915981531143188e-01,-1.237862780690193176e-01,-2.259485870599746704e-01,7.870451211929321289e-01,-3.018679916858673096e-01,-5.062647461891174316e-01,-2.962932288646697998e-01,-5.394636988639831543e-01,-3.666067719459533691e-01,-5.589078664779663086e-01,6.480652093887329102e-01,-4.946848750114440918e-01
-8.496103882789611816e-01,4.793032631278038025e-02,2.949093282222747803e-01,-1.205558031797409058e-01,-2.543035745620727539e-01,-2.780280411243438721e-01,-5.607545748353004456e-02,-4.209588766098022461e-01,-6.304450035095214844e-01,2.181262224912643433e-01,-1.281682103872299194e-01,-1.644678600132465363e-02,1.020842671394348145e+00,-2.745614051818847656e-01,-3.744835853576660156e-01,-4.028034806251525879e-01,-6.113178133964538574e-01,-3.111442327499389648e-01,-6.323331594467163086e-01,7.398814558982849121e-01,-6.266905069351196289e-01
-6.795768141746520996e-01,3.330422341823577881e-01,4.843546450138092041e-01,1.533223241567611694e-01,-3.545594513416290283e-01,-3.546078205108642578e-01,-1.235865205526351929e-01,-6.481222510337829590e-01,-5.836525559425354004e-01,7.749246060848236084e-02,-8.220867067575454712e-02,5.664201080799102783e-02,7.559973001480102539e-01,-3.169484436511993408e-01,-5.163303017616271973e-01,-2.269733548164367676e-01,-3.699776530265808105e-01,-3.591092228889465332e-01,-5.897500514984130859e-01,6.419143080711364746e-01,-5.199602842330932617e-01
-9.481920599937438965e-01,1.684937775135040283e-01,4.847788512706756592e-01,4.003843292593955994e-02,-2.984510362148284912e-01,-2.895282506942749023e-01,-2.740204930305480957e-01,-6.519377827644348145e-01,-5.415784716606140137e-01,1.082420945167541504e-01,-1.269078403711318970e-01,3.069788813591003418e-01,6.088533401489257812e-01,-3.916045129299163818e-01,-5.173773765563964844e-01,-3.061398267745971680e-01,-3.724057078361511230e-01,-2.529178261756896973e-01,-7.138907313346862793e-01,5.243440866470336914e-01,-5.072630643844604492e-01
-9.578558206558227539e-01,1.098231077194213867e-01,4.680683612823486328e-01,8.619682490825653076e-02,-1.390969753265380859e-01,-1.881633251905441284e-01,-2.761539518833160400e-01,-7.735542654991149902e-01,-5.534082651138305664e-01,1.244972422719001770e-01,8.840066939592361450e-02,2.213531136512756348e-01,5.681507587432861328e-01,-4.239529967308044434e-01,-2.457177937030792236e-01,-3.862660825252532959e-01,-2.135888189077377319e-01,-9.912388771772384644e-02,-4.713919162750244141e-01,6.333109736442565918e-01,-2.578318715095520020e-01
-7.483733296394348145e-01,-1.215080469846725464e-01,5.711802244186401367e-01,3.341013491153717041e-01,-2.110604494810104370e-01,-2.453921735286712646e-01,7.086195051670074463e-03,-8.563436865806579590e-01,-6.473147273063659668e-01,7.845485210418701172e-02,2.596244215965270996e-01,5.976356863975524902e-01,5.998905897140502930e-01,-5.256426930427551270e-01,-2.565193772315979004e-01,-1.823479980230331421e-01,-2.344597280025482178e-01,-3.551048785448074341e-02,-5.228077769279479980e-01,5.798863172531127930e-01,-1.773665547370910645e-01
-7.644856572151184082e-01,-2.752424180507659912e-01,6.521232128143310547e-01,1.360359191894531250e-01,-3.365517854690551758e-01,-3.082994222640991211e-01,-2.079123407602310181e-01,-7.773399353027343750e-01,-4.651646316051483154e-01,-1.611911654472351074e-01,1.455732583999633789e-01,3.721289336681365967e-01,5.979508757591247559e-01,-3.781264424324035645e-01,-1.435698866844177246e-01,-4.513840675354003906e-01,-1.592001765966415405e-01,-5.147410184144973755e-02,-4.914152026176452637e-01,6.999129056930541992e-01,-2.808058857917785645e-01
-6.416041254997253418e-01,9.708172082901000977e-02,7.729154229164123535e-01,2.218389511108398438e-01,-2.870754897594451904e-01,-3.406832814216613770e-01,-1.392385214567184448e-01,-8.972359895706176758e-01,-6.241383552551269531e-01,-2.185930963605642319e-03,1.124124079942703247e-01,4.904635846614837646e-01,5.167101025581359863e-01,-5.907986760139465332e-01,-1.257886439561843872e-01,-3.320538699626922607e-01,-2.040749788284301758e-01,-2.864605560898780823e-02,-5.399708151817321777e-01,4.302868247032165527e-01,-5.162560194730758667e-02
-6.093586683273315430e-01,-1.939400732517242432e-01,6.693890094757080078e-01,1.257582753896713257e-01,-1.454478651285171509e-01,-1.957366317510604858e-01,-3.132937848567962646e-01,-8.254291415214538574e-01,-2.880584299564361572e-01,-2.191754281520843506e-01,2.763223648071289062e-01,4.607468545436859131e-01,3.074014484882354736e-01,-4.858518838882446289e-01,-1.032775491476058960e-01,-2.068679630756378174e-01,-2.697671353816986084e-01,1.782463639974594116e-01,-2.048102915287017822e-01,7.339541912078857422e-01,-7.787711918354034424e-02
-3.562570214271545410e-01,-2.963436245918273926e-01,6.775735020637512207e-01,3.764367103576660156e-01,-2.305873781442642212e-01,-4.991533234715461731e-02,-2.757943272590637207e-01,-7.122321724891662598e-01,-4.079214334487915039e-01,-3.875827789306640625e-01,3.281580507755279541e-01,5.436179041862487793e-01,3.354726135730743408e-01,-6.421840190887451172e-01,1.825848072767257690e-01,-3.043901920318603516e-01,-1.474081724882125854e-01,4.514759480953216553e-01,-2.076101601123809814e-01,6.220408082008361816e-01,1.906705461442470551e-02
-2.932609617710113525e-01,-3.603100478649139404e-01,8.286759257316589355e-01,1.610938757658004761e-01,-3.116869032382965088e-01,-4.055672138929367065e-02,-1.127029210329055786e-01,-9.323677420616149902e-01,-3.448719084262847900e-01,-5.011613965034484863e-01,8.341822028160095215e-02,4.698482155799865723e-01,1.334109306335449219e-01,-5.119128823280334473e-01,7.678796350955963135e-02,-2.414720654487609863e-01,1.092584617435932159e-02,4.193390011787414551e-01,1.090032085776329041e-01,4.527193605899810791e-01,9.371011704206466675e-02
-9.259933978319168091e-02,-5.156512856483459473e-01,7.644196748733520508e-01,3.313843309879302979e-01,-2.192765474319458008e-01,-3.861742466688156128e-02,5.610103532671928406e-02,-6.801306605339050293e-01,-3.989337980747222900e-01,-6.352466344833374023e-01,4.826355874538421631e-01,2.922596931457519531e-01,-4.514067992568016052e-02,-7.817425131797790527e-01,4.066889286041259766e-01,-6.887694448232650757e-02,-1.806659102439880371e-01,3.313571810722351074e-01,7.102249562740325928e-02,3.223757445812225342e-01,1.376743912696838379e-01
-2.017990201711654663e-01,-4.265295565128326416e-01,8.083485364913940430e-01,3.374972343444824219e-01,-1.990339756011962891e-01,2.549709081649780273e-01,1.339547038078308105e-01,-6.971939206123352051e-01,-3.528495430946350098e-01,-5.187692046165466309e-01,5.191868543624877930e-01,3.881499469280242920e-01,-1.595590114593505859e-01,-6.125954389572143555e-01,3.076528012752532959e-01,-8.247112482786178589e-02,-9.765136986970901489e-02,4.799597263336181641e-01,-3.964447602629661560e-02,4.611558020114898682e-01,3.721240758895874023e-01
-1.473780721426010132e-01,-5.094648599624633789e-01,6.963783502578735352e-01,3.680908381938934326e-01,-4.472085237503051758e-01,3.714720308780670166e-01,-2.350530959665775299e-02,-8.082256913185119629e-01,-3.889426589012145996e-02,-3.931673169136047363e-01,3.741844594478607178e-01,3.066080510616302490e-01,-2.635366916656494141e-01,-7.671462893486022949e-01,3.213575780391693115e-01,1.339650154113769531e-02,-1.305971201509237289e-02,6.276770830154418945e-01,-1.008861511945724487e-01,5.011632442474365234e-01,2.160384953022003174e-01
1.050089895725250244e-01,-6.712876558303833008e-01,7.371748089790344238e-01,5.058661699295043945e-01,-2.429218888282775879e-01,3.505387902259826660e-01,7.021563500165939331e-02,-9.006743431091308594e-01,-4.980758950114250183e-02,-4.332194030284881592e-01,5.429385900497436523e-01,2.998766005039215088e-01,-3.578515946865081787e-01,-5.842549800872802734e-01,4.810345768928527832e-01,5.788543820381164551e-02,-9.497836232185363770e-02,6.321961283683776855e-01,-5.666744709014892578e-02,3.646234273910522461e-01,4.533458948135375977e-01
1.145634427666664124e-01,-5.619227290153503418e-01,6.875154972076416016e-01,3.362542986869812012e-01,-2.333106249570846558e-01,3.992712795734405518e-01,6.211449578404426575e-02,-6.424461007118225098e-01,1.278164982795715332e-02,-5.721680521965026855e-01,4.288583099842071533e-01,2.348791658878326416e-01,-2.751770019531250000e-01,-8.611570000648498535e-01,2.748779952526092529e-01,1.811259835958480835e-01,-1.424911059439182281e-02,3.974958658218383789e-01,1.848509609699249268e-01,7.433486729860305786e-02,2.847695946693420410e-01
3.340234607458114624e-02,-5.688358545303344727e-01,4.340836703777313232e-01,3.383927047252655029e-01,-2.943967580795288086e-01,5.660791993141174316e-01,1.205243617296218872e-01,-6.157312393188476562e-01,1.771374791860580444e-01,-5.691940784454345703e-01,3.421227335929870605e-01,4.634621739387512207e-02,-3.511924147605895996e-01,-9.072903394699096680e-01,3.549752235412597656e-01,1.481610983610153198e-01,-7.083866000175476074e-02,4.855763018131256104e-01,1.983968168497085571e-01,2.575175166130065918e-01,3.316018581390380859e-01
2.444158047437667847e-01,-5.632308125495910645e-01,3.022614717483520508e-01,1.923857033252716064e-01,-2.802062630653381348e-01,7.593555450439453125e-01,4.081429913640022278e-02,-4.276826977729797363e-01,9.394810348749160767e-02,-5.032846927642822266e-01,5.398557186126708984e-01,3.090612292289733887e-01,-5.678049921989440918e-01,-5.921846032142639160e-01,1.271623522043228149e-01,2.403541803359985352e-01,-6.095818430185317993e-02,6.921787858009338379e-01,3.437282443046569824e-01,2.453569322824478149e-01,4.311860501766204834e-01
3.227967619895935059e-01,-2.689099311828613281e-01,3.582284152507781982e-01,3.159200251102447510e-01,-3.895907700061798096e-01,8.442527055740356445e-01,1.250862628221511841e-01,-4.551132023334503174e-01,1.249128431081771851e-01,-4.446156620979309082e-01,5.897766351699829102e-01,4.640119150280952454e-02,-6.348741054534912109e-01,-6.777058243751525879e-01,2.035499215126037598e-01,6.059230491518974304e-02,-1.070906445384025574e-01,4.618659615516662598e-01,2.844786942005157471e-01,1.223119348287582397e-01,4.337514638900756836e-01
2.031697034835815430e-01,-5.706406831741333008e-01,2.441506832838058472e-01,1.165032610297203064e-01,-2.908430099487304688e-01,8.268813490867614746e-01,-3.340395167469978333e-02,-4.626034200191497803e-01,2.492362260818481445e-01,-5.266589522361755371e-01,5.227503180503845215e-01,-1.957279630005359650e-02,-5.008052587509155273e-01,-5.623832941055297852e-01,1.665103882551193237e-01,2.086932063102722168e-01,-1.097383573651313782e-01,4.200358986854553223e-01,5.138562321662902832e-01,3.684971332550048828e-01,5.049815773963928223e-01
2.586900591850280762e-01,-3.689576983451843262e-01,1.782542020082473755e-01,7.478535920381546021e-02,-3.392435014247894287e-01,9.261093139648437500e-01,1.345206201076507568e-01,-3.585174977779388428e-01,7.559286803007125854e-02,-2.594217360019683838e-01,5.685080885887145996e-01,-1.296502947807312012e-01,-2.468532174825668335e-01,-2.783719301223754883e-01,2.672556042671203613e-01,1.738785021007061005e-02,-1.205319687724113464e-01,4.361563026905059814e-01,2.568177878856658936e-01,1.158641651272773743e-01,3.863624632358551025e-01
2.744601666927337646e-01,-4.518510699272155762e-01,8.659416437149047852e-02,1.523299701511859894e-02,-2.286190241575241089e-01,8.500627875328063965e-01,2.287206798791885376e-02,-2.065661698579788208e-01,1.480024009943008423e-01,-3.026099503040313721e-01,5.586581826210021973e-01,-1.994884908199310303e-01,-3.704324364662170410e-01,-3.496039509773254395e-01,2.289947271347045898e-01,1.233788281679153442e-01,-2.106219977140426636e-01,3.923374414443969727e-01,2.791801095008850098e-01,6.781644187867641449e-03,3.826514482498168945e-01
2.095094770193099976e-01,-3.440245985984802246e-01,-1.830836534500122070e-01,-1.503262966871261597e-01,-4.154677689075469971e-01,7.943959236145019531e-01,5.040238052606582642e-02,-1.298341155052185059e-01,1.655975878238677979e-01,-1.078983619809150696e-01,6.078788042068481445e-01,-3.266269564628601074e-01,-5.108922719955444336e-01,-3.217100203037261963e-01,2.372617870569229126e-01,5.855691619217395782e-03,-4.045048058032989502e-01,5.575168132781982422e-01,3.347574472427368164e-01,2.643802762031555176e-01,4.004098474979400635e-01
2.539297938346862793e-01,-3.348713219165802002e-01,-9.144989401102066040e-02,8.073587901890277863e-03,-1.195457726716995239e-01,9.295421242713928223e-01,8.165604621171951294e-02,-1.730165481567382812e-01,2.740159258246421814e-02,-3.320761024951934814e-01,3.916102349758148193e-01,-2.740580737590789795e-01,-3.327515125274658203e-01,-1.579154431819915771e-01,1.333672553300857544e-01,1.451664716005325317e-01,-1.343437135219573975e-01,5.326652526855468750e-01,3.249123990535736084e-01,1.384530663490295410e-01,1.519102752208709717e-01
4.857486188411712646e-01,-1.477392464876174927e-01,-2.321572154760360718e-01,-2.366730272769927979e-01,-4.562893211841583252e-01,9.934251308441162109e-01,3.157730773091316223e-02,-3.063172101974487305e-02,3.478166088461875916e-02,-1.438838392496109009e-01,5.110082626342773438e-01,-3.529376983642578125e-01,-4.103075265884399414e-01,-2.058605253696441650e-01,4.664049297571182251e-02,1.452426332980394363e-02,-2.746705412864685059e-01,4.224528968334197998e-01,2.539918422698974609e-01,8.118871599435806274e-02,3.235904872417449951e-01
2.873392403125762939e-01,2.215044386684894562e-02,-5.495396852493286133e-01,-2.814105749130249023e-01,-1.398775428533554077e-01,1.078740000724792480e+00,8.751885592937469482e-02,8.247630298137664795e-02,2.780045568943023682e-01,-1.808484494686126709e-01,4.005283415317535400e-01,-2.702162265777587891e-01,-5.157685875892639160e-01,1.544121466577053070e-02,-1.353374868631362915e-02,2.156818956136703491e-01,-2.048505991697311401e-01,2.210183888673782349e-01,1.204852834343910217e-01,7.877134531736373901e-02,2.424217462539672852e-01
2.070261389017105103e-01,9.398590028285980225e-02,-4.326062202453613281e-01,-1.737838089466094971e-01,-1.898441016674041748e-01,1.070287346839904785e+00,1.010458618402481079e-01,-1.760957390069961548e-01,2.962480783462524414e-01,-3.437068164348602295e-01,5.445461869239807129e-01,-3.754537403583526611e-01,-3.801067173480987549e-01,1.418087333440780640e-01,-1.592236571013927460e-02,1.695204377174377441e-01,-3.277570009231567383e-01,3.984585106372833252e-01,1.612526923418045044e-01,-1.857014894485473633e-01,1.437919437885284424e-01
3.760772943496704102e-01,9.798312187194824219e-02,-4.347746968269348145e-01,-1.443355381488800049e-01,-8.124528080224990845e-02,9.225561618804931641e-01,1.004980411380529404e-02,-1.868727207183837891e-01,4.204753339290618896e-01,-2.183095067739486694e-01,4.159324467182159424e-01,-4.512393176555633545e-01,-2.794458866119384766e-01,1.574943363666534424e-01,9.665850549936294556e-03,1.895075440406799316e-01,-4.430051743984222412e-01,2.109619081020355225e-01,9.024590253829956055e-02,-1.859292685985565186e-01,5.319058150053024292e-02
3.937675058841705322e-01,2.949628531932830811e-01,-6.438101530075073242e-01,-4.968966543674468994e-02,-1.308533996343612671e-01,7.609513998031616211e-01,2.378034740686416626e-01,-1.119229272007942200e-01,2.665650546550750732e-01,-2.254191935062408447e-01,3.768266141414642334e-01,-7.096337676048278809e-01,-4.982713162899017334e-01,1.568898558616638184e-01,-3.053143620491027832e-01,4.055313766002655029e-01,-3.301650881767272949e-01,1.461249291896820068e-01,5.999147891998291016e-02,-2.899991273880004883e-01,2.471888512372970581e-01
2.135033160448074341e-01,3.629429638385772705e-01,-4.377834796905517578e-01,-3.827120736241340637e-02,-1.488985270261764526e-01,7.558621764183044434e-01,-5.660532787442207336e-02,-1.668644249439239502e-01,5.316244363784790039e-01,-1.406375616788864136e-01,2.589980661869049072e-01,-5.369181632995605469e-01,-6.438449025154113770e-01,2.781899571418762207e-01,-9.788794815540313721e-02,3.477103412151336670e-01,-3.194975256919860840e-01,1.779591850936412811e-02,-1.035627629607915878e-02,-2.543333470821380615e-01,1.049149110913276672e-01
2.764279544353485107e-01,5.319829583168029785e-01,-7.792875766754150391e-01,-9.363478980958461761e-03,1.218503564596176147e-01,8.906864523887634277e-01,-2.635102020576596260e-03,-4.936324432492256165e-02,3.456089198589324951e-01,2.632671408355236053e-02,-5.687916278839111328e-02,-5.089149475097656250e-01,-4.998123645782470703e-01,2.501554191112518311e-01,-1.929396092891693115e-01,4.240334630012512207e-01,-2.108440250158309937e-01,2.092119455337524414e-01,-2.372402995824813843e-01,-2.754050195217132568e-01,2.317910641431808472e-01
1.723882555961608887e-01,5.330523848533630371e-01,-5.953559875488281250e-01,7.124313712120056152e-02,-7.070451229810714722e-02,4.631764590740203857e-01,-4.668288305401802063e-02,-6.411772221326828003e-02,6.941172480583190918e-01,-4.378880374133586884e-03,-5.678246170282363892e-02,-5.002082586288452148e-01,-5.596349835395812988e-01,2.268001288175582886e-01,6.041497737169265747e-02,3.254932165145874023e-01,-3.199773728847503662e-01,8.669641613960266113e-02,-1.548300981521606445e-01,-3.919814825057983398e-01,1.481173336505889893e-01
4.699732363224029541e-02,4.585053920745849609e-01,-5.344107151031494141e-01,-5.155237764120101929e-02,3.408106565475463867e-01,5.361610054969787598e-01,-1.898071914911270142e-02,-6.561922281980514526e-02,4.712537825107574463e-01,7.802283763885498047e-02,-2.434003502130508423e-01,-5.821848511695861816e-01,-5.644568800926208496e-01,3.192185163497924805e-01,-8.968688547611236572e-02,3.646119832992553711e-01,-3.016078174114227295e-01,1.831964999437332153e-01,-1.768592447042465210e-01,-1.795610189437866211e-01,2.351066283881664276e-02
-3.685135394334793091e-02,6.550783514976501465e-01,-6.670836806297302246e-01,3.677514791488647461e-01,4.408852458000183105e-01,4.752109050750732422e-01,6.247092783451080322e-02,-8.758317679166793823e-02,2.907525300979614258e-01,1.639136672019958496e-02,-2.595009803771972656e-01,-6.616804003715515137e-01,-6.276065707206726074e-01,2.481324523687362671e-01,-1.785000115633010864e-01,5.220875144004821777e-01,-3.426951169967651367e-01,1.091702431440353394e-01,-2.657040953636169434e-01,-4.523715674877166748e-01,7.143733650445938110e-02
-4.091313481330871582e-02,5.696358084678649902e-01,-6.617435216903686523e-01,3.574121743440628052e-02,3.993644416332244873e-01,3.054638504981994629e-01,-1.504845917224884033e-01,1.825515329837799072e-01,5.439767837524414062e-01,-4.062004387378692627e-02,-2.608515918254852295e-01,-5.526759028434753418e-01,-6.132612824440002441e-01,5.119597911834716797e-01,2.436806447803974152e-02,5.121271610260009766e-01,-2.856209874153137207e-01,2.960759103298187256e-01,-9.125735610723495483e-02,-2.931569814682006836e-01,5.387236177921295166e-02
2.456381171941757202e-02,6.085179448127746582e-01,-5.222624540328979492e-01,-5.271270498633384705e-02,5.460724234580993652e-01,4.193698763847351074e-01,-1.775698959827423096e-01,4.700363427400588989e-02,5.183130502700805664e-01,-1.021402776241302490e-01,-2.313428223133087158e-01,-6.385201215744018555e-01,-4.736727178096771240e-01,5.575470924377441406e-01,-2.137508094310760498e-01,3.301483988761901855e-01,-4.113051891326904297e-01,3.048789203166961670e-01,1.450729090720415115e-02,-3.531291782855987549e-01,4.314682632684707642e-02
1.226218491792678833e-01,6.576583981513977051e-01,-5.700204968452453613e-01,4.100354760885238647e-02,4.515830278396606445e-01,3.815211355686187744e-01,-7.734753191471099854e-03,1.927296519279479980e-01,4.467789530754089355e-01,8.899770909920334816e-05,-2.750897705554962158e-01,-7.303413748741149902e-01,-3.769601285457611084e-01,5.050724744796752930e-01,-1.628359407186508179e-01,3.920690417289733887e-01,-2.352662235498428345e-01,1.640779376029968262e-01,-6.323663890361785889e-02,-4.598637521266937256e-01,-5.394420772790908813e-02
-7.312750909477472305e-03,5.609074234962463379e-01,-3.316953480243682861e-01,-6.132568418979644775e-02,6.102949380874633789e-01,2.772305011749267578e-01,2.454644441604614258e-02,2.783573567867279053e-01,4.750946760177612305e-01,-2.532568573951721191e-01,-4.005093574523925781e-01,-5.871126651763916016e-01,-2.938447296619415283e-01,4.414213597774505615e-01,-1.118786111474037170e-01,3.790975213050842285e-01,-3.969106376171112061e-01,2.519448101520538330e-01,4.763824865221977234e-02,-4.681986570358276367e-02,-1.430224031209945679e-01
-4.653256386518478394e-02,4.989635646343231201e-01,-3.511908352375030518e-01,2.403026372194290161e-01,6.868000030517578125e-01,2.773458063602447510e-01,3.354823961853981018e-02,2.550561726093292236e-01,3.671396970748901367e-01,4.777822177857160568e-03,-2.645069658756256104e-01,-5.248470306396484375e-01,-4.070691466331481934e-01,5.944273471832275391e-01,-1.368456636555492878e-03,3.431160449981689453e-01,-4.641127586364746094e-01,2.103999406099319458e-01,-3.001841716468334198e-03,-2.575823366641998291e-01,-1.318866461515426636e-01
1.502952426671981812e-01,5.001496672630310059e-01,-5.518153309822082520e-01,7.872006297111511230e-02,6.558783650398254395e-01,1.929715275764465332e-01,3.118782117962837219e-02,3.436008393764495850e-01,5.911870598793029785e-01,-4.511902853846549988e-02,-4.603717029094696045e-01,-6.229462027549743652e-01,-1.095768213272094727e-01,3.889997005462646484e-01,3.258675709366798401e-02,1.964154392480850220e-01,-7.808954119682312012e-01,4.047471880912780762e-01,-8.254425972700119019e-02,-2.525467276573181152e-01,-3.084883689880371094e-01
2.307938188314437866e-01,3.406900763511657715e-01,-3.162953257560729980e-01,7.383833080530166626e-02,1.001072764396667480e+00,4.546137750148773193e-01,4.782094061374664307e-02,3.182552754878997803e-01,3.689996898174285889e-01,-2.277900725603103638e-01,-4.010654687881469727e-01,-8.231050372123718262e-01,-2.707547247409820557e-01,3.618698120117187500e-01,-9.044309705495834351e-02,2.844101488590240479e-01,-8.546388149261474609e-01,3.168635666370391846e-01,-9.230506257154047489e-04,-1.522543579339981079e-01,-4.191052913665771484e-01
-1.681051850318908691e-01,4.311201870441436768e-01,-5.691018700599670410e-01,3.262864649295806885e-01,9.182327985763549805e-01,3.158020377159118652e-01,-3.592482954263687134e-02,1.710357964038848877e-01,3.680587112903594971e-01,6.934828311204910278e-02,-3.613758385181427002e-01,-8.277081847190856934e-01,-6.235877051949501038e-02,5.080721378326416016e-01,-9.668447077274322510e-02,7.407532632350921631e-02,-7.222102880477905273e-01,1.902374029159545898e-01,-4.284309744834899902e-01,7.155659794807434082e-02,-3.402095735073089600e-01
-1.134083122014999390e-01,4.883436262607574463e-01,-5.366165041923522949e-01,2.372614592313766479e-01,9.726382493972778320e-01,2.526175975799560547e-01,-1.465263962745666504e-01,3.753860592842102051e-01,3.267789483070373535e-01,-2.076212018728256226e-01,-2.006965279579162598e-01,-7.785165905952453613e-01,-1.461219191551208496e-01,3.350475430488586426e-01,-6.679280102252960205e-02,1.767401397228240967e-01,-7.237406969070434570e-01,1.265047788619995117e-01,-1.022996976971626282e-01,-4.088399931788444519e-02,-3.523566722869873047e-01
-2.119826823472976685e-01,3.944434225559234619e-01,-6.594920754432678223e-01,2.080711573362350464e-01,8.801304101943969727e-01,8.540920913219451904e-02,-2.542008645832538605e-02,7.014782726764678955e-02,2.044695466756820679e-01,1.567838788032531738e-01,-3.126340731978416443e-02,-7.417314648628234863e-01,-2.354398369789123535e-01,4.993538558483123779e-01,-1.473164930939674377e-02,7.847469300031661987e-02,-7.832241654396057129e-01,7.571421563625335693e-02,-2.664026916027069092e-01,3.122193813323974609e-01,-3.560526669025421143e-01
-2.833307385444641113e-01,1.771437376737594604e-01,-4.751879870891571045e-01,1.853141784667968750e-01,7.135840058326721191e-01,1.478146910667419434e-01,-2.372955828905105591e-01,2.336648553609848022e-01,4.810650274157524109e-02,1.564519107341766357e-01,-3.884398043155670166e-01,-7.602409124374389648e-01,4.166944883763790131e-03,3.626683652400970459e-01,8.192933350801467896e-02,1.283367872238159180e-01,-7.946653962135314941e-01,2.319757342338562012e-01,-3.193898200988769531e-01,1.289585232734680176e-01,-2.950998842716217041e-01
-2.652450799942016602e-01,4.171130061149597168e-01,-6.511691212654113770e-01,5.293485522270202637e-01,7.166501879692077637e-01,2.584036439657211304e-02,-3.951279520988464355e-01,1.136918738484382629e-01,1.638875454664230347e-01,1.323384642601013184e-01,-1.008682623505592346e-01,-7.017558217048645020e-01,2.041496336460113525e-01,5.378820300102233887e-01,-2.314959913492202759e-01,-1.656507998704910278e-01,-7.315886020660400391e-01,4.738305881619453430e-02,-2.704366743564605713e-01,1.701228320598602295e-01,-4.161079823970794678e-01
-3.436879813671112061e-01,3.414985537528991699e-01,-4.911439120769500732e-01,4.565917849540710449e-01,8.572109341621398926e-01,-7.338921539485454559e-03,-5.357399582862854004e-01,1.067045778036117554e-01,-1.642748266458511353e-01,3.785128593444824219e-01,-3.424690663814544678e-01,-7.454986572265625000e-01,1.982529163360595703e-01,3.737209737300872803e-01,-2.195943892002105713e-01,-3.551933541893959045e-02,-8.041636943817138672e-01,1.156476661562919617e-01,-3.828364312648773193e-01,2.369314283132553101e-01,-3.529042601585388184e-01
-7.463851571083068848e-01,4.812926352024078369e-01,-5.374364256858825684e-01,6.637428998947143555e-01,6.297231316566467285e-01,7.799239363521337509e-03,-6.249381899833679199e-01,9.756156802177429199e-02,-1.155607029795646667e-01,2.385802567005157471e-01,-1.901324391365051270e-01,-5.371066331863403320e-01,2.479859888553619385e-01,3.320362865924835205e-01,-1.169675290584564209e-01,-1.341904848814010620e-01,-7.008940577507019043e-01,1.764019131660461426e-01,-4.485746622085571289e-01,4.024820923805236816e-01,-6.385820508003234863e-01
-4.737876951694488525e-01,3.637209236621856689e-01,-2.293499559164047241e-01,4.645684957504272461e-01,6.882985234260559082e-01,-1.114633679389953613e-01,-6.886893510818481445e-01,-4.306497052311897278e-02,-3.943409323692321777e-01,1.554217338562011719e-01,1.078236177563667297e-01,-4.280319809913635254e-01,2.960503995418548584e-01,3.237775564193725586e-01,-1.246049627661705017e-01,-2.020186930894851685e-01,-5.706408619880676270e-01,1.326027214527130127e-01,-3.527922034263610840e-01,4.090454876422882080e-01,-5.771796703338623047e-01
-9.495339989662170410e-01,2.242140769958496094e-01,-2.890693843364715576e-01,5.224831700325012207e-01,6.784382462501525879e-01,-1.462370604276657104e-01,-7.797776460647583008e-01,-7.840194553136825562e-02,-2.184564620256423950e-01,3.000184595584869385e-01,7.695195823907852173e-02,-3.477592766284942627e-01,3.663279116153717041e-01,4.442464113235473633e-01,-3.202200680971145630e-02,-1.453786939382553101e-01,-7.630650401115417480e-01,9.786647558212280273e-02,-3.672170937061309814e-01,4.396121203899383545e-01,-6.372225880622863770e-01
-8.906011581420898438e-01,3.095324337482452393e-01,-2.962187528610229492e-01,3.317269384860992432e-01,6.279437541961669922e-01,-7.527446001768112183e-02,-6.376554965972900391e-01,-1.668388023972511292e-02,-6.030479669570922852e-01,2.600983083248138428e-01,4.827192798256874084e-02,-3.810439407825469971e-01,4.170706570148468018e-01,4.768986999988555908e-01,-4.276739805936813354e-02,-4.402925372123718262e-01,-6.296240687370300293e-01,3.526066616177558899e-02,-3.256977796554565430e-01,6.147220730781555176e-01,-6.707783937454223633e-01
-5.709683895111083984e-01,9.953415393829345703e-02,-6.081213057041168213e-02,5.321457982063293457e-01,6.082678437232971191e-01,-3.003441691398620605e-01,-8.146136403083801270e-01,-1.580111980438232422e-01,-6.049704551696777344e-01,6.709242612123489380e-02,5.630660057067871094e-02,-2.669941782951354980e-01,3.786161243915557861e-01,4.402802884578704834e-01,1.022650003433227539e-01,-4.182319343090057373e-01,-6.619141101837158203e-01,2.044136971235275269e-01,-4.033872783184051514e-01,7.908387780189514160e-01,-7.493682503700256348e-01
-6.890143156051635742e-01,1.380832195281982422e-01,-2.999072074890136719e-01,6.542219519615173340e-01,7.204928994178771973e-01,-3.940605521202087402e-01,-8.188292980194091797e-01,-2.937192618846893311e-01,-6.556429862976074219e-01,4.411539062857627869e-02,1.959454119205474854e-01,-1.247550174593925476e-01,1.929730027914047241e-01,3.064051270484924316e-01,-4.164466634392738342e-02,-3.085343241691589355e-01,-4.044375419616699219e-01,3.333219289779663086e-01,-3.661364912986755371e-01,5.548037886619567871e-01,-4.377218186855316162e-01
-7.168186306953430176e-01,1.469730883836746216e-01,-2.122956365346908569e-01,5.007778406143188477e-01,4.832079708576202393e-01,-7.617285102605819702e-02,-7.756555676460266113e-01,-5.998358726501464844e-01,-8.251010775566101074e-01,1.507175737060606480e-03,2.708198428153991699e-01,-1.036315411329269409e-01,4.035541713237762451e-01,2.109273523092269897e-01,3.660633265972137451e-01,-3.154032826423645020e-01,-4.269560575485229492e-01,1.710421591997146606e-01,-4.371072649955749512e-01,4.731948077678680420e-01,-6.455965042114257812e-01
-8.566123247146606445e-01,7.335951179265975952e-02,-4.145515337586402893e-02,9.054488539695739746e-01,9.725867211818695068e-02,-4.432801902294158936e-01,-9.441174864768981934e-01,-5.639594793319702148e-01,-6.387026906013488770e-01,-7.254088670015335083e-02,2.272301316261291504e-01,-2.469260059297084808e-02,1.981540769338607788e-01,2.996822893619537354e-01,2.288735508918762207e-01,1.068625524640083313e-01,-3.727178573608398438e-01,4.352532327175140381e-01,-4.594559371471405029e-01,7.112783789634704590e-01,-5.734695196151733398e-01
-6.849638819694519043e-01,4.743559285998344421e-02,1.835604161024093628e-01,8.513209223747253418e-01,1.499929726123809814e-01,-2.463876008987426758e-01,-1.052120566368103027e+00,-7.672780156135559082e-01,-7.383618950843811035e-01,-1.375748962163925171e-01,2.495473772287368774e-01,2.410286962985992432e-01,2.646366357803344727e-01,2.292561382055282593e-01,4.383406341075897217e-01,-8.924657106399536133e-02,-3.782701492309570312e-01,4.637889266014099121e-01,-4.200969338417053223e-01,5.920594334602355957e-01,-3.731883466243743896e-01
-8.311109542846679688e-01,-1.526745557785034180e-01,2.446476072072982788e-01,9.685747027397155762e-01,3.817349374294281006e-01,-1.282222568988800049e-01,-8.544487953186035156e-01,-8.175560832023620605e-01,-7.592823505401611328e-01,-6.693834811449050903e-02,7.206744700670242310e-02,4.047860801219940186e-01,2.146278768777847290e-01,-1.196502149105072021e-02,2.875580191612243652e-01,7.604014128446578979e-02,-1.915355622768402100e-01,5.447412133216857910e-01,-2.679167985916137695e-01,4.315200746059417725e-01,-4.479364454746246338e-01
-7.268822193145751953e-01,-1.271568387746810913e-01,3.469907343387603760e-01,1.151371717453002930e+00,1.486276686191558838e-01,-2.971858382225036621e-01,-1.047189116477966309e+00,-8.584006428718566895e-01,-7.150739431381225586e-01,-2.263529896736145020e-01,3.603994101285934448e-02,3.328351080417633057e-01,-1.275839656591415405e-02,-3.267375985160470009e-03,5.147097706794738770e-01,3.057470172643661499e-02,-1.692671030759811401e-01,6.006990671157836914e-01,-1.907908171415328979e-01,2.784742414951324463e-01,-2.449898868799209595e-01
-5.426448583602905273e-01,-1.071812435984611511e-01,4.083542525768280029e-01,1.135686635971069336e+00,1.548957526683807373e-01,-1.804801076650619507e-01,-9.896587729454040527e-01,-7.178058624267578125e-01,-6.217390298843383789e-01,-3.271686136722564697e-01,2.344973087310791016e-01,3.250129818916320801e-01,-1.317368298768997192e-01,-2.985149621963500977e-01,5.026053190231323242e-01,1.152009144425392151e-01,1.050380244851112366e-01,6.033071875572204590e-01,-2.013002485036849976e-01,1.890290677547454834e-01,-7.586024701595306396e-02
-3.574827015399932861e-01,5.607843771576881409e-02,2.708041965961456299e-01,1.215399265289306641e+00,2.387086153030395508e-01,-1.874266862869262695e-01,-9.350048899650573730e-01,-8.574511408805847168e-01,-5.967182517051696777e-01,-2.455168366432189941e-01,8.822243660688400269e-02,6.174014210700988770e-01,-6.891176104545593262e-02,-1.385887265205383301e-01,8.574492335319519043e-01,1.149084195494651794e-01,1.436371263116598129e-02,5.947613120079040527e-01,-1.243595331907272339e-01,1.394606083631515503e-01,3.597991541028022766e-02
-5.901690721511840820e-01,-2.692961692810058594e-01,2.150520533323287964e-01,1.070666670799255371e+00,1.606042832136154175e-01,-1.008463799953460693e-01,-8.597534894943237305e-01,-7.475041747093200684e-01,-5.957000851631164551e-01,-3.732103407382965088e-01,-2.185791730880737305e-01,5.318844318389892578e-01,-1.015558838844299316e-03,-3.608700633049011230e-01,6.486818790435791016e-01,3.289138972759246826e-01,8.624082803726196289e-02,7.283379435539245605e-01,2.255836501717567444e-02,7.231918722391128540e-02,2.318192869424819946e-01
-4.001873433589935303e-01,-2.343489080667495728e-01,4.613297283649444580e-01,1.256958484649658203e+00,1.193847656250000000e-01,-4.783605411648750305e-02,-8.322257995605468750e-01,-8.470875024795532227e-01,-5.491064190864562988e-01,-2.890999615192413330e-01,3.432498499751091003e-02,4.292858839035034180e-01,-3.960090279579162598e-01,-4.009630978107452393e-01,8.453190922737121582e-01,2.197814881801605225e-01,3.299242854118347168e-01,7.877368330955505371e-01,-2.365937083959579468e-01,2.105206996202468872e-01,3.128800988197326660e-01
-3.786759078502655029e-01,-3.548259735107421875e-01,6.040979623794555664e-01,1.290615677833557129e+00,2.517983317375183105e-01,-7.789115607738494873e-02,-9.257301092147827148e-01,-6.120113134384155273e-01,-6.081029176712036133e-01,-2.939845919609069824e-01,6.963197141885757446e-02,5.465844869613647461e-01,-1.515207737684249878e-01,-4.085404276847839355e-01,1.244418263435363770e+00,2.440618425607681274e-01,3.122368454933166504e-01,8.930090665817260742e-01,1.860691756010055542e-01,3.784555196762084961e-01,3.747245073318481445e-01
-3.725137710571289062e-01,-3.320966958999633789e-01,5.251015424728393555e-01,8.825524449348449707e-01,1.401193439960479736e-01,-2.924421615898609161e-02,-8.209009170532226562e-01,-8.361350893974304199e-01,-4.835897982120513916e-01,-3.330550193786621094e-01,3.412934541702270508e-01,6.206406354904174805e-01,-1.723289638757705688e-01,-7.385616898536682129e-01,1.107555508613586426e+00,3.084109164774417877e-02,1.577597111463546753e-01,9.106311202049255371e-01,1.626939326524734497e-01,2.279943078756332397e-01,3.279172182083129883e-01
-3.680675923824310303e-01,-4.319169819355010986e-01,3.838241696357727051e-01,1.022718191146850586e+00,1.208190023899078369e-01,8.975172042846679688e-02,-6.312702298164367676e-01,-6.469054818153381348e-01,-7.324150204658508301e-01,-4.006286859512329102e-01,1.859914809465408325e-01,4.967262148857116699e-01,-3.227880001068115234e-01,-5.937407016754150391e-01,9.896785616874694824e-01,2.074049115180969238e-01,3.472155332565307617e-01,7.166442275047302246e-01,1.441223770380020142e-01,1.817253828048706055e-01,5.583925247192382812e-01
-8.696211129426956177e-02,-5.868256092071533203e-01,4.032982885837554932e-01,7.601464986801147461e-01,1.216029748320579529e-01,1.223487854003906250e-01,-4.764733910560607910e-01,-6.041694879531860352e-01,-4.657304286956787109e-01,-3.996076881885528564e-01,3.243612945079803467e-01,6.640785336494445801e-01,-2.053497433662414551e-01,-7.811493873596191406e-01,1.094214320182800293e+00,3.906258940696716309e-01,5.097008347511291504e-01,7.989731431007385254e-01,8.323412388563156128e-02,3.176611363887786865e-01,5.185907483100891113e-01
-1.184047944843769073e-02,-5.346172451972961426e-01,4.602366387844085693e-01,8.539599776268005371e-01,-1.819931268692016602e-01,4.241415262222290039e-01,-3.362916707992553711e-01,-5.447245836257934570e-01,-6.338521242141723633e-01,-2.303949594497680664e-01,4.508731365203857422e-01,3.841008841991424561e-01,-2.575317621231079102e-01,-4.911536276340484619e-01,1.340120315551757812e+00,1.620734781026840210e-01,3.081712126731872559e-01,9.632843136787414551e-01,1.419723927974700928e-01,1.302773952484130859e-01,4.071170985698699951e-01
6.026636809110641479e-02,-5.081794261932373047e-01,3.853018283843994141e-01,6.828570365905761719e-01,-2.123585641384124756e-01,2.746777534484863281e-01,-2.725876569747924805e-01,-4.552017748355865479e-01,-4.847548902034759521e-01,-4.597304463386535645e-01,4.759415686130523682e-01,3.628194332122802734e-01,-2.377706319093704224e-01,-4.501884579658508301e-01,1.130185723304748535e+00,3.008961379528045654e-01,4.766076803207397461e-01,8.695889115333557129e-01,2.327468246221542358e-01,3.560741245746612549e-01,5.924682021141052246e-01
1.709341704845428467e-01,-4.046948850154876709e-01,3.423102498054504395e-01,5.661409497261047363e-01,-1.076213642954826355e-01,4.442178905010223389e-01,-1.979676187038421631e-01,-5.147783756256103516e-01,-6.057353615760803223e-01,-2.158172726631164551e-01,3.896226882934570312e-01,2.366257011890411377e-01,-1.816886961460113525e-01,-3.799587190151214600e-01,1.279373526573181152e+00,4.357245564460754395e-01,2.757373750209808350e-01,5.157982110977172852e-01,6.102484837174415588e-02,2.657206356525421143e-01,5.329290628433227539e-01
1.672760546207427979e-01,-5.610905289649963379e-01,1.721040606498718262e-01,3.925443291664123535e-01,-4.132507145404815674e-01,5.100294947624206543e-01,-3.529681861400604248e-01,-5.301825404167175293e-01,-4.947007298469543457e-01,-3.265269398689270020e-01,4.264303743839263916e-01,3.741402328014373779e-01,-2.003617286682128906e-01,-6.553000807762145996e-01,1.176607131958007812e+00,4.285122156143188477e-01,1.034731268882751465e-01,6.771546602249145508e-01,5.899739265441894531e-02,2.422055602073669434e-01,5.857979655265808105e-01
1.476031541824340820e-01,-6.617677807807922363e-01,8.637192100286483765e-02,5.882805585861206055e-01,-2.677892446517944336e-01,6.758916974067687988e-01,-3.804270029067993164e-01,-5.086035132408142090e-01,-4.097324609756469727e-01,-9.862446039915084839e-02,4.459849596023559570e-01,3.915251791477203369e-01,-3.117263317108154297e-01,-3.468717038631439209e-01,1.121603369712829590e+00,3.155284225940704346e-01,1.175545826554298401e-01,4.516524970531463623e-01,1.529537737369537354e-01,1.209309473633766174e-01,6.075685024261474609e-01
2.601580023765563965e-01,-5.405994653701782227e-01,-2.086030393838882446e-01,1.691526621580123901e-01,-5.008225440979003906e-01,5.839109420776367188e-01,-1.288872361183166504e-01,-4.672034978866577148e-01,-5.541039109230041504e-01,1.991769224405288696e-01,4.203060269355773926e-01,2.332961410284042358e-01,-3.446625173091888428e-01,-5.411635041236877441e-01,1.007749319076538086e+00,4.330780804157257080e-01,2.638306617736816406e-01,5.591199398040771484e-01,5.355025827884674072e-02,1.882930099964141846e-01,6.881450414657592773e-01
1.862828284502029419e-01,-4.190770387649536133e-01,8.997523784637451172e-02,2.465714067220687866e-01,-4.269384443759918213e-01,7.267079353332519531e-01,-1.458179801702499390e-01,-5.085377693176269531e-01,-3.832093775272369385e-01,1.409498006105422974e-01,2.319164127111434937e-01,3.451314866542816162e-01,-2.014125138521194458e-01,-3.734684586524963379e-01,1.000301480293273926e+00,3.513406515121459961e-01,1.994085311889648438e-01,2.968349456787109375e-01,-1.534592453390359879e-02,1.145515888929367065e-01,6.615583896636962891e-01
1.779234111309051514e-01,-3.194353580474853516e-01,-4.017759263515472412e-01,3.561365604400634766e-01,-4.109242260456085205e-01,6.615832448005676270e-01,-1.048692762851715088e-01,-6.985508799552917480e-01,-3.065838813781738281e-01,5.467069745063781738e-01,3.790642321109771729e-01,2.948461472988128662e-01,-3.149430155754089355e-01,-3.888656198978424072e-01,8.709567785263061523e-01,2.758764326572418213e-01,1.472577154636383057e-01,2.028074413537979126e-01,-2.269017994403839111e-01,1.501555144786834717e-01,8.181622028350830078e-01
1.121394038200378418e-01,-1.542926281690597534e-01,-1.305838078260421753e-01,2.607735097408294678e-01,-5.521890521049499512e-01,6.159881949424743652e-01,-6.602995097637176514e-02,-2.643117606639862061e-01,-4.297508001327514648e-01,3.039161264896392822e-01,3.736711144447326660e-01,2.567909955978393555e-01,-3.338469862937927246e-01,-3.069397807121276855e-01,7.117657661437988281e-01,1.727030128240585327e-01,3.221426904201507568e-01,1.625314205884933472e-01,-2.099815905094146729e-01,3.057981133460998535e-01,6.449862122535705566e-01
1.138412952423095703e-01,-1.618677973747253418e-01,-2.906489074230194092e-01,1.085151582956314087e-01,-5.108540654182434082e-01,5.921326279640197754e-01,-2.549184262752532959e-01,-3.725213706493377686e-01,-5.023944973945617676e-01,4.989490509033203125e-01,2.905076742172241211e-01,4.474661648273468018e-01,-2.436290234327316284e-01,-1.735722720623016357e-01,6.007631421089172363e-01,4.401886761188507080e-01,1.950275897979736328e-01,-2.859121747314929962e-02,-3.239300847053527832e-01,5.042171105742454529e-02,6.106386184692382812e-01
-5.608087033033370972e-02,-2.776526212692260742e-01,-1.891779750585556030e-01,1.235635951161384583e-01,-4.075247645378112793e-01,7.200077176094055176e-01,-2.111395001411437988e-01,-3.017877340316772461e-01,-3.918346762657165527e-01,5.033745169639587402e-01,1.312074959278106689e-01,4.166872799396514893e-01,-1.318480968475341797e-01,-1.050943061709403992e-01,6.507418155670166016e-01,2.435923814773559570e-01,2.294670343399047852e-01,3.275104239583015442e-02,-2.465785145759582520e-01,1.493497006595134735e-02,6.762642860412597656e-01
6.630196422338485718e-02,-2.028145939111709595e-01,-2.679931819438934326e-01,-5.804330855607986450e-02,-2.011365145444869995e-01,4.953081309795379639e-01,1.267358064651489258e-01,-2.902791798114776611e-01,-3.072446882724761963e-01,6.497518420219421387e-01,1.876394748687744141e-01,1.271337121725082397e-01,-7.527640461921691895e-02,-4.319034516811370850e-03,5.571768283843994141e-01,1.568463891744613647e-01,5.187083408236503601e-02,1.937066763639450073e-01,-2.464699596166610718e-01,-1.829686947166919708e-02,6.683478355407714844e-01
2.935563027858734131e-01,2.947769500315189362e-02,-5.419898033142089844e-02,-5.499716848134994507e-02,-5.617734789848327637e-01,5.750929117202758789e-01,1.140290647745132446e-01,-4.250500798225402832e-01,-3.162042200565338135e-01,6.101367473602294922e-01,-2.459082454442977905e-01,3.902801275253295898e-01,-1.912942081689834595e-01,8.799818158149719238e-02,5.337486267089843750e-01,1.257708072662353516e-01,2.334935814142227173e-01,-2.258055470883846283e-02,-3.035700321197509766e-01,6.291245669126510620e-02,7.333673834800720215e-01
2.628894150257110596e-01,-1.274329125881195068e-01,-1.646705716848373413e-01,-1.281196326017379761e-01,-1.870643347501754761e-01,3.990528881549835205e-01,3.910078108310699463e-02,-3.919031322002410889e-01,-2.013195157051086426e-01,6.307221651077270508e-01,1.318524777889251709e-01,2.149997502565383911e-01,-6.256461888551712036e-02,-2.301890030503273010e-02,3.630956411361694336e-01,3.278674483299255371e-01,2.455589771270751953e-01,-1.800296157598495483e-01,-4.064722061157226562e-01,1.406070142984390259e-01,7.057282924652099609e-01
1.718207448720932007e-01,1.891506486572325230e-03,-3.852408528327941895e-01,-1.152818873524665833e-01,-3.993601202964782715e-01,5.236589908599853516e-01,9.083000943064689636e-03,-2.771545350551605225e-01,-1.707748919725418091e-01,6.813924908638000488e-01,1.077441871166229248e-01,2.086957246065139771e-01,-1.792942136526107788e-01,2.456400543451309204e-01,5.315891504287719727e-01,2.426217347383499146e-01,2.461446821689605713e-01,-1.744027733802795410e-01,-3.760503828525543213e-01,-5.732243880629539490e-02,7.386774420738220215e-01
1.853798180818557739e-01,-4.864215850830078125e-03,-1.422953456640243530e-01,-9.133531898260116577e-02,-8.132012188434600830e-02,4.082871675491333008e-01,2.584505677223205566e-01,-4.564497172832489014e-01,-2.355261147022247314e-01,6.272156238555908203e-01,6.267403066158294678e-02,2.168723493814468384e-01,-1.655337959527969360e-01,2.151702642440795898e-01,4.687658250331878662e-01,2.436147481203079224e-01,6.670790165662765503e-02,-1.208622828125953674e-01,-6.039667129516601562e-01,-1.224065646529197693e-01,5.686104893684387207e-01
2.985019087791442871e-01,-2.875096909701824188e-02,-2.442586421966552734e-01,-1.688693016767501831e-01,1.812775619328022003e-02,5.871669650077819824e-01,6.636209040880203247e-02,-1.907142847776412964e-01,-2.142599523067474365e-01,6.389534473419189453e-01,-3.749759122729301453e-02,2.705966234207153320e-01,-1.621482372283935547e-01,3.319659233093261719e-01,4.006570875644683838e-01,2.020363658666610718e-01,-5.815538763999938965e-02,-2.600070834159851074e-01,-5.630906820297241211e-01,-5.852357298135757446e-02,5.975195169448852539e-01
4.819147288799285889e-01,-9.927935153245925903e-02,-2.248981446027755737e-01,-5.894153937697410583e-02,1.175577417016029358e-01,4.715152084827423096e-01,1.530625224113464355e-01,-4.051643013954162598e-01,-1.388821601867675781e-01,4.623512327671051025e-01,-1.176166087388992310e-01,4.942019283771514893e-01,-1.394987851381301880e-01,1.770203709602355957e-01,3.852390348911285400e-01,2.141956239938735962e-01,8.077286928892135620e-02,-2.400867193937301636e-01,-8.247311115264892578e-01,1.712868809700012207e-01,5.804350376129150391e-01
2.285080701112747192e-01,-1.903141736984252930e-01,-2.474076151847839355e-01,-2.818427085876464844e-01,2.076522409915924072e-01,5.727245807647705078e-01,2.864571213722229004e-01,-4.796915948390960693e-01,-9.329655766487121582e-02,7.801868319511413574e-01,-8.067171089351177216e-03,3.826602920889854431e-02,-2.432820051908493042e-01,2.932755351066589355e-01,3.289206624031066895e-01,1.159059032797813416e-01,-3.246558085083961487e-02,-4.649916589260101318e-01,-8.757522106170654297e-01,1.056136861443519592e-01,6.577515602111816406e-01
2.141068726778030396e-01,-9.747923165559768677e-02,-1.491980701684951782e-01,-1.642293632030487061e-01,2.765007317066192627e-01,4.545413553714752197e-01,4.147573709487915039e-01,-2.029374539852142334e-01,-2.098065018653869629e-01,6.327959299087524414e-01,-9.094065427780151367e-02,1.733967661857604980e-01,-2.477261722087860107e-01,9.269927442073822021e-02,7.077912241220474243e-02,1.250431537628173828e-01,-8.628002554178237915e-02,-3.707140982151031494e-01,-6.576072573661804199e-01,-1.284045875072479248e-01,5.929098129272460938e-01
1.419841796159744263e-01,7.122971117496490479e-02,-3.133111298084259033e-01,6.821434199810028076e-02,2.719486355781555176e-01,4.748029708862304688e-01,3.448717296123504639e-01,-2.241797745227813721e-01,-1.077724620699882507e-01,7.968923449516296387e-01,-2.575399577617645264e-01,1.853956729173660278e-01,-3.022663593292236328e-01,1.635572314262390137e-01,9.284409135580062866e-02,1.096624433994293213e-01,-6.814692914485931396e-02,-5.195229649543762207e-01,-5.771014690399169922e-01,1.068540960550308228e-01,5.590051412582397461e-01
2.401272803544998169e-01,1.508753094822168350e-02,-3.830141425132751465e-01,-1.077079325914382935e-01,2.234256416559219360e-01,6.039138436317443848e-01,3.725600838661193848e-01,-2.917831540107727051e-01,9.393297880887985229e-02,7.090582251548767090e-01,-3.019995689392089844e-01,2.639352381229400635e-01,-1.809711158275604248e-01,1.890605688095092773e-01,2.405108362436294556e-01,4.086615983396768570e-03,-1.480119377374649048e-01,-5.390875935554504395e-01,-8.275768756866455078e-01,-2.285084314644336700e-02,7.948603630065917969e-01
3.210129141807556152e-01,-1.075187176465988159e-01,-1.927079558372497559e-01,-1.352856010198593140e-01,3.021959960460662842e-01,4.192380309104919434e-01,3.582052886486053467e-01,-1.744672805070877075e-01,-4.478096216917037964e-02,5.870619416236877441e-01,-1.556192338466644287e-01,1.657470613718032837e-01,-2.851232886314392090e-01,2.753975987434387207e-01,1.441130638122558594e-01,1.174658611416816711e-01,-3.147469460964202881e-01,-4.382833242416381836e-01,-7.436915040016174316e-01,1.740780770778656006e-01,5.856506228446960449e-01
4.044367074966430664e-01,-2.154354155063629150e-01,-3.160228729248046875e-01,-6.968037784099578857e-02,3.191815614700317383e-01,4.884843528270721436e-01,4.114018380641937256e-01,-1.767198145389556885e-01,-4.907121136784553528e-02,6.792306900024414062e-01,-2.609102129936218262e-01,2.330214381217956543e-01,-1.478685289621353149e-01,2.790571749210357666e-01,1.052536666393280029e-01,-1.039538681507110596e-01,-3.485543727874755859e-01,-5.066251158714294434e-01,-7.934401035308837891e-01,1.363254934549331665e-01,6.645902991294860840e-01
2.081346064805984497e-01,-2.830506265163421631e-01,-1.127348020672798157e-01,-1.928388476371765137e-01,4.770243763923645020e-01,3.131033480167388916e-01,2.838598191738128662e-01,-2.207404673099517822e-01,-1.811931878328323364e-01,8.086230754852294922e-01,-3.588562309741973877e-01,2.395068854093551636e-01,-1.720648705959320068e-01,5.052914023399353027e-01,-3.452854463830590248e-03,-1.647454947233200073e-01,-3.709663450717926025e-01,-3.855099678039550781e-01,-7.222976684570312500e-01,2.304380685091018677e-01,4.721238017082214355e-01
2.431222796440124512e-01,-3.193892836570739746e-01,-2.994824647903442383e-01,-3.374632447957992554e-02,4.914064407348632812e-01,2.064213901758193970e-01,3.030879199504852295e-01,-8.675593137741088867e-02,-1.984336972236633301e-01,8.147909641265869141e-01,7.769521325826644897e-02,1.066770553588867188e-01,-1.629042997956275940e-02,2.749327123165130615e-01,1.480649113655090332e-01,-4.516450464725494385e-01,-6.427786350250244141e-01,-5.029699802398681641e-01,-6.403805613517761230e-01,2.526765167713165283e-01,4.385946094989776611e-01
1.556475460529327393e-01,-2.310168147087097168e-01,-2.062892466783523560e-01,-2.066018432378768921e-01,4.324181377887725830e-01,4.708655774593353271e-01,2.354711145162582397e-01,2.794435713440179825e-03,-2.265269607305526733e-01,7.000709772109985352e-01,9.131564875133335590e-04,-3.917852789163589478e-02,8.305244147777557373e-02,5.809754133224487305e-01,-1.055148690938949585e-01,-4.478026032447814941e-01,-4.783770143985748291e-01,-4.756436944007873535e-01,-9.898254275321960449e-01,3.861840069293975830e-01,2.666000723838806152e-01
2.059422284364700317e-01,-3.514201343059539795e-01,-3.046950995922088623e-01,-2.342595756053924561e-01,6.888374090194702148e-01,1.543921083211898804e-01,1.648320853710174561e-01,-3.054205179214477539e-01,-3.052390217781066895e-01,7.296676039695739746e-01,1.059120818972587585e-01,-1.088088601827621460e-01,1.570029067806899548e-03,5.557214021682739258e-01,-4.444248625077307224e-04,-6.386629343032836914e-01,-4.530332684516906738e-01,-5.436724424362182617e-01,-9.082597494125366211e-01,4.835093319416046143e-01,2.504099011421203613e-01
3.555817604064941406e-01,-3.884706497192382812e-01,-1.041857749223709106e-01,-2.521122395992279053e-01,5.962390303611755371e-01,2.596657574176788330e-01,-8.218394592404365540e-03,-1.599733233451843262e-01,-2.717643082141876221e-01,8.329602479934692383e-01,1.678399927914142609e-02,-1.741435006260871887e-02,2.092894613742828369e-01,3.102291226387023926e-01,3.836301714181900024e-02,-8.587898612022399902e-01,-9.304895401000976562e-01,-5.387199521064758301e-01,-8.127076625823974609e-01,7.446498870849609375e-01,3.363272249698638916e-01
2.473798841238021851e-01,-3.677971661090850830e-01,-1.441035717725753784e-01,-3.298709392547607422e-01,6.102788448333740234e-01,3.110128045082092285e-01,2.368234544992446899e-01,-2.284801751375198364e-01,-4.092387259006500244e-01,7.542414069175720215e-01,1.673380583524703979e-01,-7.868567109107971191e-02,2.054945081472396851e-01,4.686896502971649170e-01,-1.807116419076919556e-01,-7.690994739532470703e-01,-7.946769595146179199e-01,-6.361855268478393555e-01,-8.027931451797485352e-01,9.007570147514343262e-01,8.960250020027160645e-02
9.744432568550109863e-02,-5.059695243835449219e-01,-4.246957600116729736e-01,-2.528420388698577881e-01,4.677823185920715332e-01,3.042151927947998047e-01,6.876196712255477905e-02,-2.310405075550079346e-01,-4.924401640892028809e-01,7.406899333000183105e-01,4.368926286697387695e-01,9.374386817216873169e-02,2.157347276806831360e-02,6.324858069419860840e-01,7.376737892627716064e-02,-8.167889118194580078e-01,-8.977149128913879395e-01,-7.509861588478088379e-01,-8.098909258842468262e-01,9.769935011863708496e-01,-1.010592877864837646e-01
5.884563550353050232e-02,-4.549326300621032715e-01,-2.616754472255706787e-01,-2.971455752849578857e-01,4.098816215991973877e-01,4.450965821743011475e-01,5.986893549561500549e-02,-3.030715286731719971e-01,-4.866531789302825928e-01,6.577801108360290527e-01,2.891307175159454346e-01,-7.539584487676620483e-02,2.438349425792694092e-01,5.198308229446411133e-01,-1.341086626052856445e-01,-9.252703785896301270e-01,-9.490237832069396973e-01,-6.431978940963745117e-01,-8.479451537132263184e-01,8.697960972785949707e-01,-1.578577421605587006e-02
-2.211672067642211914e-02,-5.153753757476806641e-01,-2.635754346847534180e-01,-6.746682524681091309e-02,3.963910043239593506e-01,3.097935914993286133e-01,-2.825864553451538086e-01,-4.418175220489501953e-01,-6.433820128440856934e-01,6.790493726730346680e-01,3.132885694503784180e-01,-2.024167915806174278e-03,3.307096958160400391e-01,7.120340466499328613e-01,-3.620010018348693848e-01,-1.052552461624145508e+00,-8.658980131149291992e-01,-5.880438089370727539e-01,-9.384804368019104004e-01,9.384732842445373535e-01,2.025745622813701630e-02
-1.187081485986709595e-01,-3.063886761665344238e-01,-1.824944615364074707e-01,-2.001323550939559937e-01,2.605677247047424316e-01,1.892998814582824707e-01,-4.265007376670837402e-01,-3.546631932258605957e-01,-3.667802214622497559e-01,6.547166705131530762e-01,6.415451765060424805e-01,8.024761825799942017e-02,2.427299469709396362e-01,6.490108966827392578e-01,-2.618128955364227295e-01,-9.485534429550170898e-01,-1.025088787078857422e+00,-8.064346909523010254e-01,-9.528216719627380371e-01,8.514868617057800293e-01,-1.426487118005752563e-01
-3.926886618137359619e-02,-2.000659108161926270e-01,-3.274489641189575195e-01,3.013105690479278564e-02,1.943864375352859497e-01,2.643205523490905762e-01,-4.550003409385681152e-01,-6.231008172035217285e-01,-7.169513106346130371e-01,6.021893620491027832e-01,5.005587935447692871e-01,3.979377150535583496e-01,3.085935115814208984e-01,4.835266768932342529e-01,-1.231780722737312317e-01,-1.059632301330566406e+00,-9.262305498123168945e-01,-4.359980821609497070e-01,-1.119098305702209473e+00,6.702805757522583008e-01,-9.540359675884246826e-02
3.126906929537653923e-03,-4.078423976898193359e-01,-6.241853535175323486e-02,-1.039801836013793945e-01,4.060890972614288330e-01,-4.918836057186126709e-03,-4.880740344524383545e-01,-6.962100267410278320e-01,-5.428749322891235352e-01,6.409875750541687012e-01,4.547921121120452881e-01,1.154739707708358765e-01,2.116528302431106567e-01,6.563238501548767090e-01,-2.311704605817794800e-01,-1.006403446197509766e+00,-8.329349160194396973e-01,-4.930936992168426514e-01,-1.054093599319458008e+00,9.153146743774414062e-01,-2.708922624588012695e-01
-2.431042790412902832e-01,-4.016645550727844238e-01,-9.236032515764236450e-02,2.900463044643402100e-01,3.630559444427490234e-01,1.528967022895812988e-01,-5.873141288757324219e-01,-9.154701828956604004e-01,-5.756501555442810059e-01,5.488408207893371582e-01,4.794785380363464355e-01,3.935032784938812256e-01,2.589703798294067383e-01,4.326598942279815674e-01,-3.517089784145355225e-01,-1.022452592849731445e+00,-7.481861710548400879e-01,-7.153452038764953613e-01,-9.407520890235900879e-01,6.598964333534240723e-01,-4.097397252917289734e-02
1.904538949020206928e-03,-6.535127758979797363e-01,-8.993031084537506104e-02,2.932520806789398193e-01,1.816649287939071655e-01,3.697883337736129761e-02,-8.200494647026062012e-01,-7.948299050331115723e-01,-6.824207901954650879e-01,6.036599278450012207e-01,5.014600157737731934e-01,4.794942736625671387e-01,2.430124133825302124e-01,3.251478374004364014e-01,-1.524265259504318237e-01,-1.007915139198303223e+00,-5.375855565071105957e-01,-5.448035597801208496e-01,-7.528458833694458008e-01,7.114709019660949707e-01,1.135349553078413010e-02
-1.801134645938873291e-01,-4.681798219680786133e-01,1.247765347361564636e-01,6.285907626152038574e-01,3.202756345272064209e-01,1.016935780644416809e-01,-7.297541499137878418e-01,-5.574374198913574219e-01,-7.405806779861450195e-01,4.432082474231719971e-01,6.615140438079833984e-01,5.258704423904418945e-01,-2.937200292944908142e-02,3.916020989418029785e-01,-2.183315455913543701e-01,-1.135446310043334961e+00,-6.524462103843688965e-01,-3.842528760433197021e-01,-6.421540975570678711e-01,6.419694423675537109e-01,2.355962246656417847e-02
1.875975169241428375e-02,-4.753337204456329346e-01,3.026593923568725586e-01,3.770241737365722656e-01,3.645802736282348633e-01,6.455368566093966365e-05,-6.001524925231933594e-01,-5.438591241836547852e-01,-4.907350242137908936e-01,2.022781372070312500e-01,5.618584156036376953e-01,6.447203755378723145e-01,-7.631220668554306030e-02,3.589955568313598633e-01,-2.102617472410202026e-01,-8.873407244682312012e-01,-2.594858109951019287e-01,-3.358252942562103271e-01,-6.759834885597229004e-01,5.999153852462768555e-01,1.184541359543800354e-01
4.141715168952941895e-02,-3.667201101779937744e-01,-2.771287783980369568e-02,5.717746019363403320e-01,3.311238884925842285e-01,-1.365058869123458862e-01,-8.174390196800231934e-01,-6.730515956878662109e-01,-5.588745474815368652e-01,2.928690314292907715e-01,4.625982344150543213e-01,7.349537014961242676e-01,-2.616524696350097656e-01,3.606885671615600586e-01,7.335828989744186401e-02,-1.049800395965576172e+00,-2.195648401975631714e-01,-1.084644198417663574e-01,-4.792124927043914795e-01,6.681265234947204590e-01,-8.826252818107604980e-02
4.589888080954551697e-02,-5.540578961372375488e-01,1.899800598621368408e-01,5.479594469070434570e-01,2.147442847490310669e-01,9.825088083744049072e-02,-7.873787879943847656e-01,-7.226431369781494141e-01,-5.516450405120849609e-01,-5.525993183255195618e-02,5.945149064064025879e-01,7.501704692840576172e-01,-9.218464046716690063e-02,2.769104540348052979e-01,1.890767365694046021e-01,-7.866224646568298340e-01,-3.024207055568695068e-01,-1.264201700687408447e-01,-4.756860733032226562e-01,5.425844788551330566e-01,1.563564501702785492e-02
1.531094312667846680e-01,-4.946013987064361572e-01,1.561269462108612061e-01,5.905351042747497559e-01,1.641430109739303589e-01,-1.354153454303741455e-01,-7.637174725532531738e-01,-7.108744978904724121e-01,-5.166724324226379395e-01,-1.896445825695991516e-02,4.361267387866973877e-01,5.942978858947753906e-01,-3.223232030868530273e-01,2.789298892021179199e-01,2.201412618160247803e-01,-8.335261344909667969e-01,-2.240037769079208374e-01,8.277021348476409912e-02,-3.763862848281860352e-01,5.431350469589233398e-01,2.144488543272018433e-01
3.766127228736877441e-01,-6.702486276626586914e-01,2.986421883106231689e-01,5.794099569320678711e-01,1.839779913425445557e-01,2.899261116981506348e-01,-6.678858995437622070e-01,-6.858427524566650391e-01,-3.493731021881103516e-01,-1.029122844338417053e-01,5.204235315322875977e-01,6.862825751304626465e-01,-4.075500071048736572e-01,3.083045482635498047e-01,2.888781428337097168e-01,-6.942235231399536133e-01,-6.690333783626556396e-02,1.288785934448242188e-01,-2.581231892108917236e-01,5.365126729011535645e-01,1.642440259456634521e-01
3.164755702018737793e-01,-7.660805583000183105e-01,3.214333653450012207e-01,6.382951736450195312e-01,2.670037448406219482e-01,1.472519785165786743e-01,-5.566161274909973145e-01,-6.537721753120422363e-01,-5.351150631904602051e-01,-2.601768672466278076e-01,7.575232386589050293e-01,7.124987244606018066e-01,-4.474158585071563721e-01,-7.793769985437393188e-02,4.149431884288787842e-01,-8.180515170097351074e-01,1.096815541386604309e-01,2.415011823177337646e-01,-1.569859236478805542e-01,2.629134953022003174e-01,9.368395060300827026e-02
3.128888010978698730e-01,-8.403914570808410645e-01,3.469924926757812500e-01,5.482136011123657227e-01,1.724107116460800171e-01,5.700536370277404785e-01,-5.360016226768493652e-01,-3.615397810935974121e-01,-4.177532494068145752e-01,-2.878121137619018555e-01,7.055419683456420898e-01,6.550626158714294434e-01,-4.127079844474792480e-01,-5.000929161906242371e-02,5.865651369094848633e-01,-6.199586987495422363e-01,-2.048093974590301514e-01,4.975497350096702576e-02,-9.304527193307876587e-02,2.585383951663970947e-01,1.582554429769515991e-01
6.439781785011291504e-01,-9.425244331359863281e-01,2.589306235313415527e-01,6.382237672805786133e-01,3.971570432186126709e-01,2.584517002105712891e-01,-6.100869178771972656e-01,-5.930458903312683105e-01,-1.968637704849243164e-01,-4.603846073150634766e-01,6.397302150726318359e-01,6.240043640136718750e-01,-6.678726673126220703e-01,1.475662738084793091e-01,5.953140854835510254e-01,-4.362033009529113770e-01,-3.536280989646911621e-02,2.412442117929458618e-01,-9.410922229290008545e-02,2.387196123600006104e-01,3.097885549068450928e-01
5.855579972267150879e-01,-6.519696712493896484e-01,1.705636233091354370e-01,6.732796430587768555e-01,2.681277096271514893e-01,3.950549662113189697e-01,-2.918389141559600830e-01,-3.921572566032409668e-01,-1.113242357969284058e-01,-4.692111313343048096e-01,6.074231863021850586e-01,7.812150120735168457e-01,-6.157243847846984863e-01,1.272847801446914673e-01,5.947811603546142578e-01,-3.898467719554901123e-01,2.008435577154159546e-01,3.352013528347015381e-01,5.634981021285057068e-02,1.373846977949142456e-01,2.455194294452667236e-01
4.553842246532440186e-01,-6.044267416000366211e-01,9.048582613468170166e-02,8.688434958457946777e-01,-3.060456179082393646e-02,5.673558712005615234e-01,-5.320485234260559082e-01,-4.546385407447814941e-01,-2.218112200498580933e-01,-5.084547400474548340e-01,5.694830417633056641e-01,5.866137742996215820e-01,-6.404291391372680664e-01,7.947234064340591431e-02,4.872096478939056396e-01,-3.374549448490142822e-01,4.566347692161798477e-03,2.003358900547027588e-01,1.437462121248245239e-01,-1.902810186147689819e-01,2.511503398418426514e-01
7.533071637153625488e-01,-8.251686692237854004e-01,1.997499167919158936e-01,7.491843700408935547e-01,-7.699918467551469803e-03,6.777933239936828613e-01,-3.182064592838287354e-01,-2.457921504974365234e-01,1.551534514874219894e-02,-4.168862402439117432e-01,7.285459637641906738e-01,5.661954283714294434e-01,-7.199478745460510254e-01,-6.817895919084548950e-02,3.275943398475646973e-01,-2.766227424144744873e-01,1.543711274862289429e-01,3.309536576271057129e-01,1.625810414552688599e-01,-3.421300351619720459e-01,5.015749335289001465e-01
7.157447338104248047e-01,-8.263062238693237305e-01,1.025715917348861694e-01,6.063110828399658203e-01,2.775881290435791016e-01,7.397376894950866699e-01,-5.314867496490478516e-01,-2.442485988140106201e-01,-2.693234756588935852e-02,-4.608170986175537109e-01,6.826869845390319824e-01,4.993302524089813232e-01,-8.601702451705932617e-01,-2.451061010360717773e-01,7.125667333602905273e-01,-4.822078347206115723e-01,1.134424433112144470e-01,3.533853888511657715e-01,1.827141046524047852e-01,7.629493623971939087e-02,4.701696336269378662e-01
8.130564093589782715e-01,-7.538891434669494629e-01,-1.133254691958427429e-01,4.229363799095153809e-01,1.355024278163909912e-01,7.199202179908752441e-01,-3.575474321842193604e-01,-6.643462926149368286e-02,7.965381443500518799e-02,-4.224841892719268799e-01,5.522622466087341309e-01,4.172618985176086426e-01,-8.940263986587524414e-01,-9.485347568988800049e-02,5.155821442604064941e-01,-3.963875770568847656e-01,2.513908445835113525e-01,3.404838442802429199e-01,2.651379406452178955e-01,-6.177018582820892334e-02,2.547985911369323730e-01
