Fp1,Fp2,F7,F3,Fz,F4,F8,T3,C3,Cz,C4,T4,T5,P3,Pz,P4,T6,O1,Oz,O2,A1
-8.541408538818359375e+00,-1.436544704437255859e+01,4.466166496276855469e+00,-1.374812984466552734e+01,-7.408908367156982422e+00,-1.071688842773437500e+01,-2.139109849929809570e+00,-1.107466697692871094e+01,-2.996120750904083252e-01,8.521027565002441406e+00,-7.853823184967041016e+00,-9.958210945129394531e+00,-6.422831058502197266e+00,-2.782500982284545898e+00,-1.907364082336425781e+01,-9.356450080871582031e+00,-9.403643012046813965e-02,4.599335193634033203e+00,-5.743429660797119141e+00,-8.858534693717956543e-01,1.499466970562934875e-02
-1.172840499877929688e+01,-1.459254360198974609e+01,4.594681739807128906e+00,-1.148178768157958984e+01,-8.732777595520019531e+00,-6.364495754241943359e+00,-4.266811370849609375e+00,-1.071388435363769531e+01,-1.744419217109680176e+00,7.018761634826660156e+00,-9.563636779785156250e+00,-1.115155601501464844e+01,-8.935089111328125000e+00,-4.777017593383789062e+00,-2.219151496887207031e+01,-1.210568237304687500e+01,-3.548412621021270752e-01,2.590192317962646484e+00,-8.017642021179199219e+00,1.645027399063110352e-01,1.205181796103715897e-02
-1.365552234649658203e+01,-1.390093135833740234e+01,5.187827587127685547e+00,-8.215986251831054688e+00,-9.012877464294433594e+00,-1.847285628318786621e+00,-6.336525440216064453e+00,-1.039820003509521484e+01,-2.852684974670410156e+00,5.682660579681396484e+00,-1.069887447357177734e+01,-1.257314968109130859e+01,-1.104317569732666016e+01,-6.731960296630859375e+00,-2.423597145080566406e+01,-1.475606536865234375e+01,8.246785402297973633e-02,8.113970756530761719e-01,-1.028590106964111328e+01,9.724690914154052734e-01,9.214168414473533630e-03
-1.370110988616943359e+01,-1.247125530242919922e+01,6.119560718536376953e+00,-4.477467060089111328e+00,-8.103873252868652344e+00,1.482630610466003418e+00,-7.853126049041748047e+00,-1.013822364807128906e+01,-3.366200685501098633e+00,4.807751655578613281e+00,-1.102691936492919922e+01,-1.392775726318359375e+01,-1.232256603240966797e+01,-8.219932556152343750e+00,-2.474785995483398438e+01,-1.681335639953613281e+01,1.233697295188903809e+00,-4.459168612957000732e-01,-1.212848949432373047e+01,1.349293708801269531e+00,7.721417583525180817e-03
-1.191075611114501953e+01,-1.065448284149169922e+01,7.253952503204345703e+00,-8.848150372505187988e-01,-6.143173217773437500e+00,2.660767793655395508e+00,-8.437463760375976562e+00,-9.918040275573730469e+00,-3.163115501403808594e+00,4.468639850616455078e+00,-1.046228313446044922e+01,-1.489037227630615234e+01,-1.250284385681152344e+01,-8.952047348022460938e+00,-2.369926261901855469e+01,-1.793776130676269531e+01,2.932880401611328125e+00,-1.063376426696777344e+00,-1.319713115692138672e+01,1.209427237510681152e+00,8.281555026769638062e-03
-8.908182144165039062e+00,-8.822226524353027344e+00,8.467430114746093750e+00,2.002812862396240234e+00,-3.437301397323608398e+00,1.494839310646057129e+00,-7.911113739013671875e+00,-9.713773727416992188e+00,-2.278243541717529297e+00,4.536462306976318359e+00,-9.046716690063476562e+00,-1.522530269622802734e+01,-1.156074714660644531e+01,-8.876856803894042969e+00,-2.151519966125488281e+01,-1.809221267700195312e+01,4.863889694213867188e+00,-1.143358230590820312e+00,-1.331619930267333984e+01,5.766334533691406250e-01,1.074957009404897690e-02
-5.507752895355224609e+00,-7.217067241668701172e+00,9.636422157287597656e+00,3.834254980087280273e+00,-3.271342217922210693e-01,-1.423034191131591797e+00,-6.349907398223876953e+00,-9.514813423156738281e+00,-9.030656814575195312e-01,4.760275840759277344e+00,-6.915413379669189453e+00,-1.488789176940917969e+01,-9.670738220214843750e+00,-8.164529800415039062e+00,-1.884096336364746094e+01,-1.747440719604492188e+01,6.655276775360107422e+00,-9.098113179206848145e-01,-1.252439308166503906e+01,-4.567486643791198730e-01,1.420137938112020493e-02
-2.281385421752929688e+00,-5.900939464569091797e+00,1.062747001647949219e+01,4.509565353393554688e+00,2.989144325256347656e+00,-5.009332656860351562e+00,-3.967951774597167969e+00,-9.326463699340820312e+00,7.187158465385437012e-01,4.858618259429931641e+00,-4.213510036468505859e+00,-1.402451515197753906e+01,-7.132311344146728516e+00,-7.099996089935302734e+00,-1.619464874267578125e+01,-1.642413902282714844e+01,7.988279342651367188e+00,-6.282753348350524902e-01,-1.102412700653076172e+01,-1.784800887107849121e+00,1.740581914782524109e-02
7.460538148880004883e-01,-4.729328155517578125e+00,1.128734397888183594e+01,4.185416221618652344e+00,6.516819000244140625e+00,-8.195796966552734375e+00,-1.023962140083312988e+00,-9.143419265747070312e+00,2.378213167190551758e+00,4.658542633056640625e+00,-1.058306574821472168e+00,-1.289071369171142578e+01,-4.227513313293457031e+00,-5.936528205871582031e+00,-1.369104194641113281e+01,-1.524413108825683594e+01,8.715371131896972656e+00,-4.619131982326507568e-01,-9.098190307617187500e+00,-3.332837104797363281e+00,1.937340758740901947e-02
4.013864517211914062e+00,-3.428684234619140625e+00,1.149741649627685547e+01,3.188657999038696289e+00,1.038537025451660156e+01,-1.032926273345947266e+01,2.267953634262084961e+00,-8.939152717590332031e+00,3.973883867263793945e+00,4.153265476226806641e+00,2.466693639755249023e+00,-1.171969699859619141e+01,-1.151160478591918945e+00,-4.757230758666992188e+00,-1.100129413604736328e+01,-1.400852108001708984e+01,8.897144317626953125e+00,-4.075255990028381348e-01,-6.963883876800537109e+00,-5.050614356994628906e+00,1.979422010481357574e-02
8.021439552307128906e+00,-1.766750574111938477e+00,1.121567249298095703e+01,1.859646916389465332e+00,1.465028953552246094e+01,-1.135479164123535156e+01,5.747214317321777344e+00,-8.663260459899902344e+00,5.523134708404541016e+00,3.485215187072753906e+00,6.248166084289550781e+00,-1.063303375244140625e+01,2.006608009338378906e+00,-3.467126846313476562e+00,-7.610412120819091797e+00,-1.263699436187744141e+01,8.752252578735351562e+00,-3.371416032314300537e-01,-4.752182483673095703e+00,-6.882457256317138672e+00,1.907485723495483398e-02
1.283094501495361328e+01,2.719569802284240723e-01,1.051625442504882812e+01,3.685612976551055908e-01,1.912132072448730469e+01,-1.168747806549072266e+01,9.280001640319824219e+00,-8.228199005126953125e+00,7.089793205261230469e+00,2.861249208450317383e+00,1.009922409057617188e+01,-9.608394622802734375e+00,5.167284488677978516e+00,-1.903964042663574219e+00,-3.177136659622192383e+00,-1.100598907470703125e+01,8.530963897705078125e+00,-8.119982481002807617e-02,-2.516667604446411133e+00,-8.721769332885742188e+00,1.805978640913963318e-02
1.775027465820312500e+01,2.434535264968872070e+00,9.604292869567871094e+00,-1.314312577247619629e+00,2.330432319641113281e+01,-1.190112972259521484e+01,1.268343257904052734e+01,-7.578259468078613281e+00,8.691266059875488281e+00,2.461097240447998047e+00,1.373953723907470703e+01,-8.551503181457519531e+00,8.208745002746582031e+00,5.493602529168128967e-02,2.168233156204223633e+00,-8.998123168945312500e+00,8.370265960693359375e+00,4.530786275863647461e-01,-3.079429566860198975e-01,-1.040627670288085938e+01,1.751670800149440765e-02
2.143873596191406250e+01,4.271952629089355469e+00,8.754117012023925781e+00,-3.340244054794311523e+00,2.651754570007324219e+01,-1.238642501831054688e+01,1.573447608947753906e+01,-6.678956031799316406e+00,1.025212192535400391e+01,2.372928142547607422e+00,1.683310699462890625e+01,-7.390410423278808594e+00,1.090709590911865234e+01,2.342298269271850586e+00,7.792815685272216797e+00,-6.718422412872314453e+00,8.246449470520019531e+00,1.211306095123291016e+00,1.766829371452331543e+00,-1.173365020751953125e+01,1.773848943412303925e-02
2.247067642211914062e+01,5.340338706970214844e+00,8.215343475341796875e+00,-5.798374176025390625e+00,2.810301780700683594e+01,-1.318609333038330078e+01,1.817888069152832031e+01,-5.556816101074218750e+00,1.156347274780273438e+01,2.559439659118652344e+00,1.905984115600585938e+01,-6.137522220611572266e+00,1.299482822418212891e+01,4.720679759979248047e+00,1.280002784729003906e+01,-4.333695411682128906e+00,8.019891738891601562e+00,2.004725694656372070e+00,3.532022953033447266e+00,-1.250766849517822266e+01,1.846353895962238312e-02
1.992398071289062500e+01,5.371306419372558594e+00,8.099184989929199219e+00,-8.559043884277343750e+00,2.761152267456054688e+01,-1.408343124389648438e+01,1.976239013671875000e+01,-4.302035331726074219e+00,1.238161659240722656e+01,2.918898344039916992e+00,2.020700836181640625e+01,-4.889596462249755859e+00,1.423351097106933594e+01,6.853704452514648438e+00,1.639876747131347656e+01,-2.066350936889648438e+00,7.524626255035400391e+00,2.602989435195922852e+00,4.814988136291503906e+00,-1.259389686584472656e+01,1.912603713572025299e-02
1.385874080657958984e+01,4.426791191101074219e+00,8.348800659179687500e+00,-1.123867607116699219e+01,2.496642684936523438e+01,-1.480374240875244141e+01,2.032442474365234375e+01,-3.033990859985351562e+00,1.253248023986816406e+01,3.366525888442993164e+00,2.025273513793945312e+01,-3.785566091537475586e+00,1.455626678466796875e+01,8.464355468750000000e+00,1.823536682128906250e+01,-1.523847598582506180e-02,6.726405143737792969e+00,2.897322654724121094e+00,5.535354137420654297e+00,-1.195227622985839844e+01,1.922839693725109100e-02
5.406362533569335938e+00,2.909373521804809570e+00,8.791189193725585938e+00,-1.328351593017578125e+01,2.047954177856445312e+01,-1.519441986083984375e+01,1.992743110656738281e+01,-1.919809460639953613e+00,1.205377960205078125e+01,3.888758420944213867e+00,1.940379333496093750e+01,-2.894899129867553711e+00,1.412883377075195312e+01,9.477443695068359375e+00,1.855801200866699219e+01,1.881422877311706543e+00,5.756948947906494141e+00,2.970905780792236328e+00,5.794328689575195312e+00,-1.067582511901855469e+01,1.857442967593669891e-02
-3.580635547637939453e+00,1.438407301902770996e+00,9.248405456542968750e+00,-1.421544456481933594e+01,1.480619430541992188e+01,-1.531345462799072266e+01,1.884350776672363281e+01,-1.113354206085205078e+00,1.119791984558105469e+01,4.546635627746582031e+00,1.806576347351074219e+01,-2.150609254837036133e+00,1.332339954376220703e+01,1.007500648498535156e+01,1.808335113525390625e+01,3.858398914337158203e+00,4.869158744812011719e+00,3.066884040832519531e+00,5.862792968750000000e+00,-8.977738380432128906e+00,1.731767505407333374e-02
-1.118964099884033203e+01,6.126017570495605469e-01,9.631479263305664062e+00,-1.383456993103027344e+01,8.770832061767578125e+00,-1.534397697448730469e+01,1.748748779296875000e+01,-7.313491702079772949e-01,1.035076332092285156e+01,5.404588699340820312e+00,1.672574615478515625e+01,-1.391433477401733398e+00,1.258774948120117188e+01,1.058155059814453125e+01,1.767694091796875000e+01,6.162811279296875000e+00,4.326473712921142578e+00,3.482789278030395508e+00,6.080093383789062500e+00,-7.149969100952148438e+00,1.577943004667758942e-02
-1.610275459289550781e+01,7.880854606628417969e-01,9.960180282592773438e+00,-1.235698986053466797e+01,3.163546323776245117e+00,-1.542028045654296875e+01,1.625636482238769531e+01,-8.295032382011413574e-01,9.854655265808105469e+00,6.459226608276367188e+00,1.577342033386230469e+01,-4.337804615497589111e-01,1.226790142059326172e+01,1.132157993316650391e+01,1.798407554626464844e+01,8.930578231811523438e+00,4.234270095825195312e+00,4.368987560272216797e+00,6.696273803710937500e+00,-5.486508846282958984e+00,1.420706603676080704e-02
-1.795527267456054688e+01,1.887439131736755371e+00,1.029629611968994141e+01,-1.035266876220703125e+01,-1.444891810417175293e+00,-1.549963760375976562e+01,1.537762928009033203e+01,-1.397205233573913574e+00,9.825642585754394531e+00,7.578296184539794922e+00,1.533403778076171875e+01,7.794121503829956055e-01,1.241910266876220703e+01,1.240985774993896484e+01,1.911953926086425781e+01,1.203813648223876953e+01,4.473999977111816406e+00,5.616703987121582031e+00,7.708357810974121094e+00,-4.199873447418212891e+00,1.266597863286733627e-02
-1.735020065307617188e+01,3.430663347244262695e+00,1.062747001647949219e+01,-8.513122558593750000e+00,-4.843086242675781250e+00,-1.535008049011230469e+01,1.479775238037109375e+01,-2.349565029144287109e+00,1.007804870605468750e+01,8.534591674804687500e+00,1.518691444396972656e+01,2.111691236495971680e+00,1.276511955261230469e+01,1.368413162231445312e+01,2.057765007019042969e+01,1.505920314788818359e+01,4.750610828399658203e+00,6.880416393280029297e+00,8.833557128906250000e+00,-3.355242967605590820e+00,1.107939705252647400e-02
-1.548110294342041016e+01,4.700339317321777344e+00,1.081282806396484375e+01,-7.362393379211425781e+00,-7.136735916137695312e+00,-1.470912551879882812e+01,1.424909973144531250e+01,-3.524761199951171875e+00,1.022311019897460938e+01,9.111082077026367188e+00,1.487676239013671875e+01,3.255416631698608398e+00,1.279128932952880859e+01,1.475658035278320312e+01,2.143079948425292969e+01,1.738832855224609375e+01,4.732170104980468750e+00,7.734622001647949219e+00,9.601550102233886719e+00,-2.859599828720092773e+00,9.381925687193870544e-03
-1.359128475189208984e+01,5.040984153747558594e+00,1.064229869842529297e+01,-7.067958354949951172e+00,-8.621794700622558594e+00,-1.348215389251708984e+01,1.337036323547363281e+01,-4.718527317047119141e+00,9.860457420349121094e+00,9.195859909057617188e+00,1.390853023529052734e+01,3.868215560913085938e+00,1.198585414886474609e+01,1.518397617340087891e+01,2.070794868469238281e+01,1.846330833435058594e+01,4.215829372406005859e+00,7.862592697143554688e+00,9.559876441955566406e+00,-2.525549888610839844e+00,7.658864371478557587e-03
-1.252618980407714844e+01,4.091307640075683594e+00,9.952766418457031250e+00,-7.438028335571289062e+00,-9.538725852966308594e+00,-1.186145210266113281e+01,1.190282917022705078e+01,-5.723943233489990234e+00,8.787006378173828125e+00,8.849966049194335938e+00,1.201182937622070312e+01,3.739205121994018555e+00,1.006386089324951172e+01,1.468138980865478516e+01,1.784757041931152344e+01,1.788875007629394531e+01,3.251641750335693359e+00,7.225937843322753906e+00,8.464444160461425781e+00,-2.180636405944824219e+00,6.168956402689218521e-03
-1.250546836853027344e+01,1.933890700340270996e+00,8.771417617797851562e+00,-8.067418098449707031e+00,-9.882244110107421875e+00,-1.029568958282470703e+01,9.850957870483398438e+00,-6.376535415649414062e+00,7.095595836639404297e+00,8.266693115234375000e+00,9.290044784545898438e+00,2.905600547790527344e+00,7.109631538391113281e+00,1.321716213226318359e+01,1.294894123077392578e+01,1.568318653106689453e+01,2.132025003433227539e+00,6.064601898193359375e+00,6.368834972381591797e+00,-1.763753056526184082e+00,5.236342083662748337e-03
-1.324937725067138672e+01,-1.044170618057250977e+00,7.335509777069091797e+00,-8.564446449279785156e+00,-9.446239471435546875e+00,-9.364777565002441406e+00,7.424396514892578125e+00,-6.604677200317382812e+00,5.116964340209960938e+00,7.649509429931640625e+00,6.158699035644531250e+00,1.617978811264038086e+00,3.518615007400512695e+00,1.099707508087158203e+01,6.741115093231201172e+00,1.213080787658691406e+01,1.244234919548034668e+00,4.752900600433349609e+00,3.561790227890014648e+00,-1.339401006698608398e+00,5.122608970850706100e-03
-1.429582214355468750e+01,-4.337070465087890625e+00,5.998460292816162109e+00,-8.723819732666015625e+00,-7.940041542053222656e+00,-9.526542663574218750e+00,4.957689762115478516e+00,-6.448161125183105469e+00,3.228270530700683594e+00,7.089974880218505859e+00,3.176465272903442383e+00,2.187137305736541748e-01,-1.887098103761672974e-01,8.349592208862304688e+00,3.192253410816192627e-01,7.775282382965087891e+00,8.912262916564941406e-01,3.588365316390991211e+00,4.273063242435455322e-01,-1.063741922378540039e+00,5.904525984078645706e-03
-1.525730895996093750e+01,-7.531905651092529297e+00,5.074141025543212891e+00,-8.559043884277343750e+00,-5.273806095123291016e+00,-1.088475799560546875e+01,2.714012861251831055e+00,-6.047586441040039062e+00,1.670315742492675781e+00,6.523657798767089844e+00,7.707967758178710938e-01,-1.016807556152343750e+00,-3.555833101272583008e+00,5.579430103302001953e+00,-5.327073574066162109e+00,3.215881586074829102e+00,1.167837500572204590e+00,2.663775682449340820e+00,-2.692293882369995117e+00,-1.067815661430358887e+00,7.425710558891296387e-03
-1.589968204498291016e+01,-1.031899929046630859e+01,4.700953483581542969e+00,-8.183570861816406250e+00,-1.767271161079406738e+00,-1.302432823181152344e+01,8.271829485893249512e-01,-5.588649749755859375e+00,4.663097858428955078e-01,5.770829677581787109e+00,-9.091948866844177246e-01,-1.971979737281799316e+00,-6.326876640319824219e+00,2.872586250305175781e+00,-9.626947402954101562e+00,-1.053150892257690430e+00,1.939714431762695312e+00,1.867156863212585449e+00,-5.573756694793701172e+00,-1.367238521575927734e+00,9.316529147326946259e-03
-1.613798141479492188e+01,-1.251254558563232422e+01,4.782511234283447266e+00,-7.710853576660156250e+00,1.850247144699096680e+00,-1.512727260589599609e+01,-7.340237498283386230e-01,-5.241131305694580078e+00,-5.346108675003051758e-01,4.668715953826904297e+00,-1.982799053192138672e+00,-2.706345796585083008e+00,-8.469856262207031250e+00,3.161227107048034668e-01,-1.254627037048339844e+01,-4.735268592834472656e+00,2.914439678192138672e+00,9.905563592910766602e-01,-8.109920501708984375e+00,-1.834365248680114746e+00,1.108508370816707611e-02
-1.587895965576171875e+01,-1.395254421234130859e+01,5.106269836425781250e+00,-7.181410312652587891e+00,4.677671909332275391e+00,-1.625352287292480469e+01,-2.040976762771606445e+00,-5.097879409790039062e+00,-1.506519317626953125e+00,3.180014371871948242e+00,-2.686606168746948242e+00,-3.338992357254028320e+00,-1.004583263397216797e+01,-2.050386905670166016e+00,-1.445422267913818359e+01,-7.713088512420654297e+00,3.794326543807983398e+00,-9.719618409872055054e-02,-1.025911045074462891e+01,-2.268222808837890625e+00,1.226222421973943710e-02
-1.489260768890380859e+01,-1.443770503997802734e+01,5.457214832305908203e+00,-6.557423591613769531e+00,6.062317371368408203e+00,-1.568276691436767578e+01,-3.115978956222534180e+00,-5.153588294982910156e+00,-2.510341167449951172e+00,1.464108109474182129e+00,-3.191597700119018555e+00,-3.924500226974487305e+00,-1.113040637969970703e+01,-4.147795200347900391e+00,-1.580685329437255859e+01,-1.001132297515869141e+01,4.405505657196044922e+00,-1.341713070869445801e+00,-1.196476936340332031e+01,-2.496354341506958008e+00,1.248684804886579514e-02
-1.280178833007812500e+01,-1.380802822113037109e+01,5.731544494628906250e+00,-5.774063110351562500e+00,5.956619262695312500e+00,-1.322271919250488281e+01,-3.878740072250366211e+00,-5.299493312835693359e+00,-3.464842319488525391e+00,-1.873669922351837158e-01,-3.523619651794433594e+00,-4.420693397521972656e+00,-1.174102497100830078e+01,-5.881124973297119141e+00,-1.692370223999023438e+01,-1.175971126556396484e+01,4.745342254638671875e+00,-2.535041570663452148e+00,-1.319415378570556641e+01,-2.490243673324584961e+00,1.165659446269273758e-02
-9.274956703186035156e+00,-1.210480403900146484e+01,5.926788330078125000e+00,-4.825927257537841797e+00,4.984196186065673828e+00,-9.312891006469726562e+00,-4.204363346099853516e+00,-5.384383201599121094e+00,-4.204653263092041016e+00,-1.486165642738342285e+00,-3.603146076202392578e+00,-4.720890522003173828e+00,-1.189513301849365234e+01,-7.179143428802490234e+00,-1.791025352478027344e+01,-1.317448520660400391e+01,4.924480915069580078e+00,-3.434036970138549805e+00,-1.396512413024902344e+01,-2.372783184051513672e+00,9.950593113899230957e-03
-4.303822517395019531e+00,-9.689322471618652344e+00,6.052832126617431641e+00,-3.839973926544189453e+00,4.130683898925781250e+00,-4.893350124359130859e+00,-4.025939464569091797e+00,-5.286229133605957031e+00,-4.616626262664794922e+00,-2.266123056411743164e+00,-3.380472421646118164e+00,-4.768028736114501953e+00,-1.167996311187744141e+01,-8.057680130004882812e+00,-1.875099372863769531e+01,-1.449040985107421875e+01,5.061469554901123047e+00,-3.888333559036254883e+00,-1.440567874908447266e+01,-2.346303462982177734e+00,7.866427302360534668e-03
1.626725673675537109e+00,-7.242873668670654297e+00,6.055303573608398438e+00,-3.035003662109375000e+00,4.265449047088623047e+00,-1.093399882316589355e+00,-3.423759698867797852e+00,-4.965238571166992188e+00,-4.744279861450195312e+00,-2.523848056793212891e+00,-2.949042797088623047e+00,-4.656385421752929688e+00,-1.130196094512939453e+01,-8.671073913574218750e+00,-1.948625373840332031e+01,-1.599167537689208984e+01,5.177382469177246094e+00,-3.936322689056396484e+00,-1.476288414001464844e+01,-2.573756217956542969e+00,6.086499430239200592e-03
7.555202007293701172e+00,-5.591262340545654297e+00,5.795802116394042969e+00,-2.651427268981933594e+00,5.695016384124755859e+00,1.149944186210632324e+00,-2.607471704483032227e+00,-4.508955001831054688e+00,-4.755884647369384766e+00,-2.405158996582031250e+00,-2.571293115615844727e+00,-4.619171142578125000e+00,-1.102282142639160156e+01,-9.240935325622558594e+00,-2.030217552185058594e+01,-1.793158340454101562e+01,5.177382469177246094e+00,-3.747565746307373047e+00,-1.529571723937988281e+01,-3.082978725433349609e+00,5.261932499706745148e-03
1.226109790802001953e+01,-5.410617828369140625e+00,5.135927200317382812e+00,-2.859422922134399414e+00,7.993950366973876953e+00,1.372752547264099121e+00,-1.840250134468078613e+00,-4.071240901947021484e+00,-4.869032382965087891e+00,-2.083002567291259766e+00,-2.551411628723144531e+00,-4.929291725158691406e+00,-1.105189895629882812e+01,-9.961177825927734375e+00,-2.144694709777832031e+01,-2.042133712768554688e+01,4.884964942932128906e+00,-3.523616552352905273e+00,-1.616491889953613281e+01,-3.731388568878173828e+00,5.776576232165098190e-03
1.470418548583984375e+01,-6.886744976043701172e+00,4.090507507324218750e+00,-3.637380599975585938e+00,1.024267768859863281e+01,-2.815229892730712891e-01,-1.313900470733642578e+00,-3.805959463119506836e+00,-5.202672481536865234e+00,-1.682850599288940430e+00,-3.048450469970703125e+00,-5.748010635375976562e+00,-1.140373134613037109e+01,-1.087928771972656250e+01,-2.301053810119628906e+01,-2.334973335266113281e+01,4.171044826507568359e+00,-3.379649400711059570e+00,-1.731988525390625000e+01,-4.288817405700683594e+00,7.547974120825529099e-03
1.440993785858154297e+01,-9.586096763610839844e+00,2.867144346237182617e+00,-4.769201278686523438e+00,1.155333423614501953e+01,-3.150561809539794922e+00,-1.086410403251647949e+00,-3.790042638778686523e+00,-5.681373596191406250e+00,-1.228440642356872559e+00,-3.927215337753295898e+00,-7.018265724182128906e+00,-1.183697891235351562e+01,-1.183697223663330078e+01,-2.473545074462890625e+01,-2.634608650207519531e+01,3.038255929946899414e+00,-3.280472040176391602e+00,-1.847187423706054688e+01,-4.560402870178222656e+00,9.990399703383445740e-03
1.168917942047119141e+01,-1.257964229583740234e+01,1.836553215980529785e+00,-5.925332546234130859e+00,1.160354137420654297e+01,-6.291243553161621094e+00,-9.971985816955566406e-01,-3.996962070465087891e+00,-6.032421112060546875e+00,-6.383858323097229004e-01,-4.760252475738525391e+00,-8.462187767028808594e+00,-1.191839504241943359e+01,-1.248993968963623047e+01,-2.600121498107910156e+01,-2.884819793701171875e+01,1.668372035026550293e+00,-3.050124406814575195e+00,-1.918033409118652344e+01,-4.508122920989990234e+00,1.217408105731010437e-02
7.577995777130126953e+00,-1.478867244720458984e+01,1.379336595535278320e+00,-6.805937767028808594e+00,1.084779930114746094e+01,-8.797074317932128906e+00,-7.697084546089172363e-01,-4.328563690185546875e+00,-5.901866436004638672e+00,1.822649985551834106e-01,-4.984914302825927734e+00,-9.687785148620605469e+00,-1.118856048583984375e+01,-1.241870689392089844e+01,-2.599190711975097656e+01,-3.026296997070312500e+01,3.459070920944213867e-01,-2.461458206176757812e+00,-1.899279975891113281e+01,-4.288817405700683594e+00,1.314081531018018723e-02
3.452306747436523438e+00,-1.539254283905029297e+01,1.675909519195556641e+00,-7.254343986511230469e+00,1.029816913604736328e+01,-1.009119415283203125e+01,-2.032134532928466797e-01,-4.668123722076416016e+00,-5.040204048156738281e+00,1.277596473693847656e+00,-4.147900581359863281e+00,-1.040230369567871094e+01,-9.371244430541992188e+00,-1.131064224243164062e+01,-2.409946632385253906e+01,-3.018883323669433594e+01,-6.393556594848632812e-01,-1.354510188102722168e+00,-1.762648773193359375e+01,-4.181541442871093750e+00,1.225085090845823288e-02
5.802802443504333496e-01,-1.411770534515380859e+01,2.595285654067993164e+00,-7.311069965362548828e+00,1.095878314971923828e+01,-9.984368324279785156e+00,7.602741122245788574e-01,-4.959933280944824219e+00,-3.427126407623291016e+00,2.603524208068847656e+00,-2.102088451385498047e+00,-1.052635192871093750e+01,-6.486800670623779297e+00,-9.078682899475097656e+00,-2.018428611755371094e+01,-2.856400680541992188e+01,-1.137255787849426270e+00,2.899157404899597168e-01,-1.507246303558349609e+01,-4.442942142486572266e+00,9.416045621037483215e-03
-2.568761110305786133e-01,-1.130480480194091797e+01,3.737091541290283203e+00,-7.159800529479980469e+00,1.321808052062988281e+01,-8.699404716491699219e+00,1.978015303611755371e+00,-5.225214481353759766e+00,-1.300532698631286621e+00,4.037967681884765625e+00,9.199084639549255371e-01,-1.021623134613037109e+01,-2.889968395233154297e+00,-5.916741371154785156e+00,-1.472723102569580078e+01,-2.572210502624511719e+01,-1.189943671226501465e+00,2.321453571319580078e+00,-1.162244701385498047e+01,-5.172148704528808594e+00,5.168102215975522995e-03
9.781367182731628418e-01,-7.697066783905029297e+00,4.597153186798095703e+00,-7.003128528594970703e+00,1.652114677429199219e+01,-6.733808040618896484e+00,3.186835289001464844e+00,-5.493148326873779297e+00,9.305048584938049316e-01,5.445281982421875000e+00,4.377311229705810547e+00,-9.764695167541503906e+00,8.842336535453796387e-01,-2.240340948104858398e+00,-8.690033912658691406e+00,-2.228092956542968750e+01,-1.002901792526245117e+00,4.484161376953125000e+00,-7.755691051483154297e+00,-6.226578712463378906e+00,4.794418055098503828e-04
3.593214273452758789e+00,-4.109973907470703125e+00,4.819582939147949219e+00,-6.951804637908935547e+00,1.954675483703613281e+01,-4.679698467254638672e+00,4.123559474945068359e+00,-5.694762229919433594e+00,2.859815597534179688e+00,6.744080543518066406e+00,7.627945899963378906e+00,-9.404954910278320312e+00,4.297880172729492188e+00,1.487505435943603516e+00,-3.189546108245849609e+00,-1.888300323486328125e+01,-8.343006968498229980e-01,6.522098064422607422e+00,-3.969305753707885742e+00,-7.257924079895019531e+00,-3.549564862623810768e-03
6.463168621063232422e+00,-1.173202753067016602e+00,4.347537517547607422e+00,-7.003128528594970703e+00,2.076492500305175781e+01,-3.049840211868286133e+00,4.694514751434326172e+00,-5.652317523956298828e+00,4.229191303253173828e+00,7.924190044403076172e+00,1.010916423797607422e+01,-9.194072723388671875e+00,6.987508296966552734e+00,4.867102622985839844e+00,8.590363860130310059e-01,-1.601021003723144531e+01,-8.790853619575500488e-01,8.243306159973144531e+00,-6.443120837211608887e-01,-7.851337909698486328e+00,-6.011893507093191147e-03
8.454523086547851562e+00,8.396983146667480469e-01,3.428161382675170898e+00,-7.057153224945068359e+00,1.915303039550781250e+01,-2.176919937133789062e+00,4.984453201293945312e+00,-5.135018825531005859e+00,5.003816604614257812e+00,9.022912979125976562e+00,1.148099231719970703e+01,-8.980710029602050781e+00,8.819362640380859375e+00,7.645179271697998047e+00,2.990359067916870117e+00,-1.384789180755615234e+01,-1.187309265136718750e+00,9.567805290222167969e+00,2.022827148437500000e+00,-7.699929237365722656e+00,-6.469670683145523071e-03
8.806792259216308594e+00,1.990664839744567871e+00,2.511256694793701172e+00,-6.986920833587646484e+00,1.470578098297119141e+01,-2.131137371063232422e+00,5.243167400360107422e+00,-3.967781066894531250e+00,5.346160411834716797e+00,1.006398677825927734e+01,1.170963001251220703e+01,-8.526693344116210938e+00,9.871952056884765625e+00,9.762373924255371094e+00,3.306800127029418945e+00,-1.229102325439453125e+01,-1.643059134483337402e+00,1.050839138031005859e+01,4.002344608306884766e+00,-6.738517284393310547e+00,-5.059375893324613571e-03
7.360417842864990234e+00,2.548083543777465820e+00,2.002139806747436523e+00,-6.711394309997558594e+00,8.400888442993164062e+00,-2.723258018493652344e+00,5.689226627349853516e+00,-2.193049192428588867e+00,5.502826213836669922e+00,1.100332641601562500e+01,1.100781059265136719e+01,-7.688126564025878906e+00,1.034300041198730469e+01,1.125826168060302734e+01,2.363682031631469727e+00,-1.107394790649414062e+01,-2.040852308273315430e+00,1.113864803314208984e+01,5.344844341278076172e+00,-5.161285400390625000e+00,-2.386640524491667747e-03
4.517401695251464844e+00,2.764857530593872070e+00,2.110883235931396484e+00,-6.238677024841308594e+00,1.781543254852294922e+00,-3.645013093948364258e+00,6.389539241790771484e+00,-1.291606277227401733e-01,5.685603141784667969e+00,1.172902584075927734e+01,9.731414794921875000e+00,-6.531996250152587891e+00,1.042441654205322266e+01,1.220803165435791016e+01,9.583119750022888184e-01,-9.937186241149902344e+00,-2.196281433105468750e+00,1.153215789794921875e+01,6.121767520904541016e+00,-3.343021631240844727e+00,7.125952979549765587e-04
1.052734851837158203e+00,2.893889665603637695e+00,2.839958429336547852e+00,-5.601183891296386719e+00,-3.648697614669799805e+00,-4.533194065093994141e+00,7.241512298583984375e+00,1.749030947685241699e+00,6.004737377166748047e+00,1.210883140563964844e+01,8.290001869201660156e+00,-5.289031982421875000e+00,1.030229282379150391e+01,1.269083118438720703e+01,-1.026958897709846497e-01,-8.676864624023437500e+00,-1.996067643165588379e+00,1.176570510864257812e+01,6.425392627716064453e+00,-1.686351180076599121e+00,3.362584160640835762e-03
-2.198498725891113281e+00,3.131308794021606445e+00,4.033664703369140625e+00,-4.809719562530517578e+00,-6.978188514709472656e+00,-5.042906284332275391e+00,7.999812602996826172e+00,2.998505830764770508e+00,6.474734783172607422e+00,1.207492065429687500e+01,7.043428421020507812e+00,-4.229659080505371094e+00,1.011910724639892578e+01,1.278185081481933594e+01,-2.050738334655761719e-01,-7.169420242309570312e+00,-1.442845344543457031e+00,1.191607093811035156e+01,6.377765178680419922e+00,-4.805123805999755859e-01,4.843961913138628006e-03
-4.591854095458984375e+00,3.704211473464965820e+00,5.511586189270019531e+00,-3.837272644042968750e+00,-8.048381805419921875e+00,-4.853672027587890625e+00,8.459253311157226562e+00,3.383163690567016602e+00,7.060781002044677734e+00,1.165781211853027344e+01,6.234249114990234375e+00,-3.490331172943115234e+00,1.000570678710937500e+01,1.260376834869384766e+01,9.303907155990600586e-01,-5.316005229949951172e+00,-6.209148764610290527e-01,1.205683898925781250e+01,6.169394969940185547e+00,1.706134229898452759e-01,4.661988466978073120e-03
-5.853805065155029297e+00,4.803565025329589844e+00,7.142737388610839844e+00,-2.686543464660644531e+00,-7.311137676239013672e+00,-3.739630460739135742e+00,8.521701812744140625e+00,2.961366415023803711e+00,7.710654258728027344e+00,1.099315357208251953e+01,5.955906867980957031e+00,-2.984214067459106445e+00,1.006386089324951172e+01,1.234258174896240234e+01,3.201319694519042969e+00,-3.036304950714111328e+00,3.195631504058837891e-01,1.223599815368652344e+01,6.023535728454589844e+00,3.315277099609375000e-01,2.592040225863456726e-03
-6.069310665130615234e+00,6.517111778259277344e+00,8.843089103698730469e+00,-1.433167219161987305e+00,-5.477275371551513672e+00,-1.609216451644897461e+00,8.258526802062988281e+00,2.043493270874023438e+00,8.380835533142089844e+00,1.023015117645263672e+01,6.146770000457763672e+00,-2.443363428115844727e+00,1.033427715301513672e+01,1.219220161437988281e+01,6.176485061645507812e+00,-2.438263148069381714e-01,1.223159670829772949e+00,1.245034885406494141e+01,6.118790626525878906e+00,1.624658554792404175e-01,-1.280582975596189499e-03
-5.549196243286132812e+00,8.700335502624511719e+00,1.048659706115722656e+01,-3.013467490673065186e-01,-3.183625936508178711e+00,1.403274297714233398e+00,7.843691825866699219e+00,1.016854643821716309e+00,8.995894432067871094e+00,9.460367202758789062e+00,6.576211452484130859e+00,-1.589910864830017090e+00,1.075589466094970703e+01,1.229509353637695312e+01,9.201288223266601562e+00,3.042896270751953125e+00,1.913370490074157715e+00,1.260391426086425781e+01,6.517671108245849609e+00,-1.641154885292053223e-01,-6.500947289168834686e-03
-4.705823421478271484e+00,1.088355827331542969e+01,1.185083293914794922e+01,3.658600449562072754e-01,-8.609097599983215332e-01,4.861381530761718750e+00,7.424396514892578125e+00,1.838712990283966064e-01,9.416570663452148438e+00,8.646498680114746094e+00,6.928115367889404297e+00,-3.221369683742523193e-01,1.112517356872558594e+01,1.264729976654052734e+01,1.154667377471923828e+01,6.607631206512451172e+00,2.213691234588623047e+00,1.251113510131835938e+01,7.095154285430908203e+00,-5.280398130416870117e-01,-1.228144858032464981e-02
-3.924615621566772461e+00,1.241646003723144531e+01,1.262686538696289062e+01,2.470054030418395996e-01,1.237197995185852051e+00,8.118045806884765625e+00,7.027403831481933594e+00,-3.254688084125518799e-01,9.445583343505859375e+00,7.649509429931640625e+00,6.896304607391357422e+00,1.240871906280517578e+00,1.114843559265136719e+01,1.309052562713623047e+01,1.263250064849853516e+01,1.007351684570312500e+01,1.971327185630798340e+00,1.196086025238037109e+01,7.583335876464843750e+00,-8.620897531509399414e-01,-1.765819638967514038e-02
-3.448016643524169922e+00,1.265387916564941406e+01,1.253047943115234375e+01,-8.253877162933349609e-01,2.923083066940307617e+00,1.040717220306396484e+01,6.545660018920898438e+00,-5.642219781875610352e-01,8.897253036499023438e+00,6.316799640655517578e+00,6.287929058074951172e+00,2.771628379821777344e+00,1.052909374237060547e+01,1.335566997528076172e+01,1.215473651885986328e+01,1.298337841033935547e+01,1.078268170356750488e+00,1.078672790527343750e+01,7.669660568237304688e+00,-1.141143679618835449e+00,-2.174122631549835205e-02
-3.319542169570922852e+00,1.117775154113769531e+01,1.144057369232177734e+01,-2.775684595108032227e+00,4.035555839538574219e+00,1.105423259735107422e+01,5.818583965301513672e+00,-6.968626379966735840e-01,7.658432006835937500e+00,4.553417682647705078e+00,5.079130172729492188e+00,3.902949094772338867e+00,9.083964347839355469e+00,1.318550300598144531e+01,1.013820171356201172e+01,1.488621807098388672e+01,-4.839265048503875732e-01,8.940747261047363281e+00,7.124921321868896484e+00,-1.365201592445373535e+00,-2.388510107994079590e-02
-3.406573295593261719e+00,7.946787357330322266e+00,9.456006050109863281e+00,-5.341864585876464844e+00,4.423996448516845703e+00,9.644130706787109375e+00,4.761423587799072266e+00,-9.276573657989501953e-01,5.761034965515136719e+00,2.400057077407836914e+00,3.405103206634521484e+00,4.394180297851562500e+00,6.815953254699707031e+00,1.244151687622070312e+01,6.890028476715087891e+00,1.552255725860595703e+01,-2.628321886062622070e+00,6.506101608276367188e+00,5.901490211486816406e+00,-1.555311322212219238e+00,-2.382823452353477478e-02
-3.518470525741577148e+00,3.311953783035278320e+00,6.878293514251708984e+00,-8.145753860473632812e+00,4.017058372497558594e+00,6.204336166381835938e+00,3.423246622085571289e+00,-1.399858117103576660e+00,3.384936332702636719e+00,3.305575624108314514e-02,1.518343329429626465e+00,4.227955818176269531e+00,3.946047782897949219e+00,1.115141296386718750e+01,2.922107219696044922e+00,1.488621807098388672e+01,-5.194220066070556641e+00,3.687542676925659180e+00,4.130343437194824219e+00,-1.726410031318664551e+00,-2.174691297113895416e-02
-3.460449695587158203e+00,-2.040298700332641602e+00,4.102864742279052734e+00,-1.082268428802490234e+01,2.894016027450561523e+00,1.275083184242248535e+00,2.009239435195922852e+00,-2.161215305328369141e+00,8.318634033203125000e-01,-2.289860963821411133e+00,-2.709968686103820801e-01,3.595309257507324219e+00,8.522488474845886230e-01,9.540760993957519531e+00,-1.132680058479309082e+00,1.323667812347412109e+01,-7.947159767150878906e+00,7.570094466209411621e-01,2.094268321990966797e+00,-1.901582598686218262e+00,-1.822686381638050079e-02
-3.135119199752807617e+00,-7.299647808074951172e+00,1.468308448791503906e+00,-1.313224697113037109e+01,1.303259253501892090e+00,-4.224925041198730469e+00,8.361041545867919922e-01,-3.161325931549072266e+00,-1.552938818931579590e+00,-4.294012546539306641e+00,-1.670658588409423828e+00,2.766666412353515625e+00,-2.026379823684692383e+00,7.930109977722167969e+00,-4.641451835632324219e+00,1.102493667602539062e+01,-1.065531539916992188e+01,-2.026357173919677734e+00,1.236811205744743347e-01,-2.101876735687255859e+00,-1.407843641936779022e-02
-2.567344903945922852e+00,-1.176415920257568359e+01,-8.301318287849426270e-01,-1.502581691741943359e+01,-4.064078032970428467e-01,-9.242691040039062500e+00,1.848579198122024536e-01,-4.243673801422119141e+00,-3.476447105407714844e+00,-5.782713890075683594e+00,-2.446039199829101562e+00,1.947947382926940918e+00,-4.332190513610839844e+00,6.632091522216796875e+00,-7.083010673522949219e+00,8.732880592346191406e+00,-1.312374114990234375e+01,-4.438608646392822266e+00,-1.498630046844482422e+00,-2.352414131164550781e+00,-1.011482719331979752e-02
-1.831724762916564941e+00,-1.494867229461669922e+01,-2.718312978744506836e+00,-1.660334205627441406e+01,-1.830690026283264160e+00,-1.291750240325927734e+01,1.848579198122024536e-01,-5.190727710723876953e+00,-4.755884647369384766e+00,-6.640666961669921875e+00,-2.465920925140380859e+00,1.225986123085021973e+00,-5.844197750091552734e+00,5.872275829315185547e+00,-8.156428337097167969e+00,6.737370014190673828e+00,-1.519173908233642578e+01,-6.316581249237060547e+00,-2.567271709442138672e+00,-2.683748245239257812e+00,-6.984314415603876114e-03
-9.924961924552917480e-01,-1.669318580627441406e+01,-4.218477725982666016e+00,-1.803229904174804688e+01,-2.591716527938842773e+00,-1.484952545166015625e+01,7.647346854209899902e-01,-5.761082649230957031e+00,-5.365140914916992188e+00,-6.861089706420898438e+00,-1.718374252319335938e+00,5.759729146957397461e-01,-6.547862529754638672e+00,5.713980674743652344e+00,-7.889624595642089844e+00,5.211391925811767578e+00,-1.675129890441894531e+01,-7.551500320434570312e+00,-3.007826089859008789e+00,-3.126432418823242188e+00,-5.025255959481000900e-03
-2.479316107928752899e-02,-1.718866920471191406e+01,-5.380054950714111328e+00,-1.947206115722656250e+01,-2.412029743194580078e+00,-1.518221187591552734e+01,1.679155707359313965e+00,-5.766388416290283203e+00,-5.434770107269287109e+00,-6.562671184539794922e+00,-3.525112569332122803e-01,-5.171161890029907227e-02,-6.649631977081298828e+00,6.054315090179443359e+00,-6.698317527770996094e+00,4.025206089019775391e+00,-1.773656082153320312e+01,-8.130568504333496094e+00,-2.924477815628051758e+00,-3.708303928375244141e+00,-4.209218546748161316e-03
1.148054599761962891e+00,-1.690479850769042969e+01,-6.287074089050292969e+00,-2.096854972839355469e+01,-1.164791822433471680e+00,-1.448936939239501953e+01,2.495443820953369141e+00,-5.172158241271972656e+00,-5.231684684753417969e+00,-5.942096233367919922e+00,1.331456661224365234e+00,-6.918009519577026367e-01,-6.533323764801025391e+00,6.612304687500000000e+00,-5.314664363861083984e+00,2.832842588424682617e+00,-1.815016174316406250e+01,-8.168959617614746094e+00,-2.597038984298706055e+00,-4.425968170166015625e+00,-4.206375218927860260e-03
2.540552377700805664e+00,-1.644028282165527344e+01,-7.028506278991699219e+00,-2.241911697387695312e+01,1.062796115875244141e+00,-1.349131011962890625e+01,2.745236873626708984e+00,-4.073893547058105469e+00,-5.112734794616699219e+00,-5.263872623443603516e+00,2.914028644561767578e+00,-1.319485545158386230e+00,-6.635093688964843750e+00,7.047615528106689453e+00,-4.548380851745605469e+00,1.208015441894531250e+00,-1.806059265136718750e+01,-7.897021770477294922e+00,-2.415459156036376953e+00,-5.222392082214355469e+00,-4.550418816506862640e-03
4.011792659759521484e+00,-1.632157325744628906e+01,-7.705681324005126953e+00,-2.361846923828125000e+01,3.921930313110351562e+00,-1.272826766967773438e+01,2.040463685989379883e+00,-2.678514003753662109e+00,-5.408658981323242188e+00,-4.785724639892578125e+00,3.945881605148315430e+00,-1.872740983963012695e+00,-7.330035209655761719e+00,7.039700984954833984e+00,-5.044758796691894531e+00,-1.176711797714233398e+00,-1.762591743469238281e+01,-7.628283023834228516e+00,-2.790525674819946289e+00,-5.966536045074462891e+00,-4.800632596015930176e-03
5.228155612945556641e+00,-1.688415336608886719e+01,-8.400156021118164062e+00,-2.432619476318359375e+01,6.796919345855712891e+00,-1.240168571472167969e+01,1.937790960073471069e-01,-1.224772453308105469e+00,-6.348654270172119141e+00,-4.694164276123046875e+00,4.041313171386718750e+00,-2.287062406539916992e+00,-8.818780899047851562e+00,6.374862194061279297e+00,-7.070600986480712891e+00,-4.401653766632080078e+00,-1.704898452758789062e+01,-7.666674137115478516e+00,-3.993119478225708008e+00,-6.466931819915771484e+00,-4.678369034081697464e-03
5.750342369079589844e+00,-1.812286186218261719e+01,-9.087217330932617188e+00,-2.433699798583984375e+01,8.963730812072753906e+00,-1.233759021759033203e+01,-2.683301687240600586e+00,1.228566020727157593e-01,-7.935620784759521484e+00,-5.033276557922363281e+00,3.017412900924682617e+00,-2.492982625961303711e+00,-1.103445243835449219e+01,5.049141883850097656e+00,-1.040564060211181641e+01,-8.232045173645019531e+00,-1.651156997680664062e+01,-8.168959617614746094e+00,-6.032171249389648438e+00,-6.523285865783691406e+00,-4.143822006881237030e-03
5.205361843109130859e+00,-1.966092491149902344e+01,-9.581504821777343750e+00,-2.357254791259765625e+01,9.793460845947265625e+00,-1.213309478759765625e+01,-6.153641223907470703e+00,1.337844967842102051e+00,-9.891042709350585938e+00,-5.626722335815429688e+00,9.815412759780883789e-01,-2.443363428115844727e+00,-1.363975715637207031e+01,3.280195713043212891e+00,-1.440458488464355469e+01,-1.222306537628173828e+01,-1.608216285705566406e+01,-9.019966125488281250e+00,-8.589171409606933594e+00,-6.005915641784667969e+00,-3.407398005947470665e-03
3.483389377593994141e+00,-2.091511726379394531e+01,-9.574090957641601562e+00,-2.210307121276855469e+01,8.950518608093261719e+00,-1.140057468414306641e+01,-9.615059852600097656e+00,2.475901842117309570e+00,-1.171590995788574219e+01,-6.148954868316650391e+00,-1.690540075302124023e+00,-2.105951786041259766e+00,-1.610549163818359375e+01,1.447931647300720215e+00,-1.822979736328125000e+01,-1.580633354187011719e+01,-1.569754219055175781e+01,-9.848577499389648438e+00,-1.111045169830322266e+01,-4.901921272277832031e+00,-2.779020927846431732e-03
8.393014073371887207e-01,-2.130737495422363281e+01,-8.758515357971191406e+00,-2.015007400512695312e+01,6.540601253509521484e+00,-1.002709865570068359e+01,-1.245645523071289062e+01,3.632528305053710938e+00,-1.283868122100830078e+01,-6.199821472167968750e+00,-4.464017391204833984e+00,-1.478267312049865723e+00,-1.787337684631347656e+01,-1.629670336842536926e-02,-2.113050651550292969e+01,-1.856174468994140625e+01,-1.518910408020019531e+01,-1.013651180267333984e+01,-1.295304012298583984e+01,-3.354563951492309570e+00,-2.477627247571945190e-03
-2.200570821762084961e+00,-2.050221443176269531e+01,-6.981548786163330078e+00,-1.800258636474609375e+01,3.118624448776245117e+00,-8.208005905151367188e+00,-1.420500755310058594e+01,4.874044895172119141e+00,-1.278065681457519531e+01,-5.446992874145507812e+00,-6.816005706787109375e+00,-6.099290847778320312e-01,-1.853051757812500000e+01,-8.038141131401062012e-01,-2.272201728820800781e+01,-2.032248878479003906e+01,-1.434609889984130859e+01,-9.394281387329101562e+00,-1.362875461578369141e+01,-1.613702178001403809e+00,-2.540180692449212074e-03
-5.020792961120605469e+00,-1.850995826721191406e+01,-4.359349727630615234e+00,-1.587400722503662109e+01,-4.671842157840728760e-01,-6.355339050292968750e+00,-1.465106582641601562e+01,6.184534072875976562e+00,-1.134165191650390625e+01,-3.754824399948120117e+00,-8.382672309875488281e+00,3.849384784698486328e-01,-1.792280769348144531e+01,-7.919420003890991211e-01,-2.305086898803710938e+01,-2.118741607666015625e+01,-1.302626800537109375e+01,-7.378739356994628906e+00,-1.294708633422851562e+01,3.957349807024002075e-02,-2.850104123353958130e-03
-7.097106933593750000e+00,-1.561447811126708984e+01,-1.260162591934204102e+00,-1.383997249603271484e+01,-3.310463666915893555e+00,-4.820098400115966797e+00,-1.383477783203125000e+01,7.481760025024414062e+00,-8.643518447875976562e+00,-1.225049495697021484e+00,-9.052680969238281250e+00,1.372363209724426270e+00,-1.620435333251953125e+01,-6.774256378412246704e-02,-2.252656936645507812e+01,-2.145924949645996094e+01,-1.121644115447998047e+01,-4.182666778564453125e+00,-1.105984783172607422e+01,1.367625713348388672e+00,-3.259544493630528450e-03
-8.124902725219726562e+00,-1.218738460540771484e+01,1.858796238899230957e+00,-1.178162574768066406e+01,-4.740030765533447266e+00,-3.712160825729370117e+00,-1.197471141815185547e+01,8.694095611572265625e+00,-5.060513019561767578e+00,1.850695729255676270e+00,-8.927427291870117188e+00,2.223334550857543945e+00,-1.372408008575439453e+01,1.159043312072753906e+00,-2.167031669616699219e+01,-2.144689369201660156e+01,-9.035163879394531250e+00,-1.931743472814559937e-01,-8.354011535644531250e+00,2.248241186141967773e+00,-3.751441603526473045e-03
-7.975706577301025391e+00,-8.450613975524902344e+00,4.646582126617431641e+00,-9.447751998901367188e+00,-4.481070518493652344e+00,-2.805666685104370117e+00,-9.351884841918945312e+00,9.797665596008300781e+00,-1.048126697540283203e+00,5.129908084869384766e+00,-8.209702491760253906e+00,2.880790710449218750e+00,-1.086580562591552734e+01,2.694504499435424805e+00,-2.084198570251464844e+01,-2.129244232177734375e+01,-6.674748420715332031e+00,4.093850135803222656e+00,-5.225480556488037109e+00,2.680061817169189453e+00,-4.536202177405357361e-03
-6.628796577453613281e+00,-4.362876892089843750e+00,7.011751174926757812e+00,-6.649265766143798828e+00,-2.644565582275390625e+00,-1.624477267265319824e+00,-6.198246955871582031e+00,1.085879039764404297e+01,3.039691209793090820e+00,8.361644744873046875e+00,-7.052596092224121094e+00,3.386908054351806641e+00,-7.862145423889160156e+00,4.443663597106933594e+00,-2.008811187744140625e+01,-2.085997962951660156e+01,-4.303795337677001953e+00,8.268900871276855469e+00,-1.933230876922607422e+00,2.726231336593627930e+00,-5.974930245429277420e-03
-4.111110687255859375e+00,2.874408364295959473e-01,9.087761878967285156e+00,-3.432086229324340820e+00,4.312497973442077637e-01,2.892325818538665771e-01,-2.669919967651367188e+00,1.197297191619873047e+01,7.028867721557617188e+00,1.146451854705810547e+01,-5.483941555023193359e+00,3.845886707305908203e+00,-4.753808021545410156e+00,6.461924552917480469e+00,-1.911397171020507812e+01,-1.984677886962890625e+01,-2.022411584854125977e+00,1.214641857147216797e+01,1.492971301078796387e+00,2.453288078308105469e+00,-8.394608274102210999e-03
-5.179694294929504395e-01,5.582919120788574219e+00,1.106985759735107422e+01,-1.554796695709228516e-01,4.344722747802734375e+00,3.081967115402221680e+00,1.112660765647888184e+00,1.315878009796142578e+01,1.087298297882080078e+01,1.446226787567138672e+01,-3.483856678009033203e+00,4.327194213867187500e+00,-1.473915815353393555e+00,8.812604904174804688e+00,-1.751315116882324219e+01,-1.791922760009765625e+01,1.193493455648422241e-01,1.571040725708007812e+01,5.109683513641357422e+00,1.887711644172668457e+00,-1.182935852557420731e-02
3.957916021347045898e+00,1.123452568054199219e+01,1.300252437591552734e+01,2.540359973907470703e+00,8.736479759216308594e+00,6.421040058135986328e+00,4.948768615722656250e+00,1.428092002868652344e+01,1.450530910491943359e+01,1.735489273071289062e+01,-1.100057840347290039e+00,4.806020736694335938e+00,1.971715569496154785e+00,1.145613002777099609e+01,-1.503746700286865234e+01,-1.497229766845703125e+01,2.063530921936035156e+00,1.898966217041015625e+01,8.896068572998046875e+00,1.015243768692016602e+00,-1.582993194460868835e-02
8.947699546813964844e+00,1.647839164733886719e+01,1.467074775695800781e+01,3.982823133468627930e+00,1.324186229705810547e+01,9.549512863159179688e+00,8.517241477966308594e+00,1.505819416046142578e+01,1.770245361328125000e+01,1.999996566772460938e+01,1.420923709869384766e+00,5.140951156616210938e+00,5.362100601196289062e+00,1.412735748291015625e+01,-1.181101036071777344e+01,-1.120986461639404297e+01,3.678413391113281250e+00,2.187860488891601562e+01,1.261398887634277344e+01,-1.559679359197616577e-01,-1.950920745730400085e-02
1.388775062561035156e+01,2.029774284362792969e+01,1.567662429809570312e+01,3.788333654403686523e+00,1.740636825561523438e+01,1.157310104370117188e+01,1.138094043731689453e+01,1.514308357238769531e+01,2.006694602966308594e+01,2.209567832946777344e+01,3.619823932647705078e+00,5.153356075286865234e+00,8.263991355895996094e+00,1.638306045532226562e+01,-8.358081817626953125e+00,-7.169420242309570312e+00,4.774320602416992188e+00,2.407970428466796875e+01,1.579014682769775391e+01,-1.528831720352172852e+00,-2.185780368745326996e-02
1.809011077880859375e+01,2.183064270019531250e+01,1.563955211639404297e+01,2.067642450332641602e+00,2.066715431213378906e+01,1.182643127441406250e+01,1.309380722045898438e+01,1.428092002868652344e+01,2.118101501464843750e+01,2.326900482177734375e+01,4.993639469146728516e+00,4.711744308471679688e+00,1.016853809356689453e+01,1.774835395812988281e+01,-5.386018753051757812e+00,-3.474946498870849609e+00,5.153673171997070312e+00,2.520904731750488281e+01,1.788873291015625000e+01,-2.898300647735595703e+00,-2.214213646948337555e-02
2.087096214294433594e+01,2.073645210266113281e+01,1.443348884582519531e+01,-5.903796553611755371e-01,2.240588951110839844e+01,1.011416435241699219e+01,1.339712715148925781e+01,1.244252014160156250e+01,2.081836318969726562e+01,2.325883102416992188e+01,5.204384326934814453e+00,3.788824558258056641e+00,1.074135589599609375e+01,1.791456413269042969e+01,-3.474963426589965820e+00,-6.268653869628906250e-01,4.732170104980468750e+00,2.498509788513183594e+01,1.852277374267578125e+01,-3.993468523025512695e+00,-2.016601897776126862e-02
2.172055053710937500e+01,1.737645530700683594e+01,1.229569244384765625e+01,-3.353750228881835938e+00,2.214428710937500000e+01,6.793404579162597656e+00,1.233550643920898438e+01,9.856027603149414062e+00,1.910374259948730469e+01,2.206515693664550781e+01,4.271939277648925781e+00,2.463988304138183594e+00,1.000279903411865234e+01,1.688168907165527344e+01,-2.829672098159790039e+00,1.208015441894531250e+00,3.625725507736206055e+00,2.341105461120605469e+01,1.767440986633300781e+01,-4.572624206542968750e+00,-1.633320190012454987e-02
2.050211524963378906e+01,1.271581459045410156e+01,9.767408370971679688e+00,-5.476926803588867188e+00,1.978193283081054688e+01,2.541733264923095703e+00,1.031485939025878906e+01,6.956502914428710938e+00,1.654196548461914062e+01,1.999996566772460938e+01,2.611829042434692383e+00,8.736888766288757324e-01,8.368668556213378906e+00,1.499006557464599609e+01,-3.152317762374877930e+00,2.282996177673339844e+00,2.163637876510620117e+00,2.084843826293945312e+01,1.573656558990478516e+01,-4.531886577606201172e+00,-1.140570081770420074e-02
1.753684043884277344e+01,7.957109928131103516e+00,7.461553573608398438e+00,-6.584435939788818359e+00,1.572312545776367188e+01,-1.896120309829711914e+00,7.973049163818359375e+00,4.255939483642578125e+00,1.385833740234375000e+01,1.757192420959472656e+01,9.099676609039306641e-01,-8.307350873947143555e-01,6.522274971008300781e+00,1.281350994110107422e+01,-3.769687891006469727e+00,3.129388809204101562e+00,7.963881492614746094e-01,1.791790580749511719e+01,1.339091205596923828e+01,-3.962915182113647461e+00,-6.176806986331939697e-03
1.354169845581054688e+01,4.101630210876464844e+00,5.780973434448242188e+00,-6.765419006347656250e+00,1.076324081420898438e+01,-5.992131233215332031e+00,5.970243930816650391e+00,2.152258634567260742e+00,1.171433639526367188e+01,1.528970146179199219e+01,-1.715890765190124512e-01,-2.545083045959472656e+00,5.112037658691406250e+00,1.092980003356933594e+01,-3.958931922912597656e+00,4.334108829498291016e+00,-5.978932976722717285e-02,1.524331378936767578e+01,1.133697700500488281e+01,-3.112853050231933594e+00,-1.169692841358482838e-03
9.436731338500976562e+00,1.619052290916442871e+00,4.750382423400878906e+00,-6.419660091400146484e+00,5.866775512695312500e+00,-9.505177497863769531e+00,4.743581295013427734e+00,8.178936243057250977e-01,1.047261524200439453e+01,1.345171451568603516e+01,-2.471389919519424438e-01,-4.207330703735351562e+00,4.489789009094238281e+00,9.714885711669921875e+00,-3.236081600189208984e+00,6.255482196807861328e+00,-1.994121223688125610e-01,1.323097133636474609e+01,1.004508113861083984e+01,-2.281123161315917969e+00,3.422294277697801590e-03
6.052879333496093750e+00,4.938922226428985596e-01,4.085564613342285156e+00,-5.952345371246337891e+00,1.887241482734680176e+00,-1.234674644470214844e+01,4.377812862396240234e+00,1.785656809806823730e-01,1.010125827789306641e+01,1.209187602996826172e+01,6.912705302238464355e-01,-5.767858505249023438e+00,4.652620315551757812e+00,9.279574394226074219e+00,-1.486349344253540039e+00,8.930578231811523438e+00,3.432726860046386719e-01,1.194806385040283203e+01,9.637270927429199219e+00,-1.706041097640991211e+00,7.519540842622518539e-03
3.889534473419189453e+00,4.009891152381896973e-01,3.378732681274414062e+00,-5.557963848114013672e+00,-6.442285776138305664e-01,-1.437338733673095703e+01,4.618684768676757812e+00,-7.131233811378479004e-03,1.028403568267822266e+01,1.103045558929443359e+01,2.339451789855957031e+00,-7.154718875885009766e+00,5.318484783172607422e+00,9.509101867675781250e+00,1.076201677322387695e+00,1.214934158325195312e+01,1.320632219314575195e+00,1.118343734741210938e+01,9.940896034240722656e+00,-1.480625391006469727e+00,1.092869974672794342e-02
3.062738895416259766e+00,9.893755912780761719e-01,2.323427200317382812e+00,-5.182491302490234375e+00,-1.545305013656616211e+00,-1.535618495941162109e+01,5.060283184051513672e+00,-2.039529941976070404e-02,1.060897254943847656e+01,1.003007507324218750e+01,4.275915622711181641e+00,-8.278596878051757812e+00,6.150088787078857422e+00,1.015811157226562500e+01,4.069981098175048828e+00,1.551020050048828125e+01,2.406001806259155273e+00,1.061396694183349609e+01,1.064935493469238281e+01,-1.572285413742065430e+00,1.326023507863283157e-02
3.392213821411132812e+00,2.016471147537231445e+00,8.455052971839904785e-01,-4.663852691650390625e+00,-8.846918344497680664e-01,-1.503570747375488281e+01,5.372524738311767578e+00,-7.345155626535415649e-02,1.077724266052246094e+01,8.921179771423339844e+00,6.156710624694824219e+00,-9.065062522888183594e+00,6.929354190826416016e+00,1.100498962402343750e+01,7.178547859191894531e+00,1.867336273193359375e+01,3.328039169311523438e+00,9.983710289001464844e+00,1.148283576965332031e+01,-1.894792914390563965e+00,1.408480294048786163e-02
4.583711147308349609e+00,3.394534349441528320e+00,-9.240465760231018066e-01,-3.929114818572998047e+00,1.136784791946411133e+00,-1.330207538604736328e+01,5.533105850219726562e+00,-2.379259616136550903e-01,1.070471191406250000e+01,7.693593978881835938e+00,7.824773311614990234e+00,-9.471940994262695312e+00,7.609756946563720703e+00,1.188748359680175781e+01,1.023127269744873047e+01,2.142259407043457031e+01,3.968196630477905273e+00,9.209486007690429688e+00,1.226869010925292969e+01,-2.374140977859497070e+00,1.323180180042982101e-02
6.378209590911865234e+00,5.020339012145996094e+00,-2.785041809082031250e+00,-3.129547119140625000e+00,4.188817977905273438e+00,-1.038115024566650391e+01,5.720450878143310547e+00,-4.793319404125213623e-01,1.045520782470703125e+01,6.445662021636962891e+00,9.278115272521972656e+00,-9.521560668945312500e+00,8.234913825988769531e+00,1.270270347595214844e+01,1.317541408538818359e+01,2.364051437377929688e+01,4.329108238220214844e+00,8.323287963867187500e+00,1.290273094177246094e+01,-2.980455160140991211e+00,1.101968716830015182e-02
8.545699119567871094e+00,6.635821342468261719e+00,-4.633679866790771484e+00,-2.616311311721801758e+00,7.742917537689208984e+00,-6.895573139190673828e+00,6.170970439910888672e+00,-7.154322862625122070e-01,1.010125827789306641e+01,5.265552520751953125e+00,1.053065395355224609e+01,-9.283388137817382812e+00,8.799008369445800781e+00,1.333192539215087891e+01,1.593961811065673828e+01,2.524680709838867188e+01,4.468730926513671875e+00,7.366705894470214844e+00,1.328970432281494141e+01,-3.683861255645751953e+00,8.335578255355358124e-03
1.077949714660644531e+01,7.791948795318603516e+00,-6.479846477508544922e+00,-2.756775856018066406e+00,1.107505035400390625e+01,-3.663326263427734375e+00,6.964955329895019531e+00,-9.143933057785034180e-01,9.631260871887207031e+00,4.149874687194824219e+00,1.151677894592285156e+01,-8.886433601379394531e+00,9.165379524230957031e+00,1.359311199188232422e+01,1.831292533874511719e+01,2.609320068359375000e+01,4.400237083435058594e+00,6.310945987701416016e+00,1.326291370391845703e+01,-4.411030769348144531e+00,6.291219964623451233e-03
1.257814025878906250e+01,7.936464786529541016e+00,-8.387799263000488281e+00,-3.731924295425415039e+00,1.336077213287353516e+01,-1.481025338172912598e+00,7.910600662231445312e+00,-1.137229561805725098e+00,8.926264762878417969e+00,2.990111827850341797e+00,1.206749820709228516e+01,-8.489479064941406250e+00,9.078148841857910156e+00,1.326860713958740234e+01,1.992615318298339844e+01,2.596346092224121094e+01,4.084109783172607422e+00,5.034436225891113281e+00,1.261994266510009766e+01,-5.020061016082763672e+00,5.802166182547807693e-03
1.327438926696777344e+01,6.594531059265136719e+00,-1.038472366333007812e+01,-5.447212696075439453e+00,1.392097282409667969e+01,-8.583829402923583984e-01,8.597531318664550781e+00,-1.548415541648864746e+00,7.809295654296875000e+00,1.603143930435180664e+00,1.196809005737304688e+01,-8.276115417480468750e+00,8.266899108886718750e+00,1.215262794494628906e+01,2.031394958496093750e+01,2.459193420410156250e+01,3.430780410766601562e+00,3.386811256408691406e+00,1.117028045654296875e+01,-5.342568397521972656e+00,7.240893784910440445e-03
1.223416042327880859e+01,3.570018053054809570e+00,-1.236929130554199219e+01,-7.551480293273925781e+00,1.256275177001953125e+01,-1.871703028678894043e+00,8.593070983886718750e+00,-2.333648204803466797e+00,6.184612751007080078e+00,-1.602380424737930298e-01,1.108336067199707031e+01,-8.442339897155761719e+00,6.589152336120605469e+00,1.015415382385253906e+01,1.912884712219238281e+01,2.184270286560058594e+01,2.411270618438720703e+00,1.297686457633972168e+00,8.836534500122070312e+00,-5.269240379333496094e+00,1.030032336711883545e-02
9.225370407104492188e+00,-8.738482594490051270e-01,-1.409188556671142578e+01,-9.563905715942382812e+00,9.700975418090820312e+00,-4.173038482666015625e+00,7.656347274780273438e+00,-3.591081619262695312e+00,4.130549430847167969e+00,-2.313598871231079102e+00,9.470966339111328125e+00,-9.139492034912109375e+00,4.143771648406982422e+00,7.380034923553466797e+00,1.636153984069824219e+01,1.782696914672851562e+01,1.133590340614318848e+00,-1.133760333061218262e+00,5.764561176300048828e+00,-4.812977313995361328e+00,1.417863275855779648e-02
4.631371021270751953e+00,-6.029971599578857422e+00,-1.523863410949707031e+01,-1.107390022277832031e+01,6.289568424224853516e+00,-7.124485492706298828e+00,5.912256240844726562e+00,-5.241131305694580078e+00,1.922721862792968750e+00,-4.670426845550537109e+00,7.447023868560791016e+00,-1.038245582580566406e+01,1.297127842903137207e+00,4.150817871093750000e+00,1.246187019348144531e+01,1.299573421478271484e+01,-1.414554864168167114e-01,-3.613196372985839844e+00,2.326452255249023438e+00,-4.146914005279541016e+00,1.788065582513809204e-02
-5.718458294868469238e-01,-1.089706325531005859e+01,-1.554509258270263672e+01,-1.185996150970458984e+01,3.480640649795532227e+00,-9.990472793579101562e+00,3.793475627899169922e+00,-6.991987705230712891e+00,-3.560114279389381409e-02,-6.888218402862548828e+00,5.502607345581054688e+00,-1.201245117187500000e+01,-1.444838762283325195e+00,9.453451633453369141e-01,8.289193153381347656e+00,8.022404670715332031e+00,-1.068761587142944336e+00,-5.727915287017822266e+00,-9.479373097419738770e-01,-3.526341676712036133e+00,2.059888467192649841e-02
-5.107824325561523438e+00,-1.445318889617919922e+01,-1.489757537841796875e+01,-1.190588283538818359e+01,2.191123485565185547e+00,-1.211783409118652344e+01,1.911106467247009277e+00,-8.453687667846679688e+00,-1.312137603759765625e+00,-8.556649208068847656e+00,4.152649879455566406e+00,-1.371439456939697266e+01,-3.593633413314819336e+00,-1.733796954154968262e+00,4.833162307739257812e+00,3.666879177093505859e+00,-1.316394448280334473e+00,-7.084406375885009766e+00,-3.519821405410766602e+00,-3.200439453125000000e+00,2.190681919455528259e-02
-7.861737251281738281e+00,-1.596544456481933594e+01,-1.336528205871582031e+01,-1.136833572387695312e+01,2.777748107910156250e+00,-1.302737998962402344e+01,8.227223753929138184e-01,-9.265448570251464844e+00,-1.590654611587524414e+00,-9.363736152648925781e+00,3.731160640716552734e+00,-1.508636856079101562e+01,-4.855577468872070312e+00,-3.506700515747070312e+00,2.822831630706787109e+00,4.666494131088256836e-01,-6.999466419219970703e-01,-7.436326503753662109e+00,-4.996273517608642578e+00,-3.295494318008422852e+00,2.178171277046203613e-02
-8.265810012817382812e+00,-1.521705913543701172e+01,-1.118794155120849609e+01,-1.046882152557373047e+01,4.933990001678466797e+00,-1.251156425476074219e+01,8.405647277832031250e-01,-9.246878623962402344e+00,-7.609059214591979980e-01,-9.228091239929199219e+00,4.258021831512451172e+00,-1.576119136810302734e+01,-5.221948623657226562e+00,-4.226942539215087891e+00,2.450548171997070312e+00,-1.405299663543701172e+00,7.357971668243408203e-01,-6.767678737640380859e+00,-5.243340969085693359e+00,-3.761263132095336914e+00,2.049083821475505829e-02
-6.448517799377441406e+00,-1.259512615203857422e+01,-8.723915100097656250e+00,-9.439648628234863281e+00,7.864470005035400391e+00,-1.062532329559326172e+01,1.906645894050598145e+00,-8.451034545898437500e+00,1.014640212059020996e+00,-8.336226463317871094e+00,5.403199672698974609e+00,-1.557015705108642578e+01,-4.968977928161621094e+00,-4.044903278350830078e+00,3.235445737838745117e+00,-2.220802307128906250e+00,2.708956956863403320e+00,-5.302412033081054688e+00,-4.445580482482910156e+00,-4.403562545776367188e+00,1.840951666235923767e-02
-3.106108903884887695e+00,-8.899645805358886719e+00,-6.348860263824462891e+00,-8.440189361572265625e+00,1.064433097839355469e+01,-7.643354415893554688e+00,3.708724498748779297e+00,-7.135239601135253906e+00,3.358825206756591797e+00,-7.081512451171875000e+00,6.623927593231201172e+00,-1.461002349853515625e+01,-4.544453144073486328e+00,-3.316746473312377930e+00,4.218894481658935547e+00,-2.523526668548583984e+00,4.805933475494384766e+00,-3.418040752410888672e+00,-3.031639814376831055e+00,-4.967781066894531250e+00,1.588747836649417877e-02
7.750641703605651855e-01,-5.116424560546875000e+00,-4.361821174621582031e+00,-7.551480293273925781e+00,1.252575778961181641e+01,-4.035690784454345703e+00,5.778438568115234375e+00,-5.604566574096679688e+00,5.795849323272705078e+00,-5.904794216156005859e+00,7.383402824401855469e+00,-1.320827674865722656e+01,-4.390344619750976562e+00,-2.493612766265869141e+00,4.327476978302001953e+00,-2.993058443069458008e+00,6.594685554504394531e+00,-1.524071574211120605e+00,-1.540304064750671387e+00,-5.243440151214599609e+00,1.319768186658620834e-02
4.283246517181396484e+00,-2.081588983535766602e+00,-2.925914049148559570e+00,-6.778925418853759766e+00,1.311502456665039062e+01,-3.944532573223114014e-01,7.660807609558105469e+00,-4.097768783569335938e+00,7.858616352081298828e+00,-5.124836444854736328e+00,7.333699226379394531e+00,-1.180901145935058594e+01,-4.803238868713378906e+00,-1.947495222091674805e+00,2.785603284835815430e+00,-4.092751502990722656e+00,7.751183986663818359e+00,5.316960439085960388e-02,-4.538021385669708252e-01,-5.119189739227294922e+00,1.058181282132863998e-02
6.869313716888427734e+00,-2.235263586044311523e-01,-2.038666486740112305e+00,-6.049590110778808594e+00,1.240948963165283203e+01,2.724863290786743164e+00,9.007905960083007812e+00,-2.678514003753662109e+00,9.242497444152832031e+00,-4.799289226531982422e+00,6.441017150878906250e+00,-1.075708198547363281e+01,-5.815120697021484375e+00,-1.848560810089111328e+00,-5.928691029548645020e-01,-6.001768589019775391e+00,8.164783477783203125e+00,1.166516304016113281e+00,-3.706163913011550903e-02,-4.605214595794677734e+00,8.273025043308734894e-03
8.427584648132324219e+00,5.661502480506896973e-01,-1.564149856567382812e+00,-5.212204933166503906e+00,1.069982242584228516e+01,4.952946662902832031e+00,9.681455612182617188e+00,-1.232730865478515625e+00,9.880765914916992188e+00,-4.700946807861328125e+00,4.985687255859375000e+00,-1.014428329467773438e+01,-7.178834438323974609e+00,-2.089960575103759766e+00,-5.314664363861083984e+00,-8.516235351562500000e+00,7.938225746154785156e+00,1.860758423805236816e+00,-2.335250079631805420e-01,-3.802000761032104492e+00,6.453290116041898727e-03
9.200504302978515625e+00,8.035693168640136719e-01,-1.336777329444885254e+00,-4.101994514465332031e+00,8.411458015441894531e+00,6.244014263153076172e+00,9.708218574523925781e+00,4.518054127693176270e-01,9.932988166809082031e+00,-4.439830303192138672e+00,3.428961038589477539e+00,-9.796948432922363281e+00,-8.461133003234863281e+00,-2.347189903259277344e+00,-1.038082122802734375e+01,-1.112954998016357422e+01,7.327046871185302734e+00,2.334250688552856445e+00,-6.949162483215332031e-01,-2.831083297729492188e+00,5.176632199436426163e-03
9.565205574035644531e+00,1.175181865692138672e+00,-1.270048379898071289e+00,-2.616311311721801758e+00,5.967188835144042969e+00,6.891074180603027344e+00,9.257699012756347656e+00,2.558138847351074219e+00,9.668976783752441406e+00,-3.670046567916870117e+00,2.194316387176513672e+00,-9.352854728698730469e+00,-9.220044136047363281e+00,-2.212639331817626953e+00,-1.466518402099609375e+01,-1.326715564727783203e+01,6.613126277923583984e+00,2.804543733596801758e+00,-9.449605345726013184e-01,-1.797701239585876465e+00,4.377654753625392914e-03
9.762062072753906250e+00,2.202277421951293945e+00,-1.423277735710144043e+00,-7.956740260124206543e-01,3.710534095764160156e+00,7.403838157653808594e+00,8.539544105529785156e+00,5.144631385803222656e+00,9.349843025207519531e+00,-2.242385149002075195e+00,1.526296019554138184e+00,-8.454745292663574219e+00,-9.158982276916503906e+00,-1.338059544563293457e+00,-1.728978157043457031e+01,-1.447187519073486328e+01,6.007215976715087891e+00,3.425202369689941406e+00,-5.579872727394104004e-01,-7.520977258682250977e-01,3.894287860020995140e-03
9.776567459106445312e+00,4.029372215270996094e+00,-1.984294891357421875e+00,1.187037587165832520e+00,1.850247144699096680e+00,8.273706436157226562e+00,7.709874153137207031e+00,8.123740196228027344e+00,9.085831642150878906e+00,-2.857094407081604004e-01,1.391101360321044922e+00,-6.909102916717529297e+00,-8.240147590637207031e+00,4.071423113346099854e-01,-1.791956138610839844e+01,-1.454601192474365234e+01,5.588347911834716797e+00,4.196227073669433594e+00,6.475834250450134277e-01,2.975795567035675049e-01,3.572990885004401207e-03
9.380783081054687500e+00,6.315821647644042969e+00,-3.175529479980468750e+00,3.031985998153686523e+00,4.497469663619995117e-01,9.708226203918457031e+00,6.804374217987060547e+00,1.127262973785400391e+01,8.795710563659667969e+00,1.847304582595825195e+00,1.504426240921020508e+00,-4.777952671051025391e+00,-6.704878330230712891e+00,2.908202648162841797e+00,-1.685545158386230469e+01,-1.362548255920410156e+01,5.295930385589599609e+00,4.960853099822998047e+00,2.534822463989257812e+00,1.364909887313842773e+00,3.433667588979005814e-03
8.311543464660644531e+00,8.447432518005371094e+00,-5.103253841400146484e+00,4.439332962036132812e+00,-5.200332999229431152e-01,1.149374485015869141e+01,5.724911212921142578e+00,1.430214214324951172e+01,8.276391983032226562e+00,3.746331453323364258e+00,1.492497324943542480e+00,-2.304429292678833008e+00,-4.960255146026611328e+00,5.856446266174316406e+00,-1.485132503509521484e+01,-1.207479190826416016e+01,4.990340709686279297e+00,5.475935935974121094e+00,4.707826614379882812e+00,2.448535203933715820e+00,3.666820935904979706e-03
6.483890533447265625e+00,9.784204483032226562e+00,-7.648838043212890625e+00,5.211888313293457031e+00,-1.096088051795959473e+00,1.312055110931396484e+01,4.324285984039306641e+00,1.694434356689453125e+01,7.333495616912841797e+00,5.112952232360839844e+00,1.061067461967468262e+00,2.236756682395935059e-01,-3.451155662536621094e+00,8.860093116760253906e+00,-1.279756164550781250e+01,-1.034493827819824219e+01,4.553031444549560547e+00,5.523924827575683594e+00,6.660553455352783203e+00,3.500249385833740234e+00,4.511291626840829849e-03
4.098823547363281250e+00,9.990655899047851562e+00,-1.043168067932128906e+01,5.325340747833251953e+00,-1.286344647407531738e+00,1.402094078063964844e+01,2.459758996963500977e+00,1.902945518493652344e+01,5.908997058868408203e+00,5.858998775482177734e+00,1.147053614258766174e-01,2.625251293182373047e+00,-2.488705158233642578e+00,1.157089424133300781e+01,-1.139529418945312500e+01,-8.837493896484375000e+00,3.957659006118774414e+00,5.021639347076416016e+00,7.994122982025146484e+00,4.435861110687255859e+00,6.095029879361391068e-03
1.612220525741577148e+00,9.175172805786132812e+00,-1.291053676605224609e+01,4.901245594024658203e+00,-1.043238997459411621e+00,1.383475780487060547e+01,1.670155525207519531e-01,2.052564048767089844e+01,4.147956848144531250e+00,6.130288124084472656e+00,-1.219347238540649414e+00,4.930068969726562500e+00,-2.151411294937133789e+00,1.383846950531005859e+01,-1.091132545471191406e+01,-7.688376426696777344e+00,3.320136070251464844e+00,4.084252357482910156e+00,8.586489677429199219e+00,5.152167320251464844e+00,8.309988304972648621e-03
-4.785982072353363037e-01,7.838400363922119141e+00,-1.455404472351074219e+01,4.098976612091064453e+00,-3.324191272258758545e-01,1.257421207427978516e+01,-2.362139225006103516e+00,2.152575111389160156e+01,2.372410774230957031e+00,6.204892635345458984e+00,-2.615032434463500977e+00,7.311797142028808594e+00,-2.253180980682373047e+00,1.569447803497314453e+01,-1.115951442718505859e+01,-6.730778694152832031e+00,2.843311071395874023e+00,2.999699354171752930e+00,8.631140708923339844e+00,5.564976692199707031e+00,1.078937668353319168e-02
-1.856590747833251953e+00,6.656466484069824219e+00,-1.502114772796630859e+01,3.053596019744873047e+00,7.245621085166931152e-01,1.060556316375732422e+01,-4.770858287811279297e+00,2.221282958984375000e+01,9.653194546699523926e-01,6.398186683654785156e+00,-3.680684089660644531e+00,9.941621780395507812e+00,-2.442181825637817383e+00,1.732491493225097656e+01,-1.163727855682373047e+01,-5.637263774871826172e+00,2.737935304641723633e+00,2.155091285705566406e+00,8.547792434692382812e+00,5.651205062866210938e+00,1.300433557480573654e-02
-2.573561191558837891e+00,6.197112083435058594e+00,-1.427230072021484375e+01,1.846140742301940918e+00,1.755118727684020996e+00,8.456836700439453125e+00,-6.671069622039794922e+00,2.275400352478027344e+01,2.226073741912841797e-01,6.944156646728515625e+00,-4.070362567901611328e+00,1.282698535919189453e+01,-2.328781366348266602e+00,1.893952369689941406e+01,-1.180480575561523438e+01,-4.043326854705810547e+00,3.119922161102294922e+00,1.921544551849365234e+00,8.800813674926757812e+00,5.478748321533203125e+00,1.447718311101198196e-02
-2.983850717544555664e+00,6.759692192077636719e+00,-1.255959224700927734e+01,6.089718341827392578e-01,2.196408510208129883e+00,6.653004646301269531e+00,-7.750532627105712891e+00,2.320763587951660156e+01,2.806317508220672607e-01,7.947927951812744141e+00,-3.599169731140136719e+00,1.575204467773437500e+01,-1.622208714485168457e+00,2.067681121826171875e+01,-1.129601860046386719e+01,-1.689489960670471191e+00,3.970830917358398438e+00,2.513409852981567383e+00,9.693828582763671875e+00,5.192904949188232422e+00,1.488377992063760757e-02
-3.570274591445922852e+00,8.302916526794433594e+00,-1.030810928344726562e+01,-4.283051192760467529e-01,1.504085779190063477e+00,5.551171779632568359e+00,-7.897732257843017578e+00,2.349148559570312500e+01,1.058158516883850098e+00,9.368806838989257812e+00,-2.306868314743041992e+00,1.830496025085449219e+01,-2.381408065557479858e-01,2.250511741638183594e+01,-1.007678985595703125e+01,1.387178897857666016e+00,5.129963397979736328e+00,3.917890310287475586e+00,1.124172210693359375e+01,4.968847274780273438e+00,1.415019948035478592e-02
-4.656091213226318359e+00,1.049130058288574219e+01,-7.947882652282714844e+00,-9.955659508705139160e-01,-5.755248069763183594e-01,5.264267921447753906e+00,-7.197419166564941406e+00,2.343047142028808594e+01,2.331793785095214844e+00,1.103723812103271484e+01,-4.260730147361755371e-01,2.005404090881347656e+01,1.692575812339782715e+00,2.423844718933105469e+01,-8.382900238037109375e+00,4.902489185333251953e+00,6.349687099456787109e+00,5.898239612579345703e+00,1.319742584228515625e+01,4.936256885528564453e+00,1.240154821425676346e-02
-6.276527881622314453e+00,1.291194343566894531e+01,-5.780428409576416016e+00,-8.551013469696044922e-01,-3.767608165740966797e+00,5.761771678924560547e+00,-5.877084732055664062e+00,2.284154701232910156e+01,3.820119142532348633e+00,1.270905971527099609e+01,1.701253652572631836e+00,2.073382568359375000e+01,3.884985923767089844e+00,2.560770034790039062e+01,-6.592837333679199219e+00,8.411622047424316406e+00,7.387637615203857422e+00,8.070545196533203125e+00,1.514419937133789062e+01,5.115503311157226562e+00,9.808425791561603546e-03
-8.151841163635253906e+00,1.519323158264160156e+01,-3.912019014358520508e+00,6.332093477249145508e-02,-7.255646228790283203e+00,6.952117443084716797e+00,-4.173139095306396484e+00,2.164778137207031250e+01,5.293938636779785156e+00,1.411298274993896484e+01,3.727184534072875977e+00,2.031206130981445312e+01,6.013426780700683594e+00,2.636751556396484375e+01,-5.057168006896972656e+00,1.148211193084716797e+01,8.083117485046386719e+00,1.003489875793457031e+01,1.668316268920898438e+01,5.399309635162353516e+00,6.484566722065210342e-03
-9.797142982482910156e+00,1.712871360778808594e+01,-2.273453474044799805e+00,1.603028893470764160e+00,-9.911311149597167969e+00,8.688801765441894531e+00,-2.241703271865844727e+00,1.991814804077148438e+01,6.654610157012939453e+00,1.503875827789306641e+01,5.433022022247314453e+00,1.903932571411132812e+01,7.819111824035644531e+00,2.636751556396484375e+01,-3.993057966232299805e+00,1.381123733520507812e+01,8.422953605651855469e+00,1.151296234130859375e+01,1.759106063842773438e+01,5.581272125244140625e+00,2.495366847142577171e-03
-1.067159843444824219e+01,1.866161537170410156e+01,-7.238598465919494629e-01,3.407458543777465820e+00,-1.072782897949218750e+01,1.072154617309570312e+01,-1.184622421860694885e-01,1.787813377380371094e+01,7.922442913055419922e+00,1.538804340362548828e+01,6.779003620147705078e+00,1.731753540039062500e+01,9.206088066101074219e+00,2.561165618896484375e+01,-3.409813880920410156e+00,1.531868171691894531e+01,8.528329849243164062e+00,1.242475509643554688e+01,1.787087249755859375e+01,5.433937072753906250e+00,-1.980043482035398483e-03
-1.035455703735351562e+01,1.979193687438964844e+01,8.109051585197448730e-01,5.025502681732177734e+00,-9.255983352661132812e+00,1.263220405578613281e+01,2.174281358718872070e+00,1.575853633880615234e+01,9.146758079528808594e+00,1.518457698822021484e+01,7.854595661163330078e+00,1.550891017913818359e+01,1.021215343475341797e+01,2.419887351989746094e+01,-3.189546108245849609e+00,1.610329437255859375e+01,8.567845344543457031e+00,1.283426189422607422e+01,1.771310615539550781e+01,4.803180217742919922e+00,-6.520850583910942078e-03
-8.698893547058105469e+00,2.045774269104003906e+01,2.251755475997924805e+00,6.068181991577148438e+00,-5.834006309509277344e+00,1.388969707489013672e+01,4.551775932312011719e+00,1.369199466705322266e+01,1.032465267181396484e+01,1.450635242462158203e+01,8.793004989624023438e+00,1.379704380035400391e+01,1.093035697937011719e+01,2.227163314819335938e+01,-3.174034357070922852e+00,1.638130569458007812e+01,8.641608238220214844e+00,1.287905120849609375e+01,1.733208656311035156e+01,3.679495811462402344e+00,-1.048446074128150940e-02
-5.915970325469970703e+00,2.050935554504394531e+01,3.413332700729370117e+00,6.354513645172119141e+00,-1.495098471641540527e+00,1.403314876556396484e+01,6.813295364379882812e+00,1.163871765136718750e+01,1.133717823028564453e+01,1.345849704742431641e+01,9.673758506774902344e+00,1.212239074707031250e+01,1.144502067565917969e+01,1.992886734008789062e+01,-3.167829751968383789e+00,1.630716896057128906e+01,8.728543281555175781e+00,1.265830230712890625e+01,1.685878944396972656e+01,2.213613986968994141e+00,-1.321406289935112000e-02
-2.577705621719360352e+00,1.979709815979003906e+01,4.107807636260986328e+00,5.943924903869628906e+00,2.434229135513305664e+00,1.287637710571289062e+01,8.668901443481445312e+00,9.442188262939453125e+00,1.199865627288818359e+01,1.210204887390136719e+01,1.047896194458007812e+01,1.026166629791259766e+01,1.177359199523925781e+01,1.723785400390625000e+01,-3.006506919860839844e+00,1.601062202453613281e+01,8.689027786254882812e+00,1.219120788574218750e+01,1.629618835449218750e+01,6.676145792007446289e-01,-1.434571016579866409e-02
5.595585703849792480e-01,1.828484153747558594e+01,4.273394107818603516e+00,5.060618877410888672e+00,4.849431514739990234e+00,1.063608551025390625e+01,9.873260498046875000e+00,6.967113971710205078e+00,1.213211250305175781e+01,1.048787593841552734e+01,1.112511253356933594e+01,7.966772079467773438e+00,1.189280796051025391e+01,1.425399398803710938e+01,-2.541152477264404297e+00,1.557815933227539062e+01,8.393975257873535156e+00,1.147777080535888672e+01,1.558773040771484375e+01,-6.889541149139404297e-01,-1.395617332309484482e-02
2.822367429733276367e+00,1.617903709411621094e+01,4.050964355468750000e+00,3.963914394378662109e+00,5.298648357391357422e+00,7.873872280120849609e+00,1.037730693817138672e+01,4.237369537353515625e+00,1.171723747253417969e+01,8.724493980407714844e+00,1.155057716369628906e+01,5.135989189147949219e+00,1.180266857147216797e+01,1.110392379760742188e+01,-1.650774598121643066e+00,1.506538105010986328e+01,7.840753078460693359e+00,1.058517360687255859e+01,1.472150516510009766e+01,-1.682277441024780273e+00,-1.252881903201341629e-02
3.875029325485229492e+00,1.390291023254394531e+01,3.732148647308349609e+00,2.845600366592407227e+00,4.051410675048828125e+00,5.249007225036621094e+00,1.038622856140136719e+01,1.512930631637573242e+00,1.096292114257812500e+01,7.005197048187255859e+00,1.179114437103271484e+01,1.903290033340454102e+00,1.156132888793945312e+01,8.009257316589355469e+00,-2.733258008956909180e-01,1.454642486572265625e+01,7.216402053833007812e+00,9.711771965026855469e+00,1.380765247344970703e+01,-2.275691270828247070e+00,-1.069202367216348648e-02
3.887462377548217773e+00,1.202420234680175781e+01,3.618462324142456055e+00,1.854244470596313477e+00,1.881956577301025391e+00,3.277305841445922852e+00,1.028363513946533203e+01,-8.056279420852661133e-01,1.024341869354248047e+01,5.608055591583251953e+00,1.198001956939697266e+01,-1.383990645408630371e+00,1.128800487518310547e+01,5.278669834136962891e+00,1.560170173645019531e+00,1.413249588012695312e+01,6.847587108612060547e+00,9.164696693420410156e+00,1.306049633026123047e+01,-2.556103229522705078e+00,-8.946215733885765076e-03
3.489605903625488281e+00,1.106420326232910156e+01,3.858192205429077148e+00,1.178933858871459961e+00,-3.271342217922210693e-01,2.209046840667724609e+00,1.044421577453613281e+01,-2.325689792633056641e+00,9.932988166809082031e+00,4.800969600677490234e+00,1.226830196380615234e+01,-4.291683197021484375e+00,1.107865047454833984e+01,3.153559923171997070e+00,3.697697639465332031e+00,1.391008567810058594e+01,7.071510791778564453e+00,9.209486007690429688e+00,1.267947673797607422e+01,-2.646405220031738281e+00,-7.513174787163734436e-03
3.427440881729125977e+00,1.127065467834472656e+01,4.350008964538574219e+00,1.089792966842651367e+00,-2.015661716461181641e+00,2.117481708526611328e+00,1.104193496704101562e+01,-2.866863727569580078e+00,1.021150493621826172e+01,4.678889274597167969e+00,1.265201568603515625e+01,-6.477415084838867188e+00,1.091872596740722656e+01,1.728905200958251953e+00,5.829020500183105469e+00,1.387919616699218750e+01,8.054139137268066406e+00,9.906928062438964844e+00,1.269733715057373047e+01,-2.600235939025878906e+00,-6.353093776851892471e-03
4.142339229583740234e+00,1.249387931823730469e+01,4.762739658355712891e+00,1.829933285713195801e+00,-3.128134489059448242e+00,2.981245517730712891e+00,1.191621112823486328e+01,-2.548526048660278320e+00,1.092810630798339844e+01,5.072258949279785156e+00,1.288264179229736328e+01,-7.809693813323974609e+00,1.059887886047363281e+01,8.543255329132080078e-01,7.485682010650634766e+00,1.388537406921386719e+01,9.642677307128906250e+00,1.101707553863525391e+01,1.289677715301513672e+01,-2.366672515869140625e+00,-5.374986212700605392e-03
5.466455459594726562e+00,1.409903907775878906e+01,4.678710460662841797e+00,3.437172412872314453e+00,-4.008071422576904297e+00,4.727086067199707031e+00,1.262990570068359375e+01,-1.760640621185302734e+00,1.165631198883056641e+01,5.560580253601074219e+00,1.250688076019287109e+01,-8.410087585449218750e+00,9.758551597595214844e+00,1.776146143674850464e-01,8.084437370300292969e+00,1.362589550018310547e+01,1.140508556365966797e+01,1.205043983459472656e+01,1.284021949768066406e+01,-1.821464896202087402e+00,-4.541888833045959473e-03
6.699396133422851562e+00,1.518290901184082031e+01,3.788991689682006836e+00,5.606269836425781250e+00,-5.049197673797607422e+00,7.168821334838867188e+00,1.261652374267578125e+01,-9.992833137512207031e-01,1.186810111999511719e+01,5.645358085632324219e+00,1.106546783447265625e+01,-8.578793525695800781e+00,8.008112907409667969e+00,-7.207092642784118652e-01,7.069965362548828125e+00,1.269301033020019531e+01,1.276443290710449219e+01,1.245674800872802734e+01,1.203948211669921875e+01,-8.811007142066955566e-01,-3.924885299056768417e-03
6.943912029266357422e+00,1.489387702941894531e+01,2.071340084075927734e+00,7.729445934295654297e+00,-6.322860240936279297e+00,9.915773391723632812e+00,1.146569156646728516e+01,-6.703344583511352539e-01,1.118631458282470703e+01,4.953569889068603516e+00,8.343682289123535156e+00,-8.650741577148437500e+00,5.126576423645019531e+00,-2.137449026107788086e+00,4.135130882263183594e+00,1.076545906066894531e+01,1.325706386566162109e+01,1.186168289184570312e+01,1.019391727447509766e+01,3.967081904411315918e-01,-3.649081569164991379e-03
5.623939990997314453e+00,1.280355644226074219e+01,-1.430711597204208374e-01,9.144896507263183594e+00,-7.387768745422363281e+00,1.235445594787597656e+01,9.079275131225585938e+00,-9.223517179489135742e-01,9.590643882751464844e+00,3.451303958892822266e+00,4.576127052307128906e+00,-8.824409484863281250e+00,1.244789123535156250e+00,-4.080519676208496094e+00,-5.060029625892639160e-01,7.781460285186767578e+00,1.273545455932617188e+01,1.026844596862792969e+01,7.383895874023437500e+00,1.760745525360107422e+00,-3.802621737122535706e-03
2.923903703689575195e+00,9.170011520385742188e+00,-2.263567686080932617e+00,9.433929443359375000e+00,-7.377198696136474609e+00,1.377371501922607422e+01,5.791820049285888672e+00,-1.598819017410278320e+00,7.449544429779052734e+00,1.474281430244445801e+00,4.606444537639617920e-01,-9.094834327697753906e+00,-3.137123584747314453e+00,-6.257075309753417969e+00,-6.037514686584472656e+00,4.062274456024169922e+00,1.146831130981445312e+01,8.057748794555664062e+00,4.097599506378173828e+00,2.820607185363769531e+00,-4.331482108682394028e-03
-2.361544221639633179e-01,4.896468162536621094e+00,-3.657460689544677734e+00,8.637063026428222656e+00,-5.469347953796386719e+00,1.374929714202880859e+01,2.241190195083618164e+00,-2.325689792633056641e+00,5.337456703186035156e+00,-4.281364679336547852e-01,-3.078272819519042969e+00,-9.303236007690429688e+00,-7.280604362487792969e+00,-8.188273429870605469e+00,-1.121225452423095703e+01,2.195274233818054199e-01,9.993051528930664062e+00,5.808660030364990234e+00,1.037533521652221680e+00,3.207616329193115234e+00,-5.110556259751319885e-03
-2.596355199813842773e+00,1.211310863494873047e+00,-3.921904802322387695e+00,7.267533779144287109e+00,-1.410539984703063965e+00,1.243076038360595703e+01,-8.455384969711303711e-01,-2.702389240264892578e+00,3.799810647964477539e+00,-1.767628550529479980e+00,-5.267232418060302734e+00,-9.246173858642578125e+00,-1.048489570617675781e+01,-9.442761421203613281e+00,-1.475515174865722656e+01,-3.067195177078247070e+00,8.883972167968750000e+00,4.045861244201660156e+00,-1.156307578086853027e+00,2.762895345687866211e+00,-6.031796801835298538e-03
-3.110253095626831055e+00,-7.654612660408020020e-01,-3.014885902404785156e+00,6.105999469757080078e+00,4.188817977905273438e+00,1.063913726806640625e+01,-2.879567861557006836e+00,-2.506081104278564453e+00,3.144134998321533203e+00,-2.310207605361938477e+00,-5.768247604370117188e+00,-8.814485549926757812e+00,-1.232547378540039062e+01,-9.798925399780273438e+00,-1.582546710968017578e+01,-5.316005229949951172e+00,8.512523651123046875e+00,3.041289806365966797e+00,-2.153507947921752930e+00,1.627668619155883789e+00,-7.089517544955015182e-03
-1.423507332801818848e+00,-4.454616010189056396e-01,-1.270048379898071289e+00,5.835875034332275391e+00,9.933510780334472656e+00,9.561721801757812500e+00,-3.624486446380615234e+00,-1.747376561164855957e+00,3.335615634918212891e+00,-2.164389610290527344e+00,-4.798027515411376953e+00,-8.057790756225585938e+00,-1.279361438751220703e+01,-9.347784042358398438e+00,-1.439838027954101562e+01,-6.440410137176513672e+00,8.918219566345214844e+00,2.721362590789794922e+00,-2.049322843551635742e+00,2.174618840217590332e-01,-8.329211734235286713e-03
1.966561436653137207e+00,1.954535841941833496e+00,7.639477849006652832e-01,6.697571277618408203e+00,1.410065937042236328e+01,1.014468574523925781e+01,-3.214112043380737305e+00,-6.756401062011718750e-01,4.075426578521728516e+00,-1.686241745948791504e+00,-3.008687496185302734e+00,-7.182009220123291016e+00,-1.227022743225097656e+01,-8.421758651733398438e+00,-1.127119922637939453e+01,-6.804915428161621094e+00,9.811278343200683594e+00,2.762953042984008789e+00,-1.275376200675964355e+00,-9.510339498519897461e-01,-9.631459601223468781e-03
5.969992637634277344e+00,5.551951408386230469e+00,2.570571184158325195e+00,8.426366806030273438e+00,1.533732700347900391e+01,1.258336925506591797e+01,-2.054358482360839844e+00,3.907907307147979736e-01,4.983508110046386719e+00,-1.235222816467285156e+00,-1.169643282890319824e+00,-6.432757377624511719e+00,-1.130196094512939453e+01,-7.412628650665283203e+00,-7.740711212158203125e+00,-6.996434688568115234e+00,1.075965976715087891e+01,2.804543733596801758e+00,-3.793841898441314697e-01,-1.469082951545715332e+00,-1.066927704960107803e-02
9.345556259155273438e+00,9.175172805786132812e+00,3.865606546401977539e+00,1.040637683868408203e+01,1.324186229705810547e+01,1.613609313964843750e+01,-6.403513550758361816e-01,1.186634659767150879e+00,5.772639751434326172e+00,-1.011408925056457520e+00,1.246461346745491028e-01,-5.953930854797363281e+00,-1.038894176483154297e+01,-6.585537433624267578e+00,-5.085089206695556641e+00,-7.608061790466308594e+00,1.137610721588134766e+01,2.628583669662475586e+00,2.248895317316055298e-01,-1.198855519294738770e+00,-1.096782740205526352e-02
1.119393062591552734e+01,1.178678321838378906e+01,4.681181907653808594e+00,1.198930454254150391e+01,8.533010482788085938e+00,1.942938423156738281e+01,6.532199382781982422e-01,1.653529763221740723e+00,6.349982261657714844e+00,-9.503688216209411621e-01,6.614481806755065918e-01,-5.666138648986816406e+00,-9.792861938476562500e+00,-5.968186855316162109e+00,-4.089231014251708984e+00,-8.923986434936523438e+00,1.147094535827636719e+01,2.247870206832885742e+00,4.153994619846343994e-01,-3.033029735088348389e-01,-1.014326047152280807e-02
1.123122978210449219e+01,1.294291114807128906e+01,5.269384860992431641e+00,1.278347015380859375e+01,2.751323461532592773e+00,2.110502433776855469e+01,1.683616280555725098e+00,1.966561675071716309e+00,6.785165309906005859e+00,-7.875950932502746582e-01,6.097561717033386230e-01,-5.259260177612304688e+00,-9.458476066589355469e+00,-5.362709045410156250e+00,-4.796569824218750000e+00,-1.082064819335937500e+01,1.109949684143066406e+01,1.873555421829223633e+00,3.588418364524841309e-01,8.482187986373901367e-01,-8.155768737196922302e-03
9.720618247985839844e+00,1.277775001525878906e+01,5.904545307159423828e+00,1.269703006744384766e+01,-2.385605096817016602e+00,2.047322654724121094e+01,2.482062101364135742e+00,2.449373722076416016e+00,7.211644172668457031e+00,-2.416249066591262817e-01,3.592485189437866211e-01,-4.331378936767578125e+00,-9.121182441711425781e+00,-4.484171867370605469e+00,-6.654884815216064453e+00,-1.287793827056884766e+01,1.047514533996582031e+01,1.780776619911193848e+00,3.975391685962677002e-01,1.865984797477722168e+00,-5.409106146544218063e-03
7.223654747009277344e+00,1.181775093078613281e+01,6.665749549865722656e+00,1.182452869415283203e+01,-5.686028957366943359e+00,1.774763870239257812e+01,3.111005306243896484e+00,3.396427869796752930e+00,7.684543132781982422e+00,8.096220493316650391e-01,2.976156771183013916e-01,-2.579816579818725586e+00,-8.496025085449218750e+00,-3.130749940872192383e+00,-8.851357460021972656e+00,-1.460779190063476562e+01,9.795472145080566406e+00,2.116700172424316406e+00,8.202331066131591797e-01,2.495383739471435547e+00,-2.588517265394330025e-03
4.337122917175292969e+00,1.063581657409667969e+01,7.342924118041992188e+00,1.030643081665039062e+01,-6.869847774505615234e+00,1.387138462066650391e+01,3.579367399215698242e+00,4.919142723083496094e+00,8.111021995544433594e+00,2.247456550598144531e+00,6.634363532066345215e-01,2.023641020059585571e-02,-7.425989627838134766e+00,-1.290571093559265137e+00,-1.067864799499511719e+01,-1.567041683197021484e+01,9.134240150451660156e+00,2.817340850830078125e+00,1.731108784675598145e+00,2.686851501464843750e+00,-3.479688602965325117e-04
1.500323414802551270e+00,9.613882064819335938e+00,7.550525188446044922e+00,8.296707153320312500e+00,-6.526329040527343750e+00,1.003480815887451172e+01,3.771172761917114258e+00,6.906099319458007812e+00,8.290898323059082031e+00,3.763286828994750977e+00,1.490509152412414551e+00,3.180987834930419922e+00,-5.922705650329589844e+00,8.701550364494323730e-01,-1.169312095642089844e+01,-1.594842910766601562e+01,8.428222656250000000e+00,3.636354446411132812e+00,3.025980949401855469e+00,2.576180458068847656e+00,9.485921473242342472e-04
-1.054661273956298828e+00,8.937754631042480469e+00,6.932664871215820312e+00,6.062779426574707031e+00,-5.717738628387451172e+00,7.232916831970214844e+00,3.552603721618652344e+00,9.054878234863281250e+00,8.029788017272949219e+00,5.028174400329589844e+00,2.655568361282348633e+00,6.398801326751708984e+00,-4.143189907073974609e+00,3.094199180603027344e+00,-1.171793937683105469e+01,-1.551596546173095703e+01,7.556238651275634766e+00,4.257013320922851562e+00,4.484572887420654297e+00,2.395576238632202148e+00,1.301165786571800709e-03
-3.222150325775146484e+00,8.690012931823730469e+00,5.402842998504638672e+00,4.028744220733642578e+00,-5.411213874816894531e+00,5.975423336029052734e+00,2.870133399963378906e+00,1.102591800689697266e+01,7.252261638641357422e+00,5.845434188842773438e+00,3.987632751464843750e+00,9.157635688781738281e+00,-2.273534774780273438e+00,5.148076057434082031e+00,-1.071587657928466797e+01,-1.450894355773925781e+01,6.470869064331054688e+00,4.455368041992187500e+00,5.892560005187988281e+00,2.354159355163574219e+00,9.002554579637944698e-04
-4.925473213195800781e+00,9.004851341247558594e+00,3.240331888198852539e+00,2.737550497055053711e+00,-6.077112197875976562e+00,6.359996795654296875e+00,1.875421762466430664e+00,1.257781410217285156e+01,6.091773986816406250e+00,6.238803863525390625e+00,5.373377323150634766e+00,1.110023307800292969e+01,-4.504033327102661133e-01,6.905150413513183594e+00,-8.699340820312500000e+00,-1.302003383636474609e+01,5.261682987213134766e+00,4.212223529815673828e+00,7.142781734466552734e+00,2.557169437408447266e+00,-1.091286758310161531e-04
-6.034083843231201172e+00,1.010420417785644531e+01,1.001206159591674805e+00,2.675421953201293945e+00,-7.681080818176269531e+00,8.200454711914062500e+00,8.851706385612487793e-01,1.364424419403076172e+01,4.844249725341796875e+00,6.432097911834716797e+00,6.759121894836425781e+00,1.218689632415771484e+01,1.238973736763000488e+00,8.333762168884277344e+00,-5.792428016662597656e+00,-1.112337207794189453e+01,4.149969577789306641e+00,3.706738471984863281e+00,8.208446502685546875e+00,2.999853610992431641e+00,-1.726986607536673546e-03
-6.373919486999511719e+00,1.216355705261230469e+01,-7.115026712417602539e-01,4.066561698913574219e+00,-9.850535392761230469e+00,1.118547534942626953e+01,2.517667710781097412e-01,1.432867050170898438e+01,3.837526559829711914e+00,6.706778526306152344e+00,8.130949974060058594e+00,1.259873676300048828e+01,2.727719068527221680e+00,9.445784568786621094e+00,-2.289861202239990234e+00,-8.893095970153808594e+00,3.378092527389526367e+00,3.207651853561401367e+00,9.092532157897949219e+00,3.602093935012817383e+00,-4.032931756228208542e-03
-5.822722434997558594e+00,1.514161872863769531e+01,-1.534492611885070801e+00,6.740791320800781250e+00,-1.222609996795654297e+01,1.498847770690917969e+01,1.580943763256072998e-01,1.479025936126708984e+01,3.274689912796020508e+00,7.249357700347900391e+00,9.415298461914062500e+00,1.261858463287353516e+01,3.911155462265014648e+00,1.021351528167724609e+01,1.302674174308776855e+00,-6.520725250244140625e+00,3.098847150802612305e+00,2.935713768005371094e+00,9.729549407958984375e+00,4.280378341674804688e+00,-7.024121005088090897e-03
-4.453018665313720703e+00,1.866677665710449219e+01,-1.492478013038635254e+00,1.017677116394042969e+01,-1.462280559539794922e+01,1.924014854431152344e+01,4.926386773586273193e-01,1.514043140411376953e+01,3.120925426483154297e+00,8.076790809631347656e+00,1.044118690490722656e+01,1.249205493927001953e+01,4.617727756500244141e+00,1.053406238555908203e+01,4.342988967895507812e+00,-4.259558677673339844e+00,3.270082473754882812e+00,2.938913106918334961e+00,9.973640441894531250e+00,4.993289947509765625e+00,-1.047593075782060623e-02
-2.625365495681762695e+00,2.206290054321289062e+01,-9.611182212829589844e-01,1.368028259277343750e+01,-1.698780059814453125e+01,2.348876762390136719e+01,8.628676533699035645e-01,1.538979530334472656e+01,3.132530212402343750e+00,9.056823730468750000e+00,1.094617843627929688e+01,1.234071636199951172e+01,4.672974109649658203e+00,1.028474807739257812e+01,6.300579547882080078e+00,-2.369075536727905273e+00,3.675778865814208984e+00,3.095677375793457031e+00,9.655131340026855469e+00,5.738112449645996094e+00,-1.396470330655574799e-02
-9.178981184959411621e-01,2.457644653320312500e+01,-4.594156444072723389e-01,1.663003921508789062e+01,-1.919424819946289062e+01,2.720325851440429688e+01,8.138011693954467773e-01,1.546672725677490234e+01,2.993271589279174805e+00,1.001990222930908203e+01,1.067181301116943359e+01,1.218193435668945312e+01,3.969309568405151367e+00,9.425997734069824219e+00,6.924154281616210938e+00,-9.975484013557434082e-01,4.049862861633300781e+00,3.214050531387329102e+00,8.696628570556640625e+00,6.515525341033935547e+00,-1.697579585015773773e-02
-1.028797682374715805e-02,2.567580032348632812e+01,-3.605580031871795654e-01,1.864516448974609375e+01,-2.088277626037597656e+01,2.984643554687500000e+01,4.211901873350143433e-02,1.531021118164062500e+01,2.497163295745849609e+00,1.089820194244384766e+01,9.500788688659667969e+00,1.203059482574462891e+01,2.570703029632568359e+00,8.064661026000976562e+00,6.375036239624023438e+00,-4.612872377038002014e-02,4.197388648986816406e+00,3.175659179687500000e+00,7.217199802398681641e+00,7.284111976623535156e+00,-1.914241723716259003e-02
-4.537321925163269043e-01,2.523709106445312500e+01,-7.090312242507934570e-01,1.961761283874511719e+01,-2.147997093200683594e+01,3.100320816040039062e+01,-1.456639409065246582e+00,1.499452590942382812e+01,1.658710837364196777e+00,1.175954627990722656e+01,7.572277545928955078e+00,1.196609020233154297e+01,7.592023015022277832e-01,6.521285057067871094e+00,5.177524566650390625e+00,8.187982439994812012e-01,4.094647407531738281e+00,3.012496232986450195e+00,5.565121173858642578e+00,7.935237884521484375e+00,-2.041907422244548798e-02
-2.380849599838256836e+00,2.363193130493164062e+01,-1.198376536369323730e+00,1.961761283874511719e+01,-2.043884468078613281e+01,3.049654769897460938e+01,-3.361311435699462891e+00,1.475312042236328125e+01,6.984072923660278320e-01,1.274636173248291016e+01,5.281922340393066406e+00,1.213231468200683594e+01,-1.066836953163146973e+00,5.167863368988037109e+00,3.958296060562133789e+00,2.035874128341674805e+00,3.899702310562133789e+00,2.897322654724121094e+00,4.195830821990966797e+00,8.310704231262207031e+00,-2.101048827171325684e-02
-5.358556747436523438e+00,2.154161262512207031e+01,-1.359020233154296875e+00,1.880723953247070312e+01,-1.759028053283691406e+01,2.852179527282714844e+01,-5.190153598785400391e+00,1.490167808532714844e+01,-8.492186665534973145e-02,1.395020961761474609e+01,3.168512582778930664e+00,1.264835548400878906e+01,-2.517782211303710938e+00,4.340772151947021484e+00,3.223036289215087891e+00,3.988137960433959961e+00,3.847014427185058594e+00,3.012496232986450195e+00,3.490349054336547852e+00,8.277435302734375000e+00,-2.125217206776142120e-02
-8.497893333435058594e+00,1.974548530578613281e+01,-8.103603124618530273e-01,1.737558174133300781e+01,-1.337292480468750000e+01,2.565886116027832031e+01,-6.572936534881591797e+00,1.567099380493164062e+01,-4.939937889575958252e-01,1.526596355438232422e+01,1.731076002120971680e+00,1.350428962707519531e+01,-3.358109235763549805e+00,4.174562454223632812e+00,3.176500797271728516e+00,6.817684650421142578e+00,4.115722656250000000e+00,3.412405252456665039e+00,3.603464126586914062e+00,7.790618419647216797e+00,-2.149101346731185913e-02
-1.071096992492675781e+01,1.883709907531738281e+01,5.266894102096557617e-01,1.557925510406494141e+01,-8.753916740417480469e+00,2.274403953552246094e+01,-7.317855358123779297e+00,1.706106758117675781e+01,-5.259071588516235352e-01,1.639181518554687500e+01,1.240001559257507324e+00,1.453140926361083984e+01,-3.570371627807617188e+00,4.546555519104003906e+00,3.716311931610107422e+00,1.040713214874267578e+01,4.740073680877685547e+00,3.965879440307617188e+00,4.398247718811035156e+00,6.938519477844238281e+00,-2.195731922984123230e-02
-1.114612579345703125e+01,1.907967948913574219e+01,2.404984712600708008e+00,1.378292942047119141e+01,-4.901220321655273438e+00,2.062583351135253906e+01,-7.482897281646728516e+00,1.879070091247558594e+01,-3.692413568496704102e-01,1.693439483642578125e+01,1.647573471069335938e+00,1.545432949066162109e+01,-3.314493656158447266e+00,5.159948348999023438e+00,4.541540145874023438e+00,1.441668605804443359e+01,5.598885536193847656e+00,4.384984016418457031e+00,5.520470619201660156e+00,5.928901195526123047e+00,-2.272786386311054230e-02
-9.587854385375976562e+00,2.033903312683105469e+01,4.359894752502441406e+00,1.240529632568359375e+01,-2.813682556152343750e+00,1.987500000000000000e+01,-7.264328479766845703e+00,2.037177848815917969e+01,-2.851060032844543457e-01,1.655119705200195312e+01,2.617793560028076172e+00,1.601998901367187500e+01,-2.840537548065185547e+00,5.642747879028320312e+00,5.276800155639648438e+00,1.842006301879882812e+01,6.462965965270996094e+00,4.362589359283447266e+00,6.562321662902832031e+00,5.026558876037597656e+00,-2.375715039670467377e-02
-6.566631317138671875e+00,2.215064239501953125e+01,5.951502799987792969e+00,1.179211425781250000e+01,-2.982799530029296875e+00,2.057089424133300781e+01,-6.867335796356201172e+00,2.128434562683105469e+01,-4.823888838291168213e-01,1.515066528320312500e+01,3.651634454727172852e+00,1.610930442810058594e+01,-2.378212213516235352e+00,5.706066131591796875e+00,5.593240737915039062e+00,2.206511116027832031e+01,7.111026763916015625e+00,3.713136911392211914e+00,7.208269596099853516e+00,4.473203659057617188e+00,-2.488879859447479248e-02
-3.118541717529296875e+00,2.391580200195312500e+01,6.952436447143554688e+00,1.207304286956787109e+01,-5.263236522674560547e+00,2.225569152832031250e+01,-6.407895088195800781e+00,2.121802520751953125e+01,-9.872010350227355957e-01,1.290913581848144531e+01,4.299773216247558594e+00,1.580166435241699219e+01,-2.055456876754760742e+00,5.235138416290283203e+00,5.261288166046142578e+00,2.504911041259765625e+01,7.395540714263916016e+00,2.475018501281738281e+00,7.360082149505615234e+00,4.388333320617675781e+00,-2.594367600977420807e-02
-2.983194887638092041e-01,2.510289764404296875e+01,7.434367656707763672e+00,1.307520389556884766e+01,-8.973240852355957031e+00,2.410225486755371094e+01,-5.877084732055664062e+00,2.014894104003906250e+01,-1.631271719932556152e+00,1.021997833251953125e+01,4.333571910858154297e+00,1.528314208984375000e+01,-1.883902311325073242e+00,4.293283462524414062e+00,4.163052082061767578e+00,2.723613929748535156e+01,7.305971622467041016e+00,8.945781588554382324e-01,7.118968009948730469e+00,4.731209754943847656e+00,-2.671137638390064240e-02
1.315900325775146484e+00,2.544354248046875000e+01,7.683983325958251953e+00,1.439611148834228516e+01,-1.313510417938232422e+01,2.526818275451660156e+01,-5.194614410400390625e+00,1.835033416748046875e+01,-2.136083841323852539e+00,7.540993690490722656e+00,3.796769857406616211e+00,1.476710128784179688e+01,-1.773409485816955566e+00,3.066497564315795898e+00,2.357477188110351562e+00,2.855206489562988281e+01,6.937156677246093750e+00,-6.666666269302368164e-01,6.726041316986083984e+00,5.312402725219726562e+00,-2.700139768421649933e-02
1.771777510643005371e+00,2.492741394042968750e+01,7.992913246154785156e+00,1.557925510406494141e+01,-1.674997901916503906e+01,2.524987030029296875e+01,-4.298035621643066406e+00,1.619359779357910156e+01,-2.243428945541381836e+00,5.228250503540039062e+00,2.916016817092895508e+00,1.434285640716552734e+01,-1.601854801177978516e+00,1.736819982528686523e+00,6.172930076718330383e-02,2.898452758789062500e+01,6.433987617492675781e+00,-1.898386359214782715e+00,6.434322834014892578e+00,5.876620769500732422e+00,-2.673128060996532440e-02
1.533478140830993652e+00,2.375580215454101562e+01,8.502030372619628906e+00,1.628427886962890625e+01,-1.900135040283203125e+01,2.405647277832031250e+01,-3.187348604202270508e+00,1.398910999298095703e+01,-1.819850921630859375e+00,3.464868545532226562e+00,1.975619196891784668e+00,1.393101596832275391e+01,-1.284914851188659668e+00,4.308865368366241455e-01,-2.376727342605590820e+00,2.852735137939453125e+01,5.930818557739257812e+00,-2.615023374557495117e+00,6.386695384979248047e+00,6.190301895141601562e+00,-2.599485591053962708e-02
1.116972088813781738e+00,2.223322296142578125e+01,9.134718894958496094e+00,1.645175743103027344e+01,-1.941885757446289062e+01,2.215191841125488281e+01,-1.933922529220581055e+00,1.187747097015380859e+01,-8.943620324134826660e-01,2.261021137237548828e+00,1.220119953155517578e+00,1.335046958923339844e+01,-7.906048893928527832e-01,-8.275583386421203613e-01,-4.511152267456054688e+00,2.721142768859863281e+01,5.517219066619873047e+00,-2.790983438491821289e+00,6.592088699340820312e+00,6.119010925292968750e+00,-2.507930248975753784e-02
7.522702813148498535e-01,2.064871025085449219e+01,9.656192779541015625e+00,1.633290290832519531e+01,-1.799193191528320312e+01,2.021073913574218750e+01,-6.358907222747802734e-01,9.856027603149414062e+00,3.734707534313201904e-01,1.552277207374572754e+00,7.568796873092651367e-01,1.240274047851562500e+01,-1.596327424049377441e-01,-2.070173740386962891e+00,-5.947546005249023438e+00,2.513560295104980469e+01,5.243242263793945312e+00,-2.515846014022827148e+00,6.928458213806152344e+00,5.688548088073730469e+00,-2.434003539383411407e-02
3.336921036243438721e-01,1.925516319274902344e+01,9.829194068908691406e+00,1.641123771667480469e+01,-1.521471500396728516e+01,1.881284523010253906e+01,6.086140275001525879e-01,7.898251533508300781e+00,1.766055941581726074e+00,1.280987620353698730e+00,5.620403885841369629e-01,1.099355125427246094e+01,5.353089570999145508e-01,-3.316746473312377930e+00,-6.440821647644042969e+00,2.246050643920898438e+01,5.145770072937011719e+00,-1.898386359214782715e+00,7.243989944458007812e+00,5.074086189270019531e+00,-2.403295412659645081e-02
-3.687732517719268799e-01,1.825903511047363281e+01,9.552392959594726562e+00,1.717298889160156250e+01,-1.194071578979492188e+01,1.828482055664062500e+01,1.719301104545593262e+00,6.073116302490234375e+00,3.080308198928833008e+00,1.423414707183837891e+00,5.580641031265258789e-01,9.179965019226074219e+00,1.215712070465087891e+00,-4.547489643096923828e+00,-5.972364902496337891e+00,1.943326187133789062e+01,5.261682987213134766e+00,-1.034582972526550293e+00,7.422593116760253906e+00,4.528878688812255859e+00,-2.420639805495738983e-02
-1.390352725982666016e+00,1.790806770324707031e+01,8.934532165527343750e+00,1.892339324951171875e+01,-9.147642135620117188e+00,1.868770599365234375e+01,2.647103786468505859e+00,4.576929569244384766e+00,4.223388671875000000e+00,1.996513843536376953e+00,6.952468752861022949e-01,7.140610218048095703e+00,1.832145690917968750e+00,-5.659512042999267578e+00,-4.753136634826660156e+00,1.632570266723632812e+01,5.664745330810546875e+00,4.997033253312110901e-02,7.431523323059082031e+00,4.277662277221679688e+00,-2.470966801047325134e-02
-2.440942525863647461e+00,1.844484138488769531e+01,8.277129173278808594e+00,2.163544082641601562e+01,-7.575382709503173828e+00,1.998182678222656250e+01,3.378640651702880859e+00,3.664361953735351562e+00,5.206902027130126953e+00,3.010458469390869141e+00,9.676241874694824219e-01,5.138470172882080078e+00,2.393332958221435547e+00,-6.526176929473876953e+00,-3.143010854721069336e+00,1.339730739593505859e+01,6.452428340911865234e+00,1.377668261528015137e+00,7.327338218688964844e+00,4.435861110687255859e+00,-2.531529963016510010e-02
-3.006644725799560547e+00,2.003967857360839844e+01,7.960784435272216797e+00,2.493365669250488281e+01,-7.448544979095458984e+00,2.213970947265625000e+01,3.896069288253784180e+00,3.502540349960327148e+00,6.126588344573974609e+00,4.407599449157714844e+00,1.401042103767395020e+00,3.409236669540405273e+00,2.919627666473388672e+00,-7.040635585784912109e+00,-1.526680111885070801e+00,1.083341693878173828e+01,7.693227291107177734e+00,2.951710224151611328e+00,7.196362495422363281e+00,4.951872825622558594e+00,-2.589818276464939117e-02
-2.635726451873779297e+00,2.270289993286132812e+01,8.309257507324218750e+00,2.828319740295410156e+01,-8.323197364807128906e+00,2.520408821105957031e+01,4.230613708496093750e+00,4.064936637878417969e+00,7.086892127990722656e+00,6.055683612823486328e+00,1.997488856315612793e+00,2.109210252761840820e+00,3.434291601181030273e+00,-7.151442050933837891e+00,-1.957667469978332520e-01,8.720523834228515625e+00,9.405582427978515625e+00,4.730505466461181641e+00,7.107060909271240234e+00,5.638304710388183594e+00,-2.655215002596378326e-02
-1.251517295837402344e+00,2.617128372192382812e+01,9.458477973937988281e+00,3.118162918090820312e+01,-9.245412826538085938e+00,2.917801094055175781e+01,4.413497924804687500e+00,5.128714561462402344e+00,8.125528335571289062e+00,7.737678527832031250e+00,2.673461914062500000e+00,1.283048391342163086e+00,3.890801429748535156e+00,-6.925871372222900391e+00,6.946111917495727539e-01,7.052450656890869141e+00,1.149465560913085938e+01,6.579684734344482422e+00,7.029666423797607422e+00,6.239866256713867188e+00,-2.759849838912487030e-02
7.315486073493957520e-01,2.991837692260742188e+01,1.128487300872802734e+01,3.338854598999023438e+01,-9.105362892150878906e+00,3.390582275390625000e+01,4.462563991546630859e+00,6.364925384521484375e+00,9.149659156799316406e+00,9.206033706665039062e+00,3.228157281875610352e+00,8.662459850311279297e-01,4.143771648406982422e+00,-6.514304637908935547e+00,1.097918272018432617e+00,5.674745559692382812e+00,1.376286697387695312e+01,8.294494628906250000e+00,6.833202838897705078e+00,6.554905414581298828e+00,-2.940970286726951599e-02
2.600645303726196289e+00,3.329385757446289062e+01,1.344491291046142578e+01,3.499848556518554688e+01,-7.081243991851806641e+00,3.898768234252929688e+01,4.359970569610595703e+00,7.460537433624267578e+00,9.961999893188476562e+00,1.024032497406005859e+01,3.399138689041137695e+00,7.124260663986206055e-01,3.969309568405151367e+00,-6.126482009887695312e+00,1.032768607139587402e+00,4.346464633941650391e+00,1.593097209930419922e+01,9.628591537475585938e+00,6.315254211425781250e+00,6.496514320373535156e+00,-3.220470249652862549e-02
3.719616651535034180e+00,3.568869400024414062e+01,1.549620914459228516e+01,3.633289718627929688e+01,-2.993369340896606445e+00,4.380705642700195312e+01,4.056650638580322266e+00,8.232505798339843750e+00,1.033045482635498047e+01,1.068117046356201172e+01,2.967708826065063477e+00,6.652876734733581543e-01,3.146428823471069336e+00,-5.964229583740234375e+00,5.394930839538574219e-01,2.832842588424682617e+00,1.771709060668945312e+01,1.037082195281982422e+01,5.288286685943603516e+00,6.121726989746093750e+00,-3.585270047187805176e-02
3.802503347396850586e+00,3.674675750732421875e+01,1.707051658630371094e+01,3.774294662475585938e+01,2.590133905410766602e+00,4.765279006958007812e+01,3.507997751235961914e+00,8.630428314208984375e+00,1.010706138610839844e+01,1.051839637756347656e+01,1.840424537658691406e+00,6.082254648208618164e-01,1.567544460296630859e+00,-6.138354301452636719e+00,-3.167588710784912109e-01,9.732494950294494629e-01,1.891573905944824219e+01,1.042520999908447266e+01,3.701695919036865234e+00,5.589419364929199219e+00,-3.981062397360801697e-02
3.015079021453857422e+00,3.642675781250000000e+01,1.797506523132324219e+01,3.938259887695312500e+01,8.506586074829101562e+00,4.994496917724609375e+01,2.714012861251831055e+00,8.699400901794433594e+00,9.294719696044921875e+00,9.863910675048828125e+00,1.266342997550964355e-01,5.065058469772338867e-01,-6.975583434104919434e-01,-6.625111103057861328e+00,-1.411892652511596680e+00,-1.238492369651794434e+00,1.948213195800781250e+01,9.842942237854003906e+00,1.665620923042297363e+00,5.087665557861328125e+00,-4.322831332683563232e-02
1.833942651748657227e+00,3.496611404418945312e+01,1.823456573486328125e+01,4.109518814086914062e+01,1.338719749450683594e+01,5.035090637207031250e+01,1.692537546157836914e+00,8.497787475585937500e+00,8.070405006408691406e+00,8.941526412963867188e+00,-1.911225438117980957e+00,4.122291207313537598e-01,-3.407540082931518555e+00,-7.301822185516357422e+00,-2.618711471557617188e+00,-3.635575771331787109e+00,1.951111030578613281e+01,8.803178787231445312e+00,-5.579872727394104004e-01,4.770589828491210938e+00,-4.517315328121185303e-02
7.626311182975769043e-01,3.273127746582031250e+01,1.799730682373046875e+01,4.241069412231445312e+01,1.613270568847656250e+01,4.881871795654296875e+01,4.881780743598937988e-01,8.075989723205566406e+00,6.703930854797363281e+00,8.015750885009765625e+00,-3.947096824645996094e+00,4.469626545906066895e-01,-6.248368740081787109e+00,-7.990405082702636719e+00,-3.810018539428710938e+00,-5.983234882354736328e+00,1.917917823791503906e+01,7.561861515045166016e+00,-2.662526607513427734e+00,4.706767082214355469e+00,-4.492009803652763367e-02
9.124831855297088623e-02,3.000611877441406250e+01,1.742146110534667969e+01,4.279156875610351562e+01,1.626482772827148438e+01,4.556815719604492188e+01,-8.767626285552978516e-01,7.521552085876464844e+00,5.462209224700927734e+00,7.330744266510009766e+00,-5.696673870086669922e+00,7.719692587852478027e-01,-8.908919334411621094e+00,-8.508821487426757812e+00,-4.929971218109130859e+00,-8.065237045288085938e+00,1.868918037414550781e+01,6.378130435943603516e+00,-4.391999721527099609e+00,4.890766143798828125e+00,-4.218765348196029663e-02
-1.884945333003997803e-01,2.702805709838867188e+01,1.660835647583007812e+01,4.181642150878906250e+01,1.405573749542236328e+01,4.096243667602539062e+01,-2.406745195388793945e+00,7.009559154510498047e+00,4.507708072662353516e+00,7.025543689727783203e+00,-7.012833118438720703e+00,1.523702144622802734e+00,-1.117983818054199219e+01,-8.750221252441406250e+00,-6.006491184234619141e+00,-9.782735824584960938e+00,1.817547416687011719e+01,5.453540802001953125e+00,-5.618407249450683594e+00,5.246542930603027344e+00,-3.718338161706924438e-02
-2.921029925346374512e-01,2.391064071655273438e+01,1.557282352447509766e+01,3.937719726562500000e+01,1.037744331359863281e+01,3.547768783569335938e+01,-4.061624050140380859e+00,6.786722660064697266e+00,3.863637447357177734e+00,7.134059429168701172e+00,-7.881657123565673828e+00,2.774109125137329102e+00,-1.296226119995117188e+01,-8.671073913574218750e+00,-7.132648468017578125e+00,-1.117279624938964844e+01,1.771972465515136719e+01,4.896867752075195312e+00,-6.332819938659667969e+00,5.677684783935546875e+00,-3.053850680589675903e-02
-5.076085925102233887e-01,2.078806495666503906e+01,1.430250263214111328e+01,3.570621109008789062e+01,6.358272075653076172e+00,2.965720176696777344e+01,-5.734345912933349609e+00,7.123630046844482422e+00,3.474874019622802734e+00,7.622380733489990234e+00,-8.394601821899414062e+00,4.498381137847900391e+00,-1.421257495880126953e+01,-8.287208557128906250e+00,-8.398411750793457031e+00,-1.235898208618164062e+01,1.733773803710937500e+01,4.759298801422119141e+00,-6.591794013977050781e+00,6.089136600494384766e+00,-2.316004969179630280e-02
-1.050516963005065918e+00,1.785645484924316406e+01,1.283199501037597656e+01,3.127887535095214844e+01,2.975932121276855469e+00,2.413582801818847656e+01,-7.264328479766845703e+00,8.187408447265625000e+00,3.260183811187744141e+00,8.429467201232910156e+00,-8.688848495483398438e+00,6.619607448577880859e+00,-1.490751647949218750e+01,-7.614454746246337891e+00,-9.813089370727539062e+00,-1.345249652862548828e+01,1.703214836120605469e+01,5.050432682037353516e+00,-6.451888561248779297e+00,6.428617954254150391e+00,-1.600906066596508026e-02
-1.943621873855590820e+00,1.543065071105957031e+01,1.127498722076416016e+01,2.665974998474121094e+01,7.562715411186218262e-01,1.959420013427734375e+01,-8.446384429931640625e+00,9.954181671142578125e+00,3.187653303146362305e+00,9.514625549316406250e+00,-8.863805770874023438e+00,9.050954818725585938e+00,-1.502673244476318359e+01,-6.660727500915527344e+00,-1.130532550811767578e+01,-1.447187519073486328e+01,1.682403182983398438e+01,5.754272460937500000e+00,-5.922032833099365234e+00,6.684587478637695312e+00,-9.969816543161869049e-03
-2.923757791519165039e+00,1.387194252014160156e+01,9.816837310791015625e+00,2.234586715698242188e+01,-2.874974310398101807e-01,1.666106605529785156e+01,-9.106552124023437500e+00,1.219846153259277344e+01,3.294998407363891602e+00,1.083716201782226562e+01,-8.983095169067382812e+00,1.171055030822753906e+01,-1.457313060760498047e+01,-5.422069549560546875e+00,-1.272931003570556641e+01,-1.531826782226562500e+01,1.672655868530273438e+01,6.816431045532226562e+00,-4.987343311309814453e+00,6.880128860473632812e+00,-5.613826215267181396e-03
-3.483243703842163086e+00,1.345387840270996094e+01,8.620659828186035156e+00,1.872890281677246094e+01,-5.226757526397705078e-01,1.572099876403808594e+01,-9.177921295166015625e+00,1.453028392791748047e+01,3.602527618408203125e+00,1.232925415039062500e+01,-9.100397109985351562e+00,1.451156139373779297e+01,-1.363975715637207031e+01,-3.914309978485107422e+00,-1.391441154479980469e+01,-1.580015563964843750e+01,1.672655868530273438e+01,8.105737686157226562e+00,-3.671633958816528320e+00,7.050548553466796875e+00,-3.171401098370552063e-03
-3.137191295623779297e+00,1.423323249816894531e+01,7.728468894958496094e+00,1.609789466857910156e+01,-3.931955397129058838e-01,1.675873565673828125e+01,-8.700638771057128906e+00,1.654642105102539062e+01,4.084130287170410156e+00,1.385525798797607422e+01,-9.241556167602539062e+00,1.734234428405761719e+01,-1.238362789154052734e+01,-2.184937715530395508e+00,-1.463105773925781250e+01,-1.568895149230957031e+01,1.676080513000488281e+01,9.427037239074707031e+00,-2.046346187591552734e+00,7.224363327026367188e+00,-2.557240659371018410e-03
-1.694961547851562500e+00,1.601903724670410156e+01,7.056237220764160156e+00,1.465002822875976562e+01,-1.817993074655532837e-01,1.928898429870605469e+01,-7.817441463470458984e+00,1.796037101745605469e+01,4.638262748718261719e+00,1.523883438110351562e+01,-9.384702682495117188e+00,2.003915596008300781e+01,-1.097339057922363281e+01,-3.368439972400665283e-01,-1.457211303710937500e+01,-1.476224327087402344e+01,1.673446083068847656e+01,1.055957889556884766e+01,-2.394784539937973022e-01,7.405646324157714844e+00,-3.430144628509879112e-03
4.973934888839721680e-01,1.838806724548339844e+01,6.406248092651367188e+00,1.450146007537841797e+01,8.457317948341369629e-03,2.247850036621093750e+01,-6.715675830841064453e+00,1.867928314208984375e+01,5.090853214263916016e+00,1.627312660217285156e+01,-9.466217041015625000e+00,2.236630249023437500e+01,-9.539891242980957031e+00,1.487505435943603516e+00,-1.337770366668701172e+01,-1.288411617279052734e+01,1.656586074829101562e+01,1.130500984191894531e+01,1.585249543190002441e+00,7.593719005584716797e+00,-5.295373033732175827e-03
2.528119325637817383e+00,2.072612953186035156e+01,5.533829212188720703e+00,1.560896873474121094e+01,1.220827996730804443e-01,2.536280059814453125e+01,-5.622830867767333984e+00,1.874295043945312500e+01,5.206902027130126953e+00,1.675127410888671875e+01,-9.416513442993164062e+00,2.401366424560546875e+01,-8.132561683654785156e+00,3.066497564315795898e+00,-1.078102588653564453e+01,-1.007310390472412109e+01,1.614172363281250000e+01,1.149056720733642578e+01,3.234351158142089844e+00,7.804876804351806641e+00,-7.584257982671260834e-03
3.236801147460937500e+00,2.241902923583984375e+01,4.233851432800292969e+00,1.771863937377929688e+01,5.299592739902436733e-04,2.717273712158203125e+01,-4.730712890625000000e+00,1.825218009948730469e+01,4.794929027557373047e+00,1.653763389587402344e+01,-9.158053398132324219e+00,2.468848609924316406e+01,-6.731047630310058594e+00,4.154775619506835938e+00,-6.713829517364501953e+00,-6.496012687683105469e+00,1.539355564117431641e+01,1.101707553863525391e+01,4.532200336456298828e+00,8.078498840332031250e+00,-9.785000234842300415e-03
1.695107340812683105e+00,2.306935119628906250e+01,2.434642076492309570e+00,2.042798423767089844e+01,-7.261446118354797363e-01,2.760614395141601562e+01,-4.190981388092041016e+00,1.732104301452636719e+01,3.764996051788330078e+00,1.559151077270507812e+01,-8.613298416137695312e+00,2.422702598571777344e+01,-5.271379470825195312e+00,4.530725955963134766e+00,-1.424302101135253906e+00,-2.430855989456176758e+00,1.427657318115234375e+01,9.862137794494628906e+00,5.347820758819580078e+00,8.475013732910156250e+00,-1.157345809042453766e-02
-2.364272117614746094e+00,2.263064193725585938e+01,2.449451088905334473e-01,2.327509498596191406e+01,-2.491303205490112305e+00,2.687972831726074219e+01,-4.075006008148193359e+00,1.602116584777832031e+01,2.189634084701538086e+00,1.400107574462890625e+01,-7.706699371337890625e+00,2.267890357971191406e+01,-3.704126119613647461e+00,4.103329658508300781e+00,4.538437843322753906e+00,1.813464283943176270e+00,1.280394840240478516e+01,8.102538108825683594e+00,5.630609035491943359e+00,9.035837173461914062e+00,-1.293541584163904190e-02
-8.327975273132324219e+00,2.143838691711425781e+01,-2.041137933731079102e+00,2.583857345581054688e+01,-5.437638282775878906e+00,2.558866119384765625e+01,-4.356023311614990234e+00,1.440029621124267578e+01,3.154463768005371094e-01,1.197318649291992188e+01,-6.364694595336914062e+00,2.033687019348144531e+01,-2.017656803131103516e+00,2.947776317596435547e+00,1.046705150604248047e+01,5.965113639831542969e+00,1.107051849365234375e+01,5.914236068725585938e+00,5.443075656890869141e+00,9.716158866882324219e+00,-1.414951961487531662e-02
