Fp1,Fp2,F7,F3,Fz,F4,F8,T3,C3,Cz,C4,T4,T5,P3,Pz,P4,T6,O1,Oz,O2,A1
1.343259906768798828e+01,1.284560012817382812e+01,1.489607524871826172e+01,1.321658134460449219e+01,3.507521820068359375e+01,8.525874137878417969e+00,9.498368263244628906e+00,-2.403972387313842773e+00,1.703297042846679688e+01,1.109265136718750000e+01,-6.419703960418701172e+00,-1.434212779998779297e+01,-2.525051116943359375e+00,-7.304385185241699219e+00,-1.379357147216796875e+01,-1.465740299224853516e+01,1.339023399353027344e+01,1.349550437927246094e+01,-2.338279485702514648e+00,2.619263887405395508e+00,2.581101059913635254e-01
1.370374488830566406e+01,1.323006057739257812e+01,1.481939983367919922e+01,1.408752822875976562e+01,3.395089340209960938e+01,9.817659378051757812e+00,8.260447502136230469e+00,-2.838387250900268555e+00,1.567356777191162109e+01,1.027134513854980469e+01,-6.835691452026367188e+00,-1.452271747589111328e+01,-2.751718997955322266e+00,-8.726244926452636719e+00,-1.266992092132568359e+01,-1.483978271484375000e+01,1.414019870758056641e+01,1.287477779388427734e+01,-2.886752605438232422e+00,1.342671632766723633e+00,1.722112298011779785e-01
1.363197040557861328e+01,1.303966140747070312e+01,1.458937168121337891e+01,1.442310428619384766e+01,3.198286056518554688e+01,1.055283737182617188e+01,7.127954959869384766e+00,-3.042227983474731445e+00,1.430517387390136719e+01,9.488729476928710938e+00,-7.026025295257568359e+00,-1.405490303039550781e+01,-2.725246906280517578e+00,-9.661542892456054688e+00,-1.087732601165771484e+01,-1.406279468536376953e+01,1.438508510589599609e+01,1.195823478698730469e+01,-3.187220335006713867e+00,2.271653115749359131e-01,9.191558510065078735e-02
1.316623973846435547e+01,1.227989292144775391e+01,1.408330917358398438e+01,1.410692596435546875e+01,2.931512641906738281e+01,1.057183361053466797e+01,6.199514389038085938e+00,-2.995445013046264648e+00,1.298353290557861328e+01,8.781738281250000000e+00,-6.941650390625000000e+00,-1.291460418701171875e+01,-2.397653818130493164e+00,-1.005010509490966797e+01,-8.511974334716796875e+00,-1.237140846252441406e+01,1.401392936706542969e+01,1.076365852355957031e+01,-3.244452238082885742e+00,-6.750258803367614746e-01,2.259022742509841919e-02
1.226189136505126953e+01,1.097272586822509766e+01,1.315808486938476562e+01,1.304588317871093750e+01,2.619507598876953125e+01,9.751170158386230469e+00,5.558448791503906250e+00,-2.739808559417724609e+00,1.171943187713623047e+01,8.116954803466796875e+00,-6.582566738128662109e+00,-1.116889858245849609e+01,-1.762321710586547852e+00,-9.933192253112792969e+00,-5.766243934631347656e+00,-9.938011169433593750e+00,1.293681144714355469e+01,9.265184402465820312e+00,-3.123629331588745117e+00,-1.346308827400207520e+00,-3.223493695259094238e-02
1.086629199981689453e+01,9.123651504516601562e+00,1.166034603118896484e+01,1.117402744293212891e+01,2.292363929748535156e+01,8.022457122802734375e+00,5.257471084594726562e+00,-2.383922576904296875e+00,1.047870731353759766e+01,7.394134998321533203e+00,-5.980169773101806641e+00,-8.960536956787109375e+00,-8.688860535621643066e-01,-9.429437637329101562e+00,-2.891533613204956055e+00,-7.022431850433349609e+00,1.108103084564208984e+01,7.401386737823486328e+00,-2.940804958343505859e+00,-1.805926084518432617e+00,-7.118206471204757690e-02
8.918833732604980469e+00,6.705209732055664062e+00,9.452075958251953125e+00,8.450621604919433594e+00,1.977958869934082031e+01,5.374297142028808594e+00,5.306783676147460938e+00,-2.079832077026367188e+00,9.193029403686523438e+00,6.467307567596435547e+00,-5.201173782348632812e+00,-6.495910167694091797e+00,1.850371658802032471e-01,-8.714209556579589844e+00,-1.589194089174270630e-01,-3.899488449096679688e+00,8.391105651855468750e+00,5.093057632446289062e+00,-2.824751138687133789e+00,-2.099509239196777344e+00,-9.505160897970199585e-02
6.366880893707275391e+00,3.673460483551025391e+00,6.425928115844726562e+00,4.867907524108886719e+00,1.694754219055175781e+01,1.859881162643432617e+00,5.658774852752685547e+00,-1.992949247360229492e+00,7.758103847503662109e+00,5.169397354125976562e+00,-4.324068069458007812e+00,-4.008924007415771484e+00,1.243923902511596680e+00,-7.969753742218017578e+00,2.180198431015014648e+00,-8.040273785591125488e-01,4.842164993286132812e+00,2.267456293106079102e+00,-2.901060581207275391e+00,-2.282036781311035156e+00,-1.062712147831916809e-01
3.197674989700317383e+00,4.604874644428491592e-03,2.569122791290283203e+00,4.763190746307373047e-01,1.449765777587890625e+01,-2.372615814208984375e+00,6.216518878936767578e+00,-2.260281324386596680e+00,6.066043376922607422e+00,3.366744279861450195e+00,-3.431264162063598633e+00,-1.723167061805725098e+00,2.124123573303222656e+00,-7.347367286682128906e+00,3.935629844665527344e+00,2.104057312011718750e+00,4.648190438747406006e-01,-1.102897882461547852e+00,-3.277837514877319336e+00,-2.402438879013061523e+00,-1.082395687699317932e-01
-5.361505150794982910e-01,-4.255588531494140625e+00,-2.036551952362060547e+00,-4.594181060791015625e+00,1.239300823211669922e+01,-7.085732936859130859e+00,6.850782871246337891e+00,-2.955345153808593750e+00,4.043122768402099609e+00,9.960357546806335449e-01,-2.595364570617675781e+00,1.773306429386138916e-01,2.645294427871704102e+00,-6.943332195281982422e+00,5.002442359924316406e+00,4.754811286926269531e+00,-4.624228477478027344e+00,-4.969510555267333984e+00,-4.031392097473144531e+00,-2.489304304122924805e+00,-1.045390665531158447e-01
-4.687858104705810547e+00,-8.956995964050292969e+00,-7.189182281494140625e+00,-1.011664295196533203e+01,1.055051708221435547e+01,-1.195272445678710938e+01,7.432333469390869141e+00,-4.061432361602783203e+00,1.667764306068420410e+00,-1.900519967079162598e+00,-1.871310591697692871e+00,1.570455670356750488e+00,2.663494110107421875e+00,-6.769683361053466797e+00,5.371891975402832031e+00,7.158228397369384766e+00,-1.020496177673339844e+01,-9.203063011169433594e+00,-5.201467514038085938e+00,-2.548680782318115234e+00,-9.837156534194946289e-02
-9.018202781677246094e+00,-1.384148025512695312e+01,-1.257695293426513672e+01,-1.576906681060791016e+01,8.896337509155273438e+00,-1.660125160217285156e+01,7.862545013427734375e+00,-5.476622104644775391e+00,-9.935001134872436523e-01,-5.161123752593994141e+00,-1.298346519470214844e+00,2.409770488739013672e+00,2.119159936904907227e+00,-6.774841308593750000e+00,5.133607864379882812e+00,9.351783752441406250e+00,-1.595214176177978516e+01,-1.358209896087646484e+01,-6.767397880554199219e+00,-2.565723896026611328e+00,-9.216469526290893555e-02
-1.322573471069335938e+01,-1.858133506774902344e+01,-1.781648254394531250e+01,-2.117320442199707031e+01,7.402774810791015625e+00,-2.067037582397460938e+01,8.095504760742187500e+00,-7.025477886199951172e+00,-3.793222188949584961e+00,-8.521972656250000000e+00,-8.980565071105957031e-01,2.726233482360839844e+00,1.047037124633789062e+00,-6.850490093231201172e+00,4.449361324310302734e+00,1.137045383453369141e+01,-2.147547912597656250e+01,-1.782211875915527344e+01,-8.654462814331054688e+00,-2.519542217254638672e+00,-8.749313652515411377e-02
-1.699783897399902344e+01,-2.282688140869140625e+01,-2.251416969299316406e+01,-2.594304275512695312e+01,6.097523212432861328e+00,-2.387514495849609375e+01,8.129513740539550781e+00,-8.502488136291503906e+00,-6.528211116790771484e+00,-1.167002010345458984e+01,-6.939870715141296387e-01,2.602400064468383789e+00,-4.354043006896972656e-01,-6.877998828887939453e+00,3.515900135040283203e+00,1.322173500061035156e+01,-2.637703704833984375e+01,-2.161437225341796875e+01,-1.072912216186523438e+01,-2.396391153335571289e+00,-8.510487526655197144e-02
-2.006337165832519531e+01,-2.628520011901855469e+01,-2.632241249084472656e+01,-2.975464820861816406e+01,5.028583049774169922e+00,-2.607307815551757812e+01,8.003681182861328125e+00,-9.715508460998535156e+00,-8.982687950134277344e+00,-1.428518581390380859e+01,-7.136091589927673340e-01,2.163823604583740234e+00,-2.156095266342163086e+00,-6.764525413513183594e+00,2.521228551864624023e+00,1.485565853118896484e+01,-3.031626510620117188e+01,-2.466143226623535156e+01,-1.280537033081054688e+01,-2.199019670486450195e+00,-8.499989658594131470e-02
-2.223891258239746094e+01,-2.876588821411132812e+01,-2.899840736389160156e+01,-3.239658355712890625e+01,4.242108821868896484e+00,-2.726988029479980469e+01,7.750315666198730469e+00,-1.051750469207763672e+01,-1.097324180603027344e+01,-1.611246109008789062e+01,-9.922423362731933594e-01,1.549816727638244629e+00,-3.939657688140869141e+00,-6.467086791992187500e+00,1.611814618110656738e+00,1.617978668212890625e+01,-3.306932449340820312e+01,-2.673698806762695312e+01,-1.469084644317626953e+01,-1.948319435119628906e+00,-8.673204481601715088e-02
-2.344630432128906250e+01,-3.020487022399902344e+01,-3.041180229187011719e+01,-3.378544235229492188e+01,3.756562471389770508e+00,-2.760992431640625000e+01,7.393223285675048828e+00,-1.083162021636962891e+01,-1.237759876251220703e+01,-1.699532127380371094e+01,-1.571093082427978516e+00,8.910921812057495117e-01,-5.638840198516845703e+00,-6.002875804901123047e+00,8.597992062568664551e-01,1.707169914245605469e+01,-3.454246902465820312e+01,-2.770202445983886719e+01,-1.620908355712890625e+01,-1.676727414131164551e+00,-8.947461098432540894e-02
-2.370947456359863281e+01,-3.065157699584960938e+01,-3.056259918212890625e+01,-3.396002197265625000e+01,3.566405534744262695e+00,-2.730027580261230469e+01,6.927302837371826172e+00,-1.065284156799316406e+01,-1.315260219573974609e+01,-1.689683532714843750e+01,-2.477632284164428711e+00,2.960042655467987061e-01,-7.154371738433837891e+00,-5.433788299560546875e+00,2.782988846302032471e-01,1.742396736145019531e+01,-3.477013778686523438e+01,-2.752421188354492188e+01,-1.724243736267089844e+01,-1.417230725288391113e+00,-9.232216328382492065e-02
-2.313050079345703125e+01,-3.024331665039062500e+01,-2.953769493103027344e+01,-3.305221939086914062e+01,3.666099548339843750e+00,-2.654040145874023438e+01,6.335549831390380859e+00,-1.002628231048583984e+01,-1.331263732910156250e+01,-1.589438343048095703e+01,-3.711859703063964844e+00,-1.511716693639755249e-01,-8.439926147460937500e+00,-4.849226474761962891e+00,-1.873385906219482422e-01,1.717163276672363281e+01,-3.388624954223632812e+01,-2.627467536926269531e+01,-1.775275611877441406e+01,-1.192919850349426270e+00,-9.444798529148101807e-02
-2.186090278625488281e+01,-2.915767097473144531e+01,-2.751855850219726562e+01,-3.124437332153320312e+01,4.061182975769042969e+00,-2.545758056640625000e+01,5.609461784362792969e+00,-9.033811569213867188e+00,-1.292063999176025391e+01,-1.415328407287597656e+01,-5.224720478057861328e+00,-3.988383114337921143e-01,-9.477304458618164062e+00,-4.328279018402099609e+00,-6.026959419250488281e-01,1.629970741271972656e+01,-3.207638549804687500e+01,-2.410213088989257812e+01,-1.779091072082519531e+01,-1.010392427444458008e+00,-9.531405568122863770e-02
-2.007453727722167969e+01,-2.758321189880371094e+01,-2.472755050659179688e+01,-2.875179862976074219e+01,4.790425300598144531e+00,-2.408980751037597656e+01,4.754140853881835938e+00,-7.780691623687744141e+00,-1.206651782989501953e+01,-1.190744304656982422e+01,-6.929877281188964844e+00,-4.366762936115264893e-01,-1.027808761596679688e+01,-3.944875717163085938e+00,-1.048658609390258789e+00,1.486565208435058594e+01,-2.956438636779785156e+01,-2.123126792907714844e+01,-1.748885345458984375e+01,-8.619515299797058105e-01,-9.477604180574417114e-02
-1.795322608947753906e+01,-2.570118522644042969e+01,-2.144581604003906250e+01,-2.581695938110351562e+01,5.883365631103515625e+00,-2.241808509826660156e+01,3.798493385314941406e+00,-6.390563964843750000e+00,-1.085636234283447266e+01,-9.429453849792480469e+00,-8.713521957397460938e+00,-2.853244245052337646e-01,-1.086378479003906250e+01,-3.752314329147338867e+00,-1.586437106132507324e+00,1.297439765930175781e+01,-2.659131240844726562e+01,-1.793527221679687500e+01,-1.702622795104980469e+01,-7.311035394668579102e-01,-9.309638291597366333e-02
-1.568677330017089844e+01,-2.367635726928710938e+01,-1.796727943420410156e+01,-2.269978523254394531e+01,7.343697071075439453e+00,-2.041961860656738281e+01,2.769727230072021484e+00,-5.007119655609130859e+00,-9.425033569335937500e+00,-7.002467632293701172e+00,-1.046184730529785156e+01,-6.699443794786930084e-03,-1.128568458557128906e+01,-3.791858196258544922e+00,-2.257567167282104492e+00,1.076835060119628906e+01,-2.343074607849121094e+01,-1.453258800506591797e+01,-1.660493659973144531e+01,-6.013551950454711914e-01,-9.081309288740158081e-02
-1.345541000366210938e+01,-2.166617584228515625e+01,-1.459608840942382812e+01,-1.968735694885253906e+01,9.108648300170898438e+00,-1.813999748229980469e+01,1.686547040939331055e+00,-3.780733346939086914e+00,-7.927173137664794922e+00,-4.892044544219970703e+00,-1.209244060516357422e+01,3.011639714241027832e-01,-1.162320518493652344e+01,-4.104770660400390625e+00,-3.090467929840087891e+00,8.374926567077636719e+00,-2.036775207519531250e+01,-1.135621070861816406e+01,-1.640621566772460938e+01,-4.622604846954345703e-01,-8.854293078184127808e-02
-1.142979812622070312e+01,-1.980428695678710938e+01,-1.161083507537841797e+01,-1.706287956237792969e+01,1.103975582122802734e+01,-1.571030044555664062e+01,5.438514351844787598e-01,-2.855095624923706055e+00,-6.539000034332275391e+00,-3.314503431320190430e+00,-1.357390594482421875e+01,5.333514809608459473e-01,-1.198719692230224609e+01,-4.721998691558837891e+00,-4.104814529418945312e+00,5.939031124114990234e+00,-1.768930435180664062e+01,-8.731052398681640625e+00,-1.655088424682617188e+01,-3.132697343826293945e-01,-8.681077510118484497e-02
-9.747103691101074219e+00,-1.820053482055664062e+01,-9.236433029174804688e+00,-1.505717945098876953e+01,1.294317150115966797e+01,-1.333949375152587891e+01,-6.872670650482177734e-01,-2.335468530654907227e+00,-5.427742004394531250e+00,-2.392951965332031250e+00,-1.491605472564697266e+01,5.883885025978088379e-01,-1.249678611755371094e+01,-5.650419712066650391e+00,-5.302792549133300781e+00,3.543109416961669922e+00,-1.562498855590820312e+01,-6.894734382629394531e+00,-1.708981895446777344e+01,-1.593309789896011353e-01,-8.582659810781478882e-02
-8.491862297058105469e+00,-1.690801429748535156e+01,-7.593009471893310547e+00,-1.379828357696533203e+01,1.461027431488037109e+01,-1.124414253234863281e+01,-2.025513410568237305e+00,-2.255268812179565430e+00,-4.726462841033935547e+00,-2.141459941864013672e+00,-1.616597938537597656e+01,4.095181524753570557e-01,-1.324627971649169922e+01,-6.850490093231201172e+00,-6.673471927642822266e+00,1.264610171318054199e+00,-1.430107116699218750e+01,-5.966876983642578125e+00,-1.799599266052246094e+01,-1.034023147076368332e-02,-8.552478998899459839e-02
-7.670452594757080078e+00,-1.591207695007324219e+01,-6.695899963378906250e+00,-1.326873207092285156e+01,1.588598728179931641e+01,-9.566720962524414062e+00,-3.465785980224609375e+00,-2.562700986862182617e+00,-4.489107131958007812e+00,-2.442195177078247070e+00,-1.735900115966796875e+01,-1.013925857841968536e-02,-1.426876735687255859e+01,-8.234525680541992188e+00,-8.179688453674316406e+00,-8.489977121353149414e-01,-1.369650745391845703e+01,-5.882820129394531250e+00,-1.915811920166015625e+01,1.265553236007690430e-01,-8.557727932929992676e-02
-7.203126430511474609e+00,-1.511203289031982422e+01,-6.445425033569335938e+00,-1.328812980651855469e+01,1.670938491821289062e+01,-8.312929153442382812e+00,-4.943468093872070312e+00,-3.117415189743041992e+00,-4.677912712097167969e+00,-3.077080726623535156e+00,-1.851081657409667969e+01,-6.155466437339782715e-01,-1.551461315155029297e+01,-9.664981842041015625e+00,-9.768977165222167969e+00,-2.777727365493774414e+00,-1.362954616546630859e+01,-6.393626689910888672e+00,-2.042199134826660156e+01,2.464076578617095947e-01,-8.562976866960525513e-02
-6.933576583862304688e+00,-1.433578777313232422e+01,-6.637115001678466797e+00,-1.355193614959716797e+01,1.715616226196289062e+01,-7.336491107940673828e+00,-6.341229915618896484e+00,-3.722254276275634766e+00,-5.163414001464843750e+00,-3.768244266510009766e+00,-1.959002876281738281e+01,-1.308669328689575195e+00,-1.684649467468261719e+01,-1.098196506500244141e+01,-1.137138175964355469e+01,-4.516582012176513672e+00,-1.380173206329345703e+01,-7.114575386047363281e+00,-2.161591339111328125e+01,3.453682959079742432e-01,-8.545917272567749023e-02
-6.657646656036376953e+00,-1.337280464172363281e+01,-7.012827396392822266e+00,-1.370323562622070312e+01,1.742755126953125000e+01,-6.379050254821777344e+00,-7.492427825927734375e+00,-4.166694164276123047e+00,-5.747813224792480469e+00,-4.243089675903320312e+00,-2.052011489868164062e+01,-1.972553610801696777e+00,-1.808241462707519531e+01,-1.202901744842529297e+01,-1.291476249694824219e+01,-6.073056697845458984e+00,-1.386295413970947266e+01,-7.593052387237548828e+00,-2.257455062866210938e+01,4.250865876674652100e-01,-8.510487526655197144e-02
-6.166395664215087891e+00,-1.201803779602050781e+01,-7.296528816223144531e+00,-1.341615295410156250e+01,1.780601882934570312e+01,-5.148054599761962891e+00,-8.221916198730468750e+00,-4.265273094177246094e+00,-6.202745437622070312e+00,-4.290574073791503906e+00,-2.121473503112792969e+01,-2.479926347732543945e+00,-1.901721191406250000e+01,-1.268407058715820312e+01,-1.433353614807128906e+01,-7.442155361175537109e+00,-1.349371051788330078e+01,-7.429788112640380859e+00,-2.316753578186035156e+01,4.905105531215667725e-01,-8.482930064201354980e-02
-5.282782077789306641e+00,-1.012502479553222656e+01,-7.230076313018798828e+00,-1.246761703491210938e+01,1.858326148986816406e+01,-3.406044244766235352e+00,-8.385158538818359375e+00,-3.899362087249755859e+00,-6.321423530578613281e+00,-3.792865991592407227e+00,-2.158559226989746094e+01,-2.718993425369262695e+00,-1.949867439270019531e+01,-1.287319278717041016e+01,-1.557086372375488281e+01,-8.606388092041015625e+00,-1.247590160369873047e+01,-6.359680652618408203e+00,-2.330107688903808594e+01,5.542852282524108887e-01,-8.506550639867782593e-02
-3.901537895202636719e+00,-7.629690647125244141e+00,-6.634559154510498047e+00,-1.076645851135253906e+01,1.999189949035644531e+01,-1.042836666107177734e+00,-7.905634403228759766e+00,-3.010482311248779297e+00,-5.942013740539550781e+00,-2.727102279663085938e+00,-2.158362960815429688e+01,-2.586560487747192383e+00,-1.943249511718750000e+01,-1.257059669494628906e+01,-1.657427978515625000e+01,-9.515789031982421875e+00,-1.072151947021484375e+01,-4.309988021850585938e+00,-2.293224906921386719e+01,6.378519535064697266e-01,-8.608904480934143066e-02
-2.003523111343383789e+00,-4.570480346679687500e+00,-5.400074481964111328e+00,-8.353411674499511719e+00,2.213162612915039062e+01,1.916871666908264160e+00,-6.783344268798828125e+00,-1.601975798606872559e+00,-4.972809791564941406e+00,-1.146043658256530762e+00,-2.120296287536621094e+01,-1.989752650260925293e+00,-1.879054450988769531e+01,-1.178487682342529297e+01,-1.729787635803222656e+01,-1.009041118621826172e+01,-8.268828392028808594e+00,-1.387397885322570801e+00,-2.205310249328613281e+01,7.692496776580810547e-01,-8.797866851091384888e-02
3.634127378463745117e-01,-1.062731862068176270e+00,-3.506176233291625977e+00,-5.354562282562255859e+00,2.495813369750976562e+01,5.319206714630126953e+00,-5.089705944061279297e+00,2.827161848545074463e-01,-3.386840105056762695e+00,8.658930063247680664e-01,-2.048675727844238281e+01,-8.580536246299743652e-01,-1.761584281921386719e+01,-1.055901718139648438e+01,-1.769355773925781250e+01,-1.024281024932861328e+01,-5.234531402587890625e+00,2.178550004959106445e+00,-2.068748474121093750e+01,9.743181467056274414e-01,-9.040629863739013672e-02
3.092406988143920898e+00,2.725123643875122070e+00,-1.003981232643127441e+00,-1.942546248435974121e+00,2.827757072448730469e+01,8.947604179382324219e+00,-2.942050457000732422e+00,2.570077419281005859e+00,-1.209278345108032227e+00,3.213738679885864258e+00,-1.950369262695312500e+01,8.394950032234191895e-01,-1.598118591308593750e+01,-8.968666076660156250e+00,-1.771541976928710938e+01,-9.910529136657714844e+00,-1.779336094856262207e+00,6.111438274383544922e+00,-1.888785743713378906e+01,1.270100474357604980e+00,-9.282081574201583862e-02
6.054266929626464844e+00,6.610009670257568359e+00,2.017055273056030273e+00,1.709998607635498047e+00,3.182593536376953125e+01,1.256840229034423828e+01,-4.628090262413024902e-01,5.158187389373779297e+00,1.496939897537231445e+00,5.797248363494873047e+00,-1.833029365539550781e+01,3.073654651641845703e+00,-1.397260951995849609e+01,-7.110104084014892578e+00,-1.733941078186035156e+01,-9.093567848205566406e+00,1.939877510070800781e+00,1.016556262969970703e+01,-1.673847961425781250e+01,1.653298139572143555e+00,-9.453983604907989502e-02
9.122989654541015625e+00,1.041068077087402344e+01,5.426583290100097656e+00,5.444012641906738281e+00,3.532814407348632812e+01,1.595933914184570312e+01,2.230687856674194336e+00,7.910037994384765625e+00,4.634714603424072266e+00,8.512659072875976562e+00,-1.702150154113769531e+01,5.729191780090332031e+00,-1.167945766448974609e+01,-5.124314308166503906e+00,-1.656116294860839844e+01,-7.866875648498535156e+00,5.770055294036865234e+00,1.415826034545898438e+01,-1.434427452087402344e+01,2.092023611068725586e+00,-9.497287869453430176e-02
1.216938304901123047e+01,1.396602916717529297e+01,9.094254493713378906e+00,9.110136032104492188e+00,3.855158233642578125e+01,1.893804359436035156e+01,5.036413669586181641e+00,1.065353488922119141e+01,8.063790321350097656e+00,1.122631168365478516e+01,-1.560478973388671875e+01,8.604876518249511719e+00,-9.191074371337890625e+00,-3.183226346969604492e+00,-1.541783714294433594e+01,-6.382853031158447266e+00,9.558143615722656250e+00,1.795697975158691406e+01,-1.184037590026855469e+01,2.531848669052124023e+00,-9.389684349298477173e-02
1.507222938537597656e+01,1.713142395019531250e+01,1.283348941802978516e+01,1.254736804962158203e+01,4.134670257568359375e+01,2.134874343872070312e+01,7.843840122222900391e+00,1.318316555023193359e+01,1.160255241394042969e+01,1.376585388183593750e+01,-1.408604240417480469e+01,1.143240451812744141e+01,-6.621619224548339844e+00,-1.477682232856750488e+00,-1.398157501220703125e+01,-4.851361751556396484e+00,1.313004207611083984e+01,2.146635246276855469e+01,-9.380990982055664062e+00,2.905150175094604492e+00,-9.142984449863433838e-02
1.769754981994628906e+01,1.977505111694335938e+01,1.645515441894531250e+01,1.558307361602783203e+01,4.363781738281250000e+01,2.306605911254882812e+01,1.050162792205810547e+01,1.529341983795166016e+01,1.501004981994628906e+01,1.592551994323730469e+01,-1.246329784393310547e+01,1.392798995971679688e+01,-4.095181465148925781e+00,-1.899276524782180786e-01,-1.236168193817138672e+01,-3.482263326644897461e+00,1.629060935974121094e+01,2.455543899536132812e+01,-7.133046627044677734e+00,3.147053956985473633e+00,-8.800490945577621460e-02
1.989860916137695312e+01,2.177973937988281250e+01,1.971133232116699219e+01,1.803103446960449219e+01,4.536953735351562500e+01,2.400450325012207031e+01,1.281422615051269531e+01,1.679883384704589844e+01,1.799498176574707031e+01,1.748371505737304688e+01,-1.075225448608398438e+01,1.585600662231445312e+01,-1.763976216316223145e+00,5.442128181457519531e-01,-1.069150733947753906e+01,-2.447944641113281250e+00,1.882365226745605469e+01,2.706906127929687500e+01,-5.252340316772460938e+00,3.214127302169799805e+00,-8.429128676652908325e-02
2.151112365722656250e+01,2.304846000671386719e+01,2.231064987182617188e+01,1.971861457824707031e+01,4.649201583862304688e+01,2.413558006286621094e+01,1.453847217559814453e+01,1.757743835449218750e+01,2.025166130065917969e+01,1.825577926635742188e+01,-9.001966476440429688e+00,1.706854057312011719e+01,2.131638526916503906e-01,6.645637154579162598e-01,-9.108777999877929688e+00,-1.845841169357299805e+00,2.052829360961914062e+01,2.881485557556152344e+01,-3.881952762603759766e+00,3.093175411224365234e+00,-8.091884106397628784e-02
2.237400245666503906e+01,2.350615119934082031e+01,2.396429634094238281e+01,2.051003265380859375e+01,4.693879318237304688e+01,2.351058387756347656e+01,1.543630409240722656e+01,1.759581756591796875e+01,2.151216697692871094e+01,1.812563705444335938e+01,-7.300734043121337891e+00,1.754495620727539062e+01,1.700568795204162598e+00,1.969145238399505615e-01,-7.738098144531250000e+00,-1.688444852828979492e+00,2.125529861450195312e+01,2.961662864685058594e+01,-3.128398656845092773e+00,2.806189537048339844e+00,-7.835998386144638062e-02
2.235805320739746094e+01,2.311070632934570312e+01,2.441668510437011719e+01,2.032769584655761719e+01,4.664524841308593750e+01,2.226249122619628906e+01,1.533767890930175781e+01,1.691412162780761719e+01,2.159128570556640625e+01,1.707570075988769531e+01,-5.752553939819335938e+00,1.736780548095703125e+01,2.615513086318969727e+00,-7.521382570266723633e-01,-6.666913509368896484e+00,-1.913296699523925781e+00,2.092623329162597656e+01,2.935637474060058594e+01,-3.040960788726806641e+00,2.403199911117553711e+00,-7.681155204772949219e-02
2.139788055419921875e+01,2.186212348937988281e+01,2.351446342468261719e+01,1.917354583740234375e+01,4.559477233886718750e+01,2.057747268676757812e+01,1.420348548889160156e+01,1.565598869323730469e+01,2.044046783447265625e+01,1.519742393493652344e+01,-4.455535888671875000e+00,1.670392036437988281e+01,2.951378822326660156e+00,-2.007226228713989258e+00,-5.934572696685791016e+00,-2.410469293594360352e+00,1.955831336975097656e+01,2.801308250427246094e+01,-3.600562334060668945e+00,1.947431087493896484e+00,-7.619480043649673462e-02
1.950943565368652344e+01,1.980068016052246094e+01,2.124229621887207031e+01,1.711353492736816406e+01,4.386120605468750000e+01,1.865689086914062500e+01,1.216465759277343750e+01,1.400020027160644531e+01,1.816760444641113281e+01,1.266491699218750000e+01,-3.474432706832885742e+00,1.574937248229980469e+01,2.779309749603271484e+00,-3.363752841949462891e+00,-5.508285045623779297e+00,-3.045051336288452148e+00,1.725102233886718750e+01,2.567242431640625000e+01,-4.703867435455322266e+00,1.501558423042297363e+00,-7.616855204105377197e-02
1.680436706542968750e+01,1.701974678039550781e+01,1.774331283569335938e+01,1.427374362945556641e+01,4.162178421020507812e+01,1.666982078552246094e+01,9.511971473693847656e+00,1.212887477874755859e+01,1.502083873748779297e+01,9.717359542846679688e+00,-2.817093849182128906e+00,1.468646907806396484e+01,2.241593837738037109e+00,-4.620560169219970703e+00,-5.296234130859375000e+00,-3.687128305435180664e+00,1.416315746307373047e+01,2.251867866516113281e+01,-6.172821521759033203e+00,1.114512443542480469e+00,-7.626041024923324585e-02
1.347885322570800781e+01,1.366395187377929688e+01,1.330888175964355469e+01,1.081711387634277344e+01,3.913497543334960938e+01,1.470364761352539062e+01,6.645030021667480469e+00,1.021410751342773438e+01,1.133642578125000000e+01,6.611519813537597656e+00,-2.436425924301147461e+00,1.366656398773193359e+01,1.525190711021423340e+00,-5.602279663085937500e+00,-5.145393848419189453e+00,-4.206786155700683594e+00,1.049368572235107422e+01,1.880078125000000000e+01,-7.762598514556884766e+00,8.159810900688171387e-01,-7.597171515226364136e-02
9.797661781311035156e+00,9.931019783020019531e+00,8.335161209106445312e+00,6.937618255615234375e+00,3.668508911132812500e+01,1.277166843414306641e+01,3.994044065475463867e+00,8.406273841857910156e+00,7.488381385803222656e+00,3.590097427368164062e+00,-2.244129657745361328e+00,1.279629135131835938e+01,8.203692436218261719e-01,-6.176525115966796875e+00,-4.885249137878417969e+00,-4.489099979400634766e+00,6.456885337829589844e+00,1.480323410034179688e+01,-9.199756622314453125e+00,6.158607006072998047e-01,-7.488256692886352539e-02
6.054266929626464844e+00,6.064441204071044922e+00,3.266874790191650391e+00,2.848630428314208984e+00,3.449367141723632812e+01,1.082829093933105469e+01,1.929709911346435547e+00,6.808963775634765625e+00,3.825546264648437500e+00,8.641343116760253906e-01,-2.124435186386108398e+00,1.215132617950439453e+01,2.975438833236694336e-01,-6.260770797729492188e+00,-4.345284461975097656e+00,-4.429139614105224609e+00,2.282335996627807617e+00,1.082346820831298828e+01,-1.021403408050537109e+01,5.048049092292785645e-01,-7.282235473394393921e-02
2.542142152786254883e+00,2.320524215698242188e+00,-1.458925724029541016e+00,-1.219020366668701172e+00,3.267887115478515625e+01,8.816525459289550781e+00,6.985914707183837891e-01,5.509060859680175781e+00,6.302308440208435059e-01,-1.402811765670776367e+00,-1.965496420860290527e+00,1.177982616424560547e+01,8.245752006769180298e-02,-5.825788497924804688e+00,-3.389962434768676758e+00,-3.926970481872558594e+00,-1.806120514869689941e+00,7.165380954742431641e+00,-1.059558105468750000e+01,4.630214869976043701e-01,-6.986983120441436768e-02
-4.914913773536682129e-01,-1.046254992485046387e+00,-5.469083309173583984e+00,-5.030624389648437500e+00,3.123331069946289062e+01,6.717374324798583984e+00,3.874109387397766113e-01,4.566714763641357422e+00,-1.896172285079956055e+00,-3.105219841003417969e+00,-1.677052259445190430e+00,1.170759010314941406e+01,2.462540566921234131e-01,-4.888770580291748047e+00,-1.953700423240661621e+00,-2.910140275955200195e+00,-5.578903198242187500e+00,4.116705894470214844e+00,-1.021403408050537109e+01,4.630214869976043701e-01,-6.633991748094558716e-02
-2.856832265853881836e+00,-3.838173627853393555e+00,-8.482451438903808594e+00,-8.353411674499511719e+00,3.005359840393066406e+01,4.580229282379150391e+00,9.383534789085388184e-01,4.017013072967529297e+00,-3.629590511322021484e+00,-4.181535720825195312e+00,-1.200236201286315918e+00,1.194493675231933594e+01,8.005151152610778809e-01,-3.511612415313720703e+00,-4.305656626820564270e-02,-1.341173529624938965e+00,-8.815996170043945312e+00,1.942544460296630859e+00,-9.063035964965820312e+00,4.800647199153900146e-01,-6.270502507686614990e-02
-4.448612689971923828e+00,-5.925247192382812500e+00,-1.033290100097656250e+01,-1.098564910888671875e+01,2.902158164978027344e+01,2.517171859741210938e+00,2.169471979141235352e+00,3.863296985626220703e+00,-4.514281272888183594e+00,-4.622965812683105469e+00,-5.193507671356201172e-01,1.245574951171875000e+01,1.703877925872802734e+00,-1.795752525329589844e+00,2.261083841323852539e+00,7.599425315856933594e-01,-1.133182239532470703e+01,8.417237401008605957e-01,-7.247510433197021484e+00,4.943590462207794189e-01,-5.942444130778312683e-02
-5.236527919769287109e+00,-7.254383563995361328e+00,-1.096675586700439453e+01,-1.277603626251220703e+01,2.804864311218261719e+01,6.839764714241027832e-01,3.829101324081420898e+00,4.077162742614746094e+00,-4.548446178436279297e+00,-4.468201160430908203e+00,3.224355578422546387e-01,1.317811012268066406e+01,2.860380649566650391e+00,1.229846775531768799e-01,4.801321983337402344e+00,3.318257570266723633e+00,-1.298671913146972656e+01,9.160816669464111328e-01,-4.974129676818847656e+00,4.971079528331756592e-01,-5.679997056722640991e-02
-5.254072666168212891e+00,-7.843890190124511719e+00,-1.043769073486328125e+01,-1.364310359954833984e+01,2.713478279113769531e+01,-7.730814814567565918e-01,5.643470764160156250e+00,4.598460674285888672e+00,-3.786029577255249023e+00,-3.789348602294921875e+00,1.225050210952758789e+00,1.401914501190185547e+01,4.131044864654541016e+00,2.084704399108886719e+00,7.367793083190917969e+00,6.188866615295410156e+00,-1.370989990234375000e+01,2.133288621902465820e+00,-2.517924308776855469e+00,4.932594597339630127e-01,-5.488410592079162598e-02
-4.588970184326171875e+00,-7.754182815551757812e+00,-8.888834953308105469e+00,-1.359073066711425781e+01,2.635200119018554688e+01,-1.740020871162414551e+00,7.355813503265380859e+00,5.331953048706054688e+00,-2.327728748321533203e+00,-2.695446014404296875e+00,2.031516790390014648e+00,1.486877918243408203e+01,5.335528373718261719e+00,3.910599470138549805e+00,9.706911087036132812e+00,9.174400329589843750e+00,-1.351666927337646484e+01,4.321998596191406250e+00,-1.777726262807846069e-01,4.987572729587554932e-01,-5.350626260042190552e-02
-3.360842943191528320e+00,-7.065814495086669922e+00,-6.532324314117431641e+00,-1.270232582092285156e+01,2.581291580200195312e+01,-2.169349670410156250e+00,8.756976127624511719e+00,6.175720691680908203e+00,-3.353766202926635742e-01,-1.311360120773315430e+00,2.547576904296875000e+00,1.561693954467773438e+01,6.275290489196777344e+00,5.439055919647216797e+00,1.156071662902832031e+01,1.205000591278076172e+01,-1.249885940551757812e+01,7.196094036102294922e+00,1.771293878555297852e+00,5.372419953346252441e-01,-5.236461758613586426e-02
-1.711643695831298828e+00,-5.872155189514160156e+00,-3.639081478118896484e+00,-1.113113021850585938e+01,2.560983467102050781e+01,-2.064867019653320312e+00,9.716024398803710938e+00,7.019487857818603516e+00,1.989633440971374512e+00,2.327660769224166870e-01,2.571123361587524414e+00,1.617762947082519531e+01,6.768334865570068359e+00,6.522213935852050781e+00,1.269092559814453125e+01,1.457584285736083984e+01,-1.081526470184326172e+01,1.040318393707275391e+01,3.114655256271362305e+00,6.318043470382690430e-01,-5.117048323154449463e-02
1.991307884454727173e-01,-4.290372848510742188e+00,-5.004751086235046387e-01,-9.080817222595214844e+00,2.577599143981933594e+01,-1.481663823127746582e+00,1.017684364318847656e+01,7.766346931457519531e+00,4.415339946746826172e+00,1.812065958976745605e+00,1.943217635154724121e+00,1.648377227783203125e+01,6.670718669891357422e+00,7.060354232788085938e+00,1.292483806610107422e+01,1.653205490112304688e+01,-8.670595169067382812e+00,1.360219192504882812e+01,3.731488704681396484e+00,7.950894236564636230e-01,-4.971390217542648315e-02
2.194438695907592773e+00,-2.465098857879638672e+00,2.579346179962158203e+00,-6.772517681121826172e+00,2.627446174621582031e+01,-4.919281899929046631e-01,1.016494083404541016e+01,8.334427833557128906e+00,6.704387187957763672e+00,3.319259881973266602e+00,5.971443653106689453e-01,1.648893165588378906e+01,5.912952899932861328e+00,7.008775234222412109e+00,1.218375301361083984e+01,1.774625396728515625e+01,-6.290604591369628906e+00,1.650699996948242188e+01,3.602716922760009766e+00,1.022698879241943359e+00,-4.798175394535064697e-02
4.097238063812255859e+00,-5.867326259613037109e-01,5.319237232208251953e+00,-4.431242465972900391e+00,2.700370407104492188e+01,8.112553358078002930e-01,9.761936187744140625e+00,8.665251731872558594e+00,8.635601997375488281e+00,4.661137104034423828e+00,-1.421965479850769043e+00,1.615011024475097656e+01,4.509927749633789062e+00,6.374354362487792969e+00,1.051139259338378906e+01,1.808103370666503906e+01,-3.893395185470581055e+00,1.893656539916992188e+01,2.793520450592041016e+00,1.289342880249023438e+00,-4.607901349663734436e-02
5.724107742309570312e+00,1.132356882095336914e+00,7.484057426452636719e+00,-2.262604475021362305e+00,2.783263969421386719e+01,2.319604873657226562e+00,9.069857597351074219e+00,8.705351829528808594e+00,1.002917003631591797e+01,5.751522541046142578e+00,-3.943399906158447266e+00,1.541914939880371094e+01,2.550987243652343750e+00,5.206950664520263672e+00,8.058598518371582031e+00,1.747893142700195312e+01,-1.685590505599975586e+00,2.080521202087402344e+01,1.434261202812194824e+00,1.551588535308837891e+00,-4.418939352035522461e-02
6.920335769653320312e+00,2.474308729171752930e+00,8.892340660095214844e+00,-4.470007717609405518e-01,2.862465286254882812e+01,3.900142192840576172e+00,8.172024726867675781e+00,8.407944679260253906e+00,1.073943996429443359e+01,6.502481460571289062e+00,-6.712072372436523438e+00,1.424101352691650391e+01,1.900006979703903198e-01,3.582213401794433594e+00,5.068025112152099609e+00,1.594993782043457031e+01,1.510582268238067627e-01,2.210000991821289062e+01,-3.144934475421905518e-01,1.752808570861816406e+00,-4.249661043286323547e-02
7.569488525390625000e+00,3.278015136718750000e+00,9.434185028076171875e+00,8.662083745002746582e-01,2.924866294860839844e+01,5.387595176696777344e+00,7.102447986602783203e+00,7.726247310638427734e+00,1.066751384735107422e+01,6.819044589996337891e+00,-9.437576293945312500e+00,1.255894374847412109e+01,-2.402617454528808594e+00,1.580949902534484863e+00,1.826051592826843262e+00,1.357150459289550781e+01,1.457757234573364258e+00,2.284197425842285156e+01,-2.300124883651733398e+00,1.833076596260070801e+00,-4.113188758492469788e-02
7.604578018188476562e+00,3.453768491744995117e+00,9.045693397521972656e+00,1.552878975868225098e+00,2.957543754577636719e+01,6.588195800781250000e+00,5.828818798065185547e+00,6.611805915832519531e+00,9.752254486083984375e+00,6.606243610382080078e+00,-1.186090087890625000e+01,1.034542274475097656e+01,-5.058106899261474609e+00,-7.160329818725585938e-01,-1.394061088562011719e+00,1.048603630065917969e+01,2.112063407897949219e+00,2.304888343811035156e+01,-4.395450592041015625e+00,1.741263151168823242e+00,-4.014771059155464172e-02
7.020818710327148438e+00,3.012553930282592773e+00,7.760091304779052734e+00,1.535421252250671387e+00,2.948312759399414062e+01,7.313875198364257812e+00,4.284819126129150391e+00,5.034545898437500000e+00,7.988267421722412109e+00,5.779661178588867188e+00,-1.380152225494384766e+01,7.612490177154541016e+00,-7.634179592132568359e+00,-3.229647397994995117e+00,-4.347470760345458984e+00,6.880910873413085938e+00,2.027883529663085938e+00,2.272558784484863281e+01,-6.497135639190673828e+00,1.446030497550964355e+00,-3.957032784819602966e-02
5.880414962768554688e+00,2.042247772216796875e+00,5.679614543914794922e+00,7.886184453964233398e-01,2.885542678833007812e+01,7.406959533691406250e+00,2.409234046936035156e+00,3.001150608062744141e+00,5.433094024658203125e+00,4.297089099884033203e+00,-1.519076347351074219e+01,4.447860717773437500e+00,-1.001667499542236328e+01,-5.877367019653320312e+00,-6.868033885955810547e+00,2.988474607467651367e+00,1.189912676811218262e+00,2.187047004699707031e+01,-8.520921707153320312e+00,9.440801739692687988e-01,-3.929476067423820496e-02
4.293419837951660156e+00,6.874806880950927734e-01,2.978061676025390625e+00,-6.332165598869323730e-01,2.762771415710449219e+01,6.804759979248046875e+00,2.071643024682998657e-01,5.684275031089782715e-01,2.235980272293090820e+00,2.193700790405273438e+00,-1.605217170715332031e+01,1.011485695838928223e+00,-1.211790370941162109e+01,-8.557753562927246094e+00,-8.848632812500000000e+00,-9.489319324493408203e-01,-3.406279385089874268e-01,2.049484825134277344e+01,-1.039049911499023438e+01,2.656500041484832764e-01,-3.915041312575340271e-02
2.430494308471679688e+00,-8.814859986305236816e-01,-6.597750633955001831e-02,-2.588482141494750977e+00,2.583137702941894531e+01,5.560466289520263672e+00,-2.200658559799194336e+00,-2.138311147689819336e+00,-1.347736001014709473e+00,-4.109129607677459717e-01,-1.647404670715332031e+01,-2.474766492843627930e+00,-1.386175727844238281e+01,-1.114529800415039062e+01,-1.024117279052734375e+01,-4.696463584899902344e+00,-2.403031349182128906e+00,1.866661453247070312e+01,-1.202320003509521484e+01,-5.276844501495361328e-01,-3.890109062194824219e-02
5.037701129913330078e-01,-2.492560386657714844e+00,-3.110016584396362305e+00,-4.848288059234619141e+00,2.361041831970214844e+01,3.864048242568969727e+00,-4.577873706817626953e+00,-4.933603286743164062e+00,-4.980002403259277344e+00,-3.302192687988281250e+00,-1.656627082824707031e+01,-5.758069515228271484e+00,-1.517378425598144531e+01,-1.350761413574218750e+01,-1.104565429687500000e+01,-8.046756744384765625e+00,-4.744758605957031250e+00,1.651346588134765625e+01,-1.332999706268310547e+01,-1.350157380104064941e+00,-3.817936033010482788e-02
-1.239532470703125000e+00,-3.964496374130249023e+00,-5.763008117675781250e+00,-7.115853309631347656e+00,2.125468826293945312e+01,2.011855840682983398e+00,-6.591194629669189453e+00,-7.591887950897216797e+00,-8.268821716308593750e+00,-6.207541465759277344e+00,-1.642695426940917969e+01,-8.587317466735839844e+00,-1.598284053802490234e+01,-1.550887775421142578e+01,-1.129924106597900391e+01,-1.084741210937500000e+01,-7.050135135650634766e+00,1.423908424377441406e+01,-1.423775959014892578e+01,-2.107206344604492188e+00,-3.665716946125030518e-02
-2.549003124237060547e+00,-5.116048336029052734e+00,-7.646682739257812500e+00,-9.071118354797363281e+00,1.913527107238769531e+01,3.591304421424865723e-01,-7.903934001922607422e+00,-9.885932922363281250e+00,-1.083838081359863281e+01,-8.833259582519531250e+00,-1.611692428588867188e+01,-1.076471996307373047e+01,-1.623101615905761719e+01,-1.704421043395996094e+01,-1.107188796997070312e+01,-1.301348590850830078e+01,-8.990095138549804688e+00,1.208593654632568359e+01,-1.469243621826171875e+01,-2.711965799331665039e+00,-3.407206386327743530e-02
-3.204535961151123047e+00,-5.764139652252197266e+00,-8.472228050231933594e+00,-1.043282127380371094e+01,1.763986206054687500e+01,-7.521849870681762695e-01,-8.242321968078613281e+00,-1.162192058563232422e+01,-1.239917659759521484e+01,-1.091730213165283203e+01,-1.565776920318603516e+01,-1.216300487518310547e+01,-1.589184188842773438e+01,-1.806719398498535156e+01,-1.046196842193603516e+01,-1.453748226165771484e+01,-1.027192306518554688e+01,1.030619525909423828e+01,-1.468766689300537109e+01,-3.103410005569458008e+00,-3.034531883895397186e-02
-3.059393644332885742e+00,-5.744001388549804688e+00,-8.104183197021484375e+00,-1.099922752380371094e+01,1.706015968322753906e+01,-1.065632939338684082e+00,-7.490727424621582031e+00,-1.266618728637695312e+01,-1.280196189880371094e+01,-1.226445579528808594e+01,-1.504948520660400391e+01,-1.274949359893798828e+01,-1.496200752258300781e+01,-1.856235122680664062e+01,-9.591903686523437500e+00,-1.549185371398925781e+01,-1.070047473907470703e+01,9.113235473632812500e+00,-1.426319599151611328e+01,-3.257348775863647461e+00,-2.556878514587879181e-02
-2.081676721572875977e+00,-4.958602428436279297e+00,-6.593665122985839844e+00,-1.068498897552490234e+01,1.751247596740722656e+01,-4.615332484245300293e-01,-5.717168331146240234e+00,-1.296526527404785156e+01,-1.205932521820068359e+01,-1.277799224853515625e+01,-1.428226280212402344e+01,-1.257578277587890625e+01,-1.349280166625976562e+01,-1.857610702514648438e+01,-8.603790283203125000e+00,-1.600151824951171875e+01,-1.020304870605468750e+01,8.639608383178710938e+00,-1.350169277191162109e+01,-3.189175844192504883e+00,-1.997866481542587280e-02
-3.686786592006683350e-01,-3.404282093048095703e+00,-4.178369522094726562e+00,-9.525019645690917969e+00,1.890818977355957031e+01,1.029718995094299316e+00,-3.166508436203002930e+00,-1.254254627227783203e+01,-1.033669662475585938e+01,-1.244384193420410156e+01,-1.336394977569580078e+01,-1.176398658752441406e+01,-1.157687854766845703e+01,-1.818066787719726562e+01,-7.637537956237792969e+00,-1.623386383056640625e+01,-8.831301689147949219e+00,8.925724029541015625e+00,-1.250967216491699219e+01,-2.947272062301635742e+00,-1.391614042222499847e-02
1.864279747009277344e+00,-1.203700900077819824e+00,-1.221230030059814453e+00,-7.658982276916503906e+00,2.096668434143066406e+01,3.242851495742797852e+00,-1.992408335208892822e-01,-1.147990036010742188e+01,-7.907393455505371094e+00,-1.133059406280517578e+01,-1.231613254547119141e+01,-1.047405529022216797e+01,-9.339980125427246094e+00,-1.745168495178222656e+01,-6.809009552001953125e+00,-1.635628318786621094e+01,-6.742114067077636719e+00,9.908542633056640625e+00,-1.139841842651367188e+01,-2.597611188888549805e+00,-7.643658667802810669e-03
4.330103874206542969e+00,1.416125655174255371e+00,1.861147165298461914e+00,-5.284731388092041016e+00,2.330210685729980469e+01,5.927105426788330078e+00,2.788432121276855469e+00,-9.894287109375000000e+00,-5.077102661132812500e+00,-9.556079864501953125e+00,-1.118590164184570312e+01,-8.876261711120605469e+00,-6.929358482360839844e+00,-1.645621109008789062e+01,-6.216578483581542969e+00,-1.651118278503417969e+01,-4.147847652435302734e+00,1.146359348297119141e+01,-1.027603530883789062e+01,-2.208915710449218750e+00,-1.318687689490616322e-03
6.719369411468505859e+00,4.153121471405029297e+00,4.698161125183105469e+00,-2.617578268051147461e+00,2.553598785400390625e+01,8.805127143859863281e+00,5.451321125030517578e+00,-7.929394721984863281e+00,-2.138922691345214844e+00,-7.280340194702148438e+00,-1.003997325897216797e+01,-7.128835678100585938e+00,-4.493918895721435547e+00,-1.525098323822021484e+01,-5.912712097167968750e+00,-1.679849243164062500e+01,-1.287649869918823242e+00,1.341144752502441406e+01,-9.233141899108886719e+00,-1.835614323616027832e+00,5.032528191804885864e-03
8.775286674499511719e+00,6.707040309906005859e+00,7.018889427185058594e+00,1.310440003871917725e-01,2.737294006347656250e+01,1.162805843353271484e+01,7.556465625762939453e+00,-5.722233295440673828e+00,6.805790662765502930e-01,-4.681002140045166016e+00,-8.952911376953125000e+00,-5.352171421051025391e+00,-2.169331312179565430e+00,-1.387382507324218750e+01,-5.923642635345458984e+00,-1.726568412780761719e+01,1.620377182960510254e+00,1.556782817840576172e+01,-8.346046447753906250e+00,-1.509044170379638672e+00,1.144935563206672668e-02
1.033676242828369141e+01,8.836221694946289062e+00,8.698095321655273438e+00,2.790437936782836914e+00,2.869111633300781250e+01,1.421542835235595703e+01,9.006940841674804688e+00,-3.408138990402221680e+00,3.226761817932128906e+00,-1.949763178825378418e+00,-8.003203392028808594e+00,-3.620224952697753906e+00,-6.313940882682800293e-02,-1.236771965026855469e+01,-6.240625858306884766e+00,-1.789277267456054688e+01,4.390655517578125000e+00,1.776300239562988281e+01,-7.673570632934570312e+00,-1.234153509140014648e+00,1.797116175293922424e-02
1.134478378295898438e+01,1.040701866149902344e+01,9.746001243591308594e+00,5.224821090698242188e+00,2.952928352355957031e+01,1.646845436096191406e+01,9.843557357788085938e+00,-1.095715522766113281e+00,5.427699565887451172e+00,7.269567847251892090e-01,-7.251678943634033203e+00,-1.953634619712829590e+00,1.751858711242675781e+00,-1.077564907073974609e+01,-6.822125911712646484e+00,-1.860730171203613281e+01,6.887350082397460938e+00,1.984825897216796875e+01,-7.258638858795166016e+00,-9.938990473747253418e-01,2.457170188426971436e-02
1.185517406463623047e+01,1.140661716461181641e+01,1.026739788055419922e+01,7.343025684356689453e+00,3.004621505737304688e+01,1.837573814392089844e+01,1.019894886016845703e+01,1.136508464813232422e+00,7.269006729125976562e+00,3.185599803924560547e+00,-6.725807666778564453e+00,-3.111230432987213135e-01,3.250845193862915039e+00,-9.142314910888671875e+00,-7.600374698638916016e+00,-1.929185104370117188e+01,9.014801025390625000e+00,2.169750785827636719e+01,-7.121918201446533203e+00,-7.514454722404479980e-01,3.111975453794002533e-02
1.199553108215332031e+01,1.193204784393310547e+01,1.044119739532470703e+01,9.100437164306640625e+00,3.045422172546386719e+01,1.998287010192871094e+01,1.025676441192626953e+01,3.245091199874877930e+00,8.774059295654296875e+00,5.303057670593261719e+00,-6.423628330230712891e+00,1.391585230827331543e+00,4.447056293487548828e+00,-7.519297122955322266e+00,-8.476997375488281250e+00,-1.980401229858398438e+01,1.072900676727294922e+01,2.319921493530273438e+01,-7.255459308624267578e+00,-4.650093913078308105e-01,3.741848096251487732e-02
1.191897296905517578e+01,1.214075469970703125e+01,1.041563892364501953e+01,1.048153686523437500e+01,3.091761207580566406e+01,2.136964035034179688e+01,1.018024444580078125e+01,5.228362083435058594e+00,9.986014366149902344e+00,7.019535064697265625e+00,-6.298047065734863281e+00,3.264564275741577148e+00,5.376891136169433594e+00,-5.956454753875732422e+00,-9.336131095886230469e+00,-2.000138282775878906e+01,1.202040004730224609e+01,2.425639152526855469e+01,-7.625877380371093750e+00,-9.280743449926376343e-02,4.329729080200195312e-02
1.176745033264160156e+01,1.219933891296386719e+01,1.032873916625976562e+01,1.150184440612792969e+01,3.151208305358886719e+01,2.261203384399414062e+01,1.007991886138916016e+01,7.106370925903320312e+00,1.094083213806152344e+01,8.335031509399414062e+00,-6.288236141204833984e+00,5.404129028320312500e+00,6.080058097839355469e+00,-4.507086277008056641e+00,-1.006409931182861328e+01,-1.977153396606445312e+01,1.291002655029296875e+01,2.478497886657714844e+01,-8.183889389038085938e+00,3.948486149311065674e-01,4.863808676600456238e-02
1.163506793975830078e+01,1.223229312896728516e+01,1.025973033905029297e+01,1.218851470947265625e+01,3.219701766967773438e+01,2.373284721374511719e+01,9.974491119384765625e+00,8.895825386047363281e+00,1.165829467773437500e+01,9.291756629943847656e+00,-6.343177795410156250e+00,7.854997158050537109e+00,6.574757099151611328e+00,-3.238244056701660156e+00,-1.058657550811767578e+01,-1.907199478149414062e+01,1.343997669219970703e+01,2.472840118408203125e+01,-8.889750480651855469e+00,1.005105853080749512e+00,5.348023399710655212e-02
1.155053424835205078e+01,1.228538513183593750e+01,1.021883678436279297e+01,1.257064533233642578e+01,3.283764266967773438e+01,2.469028854370117188e+01,9.794244766235351562e+00,1.059004306793212891e+01,1.213480567932128906e+01,9.963575363159179688e+00,-6.447174549102783203e+00,1.057245063781738281e+01,6.846096515655517578e+00,-2.229015827178955078e+00,-1.088607025146484375e+01,-1.794773483276367188e+01,1.365807914733886719e+01,2.407372856140136719e+01,-9.729152679443359375e+00,1.718172311782836914e+00,5.795495212078094482e-02
1.148833084106445312e+01,1.232749271392822266e+01,1.018305397033691406e+01,1.266957283020019531e+01,3.326595687866210938e+01,2.537417602539062500e+01,9.415046691894531250e+00,1.213889980316162109e+01,1.234159278869628906e+01,1.041555786132812500e+01,-6.621810913085937500e+00,1.341201782226562500e+01,6.837824344635009766e+00,-1.577401638031005859e+00,-1.101504898071289062e+01,-1.652117538452148438e+01,1.361024951934814453e+01,2.285813903808593750e+01,-1.071958351135253906e+01,2.486216783523559570e+00,6.232469528913497925e-02
1.138465785980224609e+01,1.226524639129638672e+01,1.011915779113769531e+01,1.249887466430664062e+01,3.334165191650390625e+01,2.562873268127441406e+01,8.722967147827148438e+00,1.345383930206298828e+01,1.225528144836425781e+01,1.069518852233886719e+01,-6.929877281188964844e+00,1.614151000976562500e+01,6.482104301452636719e+00,-1.376243591308593750e+00,-1.107844638824462891e+01,-1.498468685150146484e+01,1.333092594146728516e+01,2.118023490905761719e+01,-1.190714645385742188e+01,3.243815422058105469e+00,6.687814742326736450e-02
1.117252635955810547e+01,1.199246311187744141e+01,9.996476173400878906e+00,1.208182907104492188e+01,3.300564575195312500e+01,2.530388641357421875e+01,7.661892890930175781e+00,1.443127346038818359e+01,1.187407302856445312e+01,1.083236598968505859e+01,-7.424353122711181641e+00,1.849778366088867188e+01,5.730956554412841797e+00,-1.677120923995971680e+00,-1.119430923461914062e+01,-1.352814674377441406e+01,1.286028480529785156e+01,1.918550300598144531e+01,-1.332522773742675781e+01,3.920596361160278320e+00,7.189088314771652222e-02
1.082163333892822266e+01,1.143041706085205078e+01,9.830344200134277344e+00,1.145723056793212891e+01,3.231702041625976562e+01,2.431225204467773438e+01,6.289638042449951172e+00,1.499601268768310547e+01,1.125011444091796875e+01,1.084995269775390625e+01,-8.122898101806640625e+00,2.024176979064941406e+01,4.581071853637695312e+00,-2.469717502593994141e+00,-1.143696498870849609e+01,-1.229895591735839844e+01,1.224615478515625000e+01,1.704367065429687500e+01,-1.497223663330078125e+01,4.462131023406982422e+00,7.763846963644027710e-02
1.034952163696289062e+01,1.055897235870361328e+01,9.682104110717773438e+00,1.069490909576416016e+01,3.141608238220214844e+01,2.266902542114257812e+01,4.771144866943359375e+00,1.512466621398925781e+01,1.048410224914550781e+01,1.077960491180419922e+01,-8.974495887756347656e+00,2.123071670532226562e+01,3.118484497070312500e+00,-3.643998384475708008e+00,-1.180860042572021484e+01,-1.134208679199218750e+01,1.155167198181152344e+01,1.492285346984863281e+01,-1.677822303771972656e+01,4.844229221343994141e+00,8.431775122880935669e-02
9.807231903076171875e+00,9.422066688537597656e+00,9.613096237182617188e+00,9.876336097717285156e+00,3.050037574768066406e+01,2.050528335571289062e+01,3.337674140930175781e+00,1.487237167358398438e+01,9.712695121765136719e+00,1.066529083251953125e+01,-9.861413002014160156e+00,2.144914436340332031e+01,1.480518937110900879e+00,-5.005682945251464844e+00,-1.220865535736083984e+01,-1.058258628845214844e+01,1.084379768371582031e+01,1.295398426055908203e+01,-1.860169792175292969e+01,5.081734657287597656e+00,9.205993264913558960e-02
9.261752128601074219e+00,8.107576370239257812e+00,9.702550888061523438e+00,9.086858749389648438e+00,2.974897956848144531e+01,1.802999496459960938e+01,2.206881761550903320e+00,1.435441493988037109e+01,9.068956375122070312e+00,1.055449390411376953e+01,-1.062863540649414062e+01,2.102948760986328125e+01,-1.392468959093093872e-01,-6.295156955718994141e+00,-1.246224212646484375e+01,-9.838077545166015625e+00,1.018183803558349609e+01,1.121627235412597656e+01,-2.024552726745605469e+01,5.223028182983398438e+00,1.008781492710113525e-01
8.759336471557617188e+00,6.703378677368164062e+00,9.968361854553222656e+00,8.382730484008789062e+00,2.928189468383789062e+01,1.548821735382080078e+01,1.508000850677490234e+00,1.372952651977539062e+01,8.628409385681152344e+00,1.048414611816406250e+01,-1.112703514099121094e+01,2.019533348083496094e+01,-1.557162404060363770e+00,-7.237332344055175781e+00,-1.235730934143066406e+01,-8.861220359802246094e+00,9.594493865966796875e+00,9.729113578796386719e+00,-2.149827003479003906e+01,5.335733413696289062e+00,1.106542944908142090e-01
8.298390388488769531e+00,5.271719455718994141e+00,1.035174179077148438e+01,7.773649692535400391e+00,2.913235282897949219e+01,1.309651470184326172e+01,1.227428317070007324e+00,1.314306640625000000e+01,8.389255523681640625e+00,1.047183513641357422e+01,-1.125261688232421875e+01,1.922186470031738281e+01,-2.627630710601806641e+00,-7.598384857177734375e+00,-1.168617916107177734e+01,-7.404679775238037109e+00,9.070282936096191406e+00,8.456946372985839844e+00,-2.217392539978027344e+01,5.487473011016845703e+00,1.211521774530410767e-01
7.824683666229248047e+00,3.838229417800903320e+00,1.071978664398193359e+01,7.224700927734375000e+00,2.924497032165527344e+01,1.100116252899169922e+01,1.213824748992919922e+00,1.271366405487060547e+01,8.266981124877929688e+00,1.050173282623291016e+01,-1.097005939483642578e+01,1.836191177368164062e+01,-3.269580841064453125e+00,-7.230455398559570312e+00,-1.031112766265869141e+01,-5.266088485717773438e+00,8.561378479003906250e+00,7.323795795440673828e+00,-2.215007972717285156e+01,5.729926586151123047e+00,1.320437192916870117e-01
7.256874561309814453e+00,2.406570196151733398e+00,1.088080692291259766e+01,6.667993545532226562e+00,2.950712966918945312e+01,9.262951850891113281e+00,1.225727796554565430e+00,1.248977279663085938e+01,8.119532585144042969e+00,1.053163051605224609e+01,-1.031075763702392578e+01,1.780638122558593750e+01,-3.474740266799926758e+00,-6.093998908996582031e+00,-8.177502632141113281e+00,-2.355505466461181641e+00,7.995078563690185547e+00,6.240756511688232422e+00,-2.138539695739746094e+01,6.086184978485107422e+00,1.429746448993682861e-01
6.507238388061523438e+00,9.822340607643127441e-01,1.063799858093261719e+01,6.031756401062011719e+00,2.977482604980468750e+01,7.876181602478027344e+00,1.001269698143005371e+00,1.246136856079101562e+01,7.799461364746093750e+00,1.050524997711181641e+01,-9.347314834594726562e+00,1.763095092773437500e+01,-3.304325580596923828e+00,-4.269823074340820312e+00,-5.337769985198974609e+00,1.294590353965759277e+00,7.302508831024169922e+00,5.104372978210449219e+00,-1.992598152160644531e+01,6.549650669097900391e+00,1.536562293767929077e-01
5.519951820373535156e+00,-3.981637060642242432e-01,9.843124389648437500e+00,5.253917694091796875e+00,2.990221214294433594e+01,6.780063629150390625e+00,3.431994915008544922e-01,1.256496047973632812e+01,7.198878765106201172e+00,1.035927963256835938e+01,-8.175877571105957031e+00,1.781842041015625000e+01,-2.862571239471435547e+00,-1.940173625946044922e+00,-1.947142124176025391e+00,5.511812686920166016e+00,6.443493366241455078e+00,3.824123382568359375e+00,-1.788788795471191406e+01,7.089536190032958984e+00,1.638916581869125366e-01
4.302989482879638672e+00,-1.666884779930114746e+00,8.432284355163574219e+00,4.309260368347167969e+00,2.975082588195800781e+01,5.896710395812988281e+00,-8.488088846206665039e-01,1.271199321746826172e+01,6.272830963134765625e+00,1.003744029998779297e+01,-6.900444030761718750e+00,1.826215744018554688e+01,-2.291765213012695312e+00,6.422128677368164062e-01,1.732049703598022461e+00,9.998857498168945312e+00,5.406551837921142578e+00,2.322416543960571289e+00,-1.544440078735351562e+01,7.661308765411376953e+00,1.735890805721282959e-01
2.905795335769653320e+00,-2.741544485092163086e+00,6.459154129028320312e+00,3.199724674224853516e+00,2.920804786682128906e+01,5.142535686492919922e+00,-2.557750940322875977e+00,1.278049659729003906e+01,5.055481910705566406e+00,9.488729476928710938e+00,-5.630897045135498047e+00,1.880736732482910156e+01,-1.744122147560119629e+00,3.183336019515991211e+00,5.371891975402832031e+00,1.438097095489501953e+01,4.212730407714843750e+00,5.539908409118652344e-01,-1.280537033081054688e+01,8.212738990783691406e+00,1.828009635210037231e-01
1.419283032417297363e+00,-3.561728000640869141e+00,4.084752559661865234e+00,1.944707989692687988e+00,2.819264602661132812e+01,4.439652442932128906e+00,-4.667996883392333984e+00,1.266353893280029297e+01,3.638538599014282227e+00,8.679734230041503906e+00,-4.479082107543945312e+00,1.926658248901367188e+01,-1.380129814147949219e+00,5.390915393829345703e+00,8.592004776000976562e+00,1.822344017028808594e+01,2.906031131744384766e+00,-1.474687576293945312e+00,-1.020767498016357422e+01,8.697646141052246094e+00,1.915798038244247437e-01
-4.968458414077758789e-02,-4.114619255065917969e+00,1.556998848915100098e+00,5.888244509696960449e-01,2.667139053344726562e+01,3.723471641540527344e+00,-7.002700805664062500e+00,1.226421165466308594e+01,2.149668931961059570e+00,7.589349269866943359e+00,-3.554883241653442383e+00,1.946609115600585938e+01,-1.328840017318725586e+00,7.013933181762695312e+00,1.102731037139892578e+01,2.113652229309082031e+01,1.538110613822937012e+00,-3.695726871490478516e+00,-7.877062320709228516e+00,9.072047233581542969e+00,1.999518722295761108e-01
-1.400624394416809082e+00,-4.436834335327148438e+00,-8.378497362136840820e-01,-8.155528306961059570e-01,2.467751312255859375e+01,2.948400259017944336e+00,-9.351008415222167969e+00,1.152236461639404297e+01,7.237347364425659180e-01,6.231643676757812500e+00,-2.942674875259399414e+00,1.926658248901367188e+01,-1.682905316352844238e+00,7.863266944885253906e+00,1.237175655364990234e+01,2.280292320251464844e+01,1.701899766921997070e-01,-5.983041286468505859e+00,-6.023382186889648438e+00,9.304055213928222656e+00,2.078777700662612915e-01
-2.545813083648681641e+00,-4.603434085845947266e+00,-2.831427097320556641e+00,-2.196653127670288086e+00,2.231809043884277344e+01,2.101140975952148438e+00,-1.150546550750732422e+01,1.041627788543701172e+01,-5.169899463653564453e-01,4.648826122283935547e+00,-2.679739475250244141e+00,1.857690048217773438e+01,-2.463834285736083984e+00,7.832319259643554688e+00,1.243952560424804688e+01,2.305026054382324219e+01,-1.134595870971679688e+00,-8.166901588439941406e+00,-4.824690341949462891e+00,9.372777938842773438e+00,2.152787744998931885e-01
-3.421451807022094727e+00,-4.680325984954833984e+00,-4.229486942291259766e+00,-3.478826284408569336e+00,1.975374221801757812e+01,1.194991588592529297e+00,-1.329602909088134766e+01,8.992733955383300781e+00,-1.493386268615722656e+00,2.905968666076660156e+00,-2.732718944549560547e+00,1.736952400207519531e+01,-3.633573293685913086e+00,6.909056186676025391e+00,1.119782543182373047e+01,2.186104393005371094e+01,-2.311198949813842773e+00,-1.007596111297607422e+01,-4.398630142211914062e+00,9.271617889404296875e+00,2.220892608165740967e-01
-3.990856170654296875e+00,-4.705956935882568359e+00,-4.952797889709472656e+00,-4.596120834350585938e+00,1.716354560852050781e+01,2.603468298912048340e-01,-1.462237262725830078e+01,7.308540821075439453e+00,-2.183876514434814453e+00,1.085728764533996582e+00,-3.015276670455932617e+00,1.567713546752929688e+01,-5.111051082611083984e+00,5.153652191162109375e+00,8.762519836425781250e+00,1.936518859863281250e+01,-3.317529439926147461e+00,-1.159706592559814453e+01,-4.808792591094970703e+00,9.006623268127441406e+00,2.282567769289016724e-01
-4.263596057891845703e+00,-4.685818195343017578e+00,-5.062700271606445312e+00,-5.519440650939941406e+00,1.469889163970947266e+01,-6.894953846931457520e-01,-1.548619556427001953e+01,5.460607051849365234e+00,-2.653194189071655273e+00,-7.397872209548950195e-01,-3.413604259490966797e+00,1.358228874206542969e+01,-6.795342922210693359e+00,2.676142930984497070e+00,5.382822513580322266e+00,1.581502628326416016e+01,-4.140194892883300781e+00,-1.270920181274414062e+01,-6.051998138427734375e+00,8.594287872314453125e+00,2.337550371885299683e-01
-4.298685550689697266e+00,-4.616249084472656250e+00,-4.748328208923339844e+00,-6.277882099151611328e+00,1.243362426757812500e+01,-1.688729405403137207e+00,-1.600142860412597656e+01,3.522448301315307617e+00,-3.036200523376464844e+00,-2.531888246536254883e+00,-3.833516359329223633e+00,1.119677734375000000e+01,-8.603722572326660156e+00,-3.756119012832641602e-01,1.373530626296997070e+00,1.151036167144775391e+01,-4.830851078033447266e+00,-1.350774097442626953e+01,-8.064656257629394531e+00,8.059350013732910156e+00,2.386102974414825439e-01
-4.214151859283447266e+00,-4.519218444824218750e+00,-4.290827751159667969e+00,-6.970372200012207031e+00,1.036589908599853516e+01,-2.826640367507934570e+00,-1.636532402038574219e+01,1.540848374366760254e+00,-3.530692100524902344e+00,-4.288815498352050781e+00,-4.235768795013427734e+00,8.623795509338378906e+00,-1.048821067810058594e+01,-3.846875667572021484e+00,-2.930883407592773438e+00,6.765986442565917969e+00,-5.496636390686035156e+00,-1.417696285247802734e+01,-1.071958351135253906e+01,7.426002025604248047e+00,2.428881824016571045e-01
-4.169492721557617188e+00,-4.467957019805908203e+00,-3.989235401153564453e+00,-7.744331359863281250e+00,8.423713684082031250e+00,-4.232407093048095703e+00,-1.680573654174804688e+01,-4.775097668170928955e-01,-4.338062286376953125e+00,-6.043983936309814453e+00,-4.651756286621093750e+00,5.951059818267822266e+00,-1.243060588836669922e+01,-7.572595596313476562e+00,-7.209064006805419922e+00,1.879205346107482910e+00,-6.281038284301757812e+00,-1.493185710906982422e+01,-1.383077716827392578e+01,6.718433380126953125e+00,2.465886920690536499e-01
-4.322609901428222656e+00,-4.583295345306396484e+00,-4.099137783050537109e+00,-8.747180938720703125e+00,6.529530048370361328e+00,-6.012411117553710938e+00,-1.749611473083496094e+01,-2.547663450241088867e+00,-5.600364685058593750e+00,-7.827291488647460938e+00,-5.152118682861328125e+00,3.243925571441650391e+00,-1.440774631500244141e+01,-1.137224578857421875e+01,-1.119212245941162109e+01,-2.895149946212768555e+00,-7.317979812622070312e+00,-1.595023727416992188e+01,-1.716930770874023438e+01,5.959735393524169922e+00,2.497249245643615723e-01
-4.786746501922607422e+00,-4.982402324676513672e+00,-4.755995750427246094e+00,-1.005651092529296875e+01,4.650115013122558594e+00,-8.181850433349609375e+00,-1.848747253417968750e+01,-4.666271209716796875e+00,-7.349966526031494141e+00,-9.642254829406738281e+00,-5.803571224212646484e+00,5.539903640747070312e-01,-1.636834144592285156e+01,-1.504122829437255859e+01,-1.466800785064697266e+01,-7.342220783233642578e+00,-8.674421310424804688e+00,-1.729029655456542969e+01,-2.046014595031738281e+01,5.177396297454833984e+00,2.522575557231903076e-01
-5.579446792602539062e+00,-5.722032070159912109e+00,-5.936807155609130859e+00,-1.164128398895263672e+01,2.837163209915161133e+00,-1.060204887390136719e+01,-1.967607879638671875e+01,-6.781537532806396484e+00,-9.471785545349121094e+00,-1.142556285858154297e+01,-6.621810913085937500e+00,-2.044789791107177734e+00,-1.821146583557128906e+01,-1.835259819030761719e+01,-1.748369407653808594e+01,-1.128962135314941406e+01,-1.029870796203613281e+01,-1.886797904968261719e+01,-2.344256782531738281e+01,4.406602859497070312e+00,2.541209161281585693e-01
-6.608202457427978516e+00,-6.743599891662597656e+00,-7.472883701324462891e+00,-1.334438228607177734e+01,1.245753049850463867e+00,-1.297665405273437500e+01,-2.082047653198242188e+01,-8.763136863708496094e+00,-1.170688819885253906e+01,-1.305410575866699219e+01,-7.536198616027832031e+00,-4.438900947570800781e+00,-1.978490447998046875e+01,-2.107940483093261719e+01,-1.954955101013183594e+01,-1.462242603302001953e+01,-1.202247905731201172e+01,-2.046505737304687500e+01,-2.585425949096679688e+01,3.694086313247680664e+00,2.552888095378875732e-01
-7.673642635345458984e+00,-7.858536243438720703e+00,-9.072857856750488281e+00,-1.490587997436523438e+01,9.188839793205261230e-02,-1.490863323211669922e+01,-2.161968231201171875e+01,-1.042226791381835938e+01,-1.371901988983154297e+01,-1.436080932617187500e+01,-8.401531219482421875e+00,-6.475271224975585938e+00,-2.091824531555175781e+01,-2.302221298217773438e+01,-2.084152984619140625e+01,-1.728317260742187500e+01,-1.358745670318603516e+01,-2.178571891784667969e+01,-2.750762748718261719e+01,3.093175411224365234e+00,2.556562423706054688e-01
-8.528547286987304688e+00,-8.805042266845703125e+00,-1.040446472167968750e+01,-1.604645156860351562e+01,-4.028887450695037842e-01,-1.600285148620605469e+01,-2.180673027038574219e+01,-1.154339218139648438e+01,-1.515574264526367188e+01,-1.517683982849121094e+01,-9.033361434936523438e+00,-7.980190277099609375e+00,-2.146092414855957031e+01,-2.405035209655761719e+01,-2.141647148132324219e+01,-1.929934501647949219e+01,-1.471431732177734375e+01,-2.254869651794433594e+01,-2.830251693725585938e+01,2.652250766754150391e+00,2.551969587802886963e-01
-8.944833755493164062e+00,-9.317657470703125000e+00,-1.116355800628662109e+01,-1.653526687622070312e+01,-7.057574391365051270e-02,-1.598955345153808594e+01,-2.122177886962890625e+01,-1.196611118316650391e+01,-1.574373817443847656e+01,-1.538436508178710938e+01,-9.262940406799316406e+00,-8.814345359802246094e+00,-2.133518218994140625e+01,-2.414835357666015625e+01,-2.140335655212402344e+01,-2.077587318420410156e+01,-1.518878459930419922e+01,-2.256647682189941406e+01,-2.823733520507812500e+01,2.401550531387329102e+00,2.538847029209136963e-01
-8.774171829223632812e+00,-9.213303565979003906e+00,-1.115077877044677734e+01,-1.626758193969726562e+01,1.131289601325988770e+00,-1.480984973907470703e+01,-1.986312866210937500e+01,-1.162693309783935547e+01,-1.534994316101074219e+01,-1.496228027343750000e+01,-8.990193367004394531e+00,-8.924419403076171875e+00,-2.053770828247070312e+01,-2.342108917236328125e+01,-2.099892807006835938e+01,-2.188763999938964844e+01,-1.491711330413818359e+01,-2.180350112915039062e+01,-2.740747070312500000e+01,2.341074466705322266e+00,2.517195343971252441e-01
-7.997421741485595703e+00,-8.444381713867187500e+00,-1.031756496429443359e+01,-1.528413009643554688e+01,3.112244367599487305e+00,-1.263661098480224609e+01,-1.787191200256347656e+01,-1.059937572479248047e+01,-1.399773311614990234e+01,-1.398972702026367188e+01,-8.201386451721191406e+00,-8.377489089965820312e+00,-1.916446304321289062e+01,-2.209551048278808594e+01,-2.043054580688476562e+01,-2.284451103210449219e+01,-1.395669937133789062e+01,-2.038100051879882812e+01,-2.599415969848632812e+01,2.434537410736083984e+00,2.487145066261291504e-01
-6.711875438690185547e+00,-7.113414764404296875e+00,-8.771265029907226562e+00,-1.375560951232910156e+01,5.648900508880615234e+00,-9.821278572082519531e+00,-1.548279476165771484e+01,-9.090619087219238281e+00,-1.187231731414794922e+01,-1.263729763031005859e+01,-6.965197086334228516e+00,-7.357583522796630859e+00,-1.738255691528320312e+01,-2.046905326843261719e+01,-1.992774391174316406e+01,-2.385134696960449219e+01,-1.248355388641357422e+01,-1.853498458862304688e+01,-2.422632789611816406e+01,2.615965127944946289e+00,2.448696643114089966e-01
-5.110525608062744141e+00,-5.414463520050048828e+00,-6.749573230743408203e+00,-1.192642688751220703e+01,8.442175865173339844e+00,-6.789381980895996094e+00,-1.294573879241943359e+01,-7.378022193908691406e+00,-9.252410888671875000e+00,-1.112482738494873047e+01,-5.411129951477050781e+00,-6.139889240264892578e+00,-1.540707015991210938e+01,-1.886494827270507812e+01,-1.968071556091308594e+01,-2.507554054260253906e+01,-1.074256420135498047e+01,-1.655480003356933594e+01,-2.234562110900878906e+01,2.802890777587890625e+00,2.401587367057800293e-01
-3.411881923675537109e+00,-3.581866264343261719e+00,-4.559194087982177734e+00,-1.004681205749511719e+01,1.118375873565673828e+01,-3.932256698608398438e+00,-1.045799446105957031e+01,-5.748966693878173828e+00,-6.456284999847412109e+00,-9.661601066589355469e+00,-3.674577713012695312e+00,-5.023669242858886719e+00,-1.344482040405273438e+01,-1.757031631469726562e+01,-1.981843948364257812e+01,-2.660953140258789062e+01,-8.984355926513671875e+00,-1.469100189208984375e+01,-2.057143020629882812e+01,2.913396835327148438e+00,2.344767600297927856e-01
-1.816911697387695312e+00,-1.822499871253967285e+00,-2.511943578720092773e+00,-8.322376251220703125e+00,1.361887454986572266e+01,-1.529155850410461426e+00,-8.124991416931152344e+00,-4.435697078704833984e+00,-3.778836965560913086e+00,-8.405899047851562500e+00,-1.887008190155029297e+00,-4.270349979400634766e+00,-1.168607616424560547e+01,-1.677428054809570312e+01,-2.038463783264160156e+01,-2.847080421447753906e+01,-7.402159690856933594e+00,-1.311493778228759766e+01,-1.906909179687500000e+01,2.883158922195434570e+00,2.277056276798248291e-01
-4.691617786884307861e-01,-2.773331403732299805e-01,-8.582966923713684082e-01,-6.883083343505859375e+00,1.559798336029052734e+01,2.812433838844299316e-01,-5.953529357910156250e+00,-3.563525915145874023e+00,-1.434047341346740723e+00,-7.424552440643310547e+00,-1.367206126451492310e-01,-4.053641319274902344e+00,-1.025988769531250000e+01,-1.654561424255371094e+01,-2.132465553283691406e+01,-3.059690475463867188e+01,-6.106939315795898438e+00,-1.188156509399414062e+01,-1.792604255676269531e+01,2.679190158843994141e+00,2.196353822946548462e-01
5.659739375114440918e-01,9.858956336975097656e-01,2.586177587509155273e-01,-5.773547649383544922e+00,1.708046722412109375e+01,1.479944229125976562e+00,-3.880693197250366211e+00,-3.134123563766479492e+00,4.665990173816680908e-01,-6.698215007781982422e+00,1.517418861389160156e+00,-4.430301189422607422e+00,-9.229127883911132812e+00,-1.681210517883300781e+01,-2.250733184814453125e+01,-3.285291671752929688e+01,-5.131219863891601562e+00,-1.095047473907470703e+01,-1.714228248596191406e+01,2.300390720367431641e+00,2.101348042488098145e-01
1.278925657272338867e+00,1.947047948837280273e+00,8.055735826492309570e-01,-4.966612815856933594e+00,1.811617660522460938e+01,2.131536006927490234e+00,-1.818059682846069336e+00,-3.052253007888793945e+00,1.897927761077880859e+00,-6.126642227172851562e+00,3.042052745819091797e+00,-5.333252429962158203e+00,-8.573942184448242188e+00,-1.737775611877441406e+01,-2.372498512268066406e+01,-3.503897857666015625e+01,-4.432910919189453125e+00,-1.021982765197753906e+01,-1.664309120178222656e+01,1.778648257255554199e+00,1.991251558065414429e-01
1.701592803001403809e+00,2.617108345031738281e+00,8.515791893005371094e-01,-4.378869056701660156e+00,1.879003334045410156e+01,2.346200466156005859e+00,2.836841046810150146e-01,-3.134123563766479492e+00,2.913883447647094727e+00,-5.558586597442626953e+00,4.407748222351074219e+00,-6.588785171508789062e+00,-8.216567039489746094e+00,-1.795200157165527344e+01,-2.472840118408203125e+01,-3.689775466918945312e+01,-3.922092914581298828e+00,-9.558688163757324219e+00,-1.629493141174316406e+01,1.174988389015197754e+00,1.866326928138732910e-01
1.885014414787292480e+00,3.018046140670776367e+00,5.320956707000732422e-01,-3.891992568969726562e+00,1.919619369506835938e+01,2.256915092468261719e+00,2.407533645629882812e+00,-3.162527561187744141e+00,3.597181081771850586e+00,-4.844560146331787109e+00,5.590958118438720703e+00,-7.938912391662597656e+00,-8.029607772827148438e+00,-1.819786071777343750e+01,-2.526618003845214844e+01,-3.814693069458007812e+01,-3.483975648880004883e+00,-8.845822334289550781e+00,-1.594041061401367188e+01,5.663803815841674805e-01,1.728148609399795532e-01
1.881824493408203125e+00,3.180984497070312500e+00,-4.636669997125864029e-03,-3.368260622024536133e+00,1.939742851257324219e+01,2.011855840682983398e+00,4.444660663604736328e+00,-2.915245294570922852e+00,4.032333850860595703e+00,-3.854419946670532227e+00,6.556363582611083984e+00,-9.077490806579589844e+00,-7.888974189758300781e+00,-1.779382514953613281e+01,-2.512408256530761719e+01,-3.849919891357421875e+01,-2.996115922927856445e+00,-7.989089488983154297e+00,-1.544440078735351562e+01,4.298855736851692200e-02,1.579472422599792480e-01
1.731897234916687012e+00,3.140707492828369141e+00,-6.129333376884460449e-01,-2.685469627380371094e+00,1.943619728088378906e+01,1.772495627403259277e+00,6.204616069793701172e+00,-2.201802492141723633e+00,4.282277107238769531e+00,-2.524853467941284180e+00,7.260795593261718750e+00,-9.700097084045410156e+00,-7.683815002441406250e+00,-1.650263214111328125e+01,-2.417531967163085938e+01,-3.773220443725585938e+01,-2.357115030288696289e+00,-6.930296897888183594e+00,-1.472264194488525391e+01,-3.110706210136413574e-01,1.423185169696807861e-01
1.475107073783874512e+00,2.942984819412231445e+00,-1.177780270576477051e+00,-1.756330370903015137e+00,1.935312080383300781e+01,1.688909530639648438e+00,7.454439163208007812e+00,-9.119246006011962891e-01,4.375780582427978516e+00,-8.681712746620178223e-01,7.655198574066162109e+00,-9.557345390319824219e+00,-7.367803573608398438e+00,-1.421080684661865234e+01,-2.241333007812500000e+01,-3.571853256225585938e+01,-1.494272828102111816e+00,-5.659746170043945312e+00,-1.375923633575439453e+01,-4.254251420497894287e-01,1.263092607259750366e-01
1.143353223800659180e+00,2.637246847152709961e+00,-1.607166051864624023e+00,-5.614458918571472168e-01,1.919434738159179688e+01,1.880777716636657715e+00,7.971373081207275391e+00,9.644132852554321289e-01,4.309248924255371094e+00,1.022415995597839355e+00,7.676783084869384766e+00,-8.509921073913574219e+00,-6.965757369995117188e+00,-1.097164916992187500e+01,-1.996272087097167969e+01,-3.250065231323242188e+01,-3.961100280284881592e-01,-4.216232299804687500e+00,-1.260505867004394531e+01,-2.544431388378143311e-01,1.102606281638145447e-01
7.733200788497924805e-01,2.269262790679931641e+00,-1.844861865043640137e+00,8.429313898086547852e-01,1.903372955322265625e+01,2.412689208984375000e+00,7.581972122192382812e+00,3.325290918350219727e+00,4.059306144714355469e+00,2.979833364486694336e+00,7.254909038543701172e+00,-6.559546470642089844e+00,-6.568675041198730469e+00,-7.003507614135742188e+00,-1.706615066528320312e+01,-2.824595260620117188e+01,8.799781799316406250e-01,-2.699977159500122070e+00,-1.137139225006103516e+01,2.123212069272994995e-01,9.451381117105484009e-02
4.096668660640716553e-01,1.892124891281127930e+00,-1.849973559379577637e+00,2.340416431427001953e+00,1.894326782226562500e+01,3.290343523025512695e+00,6.225021362304687500e+00,5.966866970062255859e+00,3.589988470077514648e+00,4.812384128570556641e+00,6.320899009704589844e+00,-3.854132175445556641e+00,-6.307262420654296875e+00,-2.646805286407470703e+00,-1.403404140472412109e+01,-2.327172851562500000e+01,2.223027467727661133e+00,-1.253230214118957520e+00,-1.017587947845458984e+01,9.539762139320373535e-01,7.940998673439025879e-02
1.034325659275054932e-01,1.558925509452819824e+00,-1.604610204696655273e+00,3.773890018463134766e+00,1.896911430358886719e+01,4.477646350860595703e+00,3.953233480453491211e+00,8.633505821228027344e+00,2.868929624557495117e+00,6.337164878845214844e+00,4.823735713958740234e+00,-6.430651545524597168e-01,-6.322153091430664062e+00,1.703020095825195312e+00,-1.119868087768554688e+01,-1.795772933959960938e+01,3.497202634811401367e+00,-3.925615549087524414e-02,-9.128216743469238281e+00,1.922690987586975098e+00,6.519848853349685669e-02
-8.955883979797363281e-02,1.342895030975341797e+00,-1.118995308876037598e+00,4.999810695648193359e+00,1.910388565063476562e+01,5.925205707550048828e+00,9.502565264701843262e-01,1.108293724060058594e+01,1.883542537689208984e+00,7.431067466735839844e+00,2.751646280288696289e+00,2.782990217208862305e+00,-6.712617397308349609e+00,5.681477069854736328e+00,-8.828957557678222656e+00,-1.268370246887207031e+01,4.572407245635986328e+00,8.013117909431457520e-01,-8.295173645019531250e+00,3.055240392684936523e+00,5.208926275372505188e-02
-1.150783672928810120e-01,1.324587345123291016e+00,-4.391342699527740479e-01,5.930889606475830078e+00,1.927742576599121094e+01,7.604526996612548828e+00,-2.498235702514648438e+00,1.314640808105468750e+01,6.500104665756225586e-01,8.083539962768554688e+00,1.634968817234039307e-01,6.171207904815673828e+00,-7.510091304779052734e+00,9.020354270935058594e+00,-7.091015338897705078e+00,-7.751951217651367188e+00,5.374027729034423828e+00,1.203814506530761719e+00,-7.683109283447265625e+00,4.281802654266357422e+00,4.010856151580810547e-02
6.993819028139114380e-02,1.593710064888000488e+00,3.634083569049835205e-01,6.557427883148193359e+00,1.936235046386718750e+01,9.509910583496093750e+00,-6.053855419158935547e+00,1.477880477905273438e+01,-7.795200943946838379e-01,8.386034011840820312e+00,-2.801396131515502930e+00,9.349596977233886719e+00,-8.655013084411621094e+00,1.160446071624755859e+01,-6.019830226898193359e+00,-3.367339134216308594e+00,5.902064323425292969e+00,1.210280418395996094e+00,-7.241151332855224609e+00,5.530905723571777344e+00,2.917764708399772644e-02
4.766556322574615479e-01,2.207016706466674805e+00,1.181286215782165527e+00,6.945377349853515625e+00,1.922573280334472656e+01,1.164515590667724609e+01,-9.368012428283691406e+00,1.605030441284179688e+01,-2.309747219085693359e+00,8.532004356384277344e+00,-5.929152488708496094e+00,1.224764060974121094e+01,-1.001667499542236328e+01,1.345786380767822266e+01,-5.532331943511962891e+00,3.876877129077911377e-01,6.223477840423583984e+00,9.613429903984069824e-01,-6.881861686706542969e+00,6.738775253295898438e+00,1.913905143737792969e-02
1.081149339675903320e+00,3.177322864532470703e+00,1.904596924781799316e+00,7.207243442535400391e+00,1.876418685913085938e+01,1.397416877746582031e+01,-1.215843486785888672e+01,1.710793685913085938e+01,-3.823790788650512695e+00,8.743046760559082031e+00,-8.956835746765136719e+00,1.486705970764160156e+01,-1.141473674774169922e+01,1.470951366424560547e+01,-5.466749191284179688e+00,3.500637292861938477e+00,6.453059196472167969e+00,6.639112830162048340e-01,-6.511444091796875000e+00,7.841636657714843750e+00,9.809062816202640533e-03
1.810050845146179199e+00,4.433228492736816406e+00,2.425994157791137695e+00,7.445832252502441406e+00,1.793340492248535156e+01,1.638866806030273438e+01,-1.423467159271240234e+01,1.809873771667480469e+01,-5.195780754089355469e+00,9.214374542236328125e+00,-1.161758708953857422e+01,1.721301269531250000e+01,-1.266885566711425781e+01,1.552102279663085938e+01,-5.646008968353271484e+00,5.998991966247558594e+00,6.692205905914306641e+00,5.119624733924865723e-01,-6.069485664367675781e+00,8.779563903808593750e+00,1.082701724953949451e-03
2.548521995544433594e+00,5.815457344055175781e+00,2.645798683166503906e+00,7.719336509704589844e+00,1.676477050781250000e+01,1.868918609619140625e+01,-1.555081272125244141e+01,1.909454917907714844e+01,-6.332212448120117188e+00,1.003216361999511719e+01,-1.370341205596923828e+01,1.925626373291015625e+01,-1.364998054504394531e+01,1.601102256774902344e+01,-5.921456336975097656e+00,7.910233020782470703e+00,6.990661144256591797e+00,6.121839880943298340e-01,-5.557577610015869141e+00,9.494829177856445312e+00,-7.040030788630247116e-03
3.148231029510498047e+00,7.100655078887939453e+00,2.492446660995483398e+00,7.994781017303466797e+00,1.533951759338378906e+01,2.059076881408691406e+01,-1.620378112792968750e+01,2.004692077636718750e+01,-7.195325374603271484e+00,1.112606620788574219e+01,-1.508872890472412109e+01,2.088673591613769531e+01,-1.430351161956787109e+01,1.621046066284179688e+01,-6.225323200225830078e+00,9.236859321594238281e+00,7.308248519897460938e+00,9.338629245758056641e-01,-5.050438880920410156e+00,9.936304092407226562e+00,-1.442791242152452469e-02
3.444895505905151367e+00,8.016037940979003906e+00,1.914820432662963867e+00,8.153840065002441406e+00,1.376656913757324219e+01,2.178187179565429688e+01,-1.641123580932617188e+01,2.076537513732910156e+01,-7.821082115173339844e+00,1.227800559997558594e+01,-1.575980377197265625e+01,2.191180038452148438e+01,-1.466254043579101562e+01,1.604712867736816406e+01,-6.564167022705078125e+00,9.958883285522460938e+00,7.511044979095458984e+00,1.307269096374511719e+00,-4.689559459686279297e+00,1.006330299377441406e+01,-2.088410593569278717e-02
3.285398244857788086e+00,8.297976493835449219e+00,8.822496533393859863e-01,8.006419181823730469e+00,1.214746570587158203e+01,2.198133850097656250e+01,-1.644524383544921875e+01,2.098926544189453125e+01,-8.315573692321777344e+00,1.315207290649414062e+01,-1.580101013183593750e+01,2.212506866455078125e+01,-1.483130073547363281e+01,1.538004016876220703e+01,-7.016688346862792969e+00,1.004632568359375000e+01,7.400081157684326172e+00,1.476999163627624512e+00,-4.656174182891845703e+00,9.853837013244628906e+00,-2.626426890492439270e-02
2.556496858596801758e+00,7.734100341796875000e+00,-6.180450916290283203e-01,7.343025684356689453e+00,1.057267189025878906e+01,2.102009773254394531e+01,-1.658808135986328125e+01,2.043789291381835938e+01,-8.819056510925292969e+00,1.340180587768554688e+01,-1.536147594451904297e+01,2.135111045837402344e+01,-1.494380760192871094e+01,1.404070663452148438e+01,-7.681260108947753906e+00,9.481698036193847656e+00,6.757254123687744141e+00,1.181183815002441406e+00,-5.114029884338378906e+00,9.309553146362304688e+00,-3.052903153002262115e-02
1.205557107925415039e+00,6.201748847961425781e+00,-2.550281524658203125e+00,5.994901180267333984e+00,9.112340927124023438e+00,1.886965560913085938e+01,-1.704719924926757812e+01,1.891911315917968750e+01,-9.475381851196289062e+00,1.273174667358398438e+01,-1.462368679046630859e+01,1.952456855773925781e+01,-1.512084007263183594e+01,1.191393375396728516e+01,-8.656256675720214844e+00,8.279989242553710938e+00,5.408464908599853516e+00,2.452437728643417358e-01,-6.169641971588134766e+00,8.455192565917968750e+00,-3.383586183190345764e-02
-7.371168136596679688e-01,3.702752828598022461e+00,-4.845451354980468750e+00,3.886395454406738281e+00,7.844012737274169922e+00,1.566868782043457031e+01,-1.791952514648437500e+01,1.639282226562500000e+01,-1.037265968322753906e+01,1.101351070404052734e+01,-1.375442886352539062e+01,1.673487854003906250e+01,-1.543850612640380859e+01,8.991127014160156250e+00,-9.994144439697265625e+00,6.481174468994140625e+00,3.282926797866821289e+00,-1.361534237861633301e+00,-7.840497493743896484e+00,7.343534946441650391e+00,-3.643408790230751038e-02
-3.150306940078735352e+00,3.799119591712951660e-01,-7.368093490600585938e+00,1.067942142486572266e+00,6.854458332061767578e+00,1.168314933776855469e+01,-1.916594696044921875e+01,1.300271701812744141e+01,-1.151988029479980469e+01,8.303375244140625000e+00,-1.288124752044677734e+01,1.322282791137695312e+01,-1.591169643402099609e+01,5.382318973541259766e+00,-1.168399333953857422e+01,4.165199756622314453e+00,4.361214041709899902e-01,-3.508215427398681641e+00,-1.003438949584960938e+01,6.047700405120849609e+00,-3.867800906300544739e-02
-5.841022014617919922e+00,-3.506804943084716797e+00,-9.944408416748046875e+00,-2.283941745758056641e+00,6.228601932525634766e+00,7.254984855651855469e+00,-2.064703178405761719e+01,9.061237335205078125e+00,-1.284331989288330078e+01,4.851075172424316406e+00,-1.208066749572753906e+01,9.358196258544921875e+00,-1.649242973327636719e+01,1.324774384498596191e+00,-1.364928913116455078e+01,1.429501533508300781e+00,-2.948286533355712891e+00,-5.947479248046875000e+00,-1.257167339324951172e+01,4.654004573822021484e+00,-4.088256508111953735e-02
-8.570015907287597656e+00,-7.596736907958984375e+00,-1.237759494781494141e+01,-5.897691726684570312e+00,6.025521755218505859e+00,2.741334676742553711e+00,-2.216042327880859375e+01,4.986092090606689453e+00,-1.420452022552490234e+01,1.029450774192810059e+00,-1.137819766998291016e+01,5.579559803009033203e+00,-1.708639907836914062e+01,-2.870314121246337891e+00,-1.575449562072753906e+01,-1.583513975143432617e+00,-6.590972900390625000e+00,-8.378660202026367188e+00,-1.521706199645996094e+01,3.257010221481323242e+00,-4.321834072470664978e-02
-1.109166431427001953e+01,-1.149626922607421875e+01,-1.448107433319091797e+01,-9.464887619018554688e+00,6.237833023071289062e+00,-1.559550881385803223e+00,-2.351737403869628906e+01,1.228403806686401367e+00,-1.544164848327636719e+01,-2.737654447555541992e+00,-1.074636745452880859e+01,2.322055101394653320e+00,-1.757613372802734375e+01,-6.845332145690917969e+00,-1.781160736083984375e+01,-4.718948841094970703e+00,-1.018009090423583984e+01,-1.053180694580078125e+01,-1.771460151672363281e+01,1.944682240486145020e+00,-4.572470858693122864e-02
-1.320340442657470703e+01,-1.484107875823974609e+01,-1.613216590881347656e+01,-1.270232582092285156e+01,6.765841484069824219e+00,-5.433007240295410156e+00,-2.458014869689941406e+01,-1.812500000000000000e+00,-1.640545845031738281e+01,-6.070363998413085938e+00,-1.013023471832275391e+01,-4.281749948859214783e-02,-1.785905456542968750e+01,-1.026673603057861328e+01,-1.960420227050781250e+01,-7.779433250427246094e+00,-1.343440246582031250e+01,-1.222102546691894531e+01,-1.983536338806152344e+01,7.912409305572509766e-01,-4.829668998718261719e-02
-1.478083038330078125e+01,-1.735838317871093750e+01,-1.726952743530273438e+01,-1.540827369689941406e+01,7.428621292114257812e+00,-8.774552345275878906e+00,-2.530963706970214844e+01,-3.855920553207397461e+00,-1.699525260925292969e+01,-8.690806388854980469e+00,-9.451312065124511719e+00,-1.257072091102600098e+00,-1.782761955261230469e+01,-1.286115837097167969e+01,-2.092897415161132812e+01,-1.056260013580322266e+01,-1.614728546142578125e+01,-1.336549091339111328e+01,-2.140924263000488281e+01,-1.499846875667572021e-01,-5.072432383894920349e-02
-1.578566169738769531e+01,-1.890538024902343750e+01,-1.792127418518066406e+01,-1.748574447631835938e+01,7.991707324981689453e+00,-1.155949020385742188e+01,-2.572284317016601562e+01,-4.758166790008544922e+00,-1.715349006652832031e+01,-1.045476818084716797e+01,-8.633071899414062500e+00,-1.207194805145263672e+00,-1.741895484924316406e+01,-1.444807052612304688e+01,-2.161540603637695312e+01,-1.285858726501464844e+01,-1.821925544738769531e+01,-1.397975254058837891e+01,-2.233608245849609375e+01,-8.526052236557006836e-01,-5.277140811085700989e-02
-1.626096343994140625e+01,-1.948573303222656250e+01,-1.815130233764648438e+01,-1.893667411804199219e+01,8.246480941772460938e+00,-1.382771301269531250e+01,-2.587758445739746094e+01,-4.537617683410644531e+00,-1.686398696899414062e+01,-1.134642219543457031e+01,-7.608800411224365234e+00,6.553666293621063232e-02,-1.660328102111816406e+01,-1.496729850769042969e+01,-2.157824325561523438e+01,-1.450500297546386719e+01,-1.964457130432128906e+01,-1.413816738128662109e+01,-2.259839630126953125e+01,-1.314971327781677246e+00,-5.424111336469650269e-02
-1.629445648193359375e+01,-1.922759437561035156e+01,-1.804651069641113281e+01,-1.983089828491210938e+01,8.076631546020507812e+00,-1.562291526794433594e+01,-2.581976890563964844e+01,-3.342976808547973633e+00,-1.612134933471679688e+01,-1.144314956665039062e+01,-6.345139980316162109e+00,2.370212554931640625e+00,-1.539217948913574219e+01,-1.447729873657226562e+01,-2.083715820312500000e+01,-1.541190624237060547e+01,-2.048254203796386719e+01,-1.392802524566650391e+01,-2.224228668212890625e+01,-1.558524489402770996e+00,-5.496283993124961853e-02
-1.597865295410156250e+01,-1.832502746582031250e+01,-1.765802001953125000e+01,-2.025376319885253906e+01,7.504314899444580078e+00,-1.697549057006835938e+01,-2.554429817199707031e+01,-1.414843320846557617e+00,-1.491479015350341797e+01,-1.088212871551513672e+01,-4.842090129852294922e+00,5.395529747009277344e+00,-1.384190368652343750e+01,-1.314828109741210938e+01,-1.952113151550292969e+01,-1.557429885864257812e+01,-2.082117462158203125e+01,-1.342045116424560547e+01,-2.137426757812500000e+01,-1.617900848388671875e+00,-5.487098544836044312e-02
-1.537894439697265625e+01,-1.698307609558105469e+01,-1.698838233947753906e+01,-2.027510070800781250e+01,6.699378967285156250e+00,-1.787214088439941406e+01,-2.500015640258789062e+01,9.560591578483581543e-01,-1.323351860046386719e+01,-9.805812835693359375e+00,-3.138895511627197266e+00,8.749348640441894531e+00,-1.203683280944824219e+01,-1.122438526153564453e+01,-1.784221267700195312e+01,-1.508712005615234375e+01,-2.072551536560058594e+01,-1.265585803985595703e+01,-2.013583183288574219e+01,-1.535983443260192871e+00,-5.396554246544837952e-02
-1.451766014099121094e+01,-1.536650943756103516e+01,-1.599926090240478516e+01,-1.991042900085449219e+01,5.923981666564941406e+00,-1.825587654113769531e+01,-2.409212303161621094e+01,3.484019279479980469e+00,-1.106854438781738281e+01,-8.342586517333984375e+00,-1.302270889282226562e+00,1.203437232971191406e+01,-1.008120059967041016e+01,-8.980701446533203125e+00,-1.604743194580078125e+01,-1.410526657104492188e+01,-2.022617530822753906e+01,-1.163424491882324219e+01,-1.866528892517089844e+01,-1.354555606842041016e+00,-5.231212824583053589e-02
-1.337566184997558594e+01,-1.356686592102050781e+01,-1.463187122344970703e+01,-1.911901092529296875e+01,5.469820499420166016e+00,-1.804311370849609375e+01,-2.272836875915527344e+01,5.943475723266601562e+00,-8.437848091125488281e+00,-6.580383300781250000e+00,6.010687947273254395e-01,1.490661716461181641e+01,-8.069315910339355469e+00,-6.659647941589355469e+00,-1.433790779113769531e+01,-1.280362415313720703e+01,-1.929637336730957031e+01,-1.032651519775390625e+01,-1.708028030395507812e+01,-1.110452651977539062e+00,-5.008132755756378174e-02
-1.191785907745361328e+01,-1.160977649688720703e+01,-1.283253955841064453e+01,-1.782131958007812500e+01,5.573206901550292969e+00,-1.714836120605468750e+01,-2.084258079528808594e+01,8.197420120239257812e+00,-5.384586334228515625e+00,-4.566687583923339844e+00,2.514219522476196289e+00,1.714421653747558594e+01,-6.054121971130371094e+00,-4.427998542785644531e+00,-1.282294654846191406e+01,-1.132959461212158203e+01,-1.787870979309082031e+01,-8.677708625793457031e+00,-1.543645191192626953e+01,-8.322633504867553711e-01,-4.753559455275535583e-02
-1.011713695526123047e+01,-9.475103378295898438e+00,-1.060126686096191406e+01,-1.592230701446533203e+01,6.355988502502441406e+00,-1.551653289794921875e+01,-1.841945457458496094e+01,1.020909500122070312e+01,-1.987877964973449707e+00,-2.308535099029541016e+00,4.425407886505126953e+00,1.866805458068847656e+01,-4.033964633941650391e+00,-2.339050769805908203e+00,-1.148287296295166016e+01,-9.775618553161621094e+00,-1.590431213378906250e+01,-6.618317127227783203e+00,-1.372108173370361328e+01,-5.436281561851501465e-01,-4.500298202037811279e-02
-7.984662055969238281e+00,-7.139045238494873047e+00,-7.984057426452636719e+00,-1.335214138031005859e+01,7.808935165405273438e+00,-1.315332508087158203e+01,-1.548449516296386719e+01,1.202194118499755859e+01,1.653379082679748535e+00,2.011097222566604614e-01,6.362105369567871094e+00,1.952456855773925781e+01,-1.947626948356628418e+00,-3.463838100433349609e-01,-1.017777633666992188e+01,-8.181668281555175781e+00,-1.332152557373046875e+01,-4.091763496398925781e+00,-1.186104297637939453e+01,-2.670881152153015137e-01,-4.283779487013816833e-02
-5.574661731719970703e+00,-4.601603031158447266e+00,-5.085702896118164062e+00,-1.008366680145263672e+01,9.789890289306640625e+00,-1.013282680511474609e+01,-1.211762428283691406e+01,1.371114730834960938e+01,5.440286636352539062e+00,2.955211877822875977e+00,8.385139465332031250e+00,1.983243179321289062e+01,3.025074303150177002e-01,1.660037636756896973e+00,-8.708723068237304688e+00,-6.545246124267578125e+00,-1.012078189849853516e+01,-1.047937750816345215e+00,-9.757768630981445312e+00,-2.848301641643047333e-02,-4.140745848417282104e-02
-2.978049993515014648e+00,-1.901222825050354004e+00,-2.039107799530029297e+00,-6.171195983886718750e+00,1.206807994842529297e+01,-6.601313591003417969e+00,-8.441272735595703125e+00,1.533184814453125000e+01,9.268551826477050781e+00,5.902769565582275391e+00,1.055730152130126953e+01,1.972063827514648438e+01,2.799163818359375000e+00,3.786809921264648438e+00,-6.889894962310791016e+00,-4.863853454589843750e+00,-6.361392021179199219e+00,2.496995925903320312e+00,-7.336537837982177734e+00,1.435985416173934937e-01,-4.090880975127220154e-02
-3.144496679306030273e-01,8.998495936393737793e-01,1.007487177848815918e+00,-1.748571395874023438e+00,1.435919380187988281e+01,-2.739254951477050781e+00,-4.639089584350585938e+00,1.687569236755371094e+01,1.303208255767822266e+01,8.927709579467773438e+00,1.290998649597167969e+01,1.925110435485839844e+01,5.562196731567382812e+00,6.082073211669921875e+00,-4.629476547241210938e+00,-3.184959173202514648e+00,-2.169623851776123047e+00,6.457364082336425781e+00,-4.597352504730224609e+00,2.200181484222412109e-01,-4.144682362675666809e-02
2.301301717758178711e+00,3.735706567764282227e+00,3.913509368896484375e+00,2.974714040756225586e+00,1.637153434753417969e+01,1.259580850601196289e+00,-9.610379338264465332e-01,1.826749038696289062e+01,1.660501098632812500e+01,1.185064506530761719e+01,1.540198707580566406e+01,1.841694831848144531e+01,8.510534286499023438e+00,8.489090919494628906e+00,-1.966817021369934082e+00,-1.603500843048095703e+00,2.265117406845092773e+00,1.066182041168212891e+01,-1.648316264152526855e+00,1.804338991641998291e-01,-4.292964935302734375e-02
4.776695728302001953e+00,6.560578823089599609e+00,6.561388969421386719e+00,7.732914924621582031e+00,1.783555793762207031e+01,5.233720779418945312e+00,2.283401489257812500e+00,1.937357711791992188e+01,1.982370185852050781e+01,1.446053504943847656e+01,1.791753578186035156e+01,1.717001533508300781e+01,1.146052646636962891e+01,1.084968852996826172e+01,9.144514799118041992e-01,-2.593860924243927002e-01,6.711337566375732422e+00,1.486142730712890625e+01,1.295950531959533691e+00,2.154708653688430786e-02,-4.514732584357261658e-02
7.047933578491210938e+00,9.361651420593261719e+00,8.856558799743652344e+00,1.223700904846191406e+01,1.855372238159179688e+01,9.065383911132812500e+00,4.760942459106445312e+00,2.006697082519531250e+01,2.250294685363769531e+01,1.655337142944335938e+01,2.026433372497558594e+01,1.546730709075927734e+01,1.413752460479736328e+01,1.295582866668701172e+01,3.738881587982177734e+00,6.949853301048278809e-01,1.091458511352539062e+01,1.876845169067382812e+01,3.957237005233764648e+00,-2.341012358665466309e-01,-4.779804125428199768e-02
9.079925537109375000e+00,1.214075469970703125e+01,1.072745418548583984e+01,1.621737098693847656e+01,1.841710472106933594e+01,1.266908550262451172e+01,6.172307491302490234e+00,2.028919029235839844e+01,2.444675064086914062e+01,1.799549293518066406e+01,2.222065353393554688e+01,1.335354137420654297e+01,1.624537086486816406e+01,1.458400440216064453e+01,6.198234558105468750e+00,1.142190814018249512e+00,1.463762474060058594e+01,2.211132621765136719e+01,6.046204090118408203e+00,-5.414289832115173340e-01,-5.060622096061706543e-02
1.085193729400634766e+01,1.489056587219238281e+01,1.214084911346435547e+01,1.944705009460449219e+01,1.744601249694824219e+01,1.597453689575195312e+01,6.328748226165771484e+00,2.006362915039062500e+01,2.549147605895996094e+01,1.875172805786132812e+01,2.356672668457031250e+01,1.098694896697998047e+01,1.754085350036621094e+01,1.559151363372802734e+01,8.023620605468750000e+00,1.039758205413818359e+00,1.768340110778808594e+01,2.467829132080078125e+01,7.346641540527343750e+00,-8.366615772247314453e-01,-5.330942571163177490e-02
1.234961509704589844e+01,1.755433082580566406e+01,1.308652114868164062e+01,2.179220581054687500e+01,1.577706241607666016e+01,1.889815139770507812e+01,5.201356410980224609e+00,1.952562332153320312e+01,2.554182434082031250e+01,1.889769935607910156e+01,2.413380432128906250e+01,8.637555122375488281e+00,1.787010002136230469e+01,1.593537330627441406e+01,9.051083564758300781e+00,4.326581060886383057e-01,1.992564201354980469e+01,2.636912536621093750e+01,7.763163089752197266e+00,-1.055474519729614258e+00,-5.575018376111984253e-02
1.354584217071533203e+01,2.003318786621093750e+01,1.359258270263671875e+01,2.320628166198730469e+01,1.366318225860595703e+01,2.131834983825683594e+01,2.941471815109252930e+00,1.887901306152343750e+01,2.460139083862304688e+01,1.859344673156738281e+01,2.383751106262207031e+01,6.639022827148437500e+00,1.722815132141113281e+01,1.569811058044433594e+01,9.236901283264160156e+00,-5.441985130310058594e-01,2.131843376159667969e+01,2.719837951660156250e+01,7.343461990356445312e+00,-1.144539117813110352e+00,-5.779726803302764893e-02
1.441031646728515625e+01,2.216786193847656250e+01,1.370759677886962891e+01,2.374359130859375000e+01,1.140160751342773438e+01,2.308695602416992188e+01,-1.482276320457458496e-01,1.833265304565429688e+01,2.278705596923828125e+01,1.805880546569824219e+01,2.268765830993652344e+01,5.306094646453857422e+00,1.574736309051513672e+01,1.505337333679199219e+01,8.666331291198730469e+00,-1.683448076248168945e+00,2.190769195556640625e+01,2.729051780700683594e+01,6.260823726654052734e+00,-1.075266718864440918e+00,-5.939819663763046265e-02
1.490794754028320312e+01,2.379358291625976562e+01,1.351335048675537109e+01,2.354185867309570312e+01,9.280343055725097656e+00,2.406529235839843750e+01,-3.683442115783691406e+00,1.806532096862792969e+01,2.029302024841308594e+01,1.748195648193359375e+01,2.078431892395019531e+01,4.867517948150634766e+00,1.366764354705810547e+01,1.424186420440673828e+01,7.542680740356445312e+00,-2.740252017974853516e+00,2.181203269958496094e+01,2.684275436401367188e+01,4.795049667358398438e+00,-8.460078835487365723e-01,-6.048734858632087708e-02
1.502437973022460938e+01,2.477304267883300781e+01,1.310185623168945312e+01,2.280475425720214844e+01,7.500622272491455078e+00,2.415647697448730469e+01,-7.286674499511718750e+00,1.817392349243164062e+01,1.737821578979492188e+01,1.701590538024902344e+01,1.830409049987792969e+01,5.404129028320312500e+00,1.128845787048339844e+01,1.351288127899169922e+01,6.139209747314453125e+00,-3.469771623611450195e+00,2.121129608154296875e+01,2.608300971984863281e+01,3.257735252380371094e+00,-4.820526242256164551e-01,-6.101224198937416077e-02
1.476758956909179688e+01,2.504582595825195312e+01,1.257279109954833984e+01,2.175728988647460938e+01,6.141831398010253906e+00,2.335291099548339844e+01,-1.064504337310791016e+01,1.867684173583984375e+01,1.431236648559570312e+01,1.675386047363281250e+01,1.547655105590820312e+01,6.859170913696289062e+00,8.924161911010742188e+00,1.309681129455566406e+01,4.781647205352783203e+00,-3.639659643173217773e+00,2.031592941284179688e+01,2.523435974121093750e+01,1.962067127227783203e+00,-2.298520319163799286e-02,-6.088101863861083984e-02
1.418064022064208984e+01,2.462658119201660156e+01,1.201816749572753906e+01,2.062641716003417969e+01,5.159661769866943359e+00,2.174957656860351562e+01,-1.355449581146240234e+01,1.950223159790039062e+01,1.134361839294433594e+01,1.671516990661621094e+01,1.256267547607421875e+01,9.031414031982421875e+00,6.846096515655517578e+00,1.317589950561523438e+01,3.793533802032470703e+00,-3.072533130645751953e+00,1.932873153686523438e+01,2.447299957275390625e+01,1.175127506256103516e+00,4.850127398967742920e-01,-6.006743386387825012e-02
1.333849620819091797e+01,2.361782836914062500e+01,1.152744102478027344e+01,1.959641075134277344e+01,4.426726818084716797e+00,1.952884674072265625e+01,-1.591130542755126953e+01,2.054148483276367188e+01,8.678757667541503906e+00,1.687872886657714844e+01,9.815587043762207031e+00,1.164567279815673828e+01,5.261075496673583984e+00,1.386017990112304688e+01,3.443759202957153320e+00,-1.660962939262390137e+00,1.841806030273437500e+01,2.392177963256835938e+01,1.089279532432556152e+00,9.996080994606018066e-01,-5.855836346745491028e-02
1.233844947814941406e+01,2.217518424987792969e+01,1.116450786590576172e+01,1.879141616821289062e+01,3.804563283920288086e+00,1.693767738342285156e+01,-1.769336700439453125e+01,2.165759658813476562e+01,6.449049472808837891e+00,1.719353294372558594e+01,7.460940361022949219e+00,1.437688636779785156e+01,4.284914493560791016e+00,1.518232059478759766e+01,3.913768768310546875e+00,6.050445437431335449e-01,1.770253181457519531e+01,2.364374542236328125e+01,1.799909830093383789e+00,1.487264156341552734e+00,-5.643254518508911133e-02
1.129374408721923828e+01,2.048538780212402344e+01,1.098048496246337891e+01,1.827156448364257812e+01,3.208245992660522461e+00,1.424012470245361328e+01,-1.892448425292968750e+01,2.271355819702148438e+01,4.717429637908935547e+00,1.759627151489257812e+01,5.665522098541259766e+00,1.691374969482421875e+01,3.945739746093750000e+00,1.708902359008789062e+01,5.245098590850830078e+00,3.638046979904174805e+00,1.723380470275878906e+01,2.362919807434082031e+01,3.300659179687500000e+00,1.925989627838134766e+00,-5.384744331240653992e-02
1.031283760070800781e+01,1.874798965454101562e+01,1.099326515197753906e+01,1.802715492248535156e+01,2.659929513931274414e+00,1.170214653015136719e+01,-1.963696861267089844e+01,2.359408378601074219e+01,3.480301141738891602e+00,1.801659774780273438e+01,4.519593715667724609e+00,1.900171661376953125e+01,4.188952922821044922e+00,1.944102287292480469e+01,7.332815647125244141e+00,7.238175868988037109e+00,1.700804901123046875e+01,2.383448982238769531e+01,5.473884105682373047e+00,2.305338859558105469e+00,-5.099989101290702820e-02
9.500997543334960938e+00,1.716071510314941406e+01,1.120028972625732422e+01,1.800581741333007812e+01,2.277769565582275391e+00,9.557402610778808594e+00,-1.987673187255859375e+01,2.422398567199707031e+01,2.667536735534667969e+00,1.839295578002929688e+01,4.036890983581542969e+00,2.046535873413085938e+01,4.900392055511474609e+00,2.203716468811035156e+01,9.938636779785156250e+00,1.112561511993408203e+01,1.698700523376464844e+01,2.416910171508789062e+01,8.114503860473632812e+00,2.625311613082885742e+00,-4.817858710885047913e-02
8.949137687683105469e+00,1.590847206115722656e+01,1.156833553314208984e+01,1.813772201538085938e+01,2.246384382247924805e+00,8.014859199523925781e+00,-1.968288230895996094e+01,2.456483459472656250e+01,2.180237531661987305e+00,1.867786407470703125e+01,4.156585693359375000e+00,2.124275588989257812e+01,5.926188945770263672e+00,2.463674354553222656e+01,1.273027515411376953e+01,1.496808433532714844e+01,1.711518669128417969e+01,2.453604125976562500e+01,1.096020412445068359e+01,2.896903514862060547e+00,-4.558036476373672485e-02
8.719462394714355469e+00,1.514870357513427734e+01,1.203605937957763672e+01,1.834721374511718750e+01,2.744853973388671875e+00,7.226489543914794922e+00,-1.910473251342773438e+01,2.463166809082031250e+01,1.905120372772216797e+00,1.883438682556152344e+01,4.782529354095458984e+00,2.137174987792968750e+01,7.107509613037109375e+00,2.699905967712402344e+01,1.534484100341796875e+01,1.842081069946289062e+01,1.733329010009765625e+01,2.483508872985839844e+01,1.372641658782958984e+01,3.135508537292480469e+00,-4.338893294334411621e-02
8.829515457153320312e+00,1.496745777130126953e+01,1.253189754486083984e+01,1.857222366333007812e+01,3.883949041366577148e+00,7.279680728912353516e+00,-1.817289161682128906e+01,2.447460937500000000e+01,1.741488575935363770e+00,1.883438682556152344e+01,5.796989917755126953e+00,2.098649024963378906e+01,8.302065849304199219e+00,2.891263961791992188e+01,1.745223236083984375e+01,2.117399597167968750e+01,1.758200263977050781e+01,2.498542213439941406e+01,1.616831398010253906e+01,3.357070446014404297e+00,-4.165678098797798157e-02
9.242612838745117188e+00,1.535741138458251953e+01,1.297661876678466797e+01,1.874680137634277344e+01,5.648900508880615234e+00,8.151636123657226562e+00,-1.692476844787597656e+01,2.416049385070800781e+01,1.626406908035278320e+00,1.865500068664550781e+01,7.095970153808593750e+00,2.026584815979003906e+01,9.400661468505859375e+00,3.022274398803710938e+01,1.881416702270507812e+01,2.298530387878417969e+01,1.780201721191406250e+01,2.492399597167968750e+01,1.809989166259765625e+01,3.567636728286743164e+00,-4.035766795277595520e-02
9.864650726318359375e+00,1.619407081604003906e+01,1.329865837097167969e+01,1.881275367736816406e+01,7.890167236328125000e+00,9.705577850341796875e+00,-1.539607238769531250e+01,2.374445915222167969e+01,1.531104803085327148e+00,1.826633071899414062e+01,8.587246894836425781e+00,1.939213562011718750e+01,1.033711433410644531e+01,3.083825302124023438e+01,1.929510879516601562e+01,2.369483566284179688e+01,1.792446136474609375e+01,2.461363220214843750e+01,1.941463851928710938e+01,3.757861137390136719e+00,-3.943910449743270874e-02
1.054410839080810547e+01,1.723943901062011719e+01,1.343156337738037109e+01,1.869442939758300781e+01,1.033266735076904297e+01,1.167175102233886719e+01,-1.363101577758789062e+01,2.323987007141113281e+01,1.457380652427673340e+00,1.763496208190917969e+01,1.019625568389892578e+01,1.849434471130371094e+01,1.106840801239013672e+01,3.072477912902832031e+01,1.887100601196289062e+01,2.324763107299804688e+01,1.787089157104492188e+01,2.403008460998535156e+01,2.007916450500488281e+01,3.900804281234741211e+00,-3.883547708392143250e-02
1.110553741455078125e+01,1.820059204101562500e+01,1.334210777282714844e+01,1.831617736816406250e+01,1.262193489074707031e+01,1.370441341400146484e+01,-1.170781803131103516e+01,2.261665153503417969e+01,1.412426829338073730e+00,1.670461845397949219e+01,1.185039520263671875e+01,1.762579154968261719e+01,1.157303333282470703e+01,2.988920021057128906e+01,1.761181831359863281e+01,2.167616653442382812e+01,1.756095695495605469e+01,2.316041946411132812e+01,2.010460090637207031e+01,3.956332206726074219e+00,-3.853366151452064514e-02
1.139263248443603516e+01,1.878277397155761719e+01,1.300728893280029297e+01,1.761592864990234375e+01,1.437950229644775391e+01,1.543882560729980469e+01,-9.747210502624511719e+00,2.181465530395507812e+01,1.396243453025817871e+00,1.543308830261230469e+01,1.347313880920410156e+01,1.676583671569824219e+01,1.182617378234863281e+01,2.837449836730957031e+01,1.565089321136474609e+01,1.910785865783691406e+01,1.692769622802734375e+01,2.199493980407714844e+01,1.952910232543945312e+01,3.882111549377441406e+00,-3.853366151452064514e-02
1.127938938140869141e+01,1.878826713562011719e+01,1.242199516296386719e+01,1.655488777160644531e+01,1.526751613616943359e+01,1.655963897705078125e+01,-7.919238090515136719e+00,2.075869178771972656e+01,1.380060076713562012e+00,1.379575157165527344e+01,1.497226428985595703e+01,1.584912681579589844e+01,1.179639244079589844e+01,2.625116539001464844e+01,1.315219116210937500e+01,1.575006961822509766e+01,1.593858432769775391e+01,2.052879524230957031e+01,1.839082145690917969e+01,3.649554252624511719e+00,-3.884860128164291382e-02
1.071796035766601562e+01,1.813468360900878906e+01,1.159133815765380859e+01,1.512723255157470703e+01,1.504043579101562500e+01,1.685978889465332031e+01,-6.412648200988769531e+00,1.941534805297851562e+01,1.304537653923034668e+00,1.181371307373046875e+01,1.625750923156738281e+01,1.481890201568603516e+01,1.144563579559326172e+01,2.362407684326171875e+01,1.030371379852294922e+01,1.188761329650878906e+01,1.458979511260986328e+01,1.876037025451660156e+01,1.674222373962402344e+01,3.254811048507690430e+00,-3.941285982728004456e-02
9.724293708801269531e+00,1.687694740295410156e+01,1.051531696319580078e+01,1.335818290710449219e+01,1.359487342834472656e+01,1.625948905944824219e+01,-5.405987739562988281e+00,1.780801391601562500e+01,1.090557694435119629e+00,9.555560111999511719e+00,1.723861122131347656e+01,1.367172431945800781e+01,1.073419666290283203e+01,2.063593482971191406e+01,7.295652389526367188e+00,7.845275878906250000e+00,1.290237426757812500e+01,1.669612884521484375e+01,1.464848709106445312e+01,2.727020978927612305e+00,-4.009522125124931335e-02
8.362189292907714844e+00,1.515602684020996094e+01,9.193933486938476562e+00,1.127683353424072266e+01,1.099729347229003906e+01,1.479483222961425781e+01,-5.018287658691406250e+00,1.600853347778320312e+01,6.554049253463745117e-01,7.118021488189697266e+00,1.785082054138183594e+01,1.247122859954833984e+01,9.645528793334960938e+00,1.745351409912109375e+01,4.318195819854736328e+00,3.965331315994262695e+00,1.090693187713623047e+01,1.434577083587646484e+01,1.220023059844970703e+01,2.121711730957031250e+00,-4.071197286248207092e-02
6.719369411468505859e+00,1.313669204711914062e+01,7.609294891357421875e+00,8.900643348693847656e+00,7.482160568237304688e+00,1.258360004425048828e+01,-5.273353576660156250e+00,1.414222049713134766e+01,-7.464463263750076294e-02,4.617169857025146484e+00,1.806273841857910156e+01,1.133952999114990234e+01,8.189558982849121094e+00,1.426249599456787109e+01,1.554976224899291992e+00,5.550774931907653809e-01,8.609208106994628906e+00,1.171737957000732422e+01,9.519866943359375000e+00,1.510904788970947266e+00,-4.104003310203552246e-02
4.867609024047851562e+00,1.094526386260986328e+01,5.748622894287109375e+00,6.217971801757812500e+00,3.426095724105834961e+00,9.779665946960449219e+00,-6.089564800262451172e+00,1.231600666046142578e+01,-1.137352228164672852e+00,2.140940189361572266e+00,1.787632942199707031e+01,1.041765880584716797e+01,6.419232845306396484e+00,1.122965335845947266e+01,-8.431659936904907227e-01,-2.140646934509277344e+00,5.991983890533447266e+00,8.820652961730957031e+00,6.747295379638671875e+00,9.633225202560424805e-01,-4.093505442142486572e-02
2.867516040802001953e+00,8.647652626037597656e+00,3.599137544631958008e+00,3.211363315582275391e+00,-7.167399525642395020e-01,6.561600208282470703e+00,-7.284974098205566406e+00,1.060842227935791016e+01,-2.523727178573608398e+00,-2.614246606826782227e-01,1.733868408203125000e+01,9.805372238159179688e+00,4.425547599792480469e+00,8.485652923583984375e+00,-2.755995988845825195e+00,-3.984432697296142578e+00,3.032300949096679688e+00,5.665290832519531250e+00,4.009699821472167969e+00,5.333935022354125977e-01,-4.031830281019210815e-02
7.653452754020690918e-01,6.262164115905761719e+00,1.176174521446228027e+00,-1.133641973137855530e-01,-4.494031429290771484e+00,3.134569406509399414e+00,-8.619819641113281250e+00,9.042858123779296875e+00,-4.167237758636474609e+00,-2.579372644424438477e+00,1.653417968750000000e+01,9.528467178344726562e+00,2.347482442855834961e+00,6.088950634002685547e+00,-4.120117187500000000e+00,-4.961289405822753906e+00,-2.717536091804504395e-01,2.272305727005004883e+00,1.408824682235717773e+00,2.458578646183013916e-01,-3.925539180636405945e-02
-1.384674787521362305e+00,3.799783468246459961e+00,-1.458925724029541016e+00,-3.680560111999511719e+00,-7.553157329559326172e+00,-2.582670152187347412e-01,-9.837334632873535156e+00,7.585897922515869141e+00,-5.936619281768798828e+00,-4.826973438262939453e+00,1.557662391662597656e+01,9.521587371826171875e+00,3.256705701351165771e-01,4.036108016967773438e+00,-4.922412395477294922e+00,-5.176147460937500000e+00,-3.847479104995727539e+00,-1.296875119209289551e+00,-9.996873140335083008e-01,9.851647168397903442e-02,-3.794315829873085022e-02
-3.486845731735229492e+00,1.320925831794738770e+00,-4.188592910766601562e+00,-7.317586898803710938e+00,-9.694729804992675781e+00,-3.318658590316772461e+00,-1.071646213531494141e+01,6.184074401855468750e+00,-7.641266822814941406e+00,-7.005985260009765625e+00,1.459159660339355469e+01,9.635101318359375000e+00,-1.492636561393737793e+00,2.263511419296264648e+00,-5.213162899017333984e+00,-4.821381568908691406e+00,-7.515037059783935547e+00,-4.935564517974853516e+00,-3.207887411117553711e+00,6.717893481254577637e-02,-3.663092479109764099e-02
-5.407189846038818359e+00,-1.038931965827941895e+00,-6.831360816955566406e+00,-1.074318122863769531e+01,-1.091136455535888672e+01,-5.716060638427734375e+00,-1.110756301879882812e+01,4.785593032836914062e+00,-9.063605308532714844e+00,-9.082993507385253906e+00,1.370075511932373047e+01,9.674658775329589844e+00,-3.001550197601318359e+00,6.748794913291931152e-01,-5.090741634368896484e+00,-4.164314270019531250e+00,-1.099510383605957031e+01,-8.469182968139648438e+00,-5.241211891174316406e+00,1.139103472232818604e-01,-3.556801378726959229e-02
-6.967071056365966797e+00,-3.065590143203735352e+00,-9.149533271789550781e+00,-1.360042953491210938e+01,-1.135075664520263672e+01,-7.123726367950439453e+00,-1.095622348785400391e+01,3.378757238388061523e+00,-9.982460021972656250e+00,-1.097006320953369141e+01,1.299239826202392578e+01,9.451070785522460938e+00,-4.148126125335693359e+00,-8.226295113563537598e-01,-4.699431419372558594e+00,-3.484761714935302734e+00,-1.392608833312988281e+01,-1.167304039001464844e+01,-7.139405727386474609e+00,1.991264522075653076e-01,-3.501687571406364441e-02
-7.979876995086669922e+00,-4.508234024047851562e+00,-1.089007949829101562e+01,-1.552465915679931641e+01,-1.126213932037353516e+01,-7.287099361419677734e+00,-1.030665588378906250e+01,1.990300655364990234e+00,-1.023060512542724609e+01,-1.254232788085937500e+01,1.250773429870605469e+01,8.807826042175292969e+00,-4.952218055725097656e+00,-2.313261270523071289e+00,-4.201002597808837891e+00,-3.047549724578857422e+00,-1.593874931335449219e+01,-1.430466461181640625e+01,-8.942213058471679688e+00,2.903901636600494385e-01,-3.520058840513229370e-02
-8.276541709899902344e+00,-5.132525444030761719e+00,-1.182552719116210938e+01,-1.621520996093750000e+01,-1.090028762817382812e+01,-6.090298175811767578e+00,-9.288092613220214844e+00,6.837145090103149414e-01,-9.723526954650878906e+00,-1.365381813049316406e+01,1.222517585754394531e+01,7.655488014221191406e+00,-5.498206615447998047e+00,-3.845156431198120117e+00,-3.748481512069702148e+00,-3.047549724578857422e+00,-1.673080444335937500e+01,-1.613128280639648438e+01,-1.066553115844726562e+01,3.651604354381561279e-01,-3.625037521123886108e-02
-7.751796245574951172e+00,-4.771864414215087891e+00,-1.179485702514648438e+01,-1.550332164764404297e+01,-1.046089553833007812e+01,-3.596012592315673828e+00,-8.070577621459960938e+00,-4.608015120029449463e-01,-8.489994049072265625e+00,-1.418142318725585938e+01,1.208193492889404297e+01,5.985457897186279297e+00,-5.901906967163085938e+00,-5.425191879272460938e+00,-3.459917306900024414e+00,-3.569705724716186523e+00,-1.612815475463867188e+01,-1.699448204040527344e+01,-1.229982185363769531e+01,4.118918478488922119e-01,-3.816623613238334656e-02
-6.389691829681396484e+00,-3.376820564270019531e+00,-1.074950695037841797e+01,-1.339481639862060547e+01,-1.003627395629882812e+01,-4.930172488093376160e-02,-6.836057662963867188e+00,-1.366389393806457520e+00,-6.666668891906738281e+00,-1.404952239990234375e+01,1.198774909973144531e+01,3.875131607055664062e+00,-6.267553806304931641e+00,-7.006946563720703125e+00,-3.376845836639404297e+00,-4.561552524566650391e+00,-1.413079833984375000e+01,-1.683283424377441406e+01,-1.380693054199218750e+01,4.294848442077636719e-01,-4.084319621324539185e-02
-4.273166179656982422e+00,-1.033439636230468750e+00,-8.763597488403320312e+00,-1.008172702789306641e+01,-9.624574661254882812e+00,4.150900363922119141e+00,-5.735873222351074219e+00,-1.976240992546081543e+00,-4.478318214416503906e+00,-1.324932003021240234e+01,1.185824394226074219e+01,1.475860714912414551e+00,-6.648091316223144531e+00,-8.501016616821289062e+00,-3.459917306900024414e+00,-5.843208312988281250e+00,-1.091666316986083984e+01,-1.571261596679687500e+01,-1.510577774047851562e+01,4.234372377395629883e-01,-4.407129436731338501e-02
-1.587235927581787109e+00,2.044078588485717773e+00,-6.039041996002197266e+00,-5.911269664764404297e+00,-9.164875030517578125e+00,8.520174980163574219e+00,-4.863547325134277344e+00,-2.261952161788940430e+00,-2.194665431976318359e+00,-1.184237098693847656e+01,1.163062763214111328e+01,-9.973660707473754883e-01,-7.025320053100585938e+00,-9.780175209045410156e+00,-3.597641229629516602e+00,-7.132359027862548828e+00,-6.826293468475341797e+00,-1.378900814056396484e+01,-1.610733795166015625e+01,4.041948914527893066e-01,-4.748310521245002747e-02
1.406523346900939941e+00,5.533519268035888672e+00,-2.869765043258666992e+00,-1.343164205551147461e+00,-8.599943161010742188e+00,1.257410144805908203e+01,-4.264992713928222656e+00,-2.230206489562988281e+00,-8.363538980484008789e-02,-9.958818435668945312e+00,1.126958179473876953e+01,-3.307201623916625977e+00,-7.328095436096191406e+00,-1.070515727996826172e+01,-3.645735263824462891e+00,-8.114212989807128906e+00,-2.307372570037841797e+00,-1.130609989166259766e+01,-1.671781158447265625e+01,3.822036385536193848e-01,-5.071119964122772217e-02
4.398687839508056641e+00,9.043098449707031250e+00,4.043022692203521729e-01,3.116315603256225586e+00,-7.927932262420654297e+00,1.589474964141845703e+01,-3.955512523651123047e+00,-1.924445271492004395e+00,1.626406908035278320e+00,-7.778048038482666016e+00,1.075155925750732422e+01,-5.235218048095703125e+00,-7.473692417144775391e+00,-1.116077136993408203e+01,-3.481778383255004883e+00,-8.536434173583984375e+00,2.140760898590087891e+00,-8.540307998657226562e+00,-1.688314819335937500e+01,3.673595488071441650e-01,-5.337503924965858459e-02
7.071857929229736328e+00,1.215906238555908203e+01,3.438117980957031250e+00,6.984172344207763672e+00,-7.213459491729736328e+00,1.818577003479003906e+01,-3.947010517120361328e+00,-1.426539063453674316e+00,2.770031213760375977e+00,-5.519895553588867188e+00,1.003535461425781250e+01,-6.638662338256835938e+00,-7.427365779876708984e+00,-1.109543800354003906e+01,-3.066421031951904297e+00,-8.276605606079101562e+00,6.041726112365722656e+00,-5.766433715820312500e+00,-1.661288642883300781e+01,3.640608489513397217e-01,-5.525153502821922302e-02
9.153294563293457031e+00,1.451525878906250000e+01,5.950536727905273438e+00,9.872456550598144531e+00,-6.594987869262695312e+00,1.930278396606445312e+01,-4.281997203826904297e+00,-8.617998361587524414e-01,3.250137805938720703e+00,-3.420024633407592773e+00,9.064062118530273438e+00,-7.490016460418701172e+00,-7.242060661315917969e+00,-1.054870128631591797e+01,-2.471804141998291016e+00,-7.394686222076416016e+00,9.001408576965332031e+00,-3.217249631881713867e+00,-1.599446296691894531e+01,3.706582486629486084e-01,-5.623570829629898071e-02
1.044841003417968750e+01,1.584988689422607422e+01,7.749867916107177734e+00,1.153288078308105469e+01,-6.229443550109863281e+00,1.924389266967773438e+01,-5.031890869140625000e+00,-3.722476959228515625e-01,3.045148611068725586e+00,-1.687718868255615234e+00,7.757233619689941406e+00,-7.880435466766357422e+00,-7.063373565673828125e+00,-9.658104896545410156e+00,-1.866256833076477051e+00,-6.130518913269042969e+00,1.076727008819580078e+01,-1.073801279067993164e+00,-1.518049716949462891e+01,3.761560618877410889e-01,-5.643254518508911133e-02
1.088224220275878906e+01,1.606408691406250000e+01,8.764547348022460938e+00,1.191113090515136719e+01,-6.258982658386230469e+00,1.814397621154785156e+01,-6.281714439392089844e+00,-9.823220223188400269e-02,2.205411672592163086e+00,-4.830190837383270264e-01,6.046189785003662109e+00,-7.993949413299560547e+00,-7.086536884307861328e+00,-8.628245353698730469e+00,-1.474946379661560059e+00,-4.823879718780517578e+00,1.127234840393066406e+01,5.620732307434082031e-01,-1.436017227172851562e+01,3.651604354381561279e-01,-5.605199560523033142e-02
1.051380348205566406e+01,1.524390316009521484e+01,9.035470008850097656e+00,1.114493083953857422e+01,-6.762990474700927734e+00,1.624619102478027344e+01,-8.087581634521484375e+00,-1.232945919036865234e-01,8.442108631134033203e-01,1.342796683311462402e-01,3.911309957504272461e+00,-8.038666725158691406e+00,-7.485273838043212891e+00,-7.667157173156738281e+00,-1.498993396759033203e+00,-3.834531307220458984e+00,1.064482688903808594e+01,1.672592878341674805e+00,-1.369882488250732422e+01,3.222774863243103027e-01,-5.539587885141372681e-02
