Fp1,Fp2,F7,F3,Fz,F4,F8,T3,C3,Cz,C4,T4,T5,P3,Pz,P4,T6,O1,Oz,O2,A1
4.835810065269470215e-01,3.080488145351409912e-01,-1.325381696224212646e-01,8.026176095008850098e-01,-3.536932766437530518e-01,-5.305752158164978027e-01,-2.986059784889221191e-01,1.988785862922668457e-01,-4.366717338562011719e-01,-1.554465740919113159e-01,-1.294664144515991211e-01,-1.197708621621131897e-01,6.654145121574401855e-01,4.885157570242881775e-03,-4.611567258834838867e-01,7.963462471961975098e-01,1.894020885229110718e-01,3.767537176609039307e-01,4.797630310058593750e-01,6.488543935120105743e-03,-5.715242028236389160e-01
5.481668114662170410e-01,3.632004857063293457e-01,-1.604763269424438477e-01,7.285927534103393555e-01,-4.365428686141967773e-01,-7.274807095527648926e-01,-7.096120715141296387e-01,1.041064113378524780e-01,-3.128525614738464355e-01,-1.991309523582458496e-01,4.196452349424362183e-02,-1.053691655397415161e-01,4.990617632865905762e-01,-2.065312862396240234e-02,-1.862406730651855469e-01,6.713925004005432129e-01,7.423529773950576782e-02,2.054753750562667847e-01,4.456885159015655518e-01,-1.537958718836307526e-02,-4.855378866195678711e-01
6.943787336349487305e-01,2.746019065380096436e-01,-2.709226608276367188e-01,6.869636774063110352e-01,-6.004577279090881348e-01,-6.910076737403869629e-01,-4.267415702342987061e-01,-4.317461699247360229e-02,-5.706615447998046875e-01,-4.185030758380889893e-01,-1.365212500095367432e-01,-4.110382497310638428e-01,6.436381936073303223e-01,1.053712368011474609e-01,-2.969316542148590088e-01,8.365057706832885742e-01,7.731559127569198608e-02,1.107645705342292786e-01,5.039620995521545410e-01,3.506687656044960022e-02,-5.982388854026794434e-01
7.801041007041931152e-01,5.734815001487731934e-01,-5.467714071273803711e-01,7.005238533020019531e-01,-6.908032298088073730e-01,-3.750394284725189209e-01,-4.076496064662933350e-01,-1.275835186243057251e-01,-3.701449334621429443e-01,-4.200961291790008545e-01,1.334968023002147675e-02,-2.824290990829467773e-01,6.331518292427062988e-01,5.165313556790351868e-02,-2.123622745275497437e-01,8.263008594512939453e-01,3.081238130107522011e-03,3.277115896344184875e-02,3.949553668498992920e-01,1.817656122148036957e-02,-4.448523223400115967e-01
6.978231668472290039e-01,4.837732017040252686e-01,-6.315717101097106934e-01,7.807621359825134277e-01,-4.339752495288848877e-01,-5.287263393402099609e-01,-1.747092455625534058e-01,-2.448795884847640991e-01,-4.378753900527954102e-01,-3.212205171585083008e-01,3.545765578746795654e-02,-2.919982075691223145e-01,4.047635793685913086e-01,-1.433102041482925415e-02,-1.627174392342567444e-02,8.405648469924926758e-01,8.072336018085479736e-02,-5.955886468291282654e-02,4.071579873561859131e-02,-9.991883486509323120e-02,-3.704603910446166992e-01
9.599414467811584473e-01,4.216077625751495361e-01,-5.657095313072204590e-01,9.115983247756958008e-01,-9.053644537925720215e-01,-2.910466492176055908e-01,-3.997188508510589600e-01,-9.895373135805130005e-02,-5.976145863533020020e-01,-3.538886606693267822e-01,1.301746070384979248e-01,-2.918909788131713867e-01,5.707284808158874512e-01,6.173309311270713806e-02,2.904615178704261780e-02,6.333779096603393555e-01,-1.101024523377418518e-01,-4.452754929661750793e-02,2.726620435714721680e-01,-1.275610327720642090e-01,-3.487141430377960205e-01
8.494122624397277832e-01,3.427676260471343994e-01,-3.863088488578796387e-01,9.854569435119628906e-01,-8.577245473861694336e-01,-9.365685284137725830e-02,-1.380289047956466675e-01,-8.761163055896759033e-02,-5.646561980247497559e-01,-5.907209515571594238e-01,2.371677011251449585e-01,-4.281869828701019287e-01,4.710283279418945312e-01,1.139949038624763489e-01,5.245990585535764694e-03,6.255757212638854980e-01,-6.311547011137008667e-03,-5.173144489526748657e-02,-7.982814684510231018e-03,-2.616897821426391602e-01,-1.139121316373348236e-02
1.007652163505554199e+00,3.085300624370574951e-01,-2.116026580333709717e-01,8.460515141487121582e-01,-8.697007894515991211e-01,-1.680504977703094482e-01,-1.211708504706621170e-02,-6.111405417323112488e-02,-3.486067652702331543e-01,-4.908567667007446289e-01,3.425710797309875488e-01,-3.196150660514831543e-01,4.427543878555297852e-01,-5.835517868399620056e-02,-6.101592443883419037e-03,6.023340225219726562e-01,-1.851740628480911255e-01,-2.310406267642974854e-01,-2.478550523519515991e-01,-9.982183575630187988e-02,-3.511203825473785400e-02
8.623695969581604004e-01,-8.365459740161895752e-02,-4.565751552581787109e-01,1.016113519668579102e+00,-8.050044775009155273e-01,-1.013012900948524475e-01,1.488958299160003662e-01,-9.497351944446563721e-03,-2.634271383285522461e-01,-4.873848259449005127e-01,5.628658458590507507e-02,-2.799815535545349121e-01,2.864928841590881348e-01,8.684686571359634399e-02,1.078877076506614685e-01,6.510772109031677246e-01,-3.413686752319335938e-01,-1.263169944286346436e-01,-1.843831688165664673e-01,-1.842406541109085083e-01,1.173326466232538223e-02
8.708167672157287598e-01,2.497282624244689941e-02,-4.191226363182067871e-01,9.472114443778991699e-01,-8.524595499038696289e-01,4.610039293766021729e-02,3.287737257778644562e-03,7.912405580282211304e-02,-2.419021427631378174e-01,-6.572132706642150879e-01,3.270387649536132812e-01,-8.361803740262985229e-02,3.326981067657470703e-01,-1.654019802808761597e-01,1.141848266124725342e-01,4.890542328357696533e-01,-3.543553948402404785e-01,-9.203132241964340210e-02,-2.803432345390319824e-01,-2.440846562385559082e-01,-1.136396974325180054e-01
7.187402248382568359e-01,-8.381673693656921387e-02,-2.819725126028060913e-02,8.337534070014953613e-01,-9.803906083106994629e-01,-1.162622123956680298e-01,-1.255966573953628540e-01,-3.970284759998321533e-02,-2.867669165134429932e-01,-6.871856451034545898e-01,3.538777828216552734e-01,-2.517891824245452881e-01,2.424531728029251099e-01,-1.301404386758804321e-01,4.028897881507873535e-01,3.291904330253601074e-01,-2.468489408493041992e-01,-7.060688734054565430e-02,-2.867376506328582764e-01,-2.453543096780776978e-01,-7.536955922842025757e-02
4.636727571487426758e-01,1.763732917606830597e-02,2.077686414122581482e-02,7.951256036758422852e-01,-5.330965518951416016e-01,4.756762459874153137e-02,-2.311894893646240234e-01,-1.427772939205169678e-01,-2.137926518917083740e-01,-5.764488577842712402e-01,2.204111069440841675e-01,-3.274997770786285400e-01,6.565558910369873047e-02,-5.836120843887329102e-01,3.483082056045532227e-01,6.021248698234558105e-01,-3.901263177394866943e-01,-1.875582709908485413e-02,-4.059343934059143066e-01,-2.261812090873718262e-01,-1.358513385057449341e-01
4.452749192714691162e-01,1.215334087610244751e-01,-1.209198683500289917e-01,5.955964326858520508e-01,-6.408746242523193359e-01,8.994988352060317993e-02,-1.070062592625617981e-01,-1.953716157004237175e-03,7.207157462835311890e-02,-7.237606644630432129e-01,2.374209910631179810e-01,-1.891108453273773193e-01,2.279097735881805420e-01,-4.769217669963836670e-01,4.262773096561431885e-01,2.952302694320678711e-01,-3.091183304786682129e-01,-1.434646993875503540e-01,-6.605156511068344116e-02,-3.834877312183380127e-01,-1.489277034997940063e-01
3.815758824348449707e-01,-2.048237621784210205e-01,-1.454012989997863770e-01,6.545917987823486328e-01,-3.998174965381622314e-01,7.515941560268402100e-02,-3.180023133754730225e-01,3.741157415788620710e-04,-1.602755673229694366e-02,-8.652721047401428223e-01,3.544287979602813721e-01,-4.615383967757225037e-02,2.692267298698425293e-01,-7.777384519577026367e-01,4.696158766746520996e-01,5.367130637168884277e-01,-3.613103032112121582e-01,1.812990456819534302e-01,-4.405457079410552979e-01,-1.817014813423156738e-01,-2.945979535579681396e-01
1.623135656118392944e-01,-2.741324603557586670e-01,8.551313728094100952e-02,3.638750314712524414e-01,-4.454343318939208984e-01,4.600364249199628830e-03,3.013122268021106720e-02,-2.944236807525157928e-02,-1.070624440908432007e-01,-9.308327436447143555e-01,2.448340058326721191e-01,3.119829595088958740e-01,1.970558315515518188e-01,-7.710129022598266602e-01,2.472192347049713135e-01,4.956841766834259033e-01,-2.079925239086151123e-01,1.276012063026428223e-01,-3.679236173629760742e-01,-2.241818755865097046e-01,-4.944206178188323975e-01
3.311094343662261963e-01,-3.151532113552093506e-01,2.850056290626525879e-01,1.427385061979293823e-01,-5.595728158950805664e-01,1.891725510358810425e-01,-3.100962638854980469e-01,1.335877478122711182e-01,-3.242774680256843567e-02,-8.571015596389770508e-01,6.859056651592254639e-02,1.799054294824600220e-01,1.840070337057113647e-01,-6.770887970924377441e-01,2.593357861042022705e-01,2.294472157955169678e-01,-1.768867522478103638e-01,-8.941685780882835388e-03,-3.992949128150939941e-01,-3.847338259220123291e-01,-4.742715954780578613e-01
1.668812483549118042e-01,-6.777598261833190918e-01,1.461784243583679199e-01,-4.659556597471237183e-02,-2.757360339164733887e-01,1.326318532228469849e-01,-2.772953808307647705e-01,1.550865322351455688e-01,8.736798167228698730e-02,-8.296541571617126465e-01,2.313866168260574341e-01,2.347107529640197754e-01,2.006600201129913330e-01,-5.264005661010742188e-01,2.567492425441741943e-01,5.860854312777519226e-02,-1.427544355392456055e-01,6.546864658594131470e-02,-3.354900777339935303e-01,-2.073545455932617188e-01,-4.762960970401763916e-01
2.018414288759231567e-01,-4.755095541477203369e-01,9.306081384420394897e-02,3.170296922326087952e-02,-3.993925154209136963e-01,8.745361119508743286e-02,-4.348210394382476807e-01,8.078912645578384399e-02,3.204059600830078125e-02,-1.029422998428344727e+00,1.282957047224044800e-01,2.562005259096622467e-02,2.325091511011123657e-01,-5.648065805435180664e-01,-1.373838284052908421e-03,2.468860447406768799e-01,-2.078206092119216919e-01,7.427192479372024536e-02,-1.756239980459213257e-01,-1.054080054163932800e-01,-5.680402517318725586e-01
2.832228541374206543e-01,-4.930648207664489746e-01,1.699066907167434692e-01,-2.512409118935465813e-03,-3.966511785984039307e-01,5.427198112010955811e-02,-3.528659641742706299e-01,1.204186230897903442e-01,2.293010205030441284e-01,-8.855934143066406250e-01,2.317914813756942749e-01,-2.002335190773010254e-01,1.685403138399124146e-01,-6.333567500114440918e-01,5.894807726144790649e-02,9.341752529144287109e-02,-2.483490854501724243e-01,5.178864672780036926e-02,-1.615672558546066284e-01,6.134272366762161255e-02,-7.040258646011352539e-01
3.354292213916778564e-01,-6.857936978340148926e-01,7.959852367639541626e-02,-5.737750977277755737e-02,-5.277101397514343262e-01,3.334367573261260986e-01,-3.581221699714660645e-01,1.596253067255020142e-01,3.509156405925750732e-01,-8.589394092559814453e-01,1.380202919244766235e-01,-5.554519221186637878e-02,6.094828844070434570e-01,-4.768288135528564453e-01,-3.399194404482841492e-02,4.947581514716148376e-02,-1.448473930358886719e-01,4.160245880484580994e-02,-5.667423456907272339e-02,4.355740547180175781e-02,-7.616599798202514648e-01
3.409760892391204834e-01,-7.113467454910278320e-01,3.430500030517578125e-01,-8.660919219255447388e-02,-5.010339021682739258e-01,1.991916447877883911e-02,-4.066914021968841553e-01,4.343622326850891113e-01,1.085714176297187805e-01,-8.105881214141845703e-01,-2.636171318590641022e-02,-7.821025699377059937e-02,4.505203068256378174e-01,-5.445437431335449219e-01,-1.482260674238204956e-01,1.094129234552383423e-01,2.897205576300621033e-02,4.428493790328502655e-03,-1.722613275051116943e-01,1.122934520244598389e-01,-5.620414614677429199e-01
9.079042077064514160e-02,-9.226244688034057617e-01,4.986151754856109619e-01,-6.597523391246795654e-02,-5.164708495140075684e-01,6.336910277605056763e-02,-2.679540812969207764e-01,3.835531473159790039e-01,7.265666127204895020e-02,-6.463892459869384766e-01,2.523586153984069824e-02,-8.038688451051712036e-02,6.002013087272644043e-01,-2.250383794307708740e-01,-7.781016826629638672e-02,1.066585555672645569e-01,-1.312529295682907104e-01,2.081881463527679443e-01,-2.747850716114044189e-01,2.841199040412902832e-01,-6.742940545082092285e-01
2.553716674447059631e-02,-8.724740147590637207e-01,3.965705037117004395e-01,-2.019282132387161255e-01,-8.455271124839782715e-01,-1.049159653484821320e-02,-2.016253471374511719e-01,6.272953748703002930e-01,2.382029443979263306e-01,-5.033053159713745117e-01,-8.862881362438201904e-02,-2.454016804695129395e-01,4.861839711666107178e-01,-4.264046624302864075e-02,-1.709159910678863525e-01,1.416985839605331421e-01,2.128062099218368530e-01,7.099930197000503540e-02,-1.522179879248142242e-02,4.332307577133178711e-01,-7.686015963554382324e-01
1.106091663241386414e-01,-9.342640042304992676e-01,5.555983185768127441e-01,-5.851662531495094299e-02,-5.932715535163879395e-01,-5.075232312083244324e-02,-1.711233705282211304e-01,8.670346736907958984e-01,2.472332715988159180e-01,-5.240398049354553223e-01,-5.932786315679550171e-02,-2.204530835151672363e-01,6.278384327888488770e-01,-4.852595925331115723e-02,-1.008149459958076477e-01,1.446237415075302124e-01,7.372012734413146973e-02,7.746046781539916992e-02,-2.144412994384765625e-01,5.386780500411987305e-01,-4.487885236740112305e-01
6.333646923303604126e-02,-6.352230310440063477e-01,5.885196328163146973e-01,1.602647453546524048e-01,-8.447455763816833496e-01,-5.339007824659347534e-02,-1.786997020244598389e-01,7.849142551422119141e-01,1.774937510490417480e-01,-2.949536442756652832e-01,-2.617553770542144775e-01,-4.007048010826110840e-01,6.165332794189453125e-01,-9.582582116127014160e-02,-1.876814216375350952e-01,2.570243477821350098e-01,3.476667106151580811e-01,1.625280976295471191e-01,-1.449032127857208252e-01,5.668632984161376953e-01,-3.955454230308532715e-01
5.887328460812568665e-02,-6.424016356468200684e-01,4.616909325122833252e-01,2.209137082099914551e-01,-7.208421826362609863e-01,-1.490256190299987793e-02,-2.409090697765350342e-01,8.507498502731323242e-01,6.234907731413841248e-02,-2.257373183965682983e-01,-3.712532818317413330e-01,-3.505958020687103271e-01,6.480287313461303711e-01,-2.433597296476364136e-02,-1.759147047996520996e-01,2.419686168432235718e-01,6.197887063026428223e-01,1.073783487081527710e-01,7.071916013956069946e-02,5.730356574058532715e-01,-5.228756070137023926e-01
-3.121300786733627319e-02,-3.904745280742645264e-01,4.667137563228607178e-01,1.941548585891723633e-01,-7.102777957916259766e-01,-1.825330853462219238e-01,6.466631591320037842e-02,7.235925793647766113e-01,-1.354752331972122192e-01,-1.037035733461380005e-01,-4.680688977241516113e-01,-5.201434493064880371e-01,6.286710500717163086e-01,-1.316405646502971649e-02,1.100268065929412842e-01,4.775705933570861816e-01,6.461303234100341797e-01,-6.873835809528827667e-03,-5.760754644870758057e-02,3.749517798423767090e-01,-3.206229507923126221e-01
-9.671583026647567749e-02,-3.775905966758728027e-01,2.883705198764801025e-01,6.557917594909667969e-02,-7.896833419799804688e-01,8.489243686199188232e-03,1.247105449438095093e-01,6.769048571586608887e-01,-5.167760699987411499e-02,4.768399521708488464e-02,-4.061371088027954102e-01,-4.096710979938507080e-01,3.153722286224365234e-01,2.083339691162109375e-01,3.476023674011230469e-02,5.186856985092163086e-01,8.002389073371887207e-01,-1.615581065416336060e-01,-1.301062554121017456e-01,3.131817877292633057e-01,-7.821895182132720947e-02
-1.366690639406442642e-02,-2.396821975708007812e-01,4.375920593738555908e-01,1.249923557043075562e-01,-7.749548554420471191e-01,4.935885313898324966e-03,-9.699077159166336060e-02,5.924870371818542480e-01,-5.349780246615409851e-02,-2.259178310632705688e-01,-2.629393339157104492e-01,-2.880601584911346436e-01,2.869248986244201660e-01,2.598818838596343994e-01,6.402981281280517578e-02,5.729905366897583008e-01,6.613831520080566406e-01,-5.889852717518806458e-02,-1.488724201917648315e-01,1.867011338472366333e-01,-3.181042373180389404e-01
1.199688315391540527e-01,-1.756188571453094482e-01,3.484058976173400879e-01,3.145392984151840210e-02,-6.448352336883544922e-01,6.818705797195434570e-02,1.150274500250816345e-01,5.058792829513549805e-01,-3.256544768810272217e-01,1.831342130899429321e-01,-1.177352070808410645e-01,-1.011016145348548889e-01,3.412549495697021484e-01,1.021777465939521790e-01,1.674938201904296875e-02,6.551310420036315918e-01,7.528770565986633301e-01,-4.009222984313964844e-01,-2.539567351341247559e-01,4.386204183101654053e-01,-1.047873422503471375e-01
-8.489217609167098999e-02,-3.104606568813323975e-01,2.695128023624420166e-01,2.482937881723046303e-03,-5.087182521820068359e-01,1.435290724039077759e-01,2.563150227069854736e-01,2.541201114654541016e-01,-1.485370546579360962e-01,-1.454086005687713623e-01,-7.562875747680664062e-02,-2.521212697029113770e-01,2.587679028511047363e-01,2.083744257688522339e-01,1.125507503747940063e-01,5.604693889617919922e-01,8.603824973106384277e-01,-4.791743755340576172e-01,-2.058730870485305786e-01,1.159645766019821167e-01,7.522445917129516602e-02
1.616919785737991333e-01,-1.221393346786499023e-01,1.526350677013397217e-01,-8.045764267444610596e-02,-5.378824472427368164e-01,3.467371761798858643e-01,4.146440327167510986e-01,2.426890581846237183e-01,-1.955841183662414551e-01,-2.341377884149551392e-01,-6.382485479116439819e-02,5.137688294053077698e-02,2.900491952896118164e-01,1.653366982936859131e-01,9.889049082994461060e-02,5.250681042671203613e-01,5.046288371086120605e-01,-4.295631647109985352e-01,-3.165895640850067139e-01,3.871187567710876465e-02,-3.061436489224433899e-02
6.678584218025207520e-02,-2.957706153392791748e-01,2.762120068073272705e-01,-9.867115318775177002e-02,-4.915139973163604736e-01,5.061131119728088379e-01,8.826298266649246216e-02,1.172092035412788391e-01,7.464531809091567993e-04,-4.573116078972816467e-02,-3.944756090641021729e-02,2.474017441272735596e-02,2.331534177064895630e-01,1.181863173842430115e-01,-1.309085916727781296e-02,3.751566112041473389e-01,4.936903715133666992e-01,-3.287146389484405518e-01,-3.112667500972747803e-01,-1.091686263680458069e-02,-3.065797314047813416e-02
-1.265495270490646362e-01,-3.759852051734924316e-01,3.794837594032287598e-01,1.321661919355392456e-01,-4.199925661087036133e-01,5.049685239791870117e-01,5.639630556106567383e-01,1.333500593900680542e-01,-1.714227050542831421e-01,-2.082937806844711304e-01,-2.799621969461441040e-02,-2.111131139099597931e-02,1.104093268513679504e-01,2.672836184501647949e-01,-1.214878559112548828e-01,2.020266801118850708e-01,5.012518167495727539e-01,-3.591841757297515869e-01,-4.897977709770202637e-01,2.184650674462318420e-02,1.227872297167778015e-01
2.092968486249446869e-02,-3.882168531417846680e-01,3.839024007320404053e-01,1.985348165035247803e-01,-4.937421977519989014e-01,6.069576740264892578e-01,5.309259295463562012e-01,1.603980362415313721e-01,1.731038987636566162e-01,-3.129635155200958252e-01,1.528834551572799683e-01,1.413827389478683472e-01,3.911265637725591660e-03,8.768714964389801025e-02,-9.442487359046936035e-02,1.728811860084533691e-01,2.558119297027587891e-01,-5.834000706672668457e-01,-5.901802182197570801e-01,-1.336867175996303558e-02,2.267272472381591797e-01
-2.837914600968360901e-02,-4.708121716976165771e-01,4.735725522041320801e-01,6.468179076910018921e-02,-3.024412989616394043e-01,6.282383799552917480e-01,6.324189305305480957e-01,1.394611746072769165e-01,9.730968624353408813e-02,-1.736031323671340942e-01,2.459760159254074097e-01,2.326012700796127319e-01,-1.112015452235937119e-02,2.585273385047912598e-01,-9.326682239770889282e-02,-3.770163282752037048e-02,3.875274062156677246e-01,-3.294250369071960449e-01,-4.031527638435363770e-01,1.612458229064941406e-01,2.624277770519256592e-01
-1.414678245782852173e-01,-6.134685873985290527e-01,6.192727684974670410e-01,-8.708598092198371887e-03,-4.510016143321990967e-01,8.662155866622924805e-01,5.732411742210388184e-01,9.521819651126861572e-02,3.931775689125061035e-01,-9.781527519226074219e-02,1.523566842079162598e-01,3.299607336521148682e-02,1.088949739933013916e-01,9.868757426738739014e-02,-1.596815884113311768e-01,-8.006567507982254028e-02,2.366584092378616333e-01,-1.989309042692184448e-01,-2.774559259414672852e-01,2.711771428585052490e-01,4.173876643180847168e-01
-2.909603118896484375e-01,-3.603135049343109131e-01,4.062497019767761230e-01,-1.805003434419631958e-01,-3.626528978347778320e-01,7.500110864639282227e-01,8.082823157310485840e-01,4.558148235082626343e-02,2.221346199512481689e-01,-1.783879101276397705e-01,-1.755913347005844116e-02,2.863561511039733887e-01,2.723553776741027832e-01,3.083597719669342041e-01,-3.672785460948944092e-01,-2.557054460048675537e-01,1.657819561660289764e-02,-3.590959683060646057e-02,-4.569444954395294189e-01,3.876795992255210876e-02,3.464990854263305664e-01
-5.465351939201354980e-01,-2.511070370674133301e-01,7.185475826263427734e-01,-4.330795630812644958e-02,-1.502403914928436279e-01,7.657619714736938477e-01,5.586805343627929688e-01,7.854412496089935303e-02,3.463275730609893799e-01,-1.233958452939987183e-01,-1.096655279397964478e-01,4.303321540355682373e-01,1.797130107879638672e-01,-2.589960955083370209e-02,-8.897727727890014648e-02,-2.661908268928527832e-01,3.027748465538024902e-01,-6.840207148343324661e-03,-3.951537907123565674e-01,2.411235570907592773e-01,2.950626015663146973e-01
-9.157169461250305176e-01,-7.249219417572021484e-01,8.608987331390380859e-01,-1.391617655754089355e-01,-8.743983507156372070e-02,6.242485642433166504e-01,3.926074206829071045e-01,8.114358037710189819e-02,3.147610127925872803e-01,1.359693855047225952e-01,-2.065185755491256714e-01,3.591694533824920654e-01,4.559224843978881836e-02,1.741405874490737915e-01,-2.796142995357513428e-01,-3.305452764034271240e-01,1.058279201388359070e-01,1.294971704483032227e-01,-3.015826642513275146e-01,1.925971806049346924e-01,4.332785010337829590e-01
-6.644032001495361328e-01,-5.162324905395507812e-01,9.469124078750610352e-01,-3.617359697818756104e-01,4.152483493089675903e-02,5.799638032913208008e-01,5.799890756607055664e-01,7.066535204648971558e-02,4.285392761230468750e-01,8.765203878283500671e-03,-3.561084866523742676e-01,1.613203585147857666e-01,1.376958042383193970e-01,4.591483157128095627e-03,-1.552423834800720215e-01,-3.087921440601348877e-01,2.221085578203201294e-01,3.688071370124816895e-01,-1.977733522653579712e-01,1.637556999921798706e-01,5.553808808326721191e-02
-6.515402197837829590e-01,-4.097063541412353516e-01,8.517558574676513672e-01,-4.089948832988739014e-01,8.425132930278778076e-02,4.089584350585937500e-01,1.690061539411544800e-01,-1.583477854728698730e-01,3.637287914752960205e-01,9.504935890436172485e-02,-3.409732580184936523e-01,4.008975923061370850e-01,6.205954402685165405e-02,5.177009105682373047e-02,-2.845379710197448730e-01,-2.825795114040374756e-01,3.496039509773254395e-01,4.139626026153564453e-01,-1.188777536153793335e-01,5.682047083973884583e-02,2.438595890998840332e-01
-9.032684564590454102e-01,-4.389809370040893555e-01,9.680685997009277344e-01,-3.566534519195556641e-01,1.436155587434768677e-01,5.160481929779052734e-01,2.441614270210266113e-01,-1.028910502791404724e-01,4.824459254741668701e-01,1.020261459052562714e-02,-4.382671713829040527e-01,4.974441826343536377e-01,6.400288641452789307e-02,7.615546137094497681e-02,-4.614242911338806152e-01,-4.449402391910552979e-01,4.655384421348571777e-01,5.301498770713806152e-01,1.311174631118774414e-01,1.652550995349884033e-01,2.373550236225128174e-01
-9.279858469963073730e-01,-2.090783715248107910e-01,9.397571682929992676e-01,-4.729116857051849365e-01,1.944230347871780396e-01,3.837868869304656982e-01,2.189839035272598267e-01,-8.639014512300491333e-02,4.821035861968994141e-01,4.731035232543945312e-02,-4.850249588489532471e-01,6.294097900390625000e-01,4.919403418898582458e-02,1.648431718349456787e-01,-6.547461748123168945e-01,-3.578994572162628174e-01,6.168893575668334961e-01,6.155468225479125977e-01,3.412054777145385742e-01,4.513199999928474426e-02,4.518334940075874329e-02
-8.066970109939575195e-01,-2.609107196331024170e-01,8.150623440742492676e-01,-4.682048261165618896e-01,1.678195446729660034e-01,5.241182446479797363e-01,2.900751121342182159e-02,-1.266674250364303589e-01,5.945940613746643066e-01,4.150487855076789856e-02,-6.350198388099670410e-01,4.781416356563568115e-01,1.857214123010635376e-01,-1.755344867706298828e-02,-5.497737526893615723e-01,-4.798977673053741455e-01,3.081674277782440186e-01,6.321725845336914062e-01,4.357392191886901855e-01,1.815448254346847534e-01,-1.379841715097427368e-01
-5.809243321418762207e-01,-4.185623824596405029e-01,8.792784810066223145e-01,-5.365662574768066406e-01,7.610103487968444824e-02,2.367704808712005615e-01,-3.610755130648612976e-02,1.765212416648864746e-01,3.437120914459228516e-01,2.680053561925888062e-02,-3.266470730304718018e-01,5.911079049110412598e-01,8.925797045230865479e-02,9.022361040115356445e-02,-7.736902832984924316e-01,-3.798775076866149902e-01,3.959358930587768555e-01,4.329651892185211182e-01,3.636713027954101562e-01,2.537040412425994873e-01,1.254979372024536133e-01
-4.433888494968414307e-01,-1.619254499673843384e-01,8.469838500022888184e-01,-3.830677568912506104e-01,-4.408292099833488464e-02,3.194926977157592773e-01,-2.355707734823226929e-01,9.603469073772430420e-02,4.556815922260284424e-01,1.399979442358016968e-01,-4.034571647644042969e-01,2.700762748718261719e-01,3.163734078407287598e-01,2.424210458993911743e-01,-8.990243077278137207e-01,-5.480074286460876465e-01,3.403420448303222656e-01,6.157332062721252441e-01,4.770347476005554199e-01,6.195729374885559082e-01,6.580834090709686279e-02
-6.007536649703979492e-01,-2.275631278753280640e-01,4.803250730037689209e-01,-4.832144975662231445e-01,3.373238071799278259e-02,1.662094891071319580e-01,-1.610528975725173950e-01,-3.607254102826118469e-02,4.227857589721679688e-01,1.195718199014663696e-01,-3.865162432193756104e-01,4.076279699802398682e-01,3.721919059753417969e-01,3.342852294445037842e-01,-8.282492756843566895e-01,-5.724629759788513184e-01,5.327520966529846191e-01,5.180366635322570801e-01,8.376143574714660645e-01,6.611252427101135254e-01,2.178424000740051270e-01
-4.601204097270965576e-01,-2.469942271709442139e-01,6.160568594932556152e-01,-5.180112719535827637e-01,-1.108173727989196777e-01,3.456648886203765869e-01,7.906811684370040894e-02,-1.705278307199478149e-01,5.082477927207946777e-01,3.156186938285827637e-01,-1.800303757190704346e-01,3.266720175743103027e-01,2.017662376165390015e-01,4.827243983745574951e-01,-9.356670975685119629e-01,-4.227233529090881348e-01,3.854673206806182861e-01,6.262961626052856445e-01,6.757569313049316406e-01,6.795039176940917969e-01,1.101872324943542480e-01
-3.788440823554992676e-01,-1.868990361690521240e-01,7.464042305946350098e-01,-3.316290378570556641e-01,-2.458316236734390259e-01,2.516408562660217285e-01,-1.137057170271873474e-01,1.419306099414825439e-01,3.965927660465240479e-01,2.944303750991821289e-01,-2.182506173849105835e-01,8.276854455471038818e-02,2.684677839279174805e-01,5.675253272056579590e-01,-9.664329886436462402e-01,-2.671917974948883057e-01,3.303272128105163574e-01,6.344228386878967285e-01,6.774786114692687988e-01,8.219254016876220703e-01,2.847464084625244141e-01
-3.329328596591949463e-01,-6.010328233242034912e-02,6.030889749526977539e-01,-3.582713007926940918e-01,-3.012605607509613037e-01,4.701047241687774658e-01,-1.599009335041046143e-01,2.803838578984141350e-03,5.364022254943847656e-01,3.255648016929626465e-01,-3.028170764446258545e-01,-1.581134740263223648e-03,3.763507604598999023e-01,4.839860498905181885e-01,-8.174269199371337891e-01,-1.895081847906112671e-01,3.252218663692474365e-01,4.112473130226135254e-01,8.167691826820373535e-01,8.007724881172180176e-01,4.011371731758117676e-01
-5.161678194999694824e-01,-2.422095090150833130e-02,6.451740860939025879e-01,-1.439450532197952271e-01,-6.094293594360351562e-01,4.129646122455596924e-01,1.576812565326690674e-01,3.766048699617385864e-02,3.626990914344787598e-01,5.743134021759033203e-01,-4.056171178817749023e-01,1.440819818526506424e-02,3.246792256832122803e-01,6.053462028503417969e-01,-9.574889540672302246e-01,-3.771331608295440674e-01,1.226699650287628174e-01,5.276940464973449707e-01,6.968589425086975098e-01,9.076654911041259766e-01,5.951256752014160156e-01
-3.469485044479370117e-01,2.358962446451187134e-01,4.610475301742553711e-01,-3.862254694104194641e-02,-2.022806257009506226e-01,4.244040846824645996e-01,5.825299397110939026e-02,1.200309842824935913e-01,5.382506251335144043e-01,5.841975212097167969e-01,-2.574965655803680420e-01,2.796180360019207001e-02,3.571164906024932861e-01,4.034460186958312988e-01,-6.169100999832153320e-01,-1.782396733760833740e-01,3.565049767494201660e-01,4.613032042980194092e-01,5.653506517410278320e-01,9.198110103607177734e-01,6.840010881423950195e-01
-2.813546359539031982e-01,2.523252367973327637e-01,2.916623353958129883e-01,2.233489044010639191e-02,-5.916797518730163574e-01,4.913718998432159424e-01,-1.044085174798965454e-01,6.755530089139938354e-02,2.787585258483886719e-01,4.646892249584197998e-01,-1.463613063097000122e-01,8.070436865091323853e-02,2.904753983020782471e-01,6.331933140754699707e-01,-6.586059331893920898e-01,-1.844379603862762451e-01,3.022820651531219482e-01,5.754106640815734863e-01,6.816589236259460449e-01,7.651660442352294922e-01,6.094456315040588379e-01
-2.749606370925903320e-01,4.159752428531646729e-01,3.099162876605987549e-01,-1.160045415163040161e-01,-3.806396126747131348e-01,5.539067387580871582e-01,7.094981521368026733e-02,6.337039917707443237e-02,4.220530986785888672e-01,5.755968093872070312e-01,-6.255246698856353760e-02,-1.377612061332911253e-04,6.282031536102294922e-02,5.525449514389038086e-01,-4.504842758178710938e-01,-1.829728670418262482e-02,3.998275697231292725e-01,3.729796111583709717e-01,6.509579420089721680e-01,1.010167002677917480e+00,7.236910462379455566e-01
-3.378593325614929199e-01,3.491858839988708496e-01,1.596297621726989746e-01,1.964094787836074829e-01,-1.587910652160644531e-01,4.969035089015960693e-01,5.737839639186859131e-02,-8.597861975431442261e-02,1.594351828098297119e-01,7.476818561553955078e-01,-1.760610789060592651e-01,2.597816288471221924e-01,-1.270194649696350098e-01,1.942967176437377930e-01,-3.089605569839477539e-01,1.263600885868072510e-01,2.012450098991394043e-01,1.894795447587966919e-01,5.500059127807617188e-01,6.821676492691040039e-01,1.026587009429931641e+00
-1.256126165390014648e-01,4.096668362617492676e-01,5.637354776263237000e-02,-4.972645267844200134e-02,-1.629611402750015259e-01,5.022031664848327637e-01,-3.981448337435722351e-02,-7.084714621305465698e-02,3.059885799884796143e-01,2.517171800136566162e-01,-3.804077208042144775e-02,2.312098592519760132e-01,-1.726159602403640747e-01,2.259363681077957153e-01,-4.458416998386383057e-01,1.171360462903976440e-01,9.038780629634857178e-02,3.184164166450500488e-01,7.189475893974304199e-01,5.013650059700012207e-01,4.951904714107513428e-01
-3.400584757328033447e-01,6.687799692153930664e-01,1.980131864547729492e-01,-1.458258181810379028e-01,-2.486524134874343872e-01,6.124437451362609863e-01,-1.036470979452133179e-01,-3.628481030464172363e-01,1.878929138183593750e-01,4.291445910930633545e-01,3.555721044540405273e-01,2.558418512344360352e-01,-4.282503724098205566e-01,3.775028288364410400e-01,-2.114345282316207886e-01,1.889992654323577881e-01,2.244712710380554199e-01,3.501046597957611084e-01,6.562104821205139160e-01,3.374448716640472412e-01,7.925800085067749023e-01
-2.006979882717132568e-01,4.795470535755157471e-01,3.850004822015762329e-02,-9.430561214685440063e-03,-1.764172613620758057e-01,6.124239563941955566e-01,-4.206969216465950012e-02,-4.032237529754638672e-01,3.609495162963867188e-01,6.313860416412353516e-02,3.001036942005157471e-01,5.789141058921813965e-01,-2.842362225055694580e-01,-6.455603986978530884e-02,-4.727656953036785126e-03,4.730055481195449829e-02,1.627498418092727661e-01,2.063068002462387085e-01,7.622236013412475586e-01,3.916887938976287842e-01,5.585851669311523438e-01
-2.720299065113067627e-01,5.633916258811950684e-01,-1.926465183496475220e-01,-3.889192640781402588e-01,-2.968791499733924866e-02,9.420509934425354004e-01,4.466148838400840759e-02,-5.302746891975402832e-01,4.928176999092102051e-01,-2.658567950129508972e-02,3.223990499973297119e-01,6.482588052749633789e-01,-3.562752902507781982e-01,-8.381845802068710327e-02,-7.740139961242675781e-02,-1.294430047273635864e-01,8.376542478799819946e-03,5.796423554420471191e-02,7.070330381393432617e-01,5.347726941108703613e-01,6.258850693702697754e-01
-8.930045366287231445e-02,1.862159222364425659e-01,-1.729990243911743164e-01,-2.977207303047180176e-01,-9.207070618867874146e-02,8.768289089202880859e-01,-7.578734308481216431e-02,-6.466422677040100098e-01,5.611238479614257812e-01,-2.077818363904953003e-01,6.135333776473999023e-01,8.923538327217102051e-01,-4.916196167469024658e-01,-8.090005815029144287e-02,-3.610193729400634766e-03,-9.238957613706588745e-02,-3.592434823513031006e-01,1.895789653062820435e-01,5.424479246139526367e-01,3.877724707126617432e-01,6.163527369499206543e-01
-3.702053427696228027e-01,1.991189420223236084e-01,-1.309183984994888306e-01,-3.449391126632690430e-01,-2.844428876414895058e-03,7.905331850051879883e-01,-8.589113503694534302e-02,-3.061566054821014404e-01,5.661981701850891113e-01,-2.803809940814971924e-01,7.144839763641357422e-01,8.244685530662536621e-01,-4.951767921447753906e-01,3.586643561720848083e-02,-1.642965972423553467e-01,-1.189350634813308716e-01,-3.237131834030151367e-01,2.687598951160907745e-02,6.717008352279663086e-01,5.047591328620910645e-01,7.264036536216735840e-01
-2.696507871150970459e-01,5.628173053264617920e-02,-3.114289976656436920e-02,-3.490076959133148193e-01,1.398890167474746704e-01,1.057664871215820312e+00,-3.073152899742126465e-02,-7.132574319839477539e-01,5.668928623199462891e-01,-3.420561254024505615e-01,6.729623079299926758e-01,9.606832861900329590e-01,-3.408144414424896240e-01,-2.582210898399353027e-01,-2.311611324548721313e-01,-1.400437057018280029e-01,-4.948632717132568359e-01,6.727381050586700439e-02,6.314097046852111816e-01,4.913502335548400879e-01,5.112903118133544922e-01
-2.539608776569366455e-01,-8.870212733745574951e-02,-2.637780606746673584e-01,-3.907715976238250732e-01,5.809135735034942627e-02,9.291695356369018555e-01,-1.064268648624420166e-01,-3.325607776641845703e-01,5.885571241378784180e-01,-2.467503696680068970e-01,5.428220629692077637e-01,6.573755741119384766e-01,-3.582797348499298096e-01,-2.451432049274444580e-01,-2.269577234983444214e-01,-3.523698151111602783e-01,-4.324466288089752197e-01,2.566790394484996796e-02,6.193163394927978516e-01,3.599851131439208984e-01,6.776448488235473633e-01
-4.343101084232330322e-01,-1.401326805353164673e-01,-1.493490301072597504e-03,-4.680428802967071533e-01,1.209360882639884949e-01,9.276211857795715332e-01,-2.491194158792495728e-01,-3.167262077331542969e-01,8.139128684997558594e-01,-2.609643042087554932e-01,4.978358447551727295e-01,8.634784817695617676e-01,-1.948518157005310059e-01,-2.112872749567031860e-01,-2.313887774944305420e-01,-4.311931431293487549e-01,-6.474260687828063965e-01,1.088730096817016602e-01,4.418970942497253418e-01,6.172062754631042480e-01,4.057139754295349121e-01
-4.620919525623321533e-01,-1.681295782327651978e-01,1.502152979373931885e-01,-4.934745728969573975e-01,1.068533062934875488e-01,1.039056539535522461e+00,-1.838880330324172974e-01,-2.790737450122833252e-01,8.553855419158935547e-01,-2.832497656345367432e-01,6.632419824600219727e-01,8.510073423385620117e-01,-3.586486726999282837e-02,-3.074268102645874023e-01,-9.203607589006423950e-02,-2.692266106605529785e-01,-7.258613705635070801e-01,2.044562101364135742e-01,4.164729416370391846e-01,5.008600354194641113e-01,5.122776031494140625e-01
-5.776152014732360840e-01,-1.523213833570480347e-01,3.255633413791656494e-01,-4.399227499961853027e-01,2.532151341438293457e-01,7.293823361396789551e-01,-3.202286064624786377e-01,-1.083784997463226318e-01,6.752530336380004883e-01,-3.773070573806762695e-01,6.313009858131408691e-01,6.445552706718444824e-01,3.474911674857139587e-02,-4.191367626190185547e-01,-3.540679812431335449e-01,-4.498471021652221680e-01,-7.187184095382690430e-01,2.849934697151184082e-01,5.754757523536682129e-01,6.816196441650390625e-01,3.883623778820037842e-01
-5.310471653938293457e-01,-3.367073833942413330e-01,2.470820099115371704e-01,-5.269092321395874023e-01,2.052820920944213867e-01,7.231684327125549316e-01,-4.499237835407257080e-01,3.403214365243911743e-02,9.094604849815368652e-01,-2.993082106113433838e-01,3.711086511611938477e-01,7.098450660705566406e-01,1.555202435702085495e-02,-4.704965651035308838e-01,-2.014067173004150391e-01,-3.160228133201599121e-01,-7.375167608261108398e-01,4.262867867946624756e-01,5.318906903266906738e-01,7.817508578300476074e-01,1.939636617898941040e-01
-6.706455349922180176e-01,-2.178272753953933716e-01,1.343626379966735840e-01,-5.002133250236511230e-01,9.566598385572433472e-02,5.835475325584411621e-01,-6.608447432518005371e-01,6.596952676773071289e-02,8.459954261779785156e-01,-3.561197221279144287e-01,4.468131661415100098e-01,6.404284834861755371e-01,2.616480365395545959e-02,-5.827915668487548828e-01,3.399314731359481812e-02,-2.418793290853500366e-01,-4.744688570499420166e-01,5.373891592025756836e-01,6.776931881904602051e-01,6.573934555053710938e-01,1.815991997718811035e-01
-6.293815374374389648e-01,-1.085416898131370544e-01,2.635594606399536133e-01,-5.395554900169372559e-01,-7.703281007707118988e-03,3.505547642707824707e-01,-6.174771785736083984e-01,1.109231859445571899e-01,9.298017621040344238e-01,-2.856193780899047852e-01,4.730146825313568115e-01,9.789170622825622559e-01,1.884817928075790405e-01,-5.523003935813903809e-01,-1.272563040256500244e-01,-2.656956017017364502e-01,-4.720326960086822510e-01,3.110145628452301025e-01,6.696214675903320312e-01,6.797352433204650879e-01,1.032985672354698181e-01
-4.952176213264465332e-01,-2.752323448657989502e-01,1.697225272655487061e-01,-5.028669834136962891e-01,9.974128007888793945e-02,4.685695469379425049e-01,-7.702058553695678711e-01,2.723363339900970459e-01,7.681832313537597656e-01,-3.919359445571899414e-01,4.956501126289367676e-01,6.051995158195495605e-01,2.315575033426284790e-01,-5.184265375137329102e-01,-6.987380236387252808e-02,-1.876157894730567932e-02,-3.295232951641082764e-01,6.281672120094299316e-01,8.367682695388793945e-01,7.579734325408935547e-01,-9.373632073402404785e-02
-5.079130530357360840e-01,-2.540080249309539795e-01,1.097267717123031616e-01,-3.815517723560333252e-01,1.459250003099441528e-01,1.747404932975769043e-01,-6.162847280502319336e-01,3.649606406688690186e-01,5.232316255569458008e-01,-5.099793672561645508e-01,3.668048977851867676e-01,7.832443714141845703e-01,2.053855806589126587e-01,-4.367295503616333008e-01,-5.186102539300918579e-02,-7.818361371755599976e-02,-2.364723533391952515e-01,1.370830386877059937e-01,8.773657679557800293e-01,7.154427170753479004e-01,-1.758588403463363647e-01
-4.665960967540740967e-01,-4.880729913711547852e-01,-1.515264902263879776e-02,-5.765228271484375000e-01,1.928619295358657837e-01,2.820367813110351562e-01,-9.077789187431335449e-01,3.404737412929534912e-01,4.521437585353851318e-01,-4.782754182815551758e-01,4.993201196193695068e-01,6.880292296409606934e-01,1.897509545087814331e-01,-5.951022505760192871e-01,-7.714703679084777832e-02,3.422439992427825928e-01,-2.166440784931182861e-01,3.126013278961181641e-01,9.871829748153686523e-01,4.945813417434692383e-01,-2.027906179428100586e-01
-4.119788706302642822e-01,-2.888911962509155273e-01,-4.925588145852088928e-02,-5.292733311653137207e-01,2.044597864151000977e-01,2.627294659614562988e-01,-6.769435405731201172e-01,4.681429266929626465e-01,3.849641680717468262e-01,-3.463124930858612061e-01,4.699502587318420410e-01,7.129282355308532715e-01,4.202907681465148926e-01,-4.648601412773132324e-01,-2.052417695522308350e-01,1.668424755334854126e-01,-1.782035529613494873e-01,5.923200398683547974e-02,9.206363558769226074e-01,4.828743040561676025e-01,-3.289246261119842529e-01
-2.541470527648925781e-01,-6.530869007110595703e-02,-1.552398353815078735e-01,-4.282398521900177002e-01,2.437738478183746338e-01,2.707020640373229980e-01,-6.558308601379394531e-01,4.077396094799041748e-01,3.741219341754913330e-01,-2.424932122230529785e-01,3.174295723438262939e-01,7.011212110519409180e-01,5.080045461654663086e-01,-4.698174893856048584e-01,-7.819376140832901001e-02,2.847456336021423340e-01,-1.908691078424453735e-01,-1.041334569454193115e-01,8.125310540199279785e-01,7.288668155670166016e-01,-3.982166051864624023e-01
-2.163898050785064697e-01,-2.182913571596145630e-01,-6.862086802721023560e-02,-2.003793120384216309e-01,1.028480976819992065e-01,3.332281112670898438e-01,-6.588500142097473145e-01,4.736277461051940918e-01,3.521132767200469971e-01,-2.255711704492568970e-01,4.106473624706268311e-01,7.769859433174133301e-01,3.928675353527069092e-01,-3.430341482162475586e-01,-5.562337115406990051e-02,4.538447558879852295e-01,-1.380120217800140381e-01,-4.086290895938873291e-01,9.197419881820678711e-01,4.745515584945678711e-01,3.211985528469085693e-02
9.698846377432346344e-03,-2.203914821147918701e-01,-1.839724630117416382e-01,-2.450720965862274170e-02,-2.971010506153106689e-01,4.156267046928405762e-01,-7.781305313110351562e-01,4.026314020156860352e-01,-8.381284028291702271e-02,-3.151414096355438232e-01,5.396556854248046875e-01,4.950399100780487061e-01,5.885480642318725586e-01,-6.362725049257278442e-02,3.476370498538017273e-02,2.871787846088409424e-01,-1.178625896573066711e-01,-3.514463901519775391e-01,6.849929094314575195e-01,4.984143376350402832e-01,-3.193254172801971436e-01
3.769628331065177917e-02,-3.655013144016265869e-01,-4.153919816017150879e-01,-1.559893488883972168e-01,-2.314497530460357666e-01,1.888988316059112549e-01,-5.528078675270080566e-01,7.298369407653808594e-01,1.092016547918319702e-01,-1.831453740596771240e-01,6.084310412406921387e-01,4.826714098453521729e-01,4.557081758975982666e-01,-1.329628080129623413e-01,1.821574382483959198e-02,4.172019660472869873e-01,-3.602266311645507812e-01,-3.998087942600250244e-01,6.211728453636169434e-01,4.622688293457031250e-01,3.147344291210174561e-02
4.461307823657989502e-02,-9.324937127530574799e-03,-3.070950508117675781e-01,-3.912110999226570129e-02,-2.710508108139038086e-01,2.529716789722442627e-01,-6.001909375190734863e-01,6.305255293846130371e-01,3.699001297354698181e-02,-1.970651149749755859e-01,6.157969236373901367e-01,5.065029263496398926e-01,5.322492122650146484e-01,-2.671687304973602295e-01,1.571098119020462036e-01,5.351906418800354004e-01,-3.387786746025085449e-01,-5.420465469360351562e-01,5.991697311401367188e-01,5.859310626983642578e-01,8.683072030544281006e-02
2.811684273183345795e-02,-1.852189749479293823e-01,-3.628023862838745117e-01,2.280424535274505615e-02,-2.873666584491729736e-01,3.184804320335388184e-01,-3.997833728790283203e-01,7.313185930252075195e-01,-3.559547290205955505e-02,-1.860892027616500854e-01,6.833056211471557617e-01,4.333057105541229248e-01,4.424068927764892578e-01,-3.967379927635192871e-01,1.693649888038635254e-01,4.592278003692626953e-01,-3.491798043251037598e-01,-6.019824147224426270e-01,2.824210524559020996e-01,5.326839685440063477e-01,3.853122293949127197e-01
1.987949907779693604e-01,-1.646295040845870972e-01,-2.954251170158386230e-01,1.299706250429153442e-01,-4.410150945186614990e-01,1.160225421190261841e-01,-3.345985114574432373e-01,6.621269583702087402e-01,-1.437010765075683594e-01,-2.316555380821228027e-01,5.317316055297851562e-01,1.945246011018753052e-01,4.503985941410064697e-01,-2.055160142481327057e-02,4.259897470474243164e-01,5.911391973495483398e-01,-2.880229055881500244e-01,-6.563291549682617188e-01,1.704951226711273193e-01,2.801361680030822754e-01,3.532252013683319092e-01
4.733432829380035400e-02,-6.732435524463653564e-02,-2.142783254384994507e-01,1.318937242031097412e-01,-4.594129323959350586e-01,2.912522256374359131e-01,-2.614535391330718994e-01,6.286356449127197266e-01,1.695413440465927124e-01,6.702373176813125610e-02,5.587919950485229492e-01,3.678583204746246338e-01,3.332065641880035400e-01,-1.201976165175437927e-01,5.591327548027038574e-01,5.203828811645507812e-01,-3.095895349979400635e-01,-8.179975152015686035e-01,2.791172564029693604e-01,2.084618508815765381e-01,1.489462852478027344e-01
-3.862269595265388489e-02,-1.014395505189895630e-01,-4.647212475538253784e-02,3.631927073001861572e-01,-3.739866614341735840e-01,1.500826925039291382e-01,-3.029218018054962158e-01,5.294932723045349121e-01,-7.020234316587448120e-02,-2.475547343492507935e-01,4.507859349250793457e-01,3.640877008438110352e-01,4.545165896415710449e-01,-4.222183823585510254e-01,5.014982819557189941e-01,5.725116729736328125e-01,-4.709325432777404785e-01,-4.551871716976165771e-01,2.846734523773193359e-01,1.999516971409320831e-03,2.469019293785095215e-01
2.250947952270507812e-01,-6.713729351758956909e-02,-1.682892441749572754e-01,4.599700868129730225e-01,-2.162683308124542236e-01,1.642519831657409668e-01,-1.109111607074737549e-01,4.121014773845672607e-01,-1.342096775770187378e-01,-3.389399871230125427e-02,4.984598457813262939e-01,5.591994524002075195e-01,2.543569207191467285e-01,-4.342530071735382080e-01,8.457871675491333008e-01,4.394423663616180420e-01,-4.345793426036834717e-01,-7.320635318756103516e-01,8.832303434610366821e-02,-8.876799792051315308e-02,1.224876493215560913e-01
5.295198038220405579e-02,1.669728383421897888e-02,-2.253870069980621338e-01,2.983619868755340576e-01,-4.173071980476379395e-01,5.213221907615661621e-02,-3.022219240665435791e-01,6.508041024208068848e-01,-1.024234294891357422e-01,-2.189788967370986938e-01,5.049678087234497070e-01,5.537329316139221191e-01,3.187118843197822571e-02,-6.789933443069458008e-01,6.217919588088989258e-01,4.012975394725799561e-01,-3.620243072509765625e-01,-7.334289550781250000e-01,2.890403270721435547e-01,-2.978342771530151367e-01,5.739574879407882690e-02
-6.944555044174194336e-02,-1.673741042613983154e-01,-1.970566622912883759e-02,1.371939331293106079e-01,-3.787195309996604919e-02,1.115918979048728943e-01,-1.997871398925781250e-01,3.037792444229125977e-01,-4.136855304241180420e-01,-2.878580093383789062e-01,5.953460335731506348e-01,4.769847989082336426e-01,2.248346805572509766e-01,-5.981895327568054199e-01,6.329172253608703613e-01,5.831881165504455566e-01,-5.206039547920227051e-01,-1.066640496253967285e+00,2.097823619842529297e-01,-2.790319621562957764e-01,7.386679202318191528e-02
-8.812491595745086670e-02,-1.861614882946014404e-01,-2.433644607663154602e-02,1.775666028261184692e-01,-1.047032475471496582e-01,1.814928650856018066e-01,-1.524082869291305542e-01,1.729914844036102295e-01,-3.432884514331817627e-01,-5.046147704124450684e-01,6.678441762924194336e-01,6.693249344825744629e-01,6.022852286696434021e-02,-6.336075663566589355e-01,6.697965264320373535e-01,6.581970453262329102e-01,-6.041215062141418457e-01,-8.518522381782531738e-01,2.396023571491241455e-01,-4.800431132316589355e-01,9.983449429273605347e-02
1.148164458572864532e-02,-3.374353945255279541e-01,-6.568679213523864746e-02,8.066768199205398560e-02,-1.047845184803009033e-01,1.911885105073451996e-03,-9.390626847743988037e-02,5.296831130981445312e-01,-3.584825992584228516e-01,-3.747399747371673584e-01,5.389253497123718262e-01,6.936911940574645996e-01,2.336943149566650391e-01,-6.294024586677551270e-01,7.049015164375305176e-01,4.952802062034606934e-01,-6.274170875549316406e-01,-7.171856164932250977e-01,2.124563455581665039e-01,-5.218573808670043945e-01,-3.204127540811896324e-03
3.726997599005699158e-02,-2.945925295352935791e-01,8.490329235792160034e-02,1.581260710954666138e-01,-6.243727728724479675e-02,4.680598527193069458e-02,-4.014661610126495361e-01,2.908405661582946777e-01,-3.233037590980529785e-01,-5.494734644889831543e-01,5.241351127624511719e-01,6.554835438728332520e-01,2.930132150650024414e-01,-5.940009951591491699e-01,5.565736293792724609e-01,1.677297353744506836e-01,-6.063536405563354492e-01,-7.786067128181457520e-01,2.326437383890151978e-01,-4.977845251560211182e-01,-1.596380211412906647e-02
4.658803343772888184e-02,-3.886480033397674561e-01,1.556744724512100220e-01,7.932547479867935181e-02,-2.161757051944732666e-01,9.261545538902282715e-02,-5.666174888610839844e-01,3.904041051864624023e-01,-3.199399411678314209e-01,-5.736527442932128906e-01,4.012365937232971191e-01,6.888740062713623047e-01,1.887802779674530029e-01,-9.263747930526733398e-01,5.568712949752807617e-01,2.660451531410217285e-01,-6.461697220802307129e-01,-7.878512144088745117e-01,1.131992489099502563e-01,-5.807749629020690918e-01,2.383132465183734894e-02
-1.169915124773979187e-02,-6.153268814086914062e-01,7.941801846027374268e-02,1.789515838027000427e-02,3.798426827415823936e-03,1.271032541990280151e-01,-4.296826720237731934e-01,3.418721556663513184e-01,-2.455504238605499268e-01,-5.298550724983215332e-01,4.369016587734222412e-01,5.631657242774963379e-01,4.276798963546752930e-01,-8.492044210433959961e-01,3.746472299098968506e-01,3.520597005262970924e-03,-7.646427750587463379e-01,-6.986325383186340332e-01,1.991655975580215454e-01,-4.109319150447845459e-01,-1.947048604488372803e-01
2.596281096339225769e-02,-6.883227229118347168e-01,3.741410374641418457e-01,-7.378633320331573486e-02,2.704069316387176514e-01,1.589393764734268188e-01,-2.391272038221359253e-01,4.953077733516693115e-01,-1.734487414360046387e-01,-5.392024517059326172e-01,4.590454697608947754e-01,3.935512900352478027e-01,3.936008214950561523e-01,-7.353231906890869141e-01,4.405370354652404785e-01,-2.269910573959350586e-01,-8.844781517982482910e-01,-6.243307590484619141e-01,2.072930335998535156e-01,-4.750489890575408936e-01,-1.842042505741119385e-01
-1.290939599275588989e-01,-7.685410380363464355e-01,2.322110682725906372e-01,-1.677497625350952148e-01,-1.247834637761116028e-01,3.350758552551269531e-02,-5.343362092971801758e-01,7.159591913223266602e-01,-5.667058285325765610e-03,-5.260444879531860352e-01,2.347216159105300903e-01,5.779393911361694336e-01,4.097593426704406738e-01,-8.334378004074096680e-01,1.613258570432662964e-01,-1.977137848734855652e-02,-8.581262826919555664e-01,-5.589599609375000000e-01,2.728840112686157227e-01,-2.072272449731826782e-01,-1.893007159233093262e-01
-1.357406377792358398e-01,-9.503365159034729004e-01,5.421703457832336426e-01,3.042332231998443604e-01,-3.935323357582092285e-01,2.348102629184722900e-02,-3.294821977615356445e-01,5.839056372642517090e-01,-7.725540548563003540e-02,-1.947791278362274170e-01,8.889975398778915405e-02,1.811972260475158691e-01,5.439521670341491699e-01,-7.601193785667419434e-01,1.350602693855762482e-02,-2.861323654651641846e-01,-6.956559419631958008e-01,-5.767517089843750000e-01,3.768053054809570312e-01,-2.802377939224243164e-01,1.316830366849899292e-01
-2.457206100225448608e-01,-6.778833270072937012e-01,4.818348586559295654e-01,8.208734542131423950e-02,-7.184869796037673950e-02,-2.375254034996032715e-01,-2.021567970514297485e-01,5.747215151786804199e-01,-3.022518195211887360e-02,-1.674628853797912598e-01,5.931869149208068848e-02,2.953447401523590088e-01,7.180536389350891113e-01,-6.867460012435913086e-01,1.304832845926284790e-01,-2.252157926559448242e-01,-8.285670876502990723e-01,-2.681325376033782959e-01,1.482058614492416382e-01,-2.784299552440643311e-01,-3.976874798536300659e-02
-4.162262380123138428e-02,-7.548135519027709961e-01,4.285737574100494385e-01,-2.764061465859413147e-02,-4.416961073875427246e-01,-2.774377763271331787e-01,-5.274700522422790527e-01,8.511285185813903809e-01,-5.817723274230957031e-02,-4.226553440093994141e-02,-1.029093191027641296e-01,-7.540851086378097534e-02,8.545673489570617676e-01,-5.648295879364013672e-01,1.018837913870811462e-01,-3.283603191375732422e-01,-4.229318201541900635e-01,-3.159527480602264404e-01,3.945604264736175537e-01,-9.436224400997161865e-02,-1.673041656613349915e-02
-1.471232324838638306e-01,-5.712785720825195312e-01,5.732903480529785156e-01,-3.111615963280200958e-02,-4.394038915634155273e-01,-4.512457549571990967e-01,-3.497820794582366943e-01,8.187504410743713379e-01,-1.946552842855453491e-01,7.152775675058364868e-02,-2.723050415515899658e-01,1.712425202131271362e-01,7.022786736488342285e-01,-6.466937661170959473e-01,1.656367927789688110e-01,-2.152906507253646851e-01,-3.563339710235595703e-01,-4.170651733875274658e-01,3.533316254615783691e-01,-2.103776335716247559e-01,-1.180907487869262695e-01
-2.468749880790710449e-01,-6.475267410278320312e-01,7.551632523536682129e-01,1.298178732395172119e-01,-3.085362315177917480e-01,-5.737768411636352539e-01,-6.447740197181701660e-01,8.473657369613647461e-01,-2.260813713073730469e-01,2.237808108329772949e-01,-3.500197529792785645e-01,-2.254063487052917480e-01,8.683360219001770020e-01,-6.368007659912109375e-01,1.421515047550201416e-01,-3.268817365169525146e-01,-4.916951060295104980e-01,-2.783692181110382080e-01,4.740004241466522217e-01,-2.487650364637374878e-01,-1.213748455047607422e-01
6.043943762779235840e-02,-4.389044642448425293e-01,4.807186722755432129e-01,1.959620043635368347e-02,-4.178420305252075195e-01,-5.259283781051635742e-01,-5.689724683761596680e-01,8.685683012008666992e-01,-2.821173965930938721e-01,1.976826637983322144e-01,-4.621328115463256836e-01,-2.620255351066589355e-01,6.664424538612365723e-01,-5.992455482482910156e-01,2.462740838527679443e-01,-8.949925005435943604e-02,-2.505447268486022949e-01,-2.157232314348220825e-01,5.639050602912902832e-01,-2.173157483339309692e-01,-3.652501618489623070e-03
-4.270976409316062927e-02,-5.250794291496276855e-01,4.199621081352233887e-01,6.645825505256652832e-02,-5.513226389884948730e-01,-6.532141566276550293e-01,-7.117985486984252930e-01,8.941758275032043457e-01,-5.076845288276672363e-01,1.451915800571441650e-01,-4.921463727951049805e-01,-3.094210624694824219e-01,4.315742850303649902e-01,-5.192166566848754883e-01,2.309178411960601807e-01,-1.761390417814254761e-01,-4.153012037277221680e-01,-3.587100803852081299e-01,5.456228852272033691e-01,-1.329759210348129272e-01,-2.623614855110645294e-02
-9.129019826650619507e-02,-3.041385114192962646e-01,4.250868558883666992e-01,-6.867195665836334229e-02,-7.548727393150329590e-01,-6.587025523185729980e-01,-5.320679545402526855e-01,8.591729402542114258e-01,-6.083039641380310059e-01,2.751716673374176025e-01,-4.945232868194580078e-01,-3.396691679954528809e-01,5.915427207946777344e-01,-4.802012443542480469e-01,9.417875856161117554e-02,1.514648199081420898e-01,-1.338677108287811279e-01,-3.461037278175354004e-01,3.966875374317169189e-01,-2.098991125822067261e-01,9.046232327818870544e-03
1.509090187028050423e-03,-4.895223081111907959e-01,2.098018378019332886e-01,1.270992904901504517e-01,-6.088548302650451660e-01,-4.893619716167449951e-01,-5.288910269737243652e-01,6.994029879570007324e-01,-6.167274117469787598e-01,2.407971769571304321e-01,-3.493534922599792480e-01,-2.181820720434188843e-01,3.976988792419433594e-01,-4.542009532451629639e-01,2.236140966415405273e-01,-1.337031647562980652e-02,-1.559506356716156006e-01,-2.862494289875030518e-01,4.708174169063568115e-01,-3.076077103614807129e-01,1.529411673545837402e-01
3.670521974563598633e-01,-1.620863825082778931e-01,1.035062819719314575e-01,-1.206010463647544384e-03,-5.332428812980651855e-01,-6.119608283042907715e-01,-5.837346315383911133e-01,5.704453587532043457e-01,-6.964389681816101074e-01,4.550408124923706055e-01,-2.472384124994277954e-01,-3.520481586456298828e-01,3.580761849880218506e-01,-4.106750488281250000e-01,2.274191975593566895e-01,2.644546888768672943e-02,-5.423678830265998840e-02,-5.981580018997192383e-01,5.705822110176086426e-01,-2.226986289024353027e-01,-9.387503564357757568e-02
3.498407006263732910e-01,-1.346676796674728394e-01,1.116071045398712158e-01,-1.628314852714538574e-01,-5.075265765190124512e-01,-3.145055770874023438e-01,-3.582102656364440918e-01,6.939595341682434082e-01,-5.915212035179138184e-01,3.682765960693359375e-01,-2.912231683731079102e-01,-4.297758936882019043e-01,1.518020629882812500e-01,-7.069805264472961426e-01,4.986049234867095947e-01,-1.137917786836624146e-01,-2.007175981998443604e-01,-5.327979922294616699e-01,5.606698393821716309e-01,-3.312597572803497314e-01,1.432170569896697998e-01
3.921218514442443848e-01,-2.813133001327514648e-01,8.042932301759719849e-02,1.735112965106964111e-01,-6.320737600326538086e-01,-2.817408144474029541e-01,-2.334400266408920288e-01,5.345635414123535156e-01,-7.234624624252319336e-01,2.464097440242767334e-01,-3.276532292366027832e-01,-4.181469976902008057e-01,4.105314016342163086e-01,-6.062397956848144531e-01,3.054931461811065674e-01,9.174920618534088135e-02,-4.351377785205841064e-01,-6.070854067802429199e-01,3.803392052650451660e-01,-4.468859732151031494e-01,4.546111822128295898e-01
4.587791264057159424e-01,-1.888298988342285156e-01,-1.660372614860534668e-01,2.275780439376831055e-01,-6.652809381484985352e-01,-1.373177915811538696e-01,-5.341869592666625977e-02,5.628535747528076172e-01,-6.666761040687561035e-01,4.211262762546539307e-01,-1.869157105684280396e-01,-2.940773665904998779e-01,3.754784464836120605e-01,-4.407317936420440674e-01,4.044953286647796631e-01,-1.016999706625938416e-01,-3.834358751773834229e-01,-6.336268186569213867e-01,3.730702698230743408e-01,-2.284630835056304932e-01,5.439894795417785645e-01
5.242561101913452148e-01,-1.630540341138839722e-01,-1.199695020914077759e-01,-7.887334376573562622e-02,-7.604280114173889160e-01,-2.051041871309280396e-01,6.628482043743133545e-02,4.350800812244415283e-01,-6.513108611106872559e-01,2.022639214992523193e-01,-2.163815051317214966e-01,-3.674884736537933350e-01,-2.128740400075912476e-02,-4.076456427574157715e-01,4.761300981044769287e-01,1.752340979874134064e-02,-4.605195820331573486e-01,-8.965082764625549316e-01,1.060792133212089539e-01,-2.623132169246673584e-01,6.426901817321777344e-01
3.567998707294464111e-01,-1.529742181301116943e-01,1.542535722255706787e-01,3.092364072799682617e-01,-8.398348689079284668e-01,6.608379632234573364e-02,7.753141969442367554e-02,5.467680692672729492e-01,-4.556913971900939941e-01,2.585183978080749512e-01,-1.745244562625885010e-01,-2.462488263845443726e-01,2.219979017972946167e-01,-5.650688409805297852e-01,5.002550482749938965e-01,-3.905157148838043213e-01,-4.980781972408294678e-01,-5.824807882308959961e-01,1.043144166469573975e-01,-1.021908149123191833e-01,6.638433337211608887e-01
4.328722059726715088e-01,-2.973325848579406738e-01,1.443945169448852539e-01,-6.993519514799118042e-02,-5.153536200523376465e-01,1.394815295934677124e-01,2.074092924594879150e-01,4.235322475433349609e-01,-6.122196912765502930e-01,3.564479053020477295e-01,-1.301570981740951538e-01,-4.441241919994354248e-01,-9.081116318702697754e-02,-4.025186002254486084e-01,5.330902934074401855e-01,-5.836129188537597656e-01,-5.180020928382873535e-01,-6.492269635200500488e-01,-2.987444996833801270e-01,-1.919394880533218384e-01,8.636336326599121094e-01
3.096502721309661865e-01,-2.900720536708831787e-01,1.314679682254791260e-01,-2.598625374957919121e-03,-6.339961290359497070e-01,1.246173754334449768e-01,2.079526931047439575e-01,2.659610211849212646e-01,-4.577815830707550049e-01,3.138190507888793945e-01,-1.849775575101375580e-02,-4.008770287036895752e-01,-1.684276945888996124e-02,-4.809412360191345215e-01,5.822583436965942383e-01,-3.317614197731018066e-01,-5.977604389190673828e-01,-6.532942056655883789e-01,-1.264341473579406738e-01,-2.477880716323852539e-01,7.908969521522521973e-01
3.304291069507598877e-01,-3.389918506145477295e-01,3.447399139404296875e-01,-1.775109954178333282e-02,-4.149293005466461182e-01,1.885276138782501221e-01,1.799564957618713379e-01,2.857955098152160645e-01,-1.372508257627487183e-01,2.084483504295349121e-01,-2.086252719163894653e-01,-2.504962086677551270e-01,-1.753847748041152954e-01,-5.175502300262451172e-01,5.834799408912658691e-01,-4.482671618461608887e-01,-4.776622653007507324e-01,-2.729794979095458984e-01,-1.841325908899307251e-01,-2.528461217880249023e-01,6.512933373451232910e-01
6.657888740301132202e-02,-3.383456766605377197e-01,4.438064396381378174e-01,-7.257338613271713257e-02,-5.999716520309448242e-01,2.404469102621078491e-01,2.509787678718566895e-01,1.681641042232513428e-01,-1.574761569499969482e-01,2.160922735929489136e-01,-5.636464804410934448e-02,-2.854121029376983643e-01,-3.587405681610107422e-01,-7.926495671272277832e-01,7.633340358734130859e-01,-3.434919714927673340e-01,-5.085703134536743164e-01,-4.987846910953521729e-01,-1.793316602706909180e-01,-4.432462453842163086e-01,6.022284626960754395e-01
-9.978003054857254028e-02,-1.466596722602844238e-01,3.053806424140930176e-01,-3.207436800003051758e-01,-1.733164638280868530e-01,1.376858651638031006e-01,2.169045060873031616e-01,2.133328169584274292e-01,2.688068896532058716e-02,2.598077058792114258e-01,-3.101482987403869629e-01,-1.139853447675704956e-01,-3.432594537734985352e-01,-7.919970154762268066e-01,8.179839849472045898e-01,-3.614439070224761963e-01,-5.994769930839538574e-01,-1.703688949346542358e-01,-6.974579393863677979e-02,-3.775037825107574463e-01,5.417969822883605957e-01
-6.557240337133407593e-02,-3.767046928405761719e-01,3.084921538829803467e-01,-3.810617625713348389e-01,-4.207288026809692383e-01,2.226897925138473511e-01,2.064976654946804047e-02,1.315224468708038330e-01,9.715326130390167236e-03,2.437355965375900269e-01,6.658491492271423340e-02,-5.697742477059364319e-02,-4.849675893783569336e-01,-8.609243631362915039e-01,7.249783277511596680e-01,-6.384973526000976562e-01,-4.274838566780090332e-01,-2.977184355258941650e-01,-6.544677913188934326e-02,-3.060550093650817871e-01,7.198267579078674316e-01
-1.307436078786849976e-01,-5.382521748542785645e-01,2.982801198959350586e-01,-3.814548552036285400e-01,-2.749203890562057495e-02,3.066686987876892090e-01,2.181138396263122559e-01,1.552336215972900391e-01,3.732734918594360352e-02,3.102694153785705566e-01,-2.520766854286193848e-01,-9.998787194490432739e-02,-4.950294494628906250e-01,-8.705437183380126953e-01,6.452826261520385742e-01,-5.881179571151733398e-01,-5.277379155158996582e-01,-2.672779262065887451e-01,-1.013267710804939270e-01,-2.818129770457744598e-02,5.420923829078674316e-01
-2.693213522434234619e-01,-5.091598629951477051e-01,4.003163576126098633e-01,-7.390085458755493164e-01,-4.536181688308715820e-02,2.117586731910705566e-01,-2.646869607269763947e-02,1.040006577968597412e-01,5.058227851986885071e-02,1.461400985717773438e-01,-2.086440175771713257e-01,7.051994651556015015e-02,-5.890859961509704590e-01,-7.149204015731811523e-01,4.516254663467407227e-01,-4.911613762378692627e-01,-3.468959927558898926e-01,-4.822511598467826843e-02,-4.175234586000442505e-02,-1.867382228374481201e-01,2.390641123056411743e-01
-2.127604186534881592e-01,-4.896833300590515137e-01,2.939311563968658447e-01,-7.326393127441406250e-01,1.665914356708526611e-01,3.349930047988891602e-01,4.760687425732612610e-02,1.720412820577621460e-01,1.918182969093322754e-01,1.525947749614715576e-01,-2.674002945423126221e-01,2.255172729492187500e-01,-4.734916985034942627e-01,-5.714594721794128418e-01,4.443823695182800293e-01,-8.008567094802856445e-01,-4.206497967243194580e-01,-2.965511679649353027e-01,9.146884083747863770e-02,-2.623380124568939209e-01,2.432525306940078735e-01
-2.192015200853347778e-01,-5.638134479522705078e-01,4.168948233127593994e-01,-8.421008586883544922e-01,2.056960165500640869e-01,3.398561775684356689e-01,1.156874932348728180e-02,1.905896812677383423e-01,1.201234832406044006e-01,1.154895350337028503e-01,-4.798151254653930664e-01,1.236572265625000000e-01,-4.135935008525848389e-01,-9.116971492767333984e-01,3.921577632427215576e-01,-7.018676996231079102e-01,-1.914782077074050903e-01,-3.065750300884246826e-01,1.030810996890068054e-01,-1.555400639772415161e-01,2.096151709556579590e-01
-4.200823009014129639e-01,-5.280485749244689941e-01,3.732825219631195068e-01,-8.322392106056213379e-01,3.039095401763916016e-01,2.410399168729782104e-01,-1.574221849441528320e-01,2.532056570053100586e-01,1.453213840723037720e-01,-6.498170644044876099e-02,-9.112128615379333496e-02,3.652550578117370605e-01,-4.138769805431365967e-01,-5.834582448005676270e-01,1.621114611625671387e-01,-8.062291145324707031e-01,-7.600102573633193970e-02,-3.502994030714035034e-02,1.792024970054626465e-01,7.527191936969757080e-02,1.503931432962417603e-01
-2.648906707763671875e-01,-4.568953812122344971e-01,3.872721791267395020e-01,-1.093919038772583008e+00,8.931586146354675293e-02,2.464994192123413086e-01,-3.735080361366271973e-02,3.635235428810119629e-01,2.342172414064407349e-01,4.896067082881927490e-02,-3.149063885211944580e-01,5.394661426544189453e-02,-1.741878986358642578e-01,-6.533681154251098633e-01,4.205305874347686768e-02,-9.924464225769042969e-01,-3.353839516639709473e-01,-1.804932951927185059e-01,2.094195783138275146e-01,3.073940426111221313e-02,2.177311629056930542e-01
-3.137370944023132324e-01,-6.721929311752319336e-01,3.481536805629730225e-01,-9.505679011344909668e-01,1.698088794946670532e-01,4.754949510097503662e-01,-2.880159206688404083e-02,2.656301558017730713e-01,2.588361501693725586e-01,3.758099079132080078e-01,-9.350562840700149536e-02,2.712453715503215790e-02,-1.089519709348678589e-01,-4.053884446620941162e-01,4.769933223724365234e-02,-8.744516372680664062e-01,-1.129159033298492432e-01,-1.548930704593658447e-01,1.215701922774314880e-02,2.176025062799453735e-01,3.309252262115478516e-01
-4.064537882804870605e-01,-4.177571535110473633e-01,4.756371974945068359e-01,-1.008758068084716797e+00,9.647999703884124756e-02,2.369009256362915039e-01,-2.932589128613471985e-02,3.368791341781616211e-01,2.175602018833160400e-01,2.718604803085327148e-01,-5.410891175270080566e-01,1.057683024555444717e-02,-1.264522075653076172e-01,-2.950019240379333496e-01,3.810319304466247559e-02,-7.218790054321289062e-01,6.972696632146835327e-02,-1.051497310400009155e-01,1.809997111558914185e-01,3.889511525630950928e-01,2.166583985090255737e-01
-4.642200469970703125e-01,-4.562942087650299072e-01,5.072850584983825684e-01,-8.501015305519104004e-01,2.037106901407241821e-01,2.242475003004074097e-01,-6.581674516201019287e-02,5.400489568710327148e-01,2.144158035516738892e-01,5.274114608764648438e-01,-4.919845759868621826e-01,-1.320829987525939941e-01,-1.421160995960235596e-01,-1.535482257604598999e-01,-1.101417765021324158e-01,-7.388777136802673340e-01,1.261619627475738525e-01,1.060796249657869339e-02,2.284371852874755859e-01,3.192804157733917236e-01,2.075090706348419189e-01
-3.021003901958465576e-01,-4.856547713279724121e-01,6.536149978637695312e-01,-8.279531598091125488e-01,9.813316911458969116e-02,2.060777544975280762e-01,1.954395622014999390e-01,5.446695685386657715e-01,2.768634557723999023e-01,3.933950662612915039e-01,-4.960575103759765625e-01,-1.583961695432662964e-01,-2.350970655679702759e-01,-1.763401478528976440e-01,-2.300091832876205444e-02,-4.925154447555541992e-01,6.730633229017257690e-02,5.455895885825157166e-02,3.184103369712829590e-01,4.435653388500213623e-01,2.756588757038116455e-01
-4.693299829959869385e-01,-4.050661325454711914e-01,4.181908071041107178e-01,-6.334037780761718750e-01,1.591622382402420044e-01,7.543171942234039307e-02,3.862427175045013428e-01,6.889978647232055664e-01,1.213865131139755249e-01,7.017042636871337891e-01,-5.604585409164428711e-01,7.461163401603698730e-02,-1.700193881988525391e-01,3.994098864495754242e-03,-8.011316508054733276e-02,-5.632056593894958496e-01,4.933426901698112488e-02,-1.213982179760932922e-01,2.015096843242645264e-01,4.719710350036621094e-01,2.398388832807540894e-01
-3.017498254776000977e-01,-3.373785316944122314e-01,5.214445590972900391e-01,-5.891160368919372559e-01,7.244395464658737183e-02,1.758666634559631348e-01,1.345166563987731934e-01,6.672814488410949707e-01,1.512253433465957642e-01,7.278023362159729004e-01,-6.913198828697204590e-01,-6.225995346903800964e-02,-6.369182467460632324e-02,2.157824635505676270e-01,1.202862486243247986e-01,-5.331011414527893066e-01,4.540638327598571777e-01,1.662847548723220825e-01,1.886897832155227661e-01,5.531258583068847656e-01,4.129932224750518799e-01
-3.273179233074188232e-01,-2.675703465938568115e-01,1.551942378282546997e-01,-5.535714626312255859e-01,4.038636758923530579e-02,1.619393974542617798e-01,9.267791360616683960e-02,5.951205492019653320e-01,1.275625918060541153e-02,8.409510850906372070e-01,-5.986877679824829102e-01,-1.782244592905044556e-01,-2.759338915348052979e-01,-9.668119996786117554e-02,1.251641847193241119e-02,-4.313354194164276123e-01,1.758921295404434204e-01,4.914007708430290222e-02,8.458218723535537720e-02,5.756193995475769043e-01,5.200329422950744629e-01
-2.452729195356369019e-01,-1.445161402225494385e-01,8.027136325836181641e-02,-4.655291140079498291e-01,2.926244027912616730e-02,1.001342460513114929e-01,1.110139861702919006e-01,4.693892896175384521e-01,2.737774513661861420e-02,8.290753364562988281e-01,-5.590106248855590820e-01,-2.039941400289535522e-01,-1.747465580701828003e-01,6.524531543254852295e-02,1.862239837646484375e-01,-4.353427886962890625e-01,3.385673761367797852e-01,-1.520190685987472534e-01,3.301119208335876465e-01,3.446500897407531738e-01,5.032340288162231445e-01
-4.005407989025115967e-01,1.006028801202774048e-01,9.030041098594665527e-02,-7.084504961967468262e-01,1.772232800722122192e-01,1.421456634998321533e-01,1.327930837869644165e-01,3.551273047924041748e-01,-1.090094670653343201e-01,6.523148417472839355e-01,-7.651589512825012207e-01,-7.081643491983413696e-02,-2.648484706878662109e-01,1.618005335330963135e-01,2.198077589273452759e-01,-2.960890233516693115e-01,4.981981217861175537e-01,-2.316290140151977539e-01,2.763601839542388916e-01,1.262698769569396973e-01,4.728937149047851562e-01
-1.191688701510429382e-01,2.654795646667480469e-01,5.822429805994033813e-02,-4.670973718166351318e-01,1.219277456402778625e-01,1.233597397804260254e-01,3.654322326183319092e-01,2.575588524341583252e-01,-2.392687648534774780e-01,8.832708001136779785e-01,-3.432893455028533936e-01,4.232914000749588013e-02,-4.748261570930480957e-01,1.246197298169136047e-01,1.759992092847824097e-01,-1.715785637497901917e-02,3.331674933433532715e-01,-3.146568834781646729e-01,1.763493120670318604e-01,-9.313812851905822754e-02,5.172957777976989746e-01
-3.096034526824951172e-01,1.999938637018203735e-01,1.734323799610137939e-02,-6.301584839820861816e-01,3.679246008396148682e-01,2.594074606895446777e-01,4.920753836631774902e-01,9.185714274644851685e-02,-3.489605784416198730e-01,5.952437520027160645e-01,-4.704503417015075684e-01,9.647797793149948120e-02,-5.550605654716491699e-01,1.542595028877258301e-01,2.221152782440185547e-01,-5.884144455194473267e-02,3.825837671756744385e-01,-2.459039688110351562e-01,3.655251562595367432e-01,1.035719662904739380e-01,4.472076892852783203e-01
-1.252273917198181152e-01,2.269604951143264771e-01,-2.313252836465835571e-01,-4.028428792953491211e-01,3.709759712219238281e-01,2.658654153347015381e-01,5.017052888870239258e-01,6.837121397256851196e-02,-3.190174996852874756e-01,6.593254804611206055e-01,-3.432396054267883301e-01,1.888471245765686035e-01,-4.395768046379089355e-01,2.748542726039886475e-01,2.210052758455276489e-01,-1.838208138942718506e-01,3.004709184169769287e-01,-2.933343350887298584e-01,2.348143756389617920e-01,-1.345190256834030151e-01,6.962107419967651367e-01
-4.955066740512847900e-02,3.808609545230865479e-01,-1.597740873694419861e-02,-5.731734633445739746e-01,4.760812520980834961e-01,2.644652426242828369e-01,6.180050373077392578e-01,-1.117446944117546082e-01,-2.321856915950775146e-01,5.722545385360717773e-01,-1.286477297544479370e-01,3.443493545055389404e-01,-6.345474720001220703e-01,1.691644787788391113e-01,3.352083861827850342e-01,-3.319029510021209717e-02,9.651249647140502930e-02,-1.305545866489410400e-01,2.778988182544708252e-01,1.207627076655626297e-02,4.946019351482391357e-01
-2.676244452595710754e-02,2.474875152111053467e-01,-1.821008920669555664e-01,-3.619626462459564209e-01,4.683505594730377197e-01,3.403285443782806396e-01,7.388591170310974121e-01,-1.506329923868179321e-01,-3.066657483577728271e-01,2.397278100252151489e-01,-1.130048707127571106e-01,3.489477038383483887e-01,-6.838883161544799805e-01,1.331399977207183838e-01,1.599776744842529297e-01,-3.562780320644378662e-01,1.642545014619827271e-01,-4.733436703681945801e-01,6.500751525163650513e-02,-2.737701125442981720e-02,4.678378999233245850e-01
-2.557463943958282471e-01,9.229138493537902832e-02,1.085258424282073975e-01,-3.369476795196533203e-01,4.857978522777557373e-01,6.795379519462585449e-01,6.825573444366455078e-01,-3.165088891983032227e-01,-2.640653252601623535e-01,4.250125586986541748e-01,-1.311760842800140381e-01,3.218666911125183105e-01,-5.442099571228027344e-01,2.472034096717834473e-02,6.610506027936935425e-02,-2.237276136875152588e-01,1.500879786908626556e-02,-5.344969034194946289e-01,-1.853223294019699097e-01,5.418175086379051208e-02,7.446901202201843262e-01
-1.423985660076141357e-01,2.113932073116302490e-01,2.264767326414585114e-02,-5.119300484657287598e-01,5.252372026443481445e-01,8.233598470687866211e-01,7.563837766647338867e-01,-2.311799675226211548e-01,-6.888406723737716675e-02,3.970777392387390137e-01,2.066489076241850853e-03,4.407376348972320557e-01,-3.831146061420440674e-01,2.990012764930725098e-01,1.632205694913864136e-01,-3.589118123054504395e-01,-9.810332953929901123e-02,-4.570372104644775391e-01,-1.127605885267257690e-01,-7.009440101683139801e-03,8.779349327087402344e-01
-2.740148901939392090e-01,1.944107860326766968e-01,-9.952643513679504395e-02,-2.863169312477111816e-01,7.208838462829589844e-01,6.402559280395507812e-01,8.138528466224670410e-01,-3.190315067768096924e-01,-8.163223974406719208e-03,3.353380858898162842e-01,-2.844511866569519043e-01,3.400786519050598145e-01,-6.388691067695617676e-01,2.241759374737739563e-02,1.602643877267837524e-01,-2.783460319042205811e-01,-1.204308941960334778e-01,-1.148167327046394348e-01,-1.068786904215812683e-01,-7.153459638357162476e-02,8.467383980751037598e-01
-4.615182578563690186e-01,3.766189515590667725e-02,1.189908310770988464e-01,-1.927424073219299316e-01,7.387130856513977051e-01,6.295585632324218750e-01,7.496225237846374512e-01,-3.726576268672943115e-01,2.551875710487365723e-01,7.088786959648132324e-01,-4.154428839683532715e-02,5.642694234848022461e-01,-3.888424932956695557e-01,3.244740655645728111e-03,-5.976804345846176147e-02,-5.464693307876586914e-01,-2.714321613311767578e-01,-1.196497604250907898e-01,9.002749621868133545e-02,-6.457376480102539062e-02,6.191496849060058594e-01
-3.266609907150268555e-01,1.570373475551605225e-01,2.245153784751892090e-01,-3.711994886398315430e-01,7.534580826759338379e-01,5.142487883567810059e-01,6.735770702362060547e-01,-2.958974242210388184e-01,6.184387207031250000e-02,4.430939853191375732e-01,-1.982842087745666504e-01,5.497547388076782227e-01,-4.571701288223266602e-01,1.199041903018951416e-01,8.454306423664093018e-02,-6.378458738327026367e-01,-1.531338542699813843e-01,6.127071380615234375e-02,-1.117555201053619385e-01,-1.483845561742782593e-01,6.588683128356933594e-01
-4.690368175506591797e-01,1.577294319868087769e-01,2.415691167116165161e-01,-2.073252946138381958e-01,6.590305566787719727e-01,4.602444767951965332e-01,6.872431039810180664e-01,-3.109319508075714111e-01,1.766119599342346191e-01,4.858538210391998291e-01,-2.183589041233062744e-01,4.231445491313934326e-01,-6.232383251190185547e-01,1.438204497098922729e-01,7.390163838863372803e-02,-6.268821954727172852e-01,-2.225845158100128174e-01,1.179837584495544434e-01,-1.044164896011352539e-01,5.475522577762603760e-02,5.993627309799194336e-01
-6.917086243629455566e-01,2.489439398050308228e-01,1.182876303791999817e-01,-3.219658732414245605e-01,8.041386604309082031e-01,3.612087965011596680e-01,6.661013960838317871e-01,-2.797040939331054688e-01,-2.039364911615848541e-02,2.495300322771072388e-01,-2.728252112865447998e-01,5.224494338035583496e-01,-5.058816075325012207e-01,-3.685932233929634094e-02,3.758358361665159464e-04,-5.474379658699035645e-01,-2.630520164966583252e-01,1.230032593011856079e-01,2.936501801013946533e-01,-3.771120682358741760e-02,5.765877962112426758e-01
-6.286143660545349121e-01,2.399436980485916138e-01,-5.429375544190406799e-02,-4.135141074657440186e-01,8.715518712997436523e-01,1.063664034008979797e-01,5.735569596290588379e-01,-2.076950818300247192e-01,9.691601991653442383e-02,4.202739000320434570e-01,-4.282763600349426270e-01,5.419632196426391602e-01,-4.753212332725524902e-01,-8.005497604608535767e-02,2.540792524814605713e-02,-6.945483088493347168e-01,-6.155887618660926819e-02,4.182567000389099121e-01,2.371802777051925659e-01,-2.351766377687454224e-01,2.491125613451004028e-01
-5.074627995491027832e-01,2.807402312755584717e-01,3.701409995555877686e-01,-5.048882365226745605e-01,8.765292763710021973e-01,3.585967049002647400e-02,3.885211050510406494e-01,-3.669399917125701904e-01,7.881857454776763916e-02,3.341862857341766357e-01,-4.724629819393157959e-01,4.370615184307098389e-01,-5.179954171180725098e-01,-7.989596575498580933e-02,-7.383608072996139526e-02,-5.864161252975463867e-01,-2.740440070629119873e-01,4.724987447261810303e-01,3.223190903663635254e-01,-1.659800112247467041e-01,3.017232120037078857e-01
-4.902381002902984619e-01,2.453111857175827026e-01,1.365664303302764893e-01,-1.897356212139129639e-01,1.014119505882263184e+00,8.831886202096939087e-02,1.348283439874649048e-01,-2.896553874015808105e-01,3.906301409006118774e-02,3.746303021907806396e-01,-3.789862096309661865e-01,6.108931303024291992e-01,-4.283261895179748535e-01,-2.087591439485549927e-01,-1.756367236375808716e-01,-3.589615523815155029e-01,-1.525123864412307739e-01,4.277485013008117676e-01,6.052964925765991211e-01,-2.487652301788330078e-01,1.759834885597229004e-01
-7.026824951171875000e-01,2.095370143651962280e-01,9.201719611883163452e-02,-4.734539389610290527e-01,9.036722779273986816e-01,7.276329398155212402e-02,9.646894782781600952e-02,-3.580482304096221924e-01,1.746868714690208435e-02,5.129345059394836426e-01,-4.797774851322174072e-01,4.986760914325714111e-01,-3.826104104518890381e-01,-9.592621773481369019e-02,-2.624284923076629639e-01,-4.127086699008941650e-01,-1.113396510481834412e-01,3.707856535911560059e-01,4.962319433689117432e-01,-3.350087255239486694e-02,-3.734515979886054993e-02
-3.434553146362304688e-01,3.001897931098937988e-01,-4.061871021986007690e-02,-6.501557230949401855e-01,8.882057666778564453e-01,-5.863213166594505310e-02,-1.079181358218193054e-01,-1.550520211458206177e-01,2.577567845582962036e-02,3.987812101840972900e-01,-3.609252274036407471e-01,2.700638771057128906e-01,-9.308423101902008057e-02,-1.106185987591743469e-01,-2.464145123958587646e-01,-3.735180497169494629e-01,1.578026264905929565e-01,3.362528383731842041e-01,7.800918817520141602e-01,-1.730925142765045166e-01,1.915213186293840408e-03
-2.663847804069519043e-01,5.151655077934265137e-01,-1.855382621288299561e-01,-5.213289856910705566e-01,5.965697765350341797e-01,-1.553975604474544525e-02,-2.254334092140197754e-01,-2.300768196582794189e-01,2.200306206941604614e-01,4.313330948352813721e-01,-4.448721408843994141e-01,3.801940679550170898e-01,-1.465368717908859253e-01,3.763625398278236389e-02,-4.011252820491790771e-01,-3.800346255302429199e-01,3.124768612906336784e-03,4.993583858013153076e-01,7.528753280639648438e-01,9.830012917518615723e-02,3.226324333809316158e-04
-2.392060905694961548e-01,3.559549152851104736e-01,-1.162272989749908447e-01,-4.387700855731964111e-01,6.645271182060241699e-01,-3.075926899909973145e-01,-1.150153204798698425e-01,-3.018684387207031250e-01,-2.783945016562938690e-02,3.874412775039672852e-01,-2.952016890048980713e-01,1.959360241889953613e-01,-1.770857721567153931e-01,1.339675635099411011e-01,-4.254285097122192383e-01,-4.949609935283660889e-01,-3.150805234909057617e-01,1.411269307136535645e-01,7.670385837554931641e-01,1.156983748078346252e-01,9.882815927267074585e-02
1.008144952356815338e-02,3.632807135581970215e-01,-1.001450270414352417e-01,-2.418638169765472412e-01,6.236966252326965332e-01,-1.457713991403579712e-01,-2.405031174421310425e-01,-6.323923915624618530e-02,-1.541893277317285538e-02,5.574684143066406250e-01,-3.345273137092590332e-01,1.077317520976066589e-01,-1.039332821965217590e-01,1.406654417514801025e-01,-3.519636690616607666e-01,-2.879632115364074707e-01,-1.120285913348197937e-01,1.285001337528228760e-01,7.806258797645568848e-01,1.193606927990913391e-01,1.696658581495285034e-01
-3.733008354902267456e-02,4.285133779048919678e-01,-3.406695425510406494e-01,-1.270314007997512817e-01,4.295150637626647949e-01,-1.607314646244049072e-01,-1.972139328718185425e-01,-1.777091175317764282e-01,-2.979708015918731689e-01,5.479676723480224609e-01,-4.618916511535644531e-01,5.278190970420837402e-02,-1.286827474832534790e-01,1.170681193470954895e-01,-3.232823014259338379e-01,-2.990487813949584961e-01,-1.893735378980636597e-01,2.759965509176254272e-02,7.475657463073730469e-01,1.801818758249282837e-01,4.422219395637512207e-01
1.839707642793655396e-01,5.925861597061157227e-01,-3.220632374286651611e-01,-5.644647032022476196e-02,3.897090852260589600e-01,-2.485133409500122070e-01,-3.252386301755905151e-02,-1.190113485790789127e-03,-1.117481514811515808e-01,4.856666624546051025e-01,-2.648550570011138916e-01,-7.239656150341033936e-02,2.359533607959747314e-01,1.637269705533981323e-01,-5.362351536750793457e-01,-3.523057699203491211e-01,-3.188613653182983398e-01,1.638882756233215332e-01,5.976686477661132812e-01,1.721928268671035767e-01,8.694853633642196655e-02
1.214883103966712952e-01,4.853576123714447021e-01,-4.419712722301483154e-01,1.575589179992675781e-01,3.688953351229429245e-03,-3.355535268783569336e-01,-2.063382789492607117e-02,-1.815113425254821777e-01,-4.606861770153045654e-01,5.694261193275451660e-01,-3.043541312217712402e-01,-3.819802403450012207e-01,3.415383771061897278e-02,3.071867227554321289e-01,-4.929225146770477295e-01,-2.285087555646896362e-01,-2.595400512218475342e-01,1.874279230833053589e-01,7.313038706779479980e-01,6.035968661308288574e-02,3.314954340457916260e-01
3.365386724472045898e-01,6.325812935829162598e-01,-3.806235790252685547e-01,3.345670998096466064e-01,1.631409674882888794e-01,-3.945702016353607178e-01,1.633275449275970459e-01,-2.077543288469314575e-01,-3.134461641311645508e-01,4.147487282752990723e-01,-3.217858076095581055e-01,-1.894181966781616211e-01,-1.003180742263793945e-01,2.795574367046356201e-01,-8.658102899789810181e-02,-2.035472840070724487e-01,-2.051347792148590088e-01,6.218748167157173157e-02,8.380089998245239258e-01,1.596730053424835205e-01,3.460999429225921631e-01
3.641929030418395996e-01,7.975918054580688477e-01,-4.135251045227050781e-01,2.352451980113983154e-01,8.304893225431442261e-02,-5.025206208229064941e-01,-7.780686020851135254e-02,1.029366776347160339e-01,-2.419943362474441528e-01,4.693624377250671387e-01,-4.938341379165649414e-01,-9.187535196542739868e-02,7.841979712247848511e-02,3.297100067138671875e-01,-5.692258477210998535e-02,-1.971513628959655762e-01,-3.732453286647796631e-01,1.403084248304367065e-01,5.323789715766906738e-01,-1.212453842163085938e-01,4.044284224510192871e-01
2.188277095556259155e-01,9.597372412681579590e-01,-5.452379584312438965e-01,4.423749148845672607e-01,2.361465096473693848e-01,-3.669723570346832275e-01,6.074518710374832153e-02,-9.947389364242553711e-02,-5.653279423713684082e-01,5.802120566368103027e-01,-2.231286019086837769e-01,-1.173334047198295593e-01,-5.261207744479179382e-02,1.409584432840347290e-01,1.352356821298599243e-01,1.520031988620758057e-01,-2.847009599208831787e-01,-1.588120311498641968e-02,5.879229307174682617e-01,-1.194503530859947205e-01,4.572925567626953125e-01
4.939490258693695068e-01,8.364123702049255371e-01,-5.729924440383911133e-01,5.971650481224060059e-01,9.476285427808761597e-02,-4.408558905124664307e-01,-1.313528567552566528e-01,-2.360230386257171631e-01,-5.915775299072265625e-01,3.878017663955688477e-01,-2.179177999496459961e-01,-3.020756244659423828e-01,-1.194376125931739807e-01,-4.756952694151550531e-04,1.149954721331596375e-01,3.529544770717620850e-01,-2.183856517076492310e-01,-1.970881968736648560e-01,4.373250603675842285e-01,6.749289482831954956e-02,8.086357712745666504e-01
4.080980718135833740e-01,8.687365055084228516e-01,-6.953878402709960938e-01,3.866789937019348145e-01,-1.422752439975738525e-01,-4.231985807418823242e-01,-3.501056134700775146e-02,-2.458644360303878784e-01,-5.772688388824462891e-01,2.996590435504913330e-01,-1.411349028348922729e-01,-4.914034157991409302e-02,-5.709777474403381348e-01,9.636439383029937744e-02,1.698608547449111938e-01,2.004529386758804321e-01,-2.295478880405426025e-01,-1.509854495525360107e-01,4.284177124500274658e-01,-3.565760254859924316e-01,3.184860348701477051e-01
4.338705539703369141e-01,9.127421975135803223e-01,-6.937278509140014648e-01,5.224400162696838379e-01,-4.880505427718162537e-02,-2.264421284198760986e-01,-9.196434170007705688e-02,-4.550328850746154785e-01,-5.518774986267089844e-01,2.307405173778533936e-01,2.867576107382774353e-02,-1.562946289777755737e-01,-5.364468097686767578e-01,-1.650211513042449951e-01,5.089862346649169922e-01,1.167559325695037842e-01,-4.797119796276092529e-01,-5.908853933215141296e-02,5.404070019721984863e-01,-3.407890796661376953e-01,2.936256527900695801e-01
4.937735795974731445e-01,1.040945768356323242e+00,-9.944043755531311035e-01,3.247595131397247314e-01,2.865321934223175049e-01,-3.760917857289314270e-02,-5.756302177906036377e-02,-5.625594854354858398e-01,-4.715598821640014648e-01,3.118624389171600342e-01,-3.810175135731697083e-02,1.379287093877792358e-01,-6.553966403007507324e-01,-1.234649866819381714e-01,1.704883873462677002e-01,1.557437181472778320e-01,-4.145187139511108398e-01,-1.403679549694061279e-01,3.594623506069183350e-01,-3.199260830879211426e-01,2.426052987575531006e-01
4.653948247432708740e-01,7.114636301994323730e-01,-8.309581875801086426e-01,2.245581597089767456e-01,2.730635404586791992e-01,-1.298233717679977417e-01,-8.952012658119201660e-02,-5.821529626846313477e-01,-6.746837496757507324e-01,-4.525594413280487061e-02,1.768371313810348511e-01,-1.419510990381240845e-01,-6.871968507766723633e-01,-3.719067573547363281e-01,3.858428895473480225e-01,3.225801289081573486e-01,-6.644452810287475586e-01,-2.537990510463714600e-01,3.886294960975646973e-01,-5.909076333045959473e-01,2.021456211805343628e-01
7.384128570556640625e-01,6.286373138427734375e-01,-7.439637184143066406e-01,2.508109211921691895e-01,1.971431225538253784e-01,-1.738283187150955200e-01,-4.849722608923912048e-02,-5.701979398727416992e-01,-4.358913302421569824e-01,-4.919693991541862488e-02,2.958512306213378906e-01,5.603154748678207397e-02,-5.673688650131225586e-01,-5.036940574645996094e-01,4.519530832767486572e-01,-1.791319577023386955e-03,-7.125731110572814941e-01,-3.372905552387237549e-01,3.618804812431335449e-01,-4.700648486614227295e-01,1.430951058864593506e-01
5.103136301040649414e-01,6.888015866279602051e-01,-1.008011817932128906e+00,1.893907487392425537e-01,1.685092002153396606e-01,-2.659138143062591553e-01,-1.047345921397209167e-01,-5.793762207031250000e-01,-3.955827951431274414e-01,-2.200875878334045410e-01,3.265334069728851318e-01,1.940310150384902954e-01,-5.309383869171142578e-01,-4.178796112537384033e-01,6.748337149620056152e-01,8.805078268051147461e-02,-6.403203010559082031e-01,-3.630202412605285645e-01,3.017901480197906494e-01,-6.289962530136108398e-01,9.757225960493087769e-02
5.880281925201416016e-01,5.666665434837341309e-01,-8.820919990539550781e-01,2.410102784633636475e-01,1.737684607505798340e-01,1.430207788944244385e-01,1.578232944011688232e-01,-3.599219322204589844e-01,-3.551856577396392822e-01,-1.704383194446563721e-01,1.580590754747390747e-01,1.756718009710311890e-01,-6.828457117080688477e-01,-4.932897388935089111e-01,5.759515762329101562e-01,-8.317990601062774658e-02,-6.764491796493530273e-01,-4.771407842636108398e-01,1.071235835552215576e-01,-7.306182980537414551e-01,2.991502918303012848e-02
5.003550648689270020e-01,3.537250757217407227e-01,-9.358955025672912598e-01,6.907651573419570923e-02,2.344634383916854858e-01,-3.511145338416099548e-02,-1.016110777854919434e-01,-3.451245129108428955e-01,-3.231155276298522949e-01,-4.716589152812957764e-01,5.038483738899230957e-01,9.803785383701324463e-02,-3.971414268016815186e-01,-6.061136722564697266e-01,3.395791947841644287e-01,-2.432571351528167725e-01,-9.330081343650817871e-01,-1.817484050989151001e-01,4.641745239496231079e-02,-4.681064486503601074e-01,3.299971297383308411e-02
5.849962234497070312e-01,2.219775766134262085e-01,-5.032025575637817383e-01,1.858413070440292358e-01,3.851276934146881104e-01,-4.720770567655563354e-02,-5.416560918092727661e-02,-1.993055790662765503e-01,-1.346805989742279053e-01,-3.969509601593017578e-01,2.935076951980590820e-01,9.896238893270492554e-02,-3.284258544445037842e-01,-4.633512496948242188e-01,4.488758146762847900e-01,-2.317734062671661377e-01,-1.016634583473205566e+00,-1.717428863048553467e-01,-1.362948566675186157e-01,-3.432016670703887939e-01,-1.106832697987556458e-01
6.096234321594238281e-01,-2.546176314353942871e-02,-6.834749579429626465e-01,1.007554829120635986e-01,3.422580659389495850e-01,-1.702663898468017578e-01,1.416932698339223862e-02,-1.693555861711502075e-01,-1.049587316811084747e-02,-3.443005681037902832e-01,1.533770412206649780e-01,-7.316540181636810303e-02,-2.785468995571136475e-01,-5.125713348388671875e-01,4.234505891799926758e-01,-2.754849195480346680e-01,-8.628927469253540039e-01,-3.354997932910919189e-01,-1.880708485841751099e-01,-2.960730791091918945e-01,-2.191948294639587402e-01
4.578757286071777344e-01,1.177433803677558899e-01,-5.306510329246520996e-01,2.770529091358184814e-01,3.685474395751953125e-01,-3.374053910374641418e-02,-1.944748610258102417e-01,-1.324441432952880859e-01,-4.938161000609397888e-02,-4.198428690433502197e-01,-4.935686942189931870e-03,-8.363112807273864746e-02,-2.782471179962158203e-01,-7.170245647430419922e-01,6.014631986618041992e-01,-7.502815127372741699e-02,-8.038958311080932617e-01,-7.614788413047790527e-02,4.428213462233543396e-03,-5.308994650840759277e-01,-2.746048569679260254e-01
3.991021811962127686e-01,2.923854812979698181e-02,-4.805099666118621826e-01,-7.879572361707687378e-02,2.119561135768890381e-01,-3.152201771736145020e-01,-1.999771744012832642e-01,9.687371551990509033e-02,5.080520175397396088e-03,-3.681922554969787598e-01,8.506466448307037354e-02,1.417274307459592819e-02,-1.668934822082519531e-01,-7.547689080238342285e-01,4.695112109184265137e-01,-1.903067976236343384e-01,-7.727901339530944824e-01,-3.170859813690185547e-02,-3.994513675570487976e-02,-3.175061643123626709e-01,-4.034264981746673584e-01
2.607598900794982910e-01,-1.196644753217697144e-01,-3.597944676876068115e-01,2.317508757114410400e-01,1.101548448204994202e-01,-3.673655986785888672e-01,-1.328960806131362915e-01,6.859712302684783936e-02,2.550566792488098145e-01,-3.720669746398925781e-01,7.385739684104919434e-02,-7.455074787139892578e-02,5.793369561433792114e-02,-5.223690271377563477e-01,3.919726908206939697e-01,-6.650698184967041016e-02,-7.877377271652221680e-01,1.149071529507637024e-01,-1.233559325337409973e-01,-2.080553472042083740e-01,-6.262400150299072266e-01
3.067283630371093750e-01,3.455224260687828064e-02,-3.071985840797424316e-01,3.147599846124649048e-02,2.601700127124786377e-01,-4.966359138488769531e-01,-4.425081610679626465e-01,2.418874800205230713e-01,-5.040592700242996216e-02,-3.736352622509002686e-01,-1.676488518714904785e-01,-2.704797685146331787e-01,6.155584752559661865e-02,-6.188040375709533691e-01,3.318926990032196045e-01,-4.724097996950149536e-02,-4.884507656097412109e-01,1.136900559067726135e-01,1.765111535787582397e-01,-1.337286680936813354e-01,-5.943834781646728516e-01
2.549932599067687988e-01,-4.192290827631950378e-02,-4.396716952323913574e-01,1.207589432597160339e-01,2.114509940147399902e-01,-5.467160940170288086e-01,-2.711417376995086670e-01,3.786085247993469238e-01,-4.564268887042999268e-02,-2.913801670074462891e-01,-3.318839073181152344e-01,-1.484347581863403320e-01,-7.543905824422836304e-02,-7.928083539009094238e-01,5.636742115020751953e-01,-1.500245369970798492e-02,-4.295967221260070801e-01,-5.993205588310956955e-03,1.832376867532730103e-01,-1.913435459136962891e-01,-6.667649745941162109e-01
1.622693985700607300e-01,-3.256275504827499390e-02,-4.761136174201965332e-01,1.065687183290719986e-02,1.305641978979110718e-01,-7.249026894569396973e-01,-3.471278548240661621e-01,2.096561491489410400e-01,-4.396575987339019775e-01,-2.457128316164016724e-01,-2.223814725875854492e-01,-1.597586274147033691e-01,-4.142030328512191772e-02,-6.641526818275451660e-01,4.416517913341522217e-01,1.908407062292098999e-01,-2.711497545242309570e-01,-1.490433067083358765e-01,2.072095125913619995e-01,-2.736412286758422852e-01,-7.484980821609497070e-01
4.779459536075592041e-01,-3.059759736061096191e-01,-4.021722376346588135e-01,9.502755105495452881e-02,2.752893269062042236e-01,-6.459735035896301270e-01,-3.418814241886138916e-01,3.348276317119598389e-01,-4.978282153606414795e-01,-1.570367962121963501e-01,-2.637333869934082031e-01,1.728344336152076721e-02,7.774752378463745117e-02,-5.729538202285766602e-01,7.219989895820617676e-01,2.241156101226806641e-01,-4.028061032295227051e-01,-1.020415574312210083e-01,1.362128406763076782e-01,-2.392257452011108398e-01,-9.226334095001220703e-01
6.312482953071594238e-01,9.755943319760262966e-04,-7.311679720878601074e-01,9.543238580226898193e-02,3.245524764060974121e-01,-5.882987976074218750e-01,-3.823538422584533691e-01,4.036990404129028320e-01,-4.203175902366638184e-01,-3.438046574592590332e-01,-1.832100003957748413e-01,-3.532074391841888428e-01,9.747608006000518799e-02,-4.255220890045166016e-01,3.320834040641784668e-01,2.880347967147827148e-01,-2.538758516311645508e-01,-1.031378060579299927e-01,3.379535973072052002e-01,-2.102425396442413330e-01,-8.668050169944763184e-01
6.718167066574096680e-01,4.529643431305885315e-02,-6.335545182228088379e-01,2.379781901836395264e-01,2.195898443460464478e-01,-6.038697361946105957e-01,-3.897803127765655518e-01,3.249301016330718994e-01,-6.441694498062133789e-01,-2.338816225528717041e-01,-2.245223373174667358e-01,-2.620626389980316162e-01,2.758460640907287598e-01,-5.030264854431152344e-01,3.402502834796905518e-01,2.653146684169769287e-01,8.475214242935180664e-03,-2.878040075302124023e-01,2.344005256891250610e-01,-2.579735815525054932e-01,-8.458169698715209961e-01
6.361794471740722656e-01,-1.803060621023178101e-01,-8.851991891860961914e-01,1.369682848453521729e-01,1.021894663572311401e-01,-6.311303377151489258e-01,-2.545713186264038086e-01,4.404068291187286377e-01,-6.280191540718078613e-01,-7.368411123752593994e-02,-2.625507712364196777e-01,-3.628287315368652344e-01,3.052654564380645752e-01,-2.537773549556732178e-01,3.767713606357574463e-01,2.301580607891082764e-01,-1.508900970220565796e-01,-4.428457021713256836e-01,8.144965022802352905e-02,-3.153924047946929932e-01,-6.958198547363281250e-01
7.197542190551757812e-01,-2.833909541368484497e-02,-6.344825029373168945e-01,2.621560692787170410e-01,-9.923264384269714355e-02,-7.971433997154235840e-01,-1.853943914175033569e-01,3.967185020446777344e-01,-6.292178630828857422e-01,-1.459203660488128662e-01,-3.204066157341003418e-01,-3.833534419536590576e-01,2.495478391647338867e-01,-1.753122061491012573e-01,3.343950510025024414e-01,5.200030207633972168e-01,-2.351494729518890381e-01,-4.873982369899749756e-01,-1.106716319918632507e-01,-1.956288963556289673e-01,-6.461056470870971680e-01
8.229691982269287109e-01,8.425435423851013184e-02,-5.646030306816101074e-01,3.627184927463531494e-01,-2.282696962356567383e-01,-5.204872488975524902e-01,-1.401511430740356445e-01,3.621446490287780762e-01,-7.742044329643249512e-01,1.617644913494586945e-02,-2.533581852912902832e-01,-5.516071915626525879e-01,2.591969072818756104e-01,9.087736904621124268e-02,2.790968120098114014e-01,3.102227747440338135e-01,-1.597872525453567505e-01,-5.578896403312683105e-01,-2.124387174844741821e-01,-3.401692211627960205e-01,-5.434197783470153809e-01
7.549248337745666504e-01,-4.739704728126525879e-02,-7.360648512840270996e-01,5.778861045837402344e-01,-2.350065559148788452e-01,-5.171133875846862793e-01,-7.820085622370243073e-03,3.902546763420104980e-01,-8.625353574752807617e-01,-2.042045630514621735e-02,-2.156998366117477417e-01,-4.715413749217987061e-01,1.559873223304748535e-01,7.509448379278182983e-02,4.052323400974273682e-01,4.469105005264282227e-01,2.134154783561825752e-03,-6.466712951660156250e-01,-1.692203730344772339e-01,-3.884159326553344727e-01,-4.612050950527191162e-01
6.986415982246398926e-01,-8.667036145925521851e-02,-6.521186828613281250e-01,4.701022803783416748e-01,-2.821320593357086182e-01,-6.623313426971435547e-01,3.123753964900970459e-01,2.564075887203216553e-01,-7.496455311775207520e-01,4.933356493711471558e-02,-3.352807760238647461e-01,-6.811416745185852051e-01,1.242732033133506775e-01,2.211516723036766052e-02,5.586925745010375977e-01,5.700448751449584961e-01,-2.345976792275905609e-02,-6.400675773620605469e-01,-3.152062594890594482e-01,-3.446674942970275879e-01,-5.302656292915344238e-01
9.631571173667907715e-01,-3.487337147817015648e-03,-4.280265271663665771e-01,7.263491153717041016e-01,-2.556785047054290771e-01,-5.439597368240356445e-01,4.242405295372009277e-01,5.808936357498168945e-01,-6.274321079254150391e-01,-1.988911777734756470e-01,-2.737402021884918213e-01,-6.450408101081848145e-01,3.227596879005432129e-01,-1.536631304770708084e-02,5.008952021598815918e-01,2.807162106037139893e-01,2.958136796951293945e-02,-7.308775782585144043e-01,-5.623674392700195312e-01,-4.933362305164337158e-01,-2.351241856813430786e-01
7.135921120643615723e-01,2.476975554600358009e-03,-5.585688352584838867e-01,6.779975295066833496e-01,-4.067802727222442627e-01,-2.127803862094879150e-01,5.492199659347534180e-01,6.033830046653747559e-01,-7.019121050834655762e-01,-4.196538403630256653e-02,-3.926062583923339844e-01,-6.084394454956054688e-01,2.222950607538223267e-01,-4.478668421506881714e-02,7.461751699447631836e-01,4.651228189468383789e-01,8.064062893390655518e-02,-6.763687133789062500e-01,-6.792368888854980469e-01,-7.101278901100158691e-01,-3.723625540733337402e-01
5.718668103218078613e-01,6.183882802724838257e-02,-6.577162742614746094e-01,6.441055536270141602e-01,-2.574464678764343262e-01,-6.090509295463562012e-01,5.322063565254211426e-01,4.385571181774139404e-01,-8.510693907737731934e-01,3.003015927970409393e-02,-3.543825149536132812e-01,-5.398797988891601562e-01,-1.663139611482620239e-01,-3.397405147552490234e-02,7.387379407882690430e-01,4.706022739410400391e-01,-7.375522702932357788e-02,-6.077796220779418945e-01,-7.900297641754150391e-01,-5.901758074760437012e-01,-2.346336692571640015e-01
5.758184790611267090e-01,1.803131550550460815e-01,-3.930349051952362061e-01,6.745896339416503906e-01,-2.404961884021759033e-01,-5.170069932937622070e-01,4.256870150566101074e-01,2.200191020965576172e-01,-7.392268180847167969e-01,5.461079999804496765e-02,-3.067724108695983887e-01,-4.087064564228057861e-01,-5.317287985235452652e-03,-9.781949222087860107e-02,6.167653799057006836e-01,3.960648775100708008e-01,-1.194317638874053955e-02,-4.562507867813110352e-01,-7.560129761695861816e-01,-7.346519231796264648e-01,-2.023842781782150269e-01
6.757695674896240234e-01,1.932965219020843506e-01,-3.769133090972900391e-01,6.792745590209960938e-01,1.960648782551288605e-02,-5.493968129158020020e-01,5.274175405502319336e-01,1.490623056888580322e-01,-7.082803249359130859e-01,-1.199454739689826965e-01,-2.839757800102233887e-01,-4.141696691513061523e-01,-1.164403408765792847e-01,-3.188221156597137451e-01,7.642461061477661133e-01,2.972545623779296875e-01,-1.358039528131484985e-01,-5.818775892257690430e-01,-8.424916863441467285e-01,-8.538374900817871094e-01,-3.459474742412567139e-01
4.553787112236022949e-01,-8.982064574956893921e-02,-3.766398429870605469e-01,4.485307931900024414e-01,1.191510632634162903e-01,-4.565886259078979492e-01,7.838923931121826172e-01,5.531504005193710327e-02,-6.694776415824890137e-01,7.071068510413169861e-03,-4.374570846557617188e-01,-4.807932078838348389e-01,-1.406779587268829346e-01,-3.265959024429321289e-01,7.503603100776672363e-01,5.368126630783081055e-01,-7.259743660688400269e-02,-4.173097312450408936e-01,-7.874288558959960938e-01,-8.516824245452880859e-01,-1.637299060821533203e-01
4.135692417621612549e-01,1.838854998350143433e-01,-1.490814387798309326e-01,4.307331144809722900e-01,-3.469466790556907654e-02,-4.410395324230194092e-01,4.583241939544677734e-01,-1.072893142700195312e-01,-6.949627399444580078e-01,-2.987553477287292480e-01,-1.776404678821563721e-01,-3.725280761718750000e-01,-3.875533342361450195e-01,-5.165041685104370117e-01,6.325927376747131348e-01,3.116597235202789307e-01,8.295419067144393921e-02,-5.403017401695251465e-01,-7.217081785202026367e-01,-1.059375643730163574e+00,-3.931155502796173096e-01
6.029492616653442383e-01,6.448614876717329025e-03,-2.685552537441253662e-01,2.301635593175888062e-01,2.152143120765686035e-01,-8.283377438783645630e-02,5.521922707557678223e-01,-1.535839028656482697e-02,-7.955940365791320801e-01,-1.729722172021865845e-01,-4.571412503719329834e-01,-1.207579076290130615e-01,-4.564503133296966553e-01,-1.749385744333267212e-01,6.554368138313293457e-01,2.655970752239227295e-01,6.773582845926284790e-02,-5.327855348587036133e-01,-6.828979253768920898e-01,-1.006985068321228027e+00,-2.501023709774017334e-01
4.169227778911590576e-01,-1.295083910226821899e-01,-3.216961324214935303e-01,1.662864983081817627e-01,2.533500790596008301e-01,-3.534471094608306885e-01,4.502922892570495605e-01,-1.253833472728729248e-01,-9.718189239501953125e-01,-1.314615011215209961e-01,-4.368953108787536621e-01,-4.118002951145172119e-01,-1.276776045560836792e-01,-2.400677651166915894e-01,4.215244054794311523e-01,2.290955632925033569e-01,1.181201785802841187e-01,-4.890701472759246826e-01,-8.056946396827697754e-01,-9.551415443420410156e-01,-3.151313662528991699e-01
4.762869477272033691e-01,-1.594634652137756348e-01,-8.504926413297653198e-02,2.956311702728271484e-01,1.161880940198898315e-01,-3.708122074604034424e-01,6.407371163368225098e-01,-1.235416457056999207e-01,-7.285369634628295898e-01,-2.120501697063446045e-01,-4.963679313659667969e-01,-2.621843218803405762e-01,-2.091434895992279053e-01,-2.396638691425323486e-01,3.109031915664672852e-01,9.778599441051483154e-02,-9.109563380479812622e-02,-3.783556818962097168e-01,-5.892588496208190918e-01,-9.681493043899536133e-01,-3.183787763118743896e-01
2.574115097522735596e-01,-2.957619726657867432e-01,-9.533026069402694702e-02,3.219566345214843750e-01,2.351772189140319824e-01,-2.594088017940521240e-01,7.217451930046081543e-01,-1.744747757911682129e-01,-6.793712377548217773e-01,-4.746299982070922852e-02,-4.027044773101806641e-01,-1.948661208152770996e-01,4.139001015573740005e-03,-1.924387663602828979e-01,4.519012570381164551e-02,-1.152860559523105621e-02,-5.455639585852622986e-02,-4.395282268524169922e-01,-7.171779274940490723e-01,-1.017289280891418457e+00,-4.383242726325988770e-01
3.330498933792114258e-01,-2.497317790985107422e-01,3.885568380355834961e-01,1.046544238924980164e-01,1.367411464452743530e-01,-5.013777613639831543e-01,5.331737399101257324e-01,-1.951644383370876312e-02,-4.776090383529663086e-01,2.807959215715527534e-03,-5.615268349647521973e-01,-1.253593564033508301e-01,-6.271028518676757812e-02,-1.087806448340415955e-01,6.059718504548072815e-02,-2.341485321521759033e-01,-1.605716496706008911e-01,-4.663450121879577637e-01,-6.386992931365966797e-01,-9.292298555374145508e-01,-5.084234476089477539e-01
2.682680487632751465e-01,-3.912568390369415283e-01,2.117412686347961426e-01,2.296062111854553223e-01,1.153523251414299011e-01,-3.391673266887664795e-01,6.978887915611267090e-01,4.379267245531082153e-02,-3.180215954780578613e-01,-1.066941693425178528e-01,-6.425179839134216309e-01,-3.276662230491638184e-01,1.291307359933853149e-01,1.115068197250366211e-01,-4.226598888635635376e-02,-3.684136867523193359e-01,-1.462545096874237061e-01,-1.623762026429176331e-02,-5.897206068038940430e-01,-6.648065447807312012e-01,-4.738289415836334229e-01
3.663536906242370605e-02,-2.654730379581451416e-01,3.812610805034637451e-01,-3.668396966531872749e-04,2.544972859323024750e-02,-4.078833460807800293e-01,6.061381101608276367e-01,1.186926662921905518e-01,-2.878258526325225830e-01,-6.659300532191991806e-03,-6.527840495109558105e-01,-6.677933335304260254e-01,1.006130129098892212e-01,1.832897067070007324e-01,-5.823447555303573608e-02,-3.618358075618743896e-01,9.118205308914184570e-02,4.093372821807861328e-02,-6.169835925102233887e-01,-4.873136579990386963e-01,-3.394398987293243408e-01
3.073137700557708740e-01,-3.465552628040313721e-01,3.220613002777099609e-01,1.635369956493377686e-01,-2.078728750348091125e-02,-3.573538362979888916e-01,4.090376794338226318e-01,6.305913627147674561e-02,-4.174441397190093994e-01,1.659542173147201538e-01,-7.988111376762390137e-01,-5.248349308967590332e-01,1.938743740320205688e-01,1.167543381452560425e-01,-5.171236395835876465e-02,-3.756116032600402832e-01,1.168938204646110535e-01,2.265981286764144897e-01,-4.861088991165161133e-01,-5.219959616661071777e-01,-4.498488903045654297e-01
1.321523934602737427e-01,-2.908332049846649170e-01,2.970496118068695068e-01,-6.062946841120719910e-02,7.243464142084121704e-02,-4.048977196216583252e-01,6.897341012954711914e-01,1.519639790058135986e-01,-3.346486985683441162e-01,1.090074703097343445e-01,-9.231652021408081055e-01,-5.802769064903259277e-01,-7.815682888031005859e-02,1.357156783342361450e-01,-2.701247930526733398e-01,-2.219297140836715698e-01,-6.216829642653465271e-02,2.407940179109573364e-01,-3.917983472347259521e-01,-2.826259434223175049e-01,-1.104106754064559937e-01
-1.886687576770782471e-01,-3.211702108383178711e-01,5.888029336929321289e-01,2.857635915279388428e-01,-1.324694454669952393e-01,-5.002094507217407227e-01,3.079712986946105957e-01,4.038640111684799194e-02,-4.566490948200225830e-01,3.010146021842956543e-01,-1.170069694519042969e+00,-4.489572644233703613e-01,2.261463403701782227e-01,1.237594038248062134e-01,-2.847598493099212646e-01,-2.825314402580261230e-01,2.522017657756805420e-01,2.721293270587921143e-01,-5.419406294822692871e-01,-2.258208543062210083e-01,-1.948718726634979248e-01
2.798579633235931396e-02,-2.974093705415725708e-02,3.051993250846862793e-01,3.309320211410522461e-01,2.890866308007389307e-04,-6.234022378921508789e-01,6.487293243408203125e-01,8.408818393945693970e-02,-3.894455134868621826e-01,5.024300813674926758e-01,-1.287774205207824707e+00,-5.266294479370117188e-01,-1.593721657991409302e-02,3.640080392360687256e-01,-3.455420434474945068e-01,-3.363979756832122803e-01,3.831228613853454590e-01,4.101284742355346680e-01,-3.467642068862915039e-01,-3.348133862018585205e-01,-3.469187915325164795e-01
2.834452688694000244e-01,6.462358683347702026e-02,2.669272124767303467e-01,5.219406262040138245e-02,-6.766916066408157349e-02,-6.640465259552001953e-01,4.125862419605255127e-01,7.894195616245269775e-02,-3.668712079524993896e-01,4.580261409282684326e-01,-1.146530628204345703e+00,-8.383584618568420410e-01,5.246634408831596375e-02,3.606491386890411377e-01,-3.714309036731719971e-01,-4.151724278926849365e-01,5.284356474876403809e-01,4.658400416374206543e-01,-1.982369273900985718e-01,-9.352380037307739258e-02,-1.272319108247756958e-01
1.945739239454269409e-01,2.757790386676788330e-01,3.559016287326812744e-01,1.984310597181320190e-01,-1.705602407455444336e-01,-7.919147610664367676e-01,4.919031560420989990e-01,1.588519848883152008e-02,-4.257033467292785645e-01,5.116581320762634277e-01,-9.928778409957885742e-01,-7.911736369132995605e-01,-8.810036629438400269e-02,3.050085306167602539e-01,-2.769358456134796143e-01,-2.882972955703735352e-01,5.377204418182373047e-01,3.634780347347259521e-01,-3.465076908469200134e-02,-1.352003812789916992e-01,-2.360194325447082520e-01
3.194149136543273926e-01,1.181831210851669312e-01,9.399887919425964355e-02,3.182135820388793945e-01,-1.886495947837829590e-01,-6.489068865776062012e-01,1.970223486423492432e-01,4.102438315749168396e-02,-6.186541318893432617e-01,6.291028857231140137e-01,-1.336886882781982422e+00,-8.562527894973754883e-01,-1.409524083137512207e-01,1.440387368202209473e-01,-3.215577304363250732e-01,-1.028047874569892883e-01,5.266567468643188477e-01,4.068534970283508301e-01,6.650117039680480957e-02,-1.193821653723716736e-01,-2.177895307540893555e-01
3.637368679046630859e-01,3.064160048961639404e-01,-1.253100931644439697e-01,1.650256216526031494e-01,-7.655785232782363892e-02,-5.253471732139587402e-01,4.365317225456237793e-01,-1.931800623424351215e-03,-5.724062323570251465e-01,7.245132923126220703e-01,-1.141270875930786133e+00,-6.351792216300964355e-01,-1.173943579196929932e-01,3.063421547412872314e-01,-1.797468364238739014e-01,1.059450954198837280e-01,6.398957371711730957e-01,2.789812386035919189e-01,-1.788873970508575439e-02,-2.380518764257431030e-01,-9.311434626579284668e-02
3.775848448276519775e-01,5.655738115310668945e-01,-5.776428803801536560e-02,3.278194367885589600e-01,-2.631978094577789307e-01,-4.614215791225433350e-01,3.639287352561950684e-01,-1.280368119478225708e-01,-5.065064430236816406e-01,6.382876634597778320e-01,-9.702425599098205566e-01,-8.953851461410522461e-01,-2.578568756580352783e-01,3.405469059944152832e-01,-2.768601477146148682e-01,-2.916888296604156494e-01,6.331354379653930664e-01,3.850803077220916748e-01,-3.194209933280944824e-02,-1.935360133647918701e-01,-4.450654983520507812e-02
5.277620553970336914e-01,5.402219295501708984e-01,-7.613833993673324585e-02,1.946340352296829224e-01,-2.279531657695770264e-01,-4.101182222366333008e-01,2.875129580497741699e-01,-4.152477085590362549e-01,-6.547629237174987793e-01,4.129264354705810547e-01,-8.632445931434631348e-01,-8.591048717498779297e-01,-2.440521717071533203e-01,4.878518581390380859e-01,-2.961732447147369385e-01,-4.639481753110885620e-02,7.525264024734497070e-01,2.277299612760543823e-01,-2.062212228775024414e-01,-2.670122981071472168e-01,-9.047649800777435303e-03
6.669660806655883789e-01,5.418846011161804199e-01,-7.708953320980072021e-02,2.022595405578613281e-01,-2.211306244134902954e-01,-3.502220213413238525e-01,5.986815690994262695e-01,-4.553438425064086914e-01,-6.366254091262817383e-01,6.986015439033508301e-01,-9.144883751869201660e-01,-8.831801414489746094e-01,-3.219000995159149170e-01,5.834474563598632812e-01,-4.462785124778747559e-01,1.679611578583717346e-02,6.434626579284667969e-01,1.280259639024734497e-01,-2.670702934265136719e-01,-4.587629809975624084e-02,2.663558423519134521e-01
5.615174770355224609e-01,5.065993666648864746e-01,-3.119177222251892090e-01,4.400382041931152344e-01,-3.582509458065032959e-01,-4.886778770014643669e-04,5.336805582046508789e-01,-2.533755600452423096e-01,-3.953845500946044922e-01,5.508393049240112305e-01,-7.849292755126953125e-01,-8.281747102737426758e-01,-4.413792490959167480e-01,5.659801959991455078e-01,-4.162390828132629395e-01,1.251040250062942505e-01,5.253615379333496094e-01,1.966304183006286621e-01,-2.340733557939529419e-01,-2.495547086000442505e-01,3.577455133199691772e-02
7.482342123985290527e-01,4.258066117763519287e-01,-1.771648228168487549e-01,4.685745239257812500e-01,-1.384373754262924194e-01,8.475775271654129028e-02,6.666848659515380859e-01,-6.104006171226501465e-01,-2.283578813076019287e-01,3.722942769527435303e-01,-4.802781641483306885e-01,-6.222499608993530273e-01,-4.848852455615997314e-01,6.043120026588439941e-01,-4.053017199039459229e-01,-1.144044995307922363e-01,4.640553593635559082e-01,2.012341767549514771e-01,-2.331752777099609375e-01,-6.296520680189132690e-02,3.775483369827270508e-01
4.902898669242858887e-01,4.164058864116668701e-01,-2.071604430675506592e-01,4.331119954586029053e-01,-3.887330293655395508e-01,9.759466350078582764e-02,8.002756237983703613e-01,-6.559756398200988770e-01,-1.752520352602005005e-01,2.398659586906433105e-01,-6.095516681671142578e-01,-6.374197006225585938e-01,-7.014122009277343750e-01,5.728920102119445801e-01,-3.258456587791442871e-01,-1.172198504209518433e-01,4.614621102809906006e-01,2.209135740995407104e-01,-5.502136945724487305e-01,3.240276128053665161e-02,3.287458717823028564e-01
4.606173932552337646e-01,4.243854582309722900e-01,-3.393306434154510498e-01,3.679422736167907715e-01,-3.158401846885681152e-01,2.127332538366317749e-01,8.032717704772949219e-01,-4.256232380867004395e-01,-9.094202518463134766e-02,2.361651957035064697e-01,-5.043047070503234863e-01,-7.794293761253356934e-01,-7.007817625999450684e-01,5.413153767585754395e-01,-2.092242985963821411e-01,-3.142016530036926270e-01,1.034121513366699219e-01,3.148184716701507568e-01,-5.638034343719482422e-01,4.801823571324348450e-02,4.103463292121887207e-01
3.691294789314270020e-01,5.222300291061401367e-01,-6.299412250518798828e-02,3.570489883422851562e-01,-1.252185851335525513e-01,3.864207863807678223e-01,1.153931498527526855e+00,-5.982692241668701172e-01,-1.358119491487741470e-02,3.783149123191833496e-01,-5.109532475471496582e-01,-5.613610148429870605e-01,-7.730358839035034180e-01,4.169046282768249512e-01,-2.596523053944110870e-02,-4.153662621974945068e-01,1.940281391143798828e-01,3.215532600879669189e-01,-5.880146622657775879e-01,1.535164378583431244e-02,4.386975169181823730e-01
3.105408549308776855e-01,5.097022056579589844e-01,-1.145660877227783203e-01,6.430572271347045898e-02,-1.437894403934478760e-01,2.934904396533966064e-01,9.325574636459350586e-01,-7.398464679718017578e-01,1.990264952182769775e-01,1.933003216981887817e-01,-4.927009046077728271e-01,-4.625191986560821533e-01,-6.971383690834045410e-01,5.105884075164794922e-01,-2.062523514032363892e-01,-2.842106819152832031e-01,1.716539263725280762e-01,1.884994357824325562e-01,-5.037270784378051758e-01,1.562957614660263062e-01,5.342686772346496582e-01
2.564410567283630371e-01,6.622081398963928223e-01,4.029775038361549377e-02,2.653026580810546875e-01,1.699694544076919556e-01,3.187680244445800781e-01,9.267737865447998047e-01,-3.324478268623352051e-01,7.557193934917449951e-02,1.970053613185882568e-01,-2.178793698549270630e-01,-2.245747894048690796e-01,-7.640274763107299805e-01,2.302153557538986206e-01,7.168035954236984253e-02,-2.521220445632934570e-01,2.164568454027175903e-01,5.169610381126403809e-01,-4.966698586940765381e-01,1.236910521984100342e-01,5.964646339416503906e-01
-1.071896255016326904e-01,6.515218615531921387e-01,-6.221188977360725403e-02,9.766051173210144043e-02,7.155916839838027954e-02,2.760007977485656738e-01,6.844703555107116699e-01,-6.851728558540344238e-01,9.481924027204513550e-02,1.019248366355895996e-01,-3.930293917655944824e-01,-2.214827835559844971e-01,-9.140996932983398438e-01,2.652122676372528076e-01,-3.402242958545684814e-01,-3.728315532207489014e-01,5.769601091742515564e-03,6.236610412597656250e-01,-4.352441430091857910e-01,2.436492219567298889e-02,3.263238668441772461e-01
3.824331611394882202e-02,4.952075481414794922e-01,-1.201679483056068420e-01,-1.213379651308059692e-01,6.183559074997901917e-02,2.434891164302825928e-01,7.033857703208923340e-01,-1.023940563201904297e+00,-5.351205915212631226e-02,-1.301312446594238281e-01,-5.563421845436096191e-01,-3.044461011886596680e-01,-9.270059466361999512e-01,1.009532436728477478e-01,-1.910083591938018799e-01,-2.508209645748138428e-01,2.172832340002059937e-01,6.189045310020446777e-01,-4.074411392211914062e-01,-3.021363541483879089e-02,3.018192648887634277e-01
-7.090302556753158569e-02,3.731152117252349854e-01,-1.608833819627761841e-01,-3.589196205139160156e-01,3.073651790618896484e-01,3.264283537864685059e-01,6.486711502075195312e-01,-8.413267731666564941e-01,4.370619356632232666e-01,5.036119371652603149e-02,-4.479945600032806396e-01,-3.109059762209653854e-03,-7.811233401298522949e-01,5.525134503841400146e-02,-2.125871181488037109e-01,-5.187460184097290039e-01,1.971954256296157837e-01,7.807211279869079590e-01,-1.773839592933654785e-01,5.372639745473861694e-02,1.288345158100128174e-01
-8.419901132583618164e-02,2.789392769336700439e-01,-3.300825506448745728e-02,-4.151534438133239746e-01,3.761655390262603760e-01,4.788800179958343506e-01,4.772972762584686279e-01,-7.052822113037109375e-01,3.397791981697082520e-01,-1.680453568696975708e-01,-1.050887107849121094e-01,1.398846358060836792e-01,-9.065099358558654785e-01,2.462611943483352661e-01,-2.343818247318267822e-01,-2.450172603130340576e-01,2.561797499656677246e-01,7.433665990829467773e-01,7.274381071329116821e-02,1.285984516143798828e-01,6.802821066230535507e-03
-3.680745363235473633e-01,3.210475742816925049e-01,-2.976489812135696411e-02,-3.163539469242095947e-01,5.557748079299926758e-01,3.505506515502929688e-01,3.006207346916198730e-01,-6.805321574211120605e-01,3.944935798645019531e-01,-8.968186378479003906e-02,-3.985506594181060791e-01,2.273615449666976929e-02,-8.685586452484130859e-01,2.502166330814361572e-01,-3.575139343738555908e-01,-2.698655724525451660e-01,1.556825339794158936e-01,7.702416181564331055e-01,-5.182226654142141342e-03,-3.003828786313533783e-02,-4.097496345639228821e-02
-1.331316083669662476e-01,4.700352624058723450e-02,-5.835198611021041870e-02,-5.085775256156921387e-01,4.087786972522735596e-01,4.762608408927917480e-01,2.331376522779464722e-01,-8.177430033683776855e-01,3.902219533920288086e-01,-4.372226074337959290e-02,-1.668688654899597168e-01,2.247930765151977539e-01,-7.967150807380676270e-01,1.974990963935852051e-02,-5.029603242874145508e-01,-2.644929289817810059e-01,2.296730726957321167e-01,8.680248260498046875e-01,-9.625162929296493530e-02,2.028471380472183228e-01,-1.496563255786895752e-01
-2.126748710870742798e-01,-1.116512715816497803e-01,-3.661645203828811646e-02,-2.490042150020599365e-01,4.768499433994293213e-01,3.847718238830566406e-01,3.569549918174743652e-01,-5.571636557579040527e-01,4.527688026428222656e-01,-1.962561458349227905e-01,-1.338126361370086670e-01,2.643105983734130859e-01,-6.471317410469055176e-01,1.065524891018867493e-01,-6.149634718894958496e-01,-2.215882092714309692e-01,3.940385282039642334e-01,5.888688564300537109e-01,2.257766760885715485e-02,2.555182874202728271e-01,-1.364416629076004028e-01
-1.393295973539352417e-01,-4.466205835342407227e-02,-1.765465550124645233e-02,-5.957007408142089844e-01,6.528813242912292480e-01,4.184896647930145264e-01,1.715689301490783691e-01,-6.456965804100036621e-01,5.905436277389526367e-01,-3.268182873725891113e-01,-2.962666451930999756e-01,2.752941548824310303e-01,-4.680800437927246094e-01,9.580931067466735840e-02,-5.317314863204956055e-01,-2.713649868965148926e-01,1.439057141542434692e-01,7.242522239685058594e-01,1.323514133691787720e-01,3.874743878841400146e-01,-2.560076415538787842e-01
-1.677430868148803711e-01,1.380799263715744019e-01,-9.909563511610031128e-02,-4.737104773521423340e-01,4.586852788925170898e-01,3.990439176559448242e-01,3.419073820114135742e-01,-5.086649060249328613e-01,7.047294378280639648e-01,-1.865874528884887695e-01,-2.276440411806106567e-01,2.915469110012054443e-01,-2.949402630329132080e-01,3.443981111049652100e-01,-6.538833379745483398e-01,-3.687133789062500000e-01,3.773235380649566650e-01,7.847593426704406738e-01,1.487912982702255249e-01,4.955130815505981445e-01,-7.802981138229370117e-02
-2.180074155330657959e-01,1.396415233612060547e-01,-2.273875921964645386e-01,-3.047274053096771240e-01,2.438842505216598511e-01,2.867710888385772705e-01,2.876722514629364014e-01,-3.888485133647918701e-01,5.008215904235839844e-01,8.975832909345626831e-02,-3.576630353927612305e-01,-1.596696227788925171e-01,-3.204483389854431152e-01,4.612000286579132080e-01,-8.211293816566467285e-01,-3.872767686843872070e-01,4.239143729209899902e-01,7.846441864967346191e-01,4.105692356824874878e-02,6.589140295982360840e-01,-3.184343576431274414e-01
-1.830882877111434937e-01,1.625334173440933228e-01,1.859222054481506348e-01,-2.704351246356964111e-01,4.539955258369445801e-01,2.361600100994110107e-01,5.489333719015121460e-02,-2.674118876457214355e-01,4.328805506229400635e-01,4.009625315666198730e-02,-3.873499631881713867e-01,4.404928907752037048e-02,-3.141689300537109375e-02,4.697066843509674072e-01,-6.797730326652526855e-01,-1.499155908823013306e-01,3.618831932544708252e-01,6.782012581825256348e-01,1.769055277109146118e-01,7.838321328163146973e-01,-1.928158849477767944e-02
