Fp1,Fp2,F7,F3,Fz,F4,F8,T3,C3,Cz,C4,T4,T5,P3,Pz,P4,T6,O1,Oz,O2,A1
6.701416969299316406e+00,1.789157867431640625e+01,-6.602771759033203125e+00,-6.727608203887939453e+00,3.615260601043701172e+00,8.286575317382812500e+00,8.828969001770019531e+00,-2.315847158432006836e+00,-1.686824417114257812e+01,-1.092719268798828125e+01,-3.572860717773437500e+00,4.317079544067382812e+00,-6.358904361724853516e+00,-8.398897171020507812e+00,-4.726753234863281250e+00,-1.166989040374755859e+01,-2.068773841857910156e+01,-1.825091552734375000e+01,-8.690800666809082031e+00,2.050328493118286133e+00,1.807878538966178894e-02
4.263869285583496094e+00,1.715104484558105469e+01,-7.291861534118652344e+00,-6.940428733825683594e+00,3.115919828414916992e+00,8.841135025024414062e+00,9.461789131164550781e+00,-2.100702285766601562e+00,-1.775862503051757812e+01,-1.059953403472900391e+01,-2.846245527267456055e+00,4.418142795562744141e+00,-5.843791007995605469e+00,-7.905759334564208984e+00,-3.282454967498779297e+00,-1.066697216033935547e+01,-2.109701156616210938e+01,-1.823826408386230469e+01,-8.397366523742675781e+00,2.590674638748168945e+00,1.925400644540786743e-02
2.694414138793945312e+00,1.624402046203613281e+01,-8.159459114074707031e+00,-7.847229003906250000e+00,2.610094308853149414e+00,8.655015945434570312e+00,1.011842536926269531e+01,-2.062735319137573242e+00,-1.838025856018066406e+01,-1.046245193481445312e+01,-1.757476091384887695e+00,4.209699153900146484e+00,-4.947421550750732422e+00,-7.429302692413330078e+00,-1.792166709899902344e+00,-9.581052780151367188e+00,-2.154204559326171875e+01,-1.817040634155273438e+01,-8.313692092895507812e+00,3.144529342651367188e+00,2.052700147032737732e-02
1.906241536140441895e+00,1.528496742248535156e+01,-9.306629180908203125e+00,-9.440077781677246094e+00,2.151825189590454102e+00,7.718087196350097656e+00,1.072913074493408203e+01,-2.259599924087524414e+00,-1.851930618286132812e+01,-1.058504581451416016e+01,-4.380351603031158447e-01,3.611438989639282227e+00,-3.866997480392456055e+00,-7.082125186920166016e+00,-4.967875182628631592e-01,-8.578134536743164062e+00,-2.211688232421875000e+01,-1.807034301757812500e+01,-8.506258010864257812e+00,3.721717357635498047e+00,2.199553884565830231e-02
1.531446218490600586e+00,1.439701938629150391e+01,-1.073468685150146484e+01,-1.155109786987304688e+01,1.786506652832031250e+00,6.200010776519775391e+00,1.122926235198974609e+01,-2.733481168746948242e+00,-1.800166893005371094e+01,-1.093499469757080078e+01,9.090863466262817383e-01,2.642311334609985352e+00,-2.848721981048583984e+00,-6.896546840667724609e+00,4.164383411407470703e-01,-7.780410289764404297e+00,-2.277648735046386719e+01,-1.787941932678222656e+01,-8.967041015625000000e+00,4.232590198516845703e+00,2.364397794008255005e-02
1.191098928451538086e+00,1.369810771942138672e+01,-1.233206272125244141e+01,-1.386833000183105469e+01,1.553048729896545410e+00,4.381863594055175781e+00,1.161031532287597656e+01,-3.508284091949462891e+00,-1.675139617919921875e+01,-1.139081954956054688e+01,2.077437400817871094e+00,1.404282093048095703e+00,-2.080234527587890625e+00,-6.825652122497558594e+00,8.642913103103637695e-01,-7.210937023162841797e+00,-2.336854171752929688e+01,-1.746306800842285156e+01,-9.579125404357910156e+00,4.539604663848876953e+00,2.534716948866844177e-02
6.922904253005981445e-01,1.326107120513916016e+01,-1.391368865966796875e+01,-1.603486824035644531e+01,1.471986889839172363e+00,2.567514657974243164e+00,1.189610481262207031e+01,-4.584008693695068359e+00,-1.482573890686035156e+01,-1.181543827056884766e+01,2.910161495208740234e+00,1.736474409699440002e-02,-1.659538388252258301e+00,-6.802715301513671875e+00,8.708612918853759766e-01,-6.825908184051513672e+00,-2.368774986267089844e+01,-1.671547698974609375e+01,-1.016484642028808594e+01,4.575218677520751953e+00,2.690565772354602814e-02
1.121844351291656494e-01,1.309284687042236328e+01,-1.529318046569824219e+01,-1.772157096862792969e+01,1.540078759193420410e+00,1.010188102722167969e+00,1.212405586242675781e+01,-5.931125164031982422e+00,-1.241983699798583984e+01,-1.211969375610351562e+01,3.325370073318481445e+00,-1.438131570816040039e+00,-1.604561090469360352e+00,-6.800630092620849609e+00,5.270328521728515625e-01,-6.546935558319091797e+00,-2.357119178771972656e+01,-1.564699649810791016e+01,-1.055341720581054688e+01,4.405746459960937500e+00,2.808283455669879913e-02
-3.025707006454467773e-01,1.312926673889160156e+01,-1.634322357177734375e+01,-1.872486686706542969e+01,1.685989975929260254e+00,-1.318514347076416016e-01,1.228906536102294922e+01,-7.507448196411132812e+00,-9.815293312072753906e+00,-1.230692672729492188e+01,3.320756673812866211e+00,-2.938745498657226562e+00,-1.896179914474487305e+00,-6.866312503814697266e+00,-5.221953243017196655e-02,-6.311768054962158203e+00,-2.295662117004394531e+01,-1.441059398651123047e+01,-1.063709163665771484e+01,4.203116416931152344e+00,2.864600345492362976e-02
-3.425304889678955078e-01,1.327147674560546875e+01,-1.703887557983398438e+01,-1.901038932800292969e+01,1.772455930709838867e+00,-7.674432396888732910e-01,1.232478904724121094e+01,-9.273604393005371094e+00,-7.313575744628906250e+00,-1.246406936645507812e+01,2.953989028930664062e+00,-4.493500709533691406e+00,-2.514077186584472656e+00,-7.105062007904052734e+00,-7.694413065910339355e-01,-6.106573581695556641e+00,-2.191158294677734375e+01,-1.327540493011474609e+01,-1.042389392852783203e+01,4.140485763549804688e+00,2.838397398591041565e-02
1.986352726817131042e-02,1.342929553985595703e+01,-1.743657875061035156e+01,-1.870900535583496094e+01,1.657888531684875488e+00,-8.649344444274902344e-01,1.212915992736816406e+01,-1.119303512573242188e+01,-5.185772418975830078e+00,-1.271928691864013672e+01,2.303495407104492188e+00,-6.106006622314453125e+00,-3.452277183532714844e+00,-7.634689807891845703e+00,-1.567692637443542480e+00,-5.972850799560546875e+00,-2.059369850158691406e+01,-1.253241348266601562e+01,-1.003417682647705078e+01,4.301361560821533203e+00,2.714226581156253815e-02
5.889461636543273926e-01,1.357150554656982422e+01,-1.763608741760253906e+01,-1.805467987060546875e+01,1.251498818397521973e+00,-4.306555688381195068e-01,1.161031532287597656e+01,-1.318277359008789062e+01,-3.621176481246948242e+00,-1.315950870513916016e+01,1.439630746841430664e+00,-7.721219539642333984e+00,-4.678510665893554688e+00,-8.513580322265625000e+00,-2.411933898925781250e+00,-5.984378814697265625e+00,-1.917117691040039062e+01,-1.237829494476318359e+01,-9.646752357482910156e+00,4.656270503997802734e+00,2.489546127617359161e-02
1.036771416664123535e+00,1.373279285430908203e+01,-1.772927856445312500e+01,-1.728271102905273438e+01,5.749030709266662598e-01,4.784179925918579102e-01,1.075804996490478516e+01,-1.504876899719238281e+01,-2.698076725006103516e+00,-1.378250694274902344e+01,4.373631179332733154e-01,-9.214614868164062500e+00,-6.088798522949218750e+00,-9.689603805541992188e+00,-3.261650085449218750e+00,-6.189573764801025391e+00,-1.777117156982421875e+01,-1.282224941253662109e+01,-9.424385070800781250e+00,5.070126533508300781e+00,2.178239636123180389e-02
1.053306579589843750e+00,1.395824909210205078e+01,-1.778309249877929688e+01,-1.657947731018066406e+01,-2.303106635808944702e-01,1.716682553291320801e+00,9.667625427246093750e+00,-1.648025512695312500e+01,-2.395440101623535156e+00,-1.447906112670898438e+01,-6.168055534362792969e-01,-1.041294002532958984e+01,-7.505062103271484375e+00,-1.099594974517822266e+01,-4.053331375122070312e+00,-6.586130142211914062e+00,-1.644533920288085938e+01,-1.368025493621826172e+01,-9.450748443603515625e+00,5.427491664886474609e+00,1.814331486821174622e-02
4.649329781532287598e-01,1.426001167297363281e+01,-1.785922050476074219e+01,-1.605073165893554688e+01,-9.976955652236938477e-01,3.025849819183349609e+00,8.492145538330078125e+00,-1.712850189208984375e+01,-2.634978771209716797e+00,-1.509537220001220703e+01,-1.653673887252807617e+00,-1.116550254821777344e+01,-8.727709770202636719e+00,-1.220325088500976562e+01,-4.711423397064208984e+00,-7.107186794281005859e+00,-1.521354579925537109e+01,-1.465442466735839844e+01,-9.699479103088378906e+00,5.698893070220947266e+00,1.448468025773763657e-02
-7.324829697608947754e-01,1.456177520751953125e+01,-1.803903961181640625e+01,-1.575331115722656250e+01,-1.639704942703247070e+00,4.048873901367187500e+00,7.371101856231689453e+00,-1.675586700439453125e+01,-3.323213815689086914e+00,-1.549993038177490234e+01,-2.634027719497680664e+00,-1.140552902221679688e+01,-9.621688842773437500e+00,-1.309778022766113281e+01,-5.173511505126953125e+00,-7.644381999969482422e+00,-1.411552906036376953e+01,-1.545262241363525391e+01,-1.004334640502929688e+01,5.939592361450195312e+00,1.134814787656068802e-02
-2.395637273788452148e+00,1.468317413330078125e+01,-1.840524291992187500e+01,-1.572687435150146484e+01,-2.203895092010498047e+00,4.399589061737060547e+00,6.377642154693603516e+00,-1.537640762329101562e+01,-4.359656333923339844e+00,-1.565372943878173828e+01,-3.570554018020629883e+00,-1.119257354736328125e+01,-1.016429138183593750e+01,-1.354608726501464844e+01,-5.420980453491210938e+00,-8.103188514709472656e+00,-1.324002933502197266e+01,-1.590002727508544922e+01,-1.030697917938232422e+01,6.219590187072753906e+00,9.146318770945072174e-03
-4.312329769134521484e+00,1.440395641326904297e+01,-1.899195289611816406e+01,-1.598860359191894531e+01,-2.823207139968872070e+00,3.775392293930053711e+00,5.521974563598632812e+00,-1.329807949066162109e+01,-5.625121116638183594e+00,-1.560803508758544922e+01,-4.520920753479003906e+00,-1.068906021118164062e+01,-1.045232486724853516e+01,-1.352106571197509766e+01,-5.487774848937988281e+00,-8.423661231994628906e+00,-1.270360279083251953e+01,-1.596903514862060547e+01,-1.031500244140625000e+01,6.503271579742431641e+00,8.018027991056442261e-03
-6.248312950134277344e+00,1.359925460815429688e+01,-1.973748397827148438e+01,-1.651999473571777344e+01,-3.585187911987304688e+00,2.129437446594238281e+00,4.810902595520019531e+00,-1.101023197174072266e+01,-6.931482791900634766e+00,-1.544643497467041016e+01,-5.541641712188720703e+00,-1.008989715576171875e+01,-1.063279438018798828e+01,-1.308318424224853516e+01,-5.447259902954101562e+00,-8.608106613159179688e+00,-1.259631824493408203e+01,-1.574475765228271484e+01,-9.943625450134277344e+00,6.611340999603271484e+00,7.843993604183197021e-03
-7.937647819519042969e+00,1.233150100708007812e+01,-2.046857452392578125e+01,-1.722058296203613281e+01,-4.418502807617187500e+00,-2.571972310543060303e-01,4.290357112884521484e+00,-8.986744880676269531e+00,-8.042707443237304688e+00,-1.522910976409912109e+01,-6.636178016662597656e+00,-9.552996635437011719e+00,-1.083119010925292969e+01,-1.233670043945312500e+01,-5.382655620574951172e+00,-8.695717811584472656e+00,-1.291949748992919922e+01,-1.533875846862792969e+01,-9.137828826904296875e+00,6.320291042327880859e+00,8.348497562110424042e-03
-9.111639022827148438e+00,1.082962131500244141e+01,-2.094109344482421875e+01,-1.791852760314941406e+01,-5.064835548400878906e+00,-2.848943233489990234e+00,4.077715873718261719e+00,-7.499011039733886719e+00,-8.692382812500000000e+00,-1.495271778106689453e+01,-7.733020782470703125e+00,-9.154156684875488281e+00,-1.108575916290283203e+01,-1.138587284088134766e+01,-5.348710536956787109e+00,-8.753356933593750000e+00,-1.355526161193847656e+01,-1.480969333648681641e+01,-7.917098045349121094e+00,5.499947071075439453e+00,9.249957278370857239e-03
-9.505724906921386719e+00,9.410986900329589844e+00,-2.092140579223632812e+01,-1.839175605773925781e+01,-5.168594837188720703e+00,-5.008942604064941406e+00,4.307368278503417969e+00,-6.552654743194580078e+00,-8.656160354614257812e+00,-1.454815864562988281e+01,-8.702994346618652344e+00,-8.887060165405273438e+00,-1.133196163177490234e+01,-1.031931877136230469e+01,-5.358565330505371094e+00,-8.847885131835937500e+00,-1.428506565093994141e+01,-1.412765979766845703e+01,-6.360523223876953125e+00,4.196976184844970703e+00,1.036651525646448135e-02
-8.947666168212890625e+00,8.389499664306640625e+00,-2.027038002014160156e+01,-1.843141174316406250e+01,-4.453089237213134766e+00,-6.194029808044433594e+00,5.049060344696044922e+00,-5.940968036651611328e+00,-7.833549976348876953e+00,-1.392739009857177734e+01,-9.400775909423828125e+00,-8.679518699645996094e+00,-1.145745372772216797e+01,-9.205849647521972656e+00,-5.387035369873046875e+00,-9.004662513732910156e+00,-1.483208751678466797e+01,-1.320984745025634766e+01,-4.578142166137695312e+00,2.680322885513305664e+00,1.162191014736890793e-02
-7.440217018127441406e+00,8.001023292541503906e+00,-1.896964073181152344e+01,-1.791191864013671875e+01,-2.881571531295776367e+00,-6.119328975677490234e+00,6.239850997924804688e+00,-5.398184299468994141e+00,-6.267785549163818359e+00,-1.303357219696044922e+01,-9.722562789916992188e+00,-8.453027725219726562e+00,-1.136064624786376953e+01,-8.116358757019042969e+00,-5.393605232238769531e+00,-9.228302001953125000e+00,-1.494996929168701172e+01,-1.199414825439453125e+01,-2.685723304748535156e+00,1.340510249137878418e+00,1.298485510051250458e-02
-5.256207466125488281e+00,8.301052093505859375e+00,-1.713469123840332031e+01,-1.685574722290039062e+01,-7.307320833206176758e-01,-4.886128902435302734e+00,7.650086879730224609e+00,-4.766811370849609375e+00,-4.155172348022460938e+00,-1.188899517059326172e+01,-9.666048049926757812e+00,-8.161567687988281250e+00,-1.102839183807373047e+01,-7.150935173034667969e+00,-5.354185581207275391e+00,-9.493441581726074219e+00,-1.450625896453857422e+01,-1.051161575317382812e+01,-8.104977607727050781e-01,5.201665759086608887e-01,1.436148677021265030e-02
-2.886178255081176758e+00,9.187265396118164062e+00,-1.497423076629638672e+01,-1.542813205718994141e+01,1.514139056205749512e+00,-2.912249088287353516e+00,8.934439659118652344e+00,-4.055286407470703125e+00,-1.770302891731262207e+00,-1.059396171569824219e+01,-9.329267501831054688e+00,-7.815063953399658203e+00,-1.054793739318847656e+01,-6.413835048675537109e+00,-5.281915664672851562e+00,-9.786248207092285156e+00,-1.351817607879638672e+01,-8.911769866943359375e+00,9.042561054229736328e-01,3.384137749671936035e-01,1.555039640516042709e-02
-8.881884217262268066e-01,1.044634723663330078e+01,-1.273239135742187500e+01,-1.385643291473388672e+01,3.345054626464843750e+00,-7.256613373756408691e-01,9.762888908386230469e+00,-3.414070367813110352e+00,6.250827312469482422e-01,-9.301157951354980469e+00,-8.874844551086425781e+00,-7.478486061096191406e+00,-1.006389808654785156e+01,-6.013486385345458984e+00,-5.241401195526123047e+00,-1.012516498565673828e+01,-1.215393257141113281e+01,-7.429237365722656250e+00,2.311821460723876953e+00,6.356041431427001953e-01,1.628759875893592834e-02
2.678898572921752930e-01,1.181642246246337891e+01,-1.065724563598632812e+01,-1.235611534118652344e+01,4.431282520294189453e+00,1.212767124176025391e+00,9.909186363220214844e+00,-3.034402847290039062e+00,2.830006122589111328e+00,-8.182212829589843750e+00,-8.493083953857421875e+00,-7.237557888031005859e+00,-9.722082138061523438e+00,-6.027040004730224609e+00,-5.331190586090087891e+00,-1.056322193145751953e+01,-1.068770217895507812e+01,-6.294048309326171875e+00,3.273504972457885742e+00,1.045776009559631348e+00,1.633843965828418732e-02
3.533211350440979004e-01,1.302347564697265625e+01,-8.953553199768066406e+00,-1.104085826873779297e+01,4.736074924468994141e+00,2.670070171356201172e+00,9.315491676330566406e+00,-3.014716386795043945e+00,4.727618694305419922e+00,-7.368638515472412109e+00,-8.310853004455566406e+00,-7.157248497009277344e+00,-9.595396041870117188e+00,-6.451367855072021484e+00,-5.644359111785888672e+00,-1.116036224365234375e+01,-9.421471595764160156e+00,-5.655719757080078125e+00,3.689584970474243164e+00,1.157529354095458984e+00,1.561688166111707687e-02
-5.561087131500244141e-01,1.384725475311279297e+01,-7.747317314147949219e+00,-9.885546684265136719e+00,4.485323905944824219e+00,3.662707805633544922e+00,8.094081878662109375e+00,-3.302982568740844727e+00,6.261834144592285156e+00,-6.928416252136230469e+00,-8.399662017822265625e+00,-7.238460063934326172e+00,-9.658739089965820312e+00,-7.186382770538330078e+00,-6.209376811981201172e+00,-1.190966892242431641e+01,-8.597627639770507812e+00,-5.532654762268066406e+00,3.527966976165771484e+00,7.227963805198669434e-01,1.421482861042022705e-02
-2.166901826858520508e+00,1.415075302124023438e+01,-7.064789772033691406e+00,-8.763281822204589844e+00,4.017326831817626953e+00,4.370468139648437500e+00,6.459296703338623047e+00,-3.717804431915283203e+00,7.413956165313720703e+00,-6.861546993255615234e+00,-8.741055488586425781e+00,-7.416224002838134766e+00,-9.804548263549804688e+00,-8.039208412170410156e+00,-6.952878475189208984e+00,-1.270969867706298828e+01,-8.339348793029785156e+00,-5.804088115692138672e+00,2.834500312805175781e+00,-2.694756090641021729e-01,1.234737969934940338e-02
-4.060169696807861328e+00,1.387673759460449219e+01,-6.825905323028564453e+00,-7.532624721527099609e+00,3.631472826004028320e+00,4.968076705932617188e+00,4.674812316894531250e+00,-4.046849250793457031e+00,8.188658714294433594e+00,-7.106733798980712891e+00,-9.250839233398437500e+00,-7.588573455810546875e+00,-9.879843711853027344e+00,-8.777351379394531250e+00,-7.709519863128662109e+00,-1.337370014190673828e+01,-8.650608062744140625e+00,-6.272195816040039062e+00,1.728392481803894043e+00,-1.620340943336486816e+00,1.029220875352621078e-02
-5.845959186553955078e+00,1.304081821441650391e+01,-6.857406616210937500e+00,-6.119549751281738281e+00,3.490965843200683594e+00,5.498580455780029297e+00,2.978786468505859375e+00,-4.146687984466552734e+00,8.624502182006835938e+00,-7.565902233123779297e+00,-9.818291664123535156e+00,-7.678808689117431641e+00,-9.759132385253906250e+00,-9.190211296081542969e+00,-8.273442268371582031e+00,-1.368725585937500000e+01,-9.420147895812988281e+00,-6.736852645874023438e+00,3.712610900402069092e-01,-2.995767354965209961e+00,8.280057460069656372e-03
-7.193568706512451172e+00,1.175051975250244141e+01,-6.933534622192382812e+00,-4.562390804290771484e+00,3.626068830490112305e+00,5.860690593719482422e+00,1.565148353576660156e+00,-4.003258228302001953e+00,8.818470001220703125e+00,-8.119802474975585938e+00,-1.033499526977539062e+01,-7.662566184997558594e+00,-9.373096466064453125e+00,-9.143295288085937500e+00,-8.465065956115722656e+00,-1.348667240142822266e+01,-1.046253490447998047e+01,-7.055441856384277344e+00,-1.037450432777404785e+00,-4.093652248382568359e+00,6.428251974284648895e-03
-7.896309852600097656e+00,1.017926883697509766e+01,-6.837718486785888672e+00,-3.001266956329345703e+00,3.983821392059326172e+00,5.887279033660888672e+00,5.580799579620361328e-01,-3.731866121292114258e+00,8.923633575439453125e+00,-8.641381263732910156e+00,-1.071675682067871094e+01,-7.594889640808105469e+00,-8.738466262817382812e+00,-8.603241920471191406e+00,-8.194602966308593750e+00,-1.272122573852539062e+01,-1.156849956512451172e+01,-7.169305801391601562e+00,-2.286836624145507812e+00,-4.742067813873291016e+00,4.750481341034173965e-03
-7.837059020996093750e+00,8.552521705627441406e+00,-6.425577163696289062e+00,-1.629169583320617676e+00,4.520990848541259766e+00,5.461863040924072266e+00,-1.349939405918121338e-02,-3.533595323562622070e+00,9.114095687866210938e+00,-9.044825553894042969e+00,-1.090821361541748047e+01,-7.597596645355224609e+00,-7.952051639556884766e+00,-7.651371002197265625e+00,-7.506945610046386719e+00,-1.150389003753662109e+01,-1.255658245086669922e+01,-7.100296974182128906e+00,-3.180892705917358398e+00,-4.927504539489746094e+00,3.193948185071349144e-03
-6.948297977447509766e+00,7.120012760162353516e+00,-5.641983032226562500e+00,-5.888608098030090332e-01,5.249466419219970703e+00,4.632555007934570312e+00,-1.989224553108215332e-01,-3.574374437332153320e+00,9.556949615478515625e+00,-9.273295402526855469e+00,-1.087015342712402344e+01,-7.802431106567382812e+00,-7.135757923126220703e+00,-6.445112228393554688e+00,-6.564155101776123047e+00,-1.006983184814453125e+01,-1.328506183624267578e+01,-6.880620479583740234e+00,-3.543100118637084961e+00,-4.802242755889892578e+00,1.713677425868809223e-03
-5.212113857269287109e+00,6.122806072235107422e+00,-4.493499755859375000e+00,9.983154386281967163e-02,6.228692531585693359e+00,3.655111074447631836e+00,-1.104637458920478821e-01,-3.896388769149780273e+00,1.037722396850585938e+01,-9.295584678649902344e+00,-1.055644035339355469e+01,-8.283385276794433594e+00,-6.366075515747070312e+00,-5.163788318634033203e+00,-5.583039283752441406e+00,-8.711856842041015625e+00,-1.364267921447753906e+01,-6.488421916961669922e+00,-3.238204002380371094e+00,-4.606981277465820312e+00,3.350896586198359728e-04
-2.718071460723876953e+00,5.734329223632812500e+00,-3.024753808975219727e+00,5.453004837036132812e-01,7.499741554260253906e+00,2.899237871170043945e+00,1.089818924665451050e-01,-4.382925510406494141e+00,1.161931896209716797e+01,-9.096092224121093750e+00,-9.918633460998535156e+00,-9.033241271972656250e+00,-5.657346248626708984e+00,-3.979423522949218750e+00,-4.771647930145263672e+00,-7.678965568542480469e+00,-1.355791091918945312e+01,-5.832841873168945312e+00,-2.226086616516113281e+00,-4.592244625091552734e+00,-8.166666957549750805e-04
2.899366319179534912e-01,6.039560794830322266e+00,-1.277746558189392090e+00,9.564009308815002441e-01,9.009652137756347656e+00,2.733376264572143555e+00,3.114162385463714600e-01,-4.793529033660888672e+00,1.321896934509277344e+01,-8.651412010192871094e+00,-8.925592422485351562e+00,-9.941009521484375000e+00,-4.964153766632080078e+00,-3.010871887207031250e+00,-4.272330284118652344e+00,-7.146380901336669922e+00,-1.298969650268554688e+01,-4.774711608886718750e+00,-5.869836807250976562e-01,-4.907855987548828125e+00,-1.536269905045628548e-03
3.413690328598022461e+00,7.003816604614257812e+00,7.081451416015625000e-01,1.561815738677978516e+00,1.058657455444335938e+01,3.385427713394165039e+00,3.777602910995483398e-01,-4.849775791168212891e+00,1.501375579833984375e+01,-7.928110599517822266e+00,-7.607305049896240234e+00,-1.083072948455810547e+01,-4.221959590911865234e+00,-2.313389539718627930e+00,-4.117936134338378906e+00,-7.146380901336669922e+00,-1.193141460418701172e+01,-3.190967559814453125e+00,1.468199253082275391e+00,-5.575920104980468750e+00,-1.616443158127367496e-03
6.157136917114257812e+00,8.432856559753417969e+00,2.865981340408325195e+00,2.518846988677978516e+00,1.196354389190673828e+01,4.832602024078369141e+00,2.144518941640853882e-01,-4.396987438201904297e+00,1.675479125976562500e+01,-6.911698818206787109e+00,-6.066419601440429688e+00,-1.154178428649902344e+01,-3.404470920562744141e+00,-1.884891390800476074e+00,-4.260285377502441406e+00,-7.609798908233642578e+00,-1.044929027557373047e+01,-1.064356446266174316e+00,3.625396251678466797e+00,-6.484683990478515625e+00,-9.555031429044902325e-04
8.039381027221679688e+00,1.000410747528076172e+01,5.055318832397460938e+00,3.826172828674316406e+00,1.283468818664550781e+01,6.776094913482666016e+00,-2.499563246965408325e-01,-3.494222402572631836e+00,1.815463256835937500e+01,-5.655673027038574219e+00,-4.494393348693847656e+00,-1.197581672668457031e+01,-2.551127195358276367e+00,-1.683674573898315430e+00,-4.601923942565917969e+00,-8.405217170715332031e+00,-8.681072235107421875e+00,1.456752896308898926e+00,5.533862113952636719e+00,-7.445026397705078125e+00,3.155352023895829916e-04
8.755901336669921875e+00,1.136204242706298828e+01,7.091087341308593750e+00,5.343675136566162109e+00,1.299140739440917969e+01,8.749974250793457031e+00,-1.056291460990905762e+00,-2.410060882568359375e+00,1.897490501403808594e+01,-4.283740043640136719e+00,-3.096524000167846680e+00,-1.210665798187255859e+01,-1.745589852333068848e+00,-1.644056677818298340e+00,-5.020212173461914062e+00,-9.359719276428222656e+00,-6.816164493560791016e+00,4.068723678588867188e+00,6.895578384399414062e+00,-8.273966789245605469e+00,1.842736732214689255e-03
8.290163040161132812e+00,1.223438167572021484e+01,8.759341239929199219e+00,6.853246688842773438e+00,1.239587306976318359e+01,1.028071308135986328e+01,-2.204553604125976562e+00,-1.504483699798583984e+00,1.909525871276855469e+01,-2.971989870071411133e+00,-2.011214733123779297e+00,-1.195055007934570312e+01,-1.065544247627258301e+00,-1.683674573898315430e+00,-5.387035369873046875e+00,-1.030038738250732422e+01,-5.055893421173095703e+00,6.403510093688964844e+00,7.540903568267822266e+00,-8.821681022644042969e+00,3.121596761047840118e-03
6.937042236328125000e+00,1.252920818328857422e+01,9.901262283325195312e+00,8.122238159179687500e+00,1.120372486114501953e+01,1.101252937316894531e+01,-3.631800889968872070e+00,-1.092474102973937988e+00,1.853789329528808594e+01,-1.898739457130432129e+00,-1.259225726127624512e+00,-1.152915096282958984e+01,-5.348936319351196289e-01,-1.729547858238220215e+00,-5.580849647521972656e+00,-1.104508399963378906e+01,-3.556550025939941406e+00,8.127571105957031250e+00,7.465252876281738281e+00,-8.999749183654785156e+00,3.684764727950096130e-03
5.166409492492675781e+00,1.233843803405761719e+01,1.042890834808349609e+01,8.940473556518554688e+00,9.728400230407714844e+00,1.081248283386230469e+01,-5.198540687561035156e+00,-1.313243746757507324e+00,1.745354270935058594e+01,-1.198842048645019531e+00,-7.598218917846679688e-01,-1.084516716003417969e+01,-1.189781948924064636e-01,-1.747271537780761719e+00,-5.506389617919921875e+00,-1.144625091552734375e+01,-2.376413345336914062e+00,9.041934013366699219e+00,6.805026531219482422e+00,-8.773786544799804688e+00,3.285854123532772064e-03
3.475697040557861328e+00,1.185631084442138672e+01,1.033834171295166016e+01,9.155938148498535156e+00,8.323328971862792969e+00,9.786926269531250000e+00,-6.721051216125488281e+00,-2.099296092987060547e+00,1.603617668151855469e+01,-9.324798583984375000e-01,-3.792139589786529541e-01,-9.888672828674316406e+00,2.515211701393127441e-01,-1.761867642402648926e+00,-5.131901741027832031e+00,-1.142319583892822266e+01,-1.502237915992736816e+00,9.106341361999511719e+00,5.776862144470214844e+00,-8.126599311828613281e+00,2.008949406445026398e-03
2.174936771392822266e+00,1.125278377532958984e+01,9.678128242492675781e+00,8.680066108703613281e+00,7.236020565032958984e+00,8.195414543151855469e+00,-8.008806228637695312e+00,-3.239704608917236328e+00,1.442484092712402344e+01,-1.074019670486450195e+00,-7.832848466932773590e-03,-8.687640190124511719e+00,6.268011331558227539e-01,-1.856741905212402344e+00,-4.508849143981933594e+00,-1.100127792358398438e+01,-8.916396498680114746e-01,8.411656379699707031e+00,4.612296581268310547e+00,-7.022573947906494141e+00,2.588273491710424423e-04
1.355071902275085449e+00,1.057988643646240234e+01,8.525707244873046875e+00,7.507570266723632812e+00,6.551858901977539062e+00,6.321557998657226562e+00,-8.907001495361328125e+00,-4.470108509063720703e+00,1.265459251403808594e+01,-1.519814133644104004e+00,3.935355544090270996e-01,-7.324183940887451172e+00,1.002081155776977539e+00,-2.124683618545532227e+00,-3.744542837142944336e+00,-1.028655433654785156e+01,-4.863401651382446289e-01,7.118897914886474609e+00,3.513066053390502930e+00,-5.439605712890625000e+00,-1.420898712240159512e-03
9.168920516967773438e-01,9.740498542785644531e+00,6.951956748962402344e+00,5.716441631317138672e+00,6.202752590179443359e+00,4.394524574279785156e+00,-9.356100082397460938e+00,-5.572550296783447266e+00,1.067051219940185547e+01,-2.119407892227172852e+00,7.729901671409606934e-01,-5.913805007934570312e+00,1.315212845802307129e+00,-2.625119209289550781e+00,-2.984616279602050781e+00,-9.445024490356445312e+00,-2.320345938205718994e-01,5.401737213134765625e+00,2.624741077423095703e+00,-3.412079572677612305e+00,-2.578521380200982094e-03
6.964242458343505859e-01,8.595878601074218750e+00,5.048755645751953125e+00,3.485131263732910156e+00,6.049275875091552734e+00,2.562450170516967773e+00,-9.368007659912109375e+00,-6.407818794250488281e+00,8.415344238281250000e+00,-2.706742048263549805e+00,1.040569067001342773e+00,-4.562079429626464844e+00,1.490901231765747070e+00,-3.337197780609130859e+00,-2.350614070892333984e+00,-8.640384674072265625e+00,-7.044460624456405640e-02,3.428094863891601562e+00,2.035581111907958984e+00,-1.087363123893737793e+00,-3.018496325239539146e-03
6.289059519767761230e-01,7.099201202392578125e+00,2.918483257293701172e+00,1.084621906280517578e+00,5.964971542358398438e+00,9.329547882080078125e-01,-9.027782440185546875e+00,-6.926697254180908203e+00,5.925311565399169922e+00,-3.128017902374267578e+00,1.123610854148864746e+00,-3.320441007614135742e+00,1.492096424102783203e+00,-4.149363040924072266e+00,-1.903856158256530762e+00,-7.967160701751708984e+00,6.995325535535812378e-02,1.369342207908630371e+00,1.773095250129699707e+00,1.238581299781799316e+00,-2.856194507330656052e-03
8.080360889434814453e-01,5.392677307128906250e+00,6.910820007324218750e-01,-1.182378768920898438e+00,5.883909702301025391e+00,-3.850752711296081543e-01,-8.473214149475097656e+00,-7.117937564849853516e+00,3.366338729858398438e+00,-3.269557714462280273e+00,1.005968332290649414e+00,-2.160014390945434570e+00,1.363019227981567383e+00,-4.886463165283203125e+00,-1.625727415084838867e+00,-7.436881542205810547e+00,2.845235764980316162e-01,-5.916484594345092773e-01,1.815505623817443848e+00,3.196107864379882812e+00,-2.416219562292098999e-03
1.441881060600280762e+00,3.805818080902099609e+00,-1.508755803108215332e+00,-3.044888496398925781e+00,5.789877891540527344e+00,-1.246036291122436523e+00,-7.871014118194580078e+00,-6.957633495330810547e+00,9.919857382774353027e-01,-3.063377618789672852e+00,7.372360825538635254e-01,-9.896618127822875977e-01,1.210038900375366211e+00,-5.359792232513427734e+00,-1.424248337745666504e+00,-6.941186428070068359e+00,6.765779852867126465e-01,-2.272004604339599609e+00,2.092892408370971680e+00,4.494166851043701172e+00,-2.058373298496007919e-03
2.698547840118408203e+00,2.744443416595458984e+00,-3.576025724411010742e+00,-4.317845821380615234e+00,5.679634094238281250e+00,-1.494195699691772461e+00,-7.391295909881591797e+00,-6.388132095336914062e+00,-9.511978626251220703e-01,-2.500562191009521484e+00,4.108358919620513916e-01,2.808519899845123291e-01,1.158647060394287109e+00,-5.431729793548583984e+00,-1.171304464340209961e+00,-6.330212593078613281e+00,1.320288896560668945e+00,-3.518757581710815430e+00,2.502094984054565430e+00,5.027144432067871094e+00,-2.023175358772277832e-03
4.542210102081298828e+00,2.508582353591918945e+00,-5.435912609100341797e+00,-4.937800884246826172e+00,5.529399394989013672e+00,-1.029529929161071777e+00,-7.161643505096435547e+00,-5.327875614166259766e+00,-2.317152023315429688e+00,-1.629033803939819336e+00,1.363368332386016846e-01,1.683109402656555176e+00,1.293699979782104492e+00,-5.065786361694335938e+00,-7.705363035202026367e-01,-5.474849700927734375e+00,2.242146492004394531e+00,-4.254848003387451172e+00,2.934221982955932617e+00,4.935039997100830078e+00,-2.382976934313774109e-03
6.657323360443115234e+00,3.134654760360717773e+00,-7.055602073669433594e+00,-4.973491668701171875e+00,5.286214351654052734e+00,1.087111979722976685e-01,-7.255205631256103516e+00,-3.726241350173950195e+00,-3.138593912124633789e+00,-5.580124855041503906e-01,-1.475299242883920670e-02,3.149433851242065430e+00,1.588904380798339844e+00,-4.349537372589111328e+00,-2.109938114881515503e-01,-4.354347705841064453e+00,3.383872509002685547e+00,-4.529731750488281250e+00,3.309037923812866211e+00,4.558025836944580078e+00,-3.071293234825134277e-03
8.527166366577148438e+00,4.353847980499267578e+00,-8.436407089233398438e+00,-4.604690551757812500e+00,4.893875122070312500e+00,1.691360116004943848e+00,-7.687292575836181641e+00,-1.640882730484008789e+00,-3.603649377822875977e+00,5.419855117797851562e-01,-4.589364305138587952e-02,4.520109176635742188e+00,1.893669962882995605e+00,-3.489413499832153320e+00,4.032984077930450439e-01,-3.102428197860717773e+00,4.623612403869628906e+00,-4.525131225585937500e+00,3.581839561462402344e+00,4.285396575927734375e+00,-4.011861514300107956e-03
9.595057487487792969e+00,5.690972328186035156e+00,-9.605891227722167969e+00,-4.074622154235839844e+00,4.330765724182128906e+00,3.334782838821411133e+00,-8.398364067077636719e+00,7.468037605285644531e-01,-3.983405590057373047e+00,1.469238162040710449e+00,-2.859328128397464752e-02,5.593909740447998047e+00,1.979721426963806152e+00,-2.745015382766723633e+00,8.796212673187255859e-01,-1.956564664840698242e+00,5.806397914886474609e+00,-4.503278732299804688e+00,3.740018844604492188e+00,4.393465995788574219e+00,-5.187083035707473755e-03
9.498602867126464844e+00,6.643087863922119141e+00,-1.057192993164062500e+01,-3.641050100326538086e+00,3.637957811355590820e+00,4.605966567993164062e+00,-9.277848243713378906e+00,3.162613868713378906e+00,-4.511559009552001953e+00,2.040969610214233398e+00,-7.126750797033309937e-02,6.201193809509277344e+00,1.610417246818542480e+00,-2.355092525482177734e+00,9.989756941795349121e-01,-1.191118597984313965e+00,6.786533832550048828e+00,-4.714904308319091797e+00,3.781282901763916016e+00,4.932583808898925781e+00,-6.620423402637243271e-03
8.215755462646484375e+00,6.889354228973388672e+00,-1.132927227020263672e+01,-3.496966838836669922e+00,2.939745664596557617e+00,5.168123245239257812e+00,-1.016923999786376953e+01,5.343592643737792969e+00,-5.289767265319824219e+00,2.171364545822143555e+00,-2.707983553409576416e-01,6.266162872314453125e+00,6.303866505622863770e-01,-2.460392475128173828e+00,6.069675087928771973e-01,-9.951460361480712891e-01,7.476602554321289062e+00,-5.292275428771972656e+00,3.697608470916748047e+00,5.734506607055664062e+00,-8.300149813294410706e-03
6.104775905609130859e+00,6.405492305755615234e+00,-1.183066749572753906e+01,-3.717718362808227539e+00,2.402576208114624023e+00,4.900972366333007812e+00,-1.090582847595214844e+01,7.137872695922851562e+00,-6.242078781127929688e+00,1.905002236366271973e+00,-6.617864966392517090e-01,5.840252399444580078e+00,-9.639557600021362305e-01,-3.061958074569702148e+00,-3.336332440376281738e-01,-1.423980236053466797e+00,7.869981765747070312e+00,-6.190535545349121094e+00,3.467216968536376953e+00,6.503271579742431641e+00,-1.008351426571607590e-02
3.738880395889282227e+00,5.415223121643066406e+00,-1.201311206817626953e+01,-4.249108791351318359e+00,2.157229185104370117e+00,3.922262191772460938e+00,-1.135152435302734375e+01,8.531393051147460938e+00,-7.173357963562011719e+00,1.410170316696166992e+00,-1.203864574432373047e+00,5.060618877410888672e+00,-3.027995824813842773e+00,-4.036765098571777344e+00,-1.736321926116943359e+00,-2.399232387542724609e+00,8.015677452087402344e+00,-7.210710525512695312e+00,3.045405864715576172e+00,6.990811347961425781e+00,-1.165569107979536057e-02
1.691285371780395508e+00,4.282742977142333984e+00,-1.182935523986816406e+01,-4.910041809082031250e+00,2.224240303039550781e+00,2.570046901702880859e+00,-1.144678783416748047e+01,9.632428169250488281e+00,-7.858088016510009766e+00,9.209108352661132812e-01,-1.800150275230407715e+00,4.113147735595703125e+00,-5.307164192199707031e+00,-5.184639930725097656e+00,-3.429184198379516602e+00,-3.745679616928100586e+00,7.997134208679199219e+00,-8.079067230224609375e+00,2.402373313903808594e+00,7.144318580627441406e+00,-1.260017044842243195e-02
3.257626593112945557e-01,3.351438760757446289e+00,-1.128070831298828125e+01,-5.469191074371337891e+00,2.490123033523559570e+00,1.264678001403808594e+00,-1.122053718566894531e+01,1.055628585815429688e+01,-8.124501228332519531e+00,6.389458179473876953e-01,-2.356068611145019531e+00,3.162066936492919922e+00,-7.528965473175048828e+00,-6.301237106323242188e+00,-5.228260993957519531e+00,-5.285793781280517578e+00,7.875279426574707031e+00,-8.569027900695800781e+00,1.539265275001525879e+00,7.138178348541259766e+00,-1.255323924124240875e-02
-3.080824017524719238e-01,2.756583452224731445e+00,-1.042492389678955078e+01,-5.753392696380615234e+00,2.749520540237426758e+00,3.404110074043273926e-01,-1.077143955230712891e+01,1.131280899047851562e+01,-7.913006305694580078e+00,6.545486450195312500e-01,-2.815104961395263672e+00,2.308440446853637695e+00,-9.468708992004394531e+00,-7.242681980133056641e+00,-6.995583057403564453e+00,-6.878936290740966797e+00,7.687199592590332031e+00,-8.577078819274902344e+00,5.237091183662414551e-01,7.231511116027832031e+00,-1.138583943247795105e-02
-4.169383943080902100e-01,2.440945863723754883e+00,-9.368319511413574219e+00,-5.709771156311035156e+00,2.794915199279785156e+00,-3.436026349663734436e-02,-1.023728466033935547e+01,1.178528404235839844e+01,-7.264499664306640625e+00,9.153383970260620117e-01,-3.183025836944580078e+00,1.573924660682678223e+00,-1.099253654479980469e+01,-7.947462081909179688e+00,-8.658880233764648438e+00,-8.442106246948242188e+00,7.444814682006835938e+00,-8.145775794982910156e+00,-5.090403556823730469e-01,7.608525276184082031e+00,-9.305248036980628967e-03
-3.149720132350921631e-01,2.210287570953369141e+00,-8.251337051391601562e+00,-5.420282363891601562e+00,2.485799551010131836e+00,8.085657656192779541e-02,-9.752463340759277344e+00,1.178668975830078125e+01,-6.278301715850830078e+00,1.264172673225402832e+00,-3.529033184051513672e+00,8.998665213584899902e-01,-1.207057094573974609e+01,-8.427046775817871094e+00,-1.018858909606933594e+01,-9.929192543029785156e+00,7.148124694824218750e+00,-7.430387496948242188e+00,-1.397365331649780273e+00,8.250800132751464844e+00,-6.792502477765083313e-03
-2.626108825206756592e-01,1.851293206214904785e+00,-7.232796669006347656e+00,-5.055447101593017578e+00,1.787587404251098633e+00,4.366360604763031006e-01,-9.420742988586425781e+00,1.117922210693359375e+01,-5.080608844757080078e+00,1.500443696975708008e+00,-3.925788164138793945e+00,1.707648485898971558e-01,-1.275300598144531250e+01,-8.742946624755859375e+00,-1.156061744689941406e+01,-1.130791759490966797e+01,6.773288726806640625e+00,-6.622988700866699219e+00,-2.015181064605712891e+00,8.940969467163085938e+00,-4.418593831360340118e-03
-3.866240680217742920e-01,1.220018029212951660e+00,-6.463641166687011719e+00,-4.797683238983154297e+00,7.294608950614929199e-01,6.949243545532226562e-01,-9.315273284912109375e+00,9.976942062377929688e+00,-3.804627895355224609e+00,1.460322260856628418e+00,-4.417118549346923828e+00,-7.550498843193054199e-01,-1.314501857757568359e+01,-8.960844993591308594e+00,-1.273773670196533203e+01,-1.255292034149169922e+01,6.269975662231445312e+00,-5.883447647094726562e+00,-2.315492153167724609e+00,9.379386901855468750e+00,-2.627407433465123177e-03
-7.145699858665466309e-01,2.644339501857757568e-01,-6.076437950134277344e+00,-4.777855396270751953e+00,-6.096798181533813477e-01,5.391917228698730469e-01,-9.466672897338867188e+00,8.338747024536132812e+00,-2.585902452468872070e+00,1.041275382041931152e+00,-5.000717163085937500e+00,-1.994883656501770020e+00,-1.337448883056640625e+01,-9.153720855712890625e+00,-1.367286300659179688e+01,-1.366650581359863281e+01,5.565337657928466797e+00,-5.314127922058105469e+00,-2.344147920608520508e+00,9.333948135375976562e+00,-1.589066931046545506e-03
-1.234047293663024902e+00,-1.046675920486450195e+00,-6.164379119873046875e+00,-5.047515869140625000e+00,-2.116348266601562500e+00,-2.470682859420776367e-01,-9.851128578186035156e+00,6.488219738006591797e+00,-1.545954585075378418e+00,2.120975553989410400e-01,-5.608536720275878906e+00,-3.601975440979003906e+00,-1.355854415893554688e+01,-9.395598411560058594e+00,-1.434190464019775391e+01,-1.468556404113769531e+01,4.552088737487792969e+00,-4.964485168457031250e+00,-2.202015876770019531e+00,8.726058959960937500e+00,-1.158869359642267227e-03
-1.951945781707763672e+00,-2.763605594635009766e+00,-6.755027770996093750e+00,-5.585515499114990234e+00,-3.641390562057495117e+00,-1.736024379730224609e+00,-1.038358211517333984e+01,4.580039024353027344e+00,-7.805996537208557129e-01,-1.008264899253845215e+00,-6.148307800292968750e+00,-5.554668426513671875e+00,-1.378801441192626953e+01,-9.765711784362792969e+00,-1.476676273345947266e+01,-1.568617725372314453e+01,3.124269008636474609e+00,-4.852921485900878906e+00,-1.995695233345031738e+00,7.617121696472167969e+00,-9.887457126751542091e-04
-2.891690015792846680e+00,-4.971334457397460938e+00,-7.806382179260253906e+00,-6.327082633972167969e+00,-4.987016201019287109e+00,-3.851709604263305664e+00,-1.093814945220947266e+01,2.626860857009887695e+00,-3.470932841300964355e-01,-2.566316843032836914e+00,-6.553136348724365234e+00,-7.761825084686279297e+00,-1.413580608367919922e+01,-1.033600044250488281e+01,-1.501642131805419922e+01,-1.673981857299804688e+01,1.218301773071289062e+00,-4.990938186645507812e+00,-1.790520787239074707e+00,6.175379753112792969e+00,-6.876073894090950489e-04
-4.046390056610107422e+00,-7.701078891754150391e+00,-9.189812660217285156e+00,-7.187617301940917969e+00,-5.905716419219970703e+00,-6.371286869049072266e+00,-1.137363910675048828e+01,5.175971388816833496e-01,-2.372560799121856689e-01,-4.365097522735595703e+00,-6.808028221130371094e+00,-1.005650997161865234e+01,-1.463896751403808594e+01,-1.114399528503417969e+01,-1.517410087585449219e+01,-1.787184715270996094e+01,-1.114156961441040039e+00,-5.364734172821044922e+00,-1.586492657661437988e+00,4.585042953491210938e+00,8.530556442565284669e-06
-5.314080238342285156e+00,-1.084184646606445312e+01,-1.072156047821044922e+01,-8.070624351501464844e+00,-6.153225421905517578e+00,-8.971895217895507812e+00,-1.156246471405029297e+01,-1.850402832031250000e+00,-3.751368224620819092e-01,-6.265296936035156250e+00,-6.960271358489990234e+00,-1.221945190429687500e+01,-1.529510974884033203e+01,-1.216259098052978516e+01,-1.529674053192138672e+01,-1.904076766967773438e+01,-3.692974328994750977e+00,-5.939804553985595703e+00,-1.345785140991210938e+00,3.011898994445800781e+00,1.158331404440104961e-03
-6.468780517578125000e+00,-1.410054397583007812e+01,-1.218636894226074219e+01,-8.858456611633300781e+00,-5.578227043151855469e+00,-1.131041717529296875e+01,-1.145359230041503906e+01,-4.467296123504638672e+00,-6.368765234947204590e-01,-8.071879386901855469e+00,-7.077913761138916016e+00,-1.402596378326416016e+01,-1.604925537109375000e+01,-1.330108261108398438e+01,-1.538434028625488281e+01,-2.013821411132812500e+01,-6.229407310485839844e+00,-6.649441719055175781e+00,-1.030573129653930664e+00,1.578753709793090820e+00,2.601448912173509598e-03
-7.196324348449707031e+00,-1.704360389709472656e+01,-1.340179252624511719e+01,-9.401743888854980469e+00,-4.215308189392089844e+00,-1.308551692962646484e+01,-1.108784961700439453e+01,-7.153091907501220703e+00,-8.834259510040283203e-01,-9.585351943969726562e+00,-7.207089900970458984e+00,-1.529377079010009766e+01,-1.679503440856933594e+01,-1.441663646697998047e+01,-1.537886524200439453e+01,-2.103738212585449219e+01,-8.392329216003417969e+00,-7.402784347534179688e+00,-6.465874314308166504e-01,3.777116835117340088e-01,4.017190076410770416e-03
-7.252819538116455078e+00,-1.918889999389648438e+01,-1.426545238494873047e+01,-9.566976547241210938e+00,-2.332513093948364258e+00,-1.411107349395751953e+01,-1.060813045501708984e+01,-9.620930671691894531e+00,-1.013127326965332031e+00,-1.065191459655761719e+01,-7.342032909393310547e+00,-1.592722225189208984e+01,-1.738783454895019531e+01,-1.536225223541259766e+01,-1.520257091522216797e+01,-2.163682746887207031e+01,-9.908890724182128906e+00,-8.126223564147949219e+00,-2.396772652864456177e-01,-5.101752281188964844e-01,5.014466121792793274e-03
-6.613462448120117188e+00,-2.021385383605957031e+01,-1.477078533172607422e+01,-9.276165962219238281e+00,-3.535245656967163086e-01,-1.436176490783691406e+01,-1.020326232910156250e+01,-1.162894916534423828e+01,-9.722304940223693848e-01,-1.121807384490966797e+01,-7.421614646911621094e+00,-1.594887924194335938e+01,-1.769260025024414062e+01,-1.603158569335937500e+01,-1.480946731567382812e+01,-2.188352394104003906e+01,-1.064134407043457031e+01,-8.789855003356933594e+00,1.087753847241401672e-01,-1.045609116554260254e+00,5.245208740234375000e-03
-5.542815685272216797e+00,-2.004562950134277344e+01,-1.497029304504394531e+01,-8.521380424499511719e+00,1.297974228858947754e+00,-1.394267940521240234e+01,-1.001783943176269531e+01,-1.307731056213378906e+01,-7.338604331016540527e-01,-1.133175182342529297e+01,-7.348952770233154297e+00,-1.548326492309570312e+01,-1.760057258605957031e+01,-1.637146377563476562e+01,-1.420393562316894531e+01,-2.177516174316406250e+01,-1.059366130828857422e+01,-9.362625122070312500e+00,3.403130173683166504e-01,-1.288764834403991699e+00,4.470853134989738464e-03
-4.536931037902832031e+00,-1.888019943237304688e+01,-1.491122817993164062e+01,-7.351529121398925781e+00,2.337726831436157227e+00,-1.301208209991455078e+01,-1.009779262542724609e+01,-1.400960445404052734e+01,-2.875007390975952148e-01,-1.109770965576171875e+01,-7.037546634674072266e+00,-1.470904541015625000e+01,-1.705438423156738281e+01,-1.637250709533691406e+01,-1.343086910247802734e+01,-2.132788276672363281e+01,-9.879752159118652344e+00,-9.798528671264648438e+00,4.709827601909637451e-01,-1.411570787429809570e+00,2.626869594678282738e-03
-4.122176170349121094e+00,-1.710950660705566406e+01,-1.459752845764160156e+01,-5.867073059082031250e+00,2.732227563858032227e+00,-1.171304321289062500e+01,-1.037167358398437500e+01,-1.454395198822021484e+01,3.691854774951934814e-01,-1.061848068237304688e+01,-6.456254482269287109e+00,-1.379496097564697266e+01,-1.606718254089355469e+01,-1.605973434448242188e+01,-1.254392337799072266e+01,-2.056704902648925781e+01,-8.657230377197265625e+00,-1.001015472412109375e+01,5.752893090248107910e-01,-1.643674015998840332e+00,-1.381277252221480012e-04
-4.623740196228027344e+00,-1.519833850860595703e+01,-1.397537803649902344e+01,-4.192268371582031250e+00,2.677105426788330078e+00,-1.015445041656494141e+01,-1.069829082489013672e+01,-1.478159523010253906e+01,1.204649209976196289e+00,-9.973193168640136719e+00,-5.651210784912109375e+00,-1.286012268066406250e+01,-1.472621440887451172e+01,-1.546442413330078125e+01,-1.157594776153564453e+01,-1.952032279968261719e+01,-7.073119163513183594e+00,-9.870986938476562500e+00,7.391995787620544434e-01,-2.180335998535156250e+00,-3.507357090711593628e-03
-6.001664161682128906e+00,-1.356465435028076172e+01,-1.298046398162841797e+01,-2.484417200088500977e+00,2.469587326049804688e+00,-8.413537025451660156e+00,-1.091433429718017578e+01,-1.473800373077392578e+01,2.133591413497924805e+00,-9.196395874023437500e+00,-4.740058422088623047e+00,-1.195596408843994141e+01,-1.317250728607177734e+01,-1.463245010375976562e+01,-1.052803707122802734e+01,-1.823612594604492188e+01,-5.247946739196777344e+00,-9.259112358093261719e+00,1.008562684059143066e+00,-3.119801282882690430e+00,-7.031066808849573135e-03
-7.843948841094970703e+00,-1.249287319183349609e+01,-1.158128261566162109e+01,-9.087524414062500000e-01,2.370151519775390625e+00,-6.573865890502929688e+00,-1.089562129974365234e+01,-1.434989929199218750e+01,3.033321619033813477e+00,-8.300349235534667969e+00,-3.858893394470214844e+00,-1.107346248626708984e+01,-1.155784702301025391e+01,-1.361489677429199219e+01,-9.373911857604980469e+00,-1.680667877197265625e+01,-3.281052350997924805e+00,-8.106670379638671875e+00,1.373062491416931152e+00,-4.433825016021728516e+00,-1.022626180201768875e-02
-9.505724906921386719e+00,-1.208878803253173828e+01,-9.800148963928222656e+00,3.694922626018524170e-01,2.547406673431396484e+00,-4.764581680297851562e+00,-1.054348754882812500e+01,-1.352447414398193359e+01,3.810361385345458984e+00,-7.271677970886230469e+00,-3.106904268264770508e+00,-1.014584350585937500e+01,-9.983822822570800781e+00,-1.244825649261474609e+01,-8.069773674011230469e+00,-1.530345344543457031e+01,-1.246607780456542969e+00,-6.412512779235839844e+00,1.794873595237731934e+00,-5.988547801971435547e+00,-1.266274414956569672e-02
-1.035590457916259766e+01,-1.226915264129638672e+01,-7.693502426147460938e+00,1.241924047470092773e+00,3.098626852035522461e+00,-3.151545763015747070e+00,-9.747359275817871094e+00,-1.219985675811767578e+01,4.478732585906982422e+00,-6.073605060577392578e+00,-2.479477882385253906e+00,-9.066628456115722656e+00,-8.450432777404785156e+00,-1.112939929962158203e+01,-6.566345214843750000e+00,-1.377486705780029297e+01,8.103532791137695312e-01,-4.239896297454833984e+00,2.255656480789184570e+00,-7.641515731811523438e+00,-1.408044062554836273e-02
-9.990754127502441406e+00,-1.278943443298339844e+01,-5.308594703674316406e+00,1.717795968055725098e+00,4.108116149902343750e+00,-1.876563668251037598e+00,-8.381353378295898438e+00,-1.036339092254638672e+01,5.196179866790771484e+00,-4.640375614166259766e+00,-1.867045044898986816e+00,-7.721219539642333984e+00,-6.859676361083984375e+00,-9.591602325439453125e+00,-4.811068058013916016e+00,-1.217480850219726562e+01,2.877910375595092773e+00,-1.679682016372680664e+00,2.812722206115722656e+00,-9.279747009277343750e+00,-1.442264392971992493e-02
-8.366182327270507812e+00,-1.333399581909179688e+01,-2.691365480422973633e+00,1.914754033088684082e+00,5.647209167480468750e+00,-1.025731563568115234e+00,-6.329791545867919922e+00,-8.074136734008789062e+00,6.209252357482910156e+00,-2.914036512374877930e+00,-1.119669437408447266e+00,-6.025696754455566406e+00,-5.077693939208984375e+00,-7.745202541351318359e+00,-2.786422252655029297e+00,-1.040874862670898438e+01,4.960037231445312500e+00,1.155415892601013184e+00,3.560061454772949219e+00,-1.078289222717285156e+01,-1.384383253753185272e-02
-5.808754920959472656e+00,-1.365830421447753906e+01,8.468279242515563965e-02,1.996709704399108887e+00,7.697532176971435547e+00,-6.408313512802124023e-01,-3.587571382522583008e+00,-5.455837726593017578e+00,7.722434997558593750e+00,-9.113046526908874512e-01,-1.312420964241027832e-01,-3.988182783126831055e+00,-3.044728040695190430e+00,-5.550583362579345703e+00,-5.460622906684875488e-01,-8.386772155761718750e+00,7.023621082305908203e+00,4.092876434326171875e+00,4.579056262969970703e+00,-1.200726699829101562e+01,-1.265296712517738342e-02
-2.862753391265869141e+00,-1.366524219512939453e+01,2.901420116424560547e+00,2.123608827590942383e+00,1.008507156372070312e+01,-6.914761066436767578e-01,-3.111969828605651855e-01,-2.685671329498291016e+00,9.781298637390136719e+00,1.244111895561218262e+00,1.109770536422729492e+00,-1.711544632911682129e+00,-8.336834311485290527e-01,-3.064043283462524414e+00,1.782992124557495117e+00,-6.097351074218750000e+00,8.981244087219238281e+00,6.899220943450927734e+00,5.886899948120117188e+00,-1.279445266723632812e+01,-1.126069109886884689e-02
-9.588208794593811035e-02,-1.343111515045166016e+01,5.579027175903320312e+00,2.394591569900512695e+00,1.246504592895507812e+01,-1.101698756217956543e+00,3.172715187072753906e+00,4.512207210063934326e-02,1.222225475311279297e+01,3.332659244537353516e+00,2.511099815368652344e+00,6.165274977684020996e-01,1.343896746635437012e+00,-4.555217623710632324e-01,4.014592170715332031e+00,-3.637318134307861328e+00,1.069515705108642578e+01,9.289214134216308594e+00,7.419403553009033203e+00,-1.301304721832275391e+01,-1.009133551269769669e-02
2.028876781463623047e+00,-1.312067985534667969e+01,7.857617855072021484e+00,2.813623189926147461e+00,1.434351825714111328e+01,-1.779072523117065430e+00,6.413365840911865234e+00,2.541084051132202148e+00,1.468307495117187500e+01,5.065685272216796875e+00,3.900895595550537109e+00,2.743374824523925781e+00,3.172490358352661133e+00,1.999741196632385254e+00,5.933023452758789062e+00,-1.228007674217224121e+00,1.198655319213867188e+01,1.095576858520507812e+01,9.021827697753906250e+00,-1.262989330291748047e+01,-9.518390521407127380e-03
3.235938072204589844e+00,-1.290216159820556641e+01,9.454994201660156250e+00,3.296104431152343750e+00,1.523087406158447266e+01,-2.626106262207031250e+00,8.949748992919921875e+00,4.625036716461181641e+00,1.670688438415527344e+01,6.172370433807373047e+00,5.084240436553955078e+00,4.407314777374267578e+00,4.331794738769531250e+00,3.985845565795898438e+00,7.329142093658447266e+00,8.469967246055603027e-01,1.270178699493408203e+01,1.164470291137695312e+01,1.049358177185058594e+01,-1.176288318634033203e+01,-9.780419990420341492e-03
3.438493013381958008e+00,-1.282238578796386719e+01,1.015327167510986328e+01,3.732320308685302734e+00,1.483421230316162109e+01,-3.504792928695678711e+00,1.046035194396972656e+01,6.176048278808593750e+00,1.789406013488769531e+01,6.489998817443847656e+00,5.906584262847900391e+00,5.398098945617675781e+00,4.609071731567382812e+00,5.246318340301513672e+00,8.047458648681640625e+00,2.301805257797241211e+00,1.277463531494140625e+01,1.124445438385009766e+01,1.164439201354980469e+01,-1.062938404083251953e+01,-1.093608792871236801e-02
2.735751867294311523e+00,-1.280504226684570312e+01,9.847447395324707031e+00,4.027096271514892578e+00,1.315136909484863281e+01,-4.264464378356933594e+00,1.085331249237060547e+01,7.153340816497802734e+00,1.803544616699218750e+01,6.023029327392578125e+00,6.305645942687988281e+00,5.593007564544677734e+00,3.978027582168579102e+00,5.646667003631591797e+00,8.027749061584472656e+00,2.945056676864624023e+00,1.225807666778564453e+01,9.838981628417968750e+00,1.234129714965820312e+01,-9.482377052307128906e+00,-1.282895728945732117e-02
1.381252408027648926e+00,-1.269751739501953125e+01,8.603147506713867188e+00,4.139454841613769531e+00,1.048281478881835938e+01,-4.749388217926025391e+00,1.029534244537353516e+01,7.610347747802734375e+00,1.715791702270507812e+01,4.946435451507568359e+00,6.320639610290527344e+00,4.986625671386718750e+00,2.610765457153320312e+00,5.220253944396972656e+00,7.325857162475585938e+00,2.732945203781127930e+00,1.131635189056396484e+01,7.698568820953369141e+00,1.254647159576416016e+01,-8.519577980041503906e+00,-1.510118227452039719e-02
-2.956810593605041504e-01,-1.234372615814208984e+01,6.647444725036621094e+00,4.076005458831787109e+00,7.330051898956298828e+00,-4.798766613006591797e+00,9.147080421447753906e+00,7.689093589782714844e+00,1.549283218383789062e+01,3.557785511016845703e+00,6.051907062530517578e+00,3.698967218399047852e+00,8.072702288627624512e-01,4.134933948516845703e+00,6.109317779541015625e+00,1.783054232597351074e+00,1.018257236480712891e+01,5.199312210083007812e+00,1.230920314788818359e+01,-7.785198688507080078e+00,-1.727759093046188354e-02
-1.973992466926574707e+00,-1.168470287322998047e+01,4.261224269866943359e+00,3.851288080215454102e+00,4.214036941528320312e+00,-4.332834720611572266e+00,7.837211132049560547e+00,7.555506706237792969e+00,1.336853408813476562e+01,2.165791988372802734e+00,5.606711387634277344e+00,1.951108455657958984e+00,-1.101399064064025879e+00,2.621115684509277344e+00,4.603699207305908203e+00,3.051900267601013184e-01,9.076608657836914062e+00,2.709256649017333984e+00,1.174526023864746094e+01,-7.136783599853515625e+00,-1.885563507676124573e-02
-3.365695714950561523e+00,-1.078461551666259766e+01,1.726685762405395508e+00,3.453406333923339844e+00,1.547644495964050293e+00,-3.390842199325561523e+00,6.746787548065185547e+00,7.376922607421875000e+00,1.112388324737548828e+01,1.015642166137695312e+00,5.050792694091796875e+00,6.067771464586257935e-02,-2.854697704315185547e+00,9.071230888366699219e-01,3.040046453475952148e+00,-1.460869193077087402e+00,8.152101516723632812e+00,5.021357536315917969e-01,1.100594425201416016e+01,-6.347141265869140625e+00,-1.941293664276599884e-02
-4.261346340179443359e+00,-9.806486129760742188e+00,-7.658511400222778320e-01,2.842704296112060547e+00,-4.670110642910003662e-01,-2.163972616195678711e+00,6.113967418670654297e+00,7.261616230010986328e+00,9.018280029296875000e+00,2.277003675699234009e-01,4.376078605651855469e+00,-1.611383438110351562e+00,-4.327133655548095703e+00,-8.339763283729553223e-01,1.585893034934997559e+00,-3.335289716720581055e+00,7.451436996459960938e+00,-1.302435636520385742e+00,1.023453426361083984e+01,-5.205046176910400391e+00,-1.868160068988800049e-02
-4.541064739227294922e+00,-8.954957962036132812e+00,-3.144196033477783203e+00,1.968950510025024414e+00,-1.826687455177307129e+00,-9.472321867942810059e-01,6.010198593139648438e+00,7.253179073333740234e+00,7.209472179412841797e+00,-2.147506922483444214e-01,3.528361082077026367e+00,-2.726692438125610352e+00,-5.523488044738769531e+00,-2.505223274230957031e+00,3.211737871170043945e-01,-5.228154659271240234e+00,6.905739784240722656e+00,-2.719409465789794922e+00,9.523874282836914062e+00,-3.612253189086914062e+00,-1.660883054137229919e-02
-4.163513660430908203e+00,-8.349697113037109375e+00,-5.409661293029785156e+00,8.427204489707946777e-01,-2.653517723083496094e+00,-2.707285806536674500e-03,6.381044387817382812e+00,7.390984535217285156e+00,5.779251575469970703e+00,-4.097858071327209473e-01,2.456892013549804688e+00,-3.028078556060791016e+00,-6.514275074005126953e+00,-4.039892673492431641e+00,-7.464463710784912109e-01,-7.104881286621093750e+00,6.399777412414550781e+00,-3.822394847869873047e+00,8.914082527160644531e+00,-1.608060359954833984e+00,-1.332564000040292740e-02
-3.229281187057495117e+00,-7.980297088623046875e+00,-7.564872264862060547e+00,-4.236275255680084229e-01,-3.121514320373535156e+00,5.429900884628295898e-01,7.107426643371582031e+00,7.736903667449951172e+00,4.757999420166015625e+00,-4.688535630702972412e-01,1.165131688117980957e+00,-2.404552221298217773e+00,-7.379570484161376953e+00,-5.377515792846679688e+00,-1.655292272567749023e+00,-8.935496330261230469e+00,5.816994190216064453e+00,-4.679250240325927734e+00,8.412034988403320312e+00,6.577092409133911133e-01,-9.115569293498992920e-03
-2.007062673568725586e+00,-7.730561733245849609e+00,-9.552076339721679688e+00,-1.609341621398925781e+00,-3.397124528884887695e+00,7.645609378814697266e-01,8.095782279968261719e+00,8.396400451660156250e+00,4.176095962524414062e+00,-4.543652534484863281e-01,-2.500379085540771484e-01,-9.192782640457153320e-01,-8.146862983703613281e+00,-6.412792682647705078e+00,-2.453543663024902344e+00,-1.065083312988281250e+01,5.075269222259521484e+00,-5.288825035095214844e+00,8.013148307800292969e+00,2.971373081207275391e+00,-4.309088923037052155e-03
-9.157468676567077637e-01,-7.432266712188720703e+00,-1.123345661163330078e+01,-2.423611164093017578e+00,-3.615450859069824219e+00,9.253580570220947266e-01,9.315491676330566406e+00,9.504467010498046875e+00,4.089628219604492188e+00,-3.351152241230010986e-01,-1.600619435310363770e+00,1.218397378921508789e+00,-8.769540786743164062e+00,-7.011230468750000000e+00,-3.146675586700439453e+00,-1.210794734954833984e+01,4.160034179687500000e+00,-5.575210094451904297e+00,7.755248069763183594e+00,5.104512214660644531e+00,7.809308008290827274e-04
-4.265838563442230225e-01,-6.965747356414794922e+00,-1.243837928771972656e+01,-2.624534845352172852e+00,-3.864040374755859375e+00,1.333048462867736816e+00,1.079547405242919922e+01,1.115109825134277344e+01,4.566368579864501953e+00,-1.191418990492820740e-02,-2.664015054702758789e+00,3.706186056137084961e+00,-9.161553382873535156e+00,-7.040422439575195312e+00,-3.702933073043823242e+00,-1.312700462341308594e+01,3.099103450775146484e+00,-5.434892654418945312e+00,7.707106590270996094e+00,6.885198116302490234e+00,5.925702862441539764e-03
-8.854325413703918457e-01,-6.308458328247070312e+00,-1.303296566009521484e+01,-2.071994781494140625e+00,-4.148296833038330078e+00,2.195275545120239258e+00,1.258166027069091797e+01,1.329692268371582031e+01,5.663571834564208984e+00,6.289154291152954102e-01,-3.252227306365966797e+00,6.218338489532470703e+00,-9.247604370117187500e+00,-6.422175407409667969e+00,-4.051141262054443359e+00,-1.354892253875732422e+01,1.953403830528259277e+00,-4.797714710235595703e+00,7.946667671203613281e+00,8.212730407714843750e+00,1.097074802964925766e-02
-2.336386442184448242e+00,-5.538441181182861328e+00,-1.299621391296386719e+01,-8.148999810218811035e-01,-4.395805835723876953e+00,3.498112201690673828e+00,1.470296764373779297e+01,1.572257614135742188e+01,7.366048336029052734e+00,1.639754533767700195e+00,-3.270681142807006836e+00,8.466100692749023438e+00,-8.993035316467285156e+00,-5.181511878967285156e+00,-4.119030952453613281e+00,-1.330222702026367188e+01,7.878366708755493164e-01,-3.690128803253173828e+00,8.509464263916015625e+00,9.029389381408691406e+00,1.576940715312957764e-02
-4.462523460388183594e+00,-4.770158767700195312e+00,-1.245019245147705078e+01,9.590446352958679199e-01,-4.488756656646728516e+00,5.038979053497314453e+00,1.711857032775878906e+01,1.807370185852050781e+01,9.546433448791503906e+00,2.960420846939086914e+00,-2.755130290985107422e+00,1.023471355438232422e+01,-8.428920745849609375e+00,-3.480030298233032227e+00,-3.869372129440307617e+00,-1.245608711242675781e+01,-3.154786229133605957e-01,-2.245551347732543945e+00,9.361110687255859375e+00,9.340088844299316406e+00,2.014177851378917694e-02
-6.686492443084716797e+00,-4.067778587341308594e+00,-1.160490894317626953e+01,2.996040582656860352e+00,-4.313663005828857422e+00,6.511476039886474609e+00,1.973830986022949219e+01,1.994954109191894531e+01,1.197103118896484375e+01,4.423741340637207031e+00,-1.863584995269775391e+00,1.140867614746093750e+01,-7.617407321929931641e+00,-1.585672497749328613e+00,-3.320779800415039062e+00,-1.120416736602783203e+01,-1.257203936576843262e+00,-6.767588853836059570e-01,1.039385986328125000e+01,9.185353279113769531e+00,2.385516650974750519e-02
-8.353780746459960938e+00,-3.368866682052612305e+00,-1.065199565887451172e+01,5.100451946258544922e+00,-3.786221027374267578e+00,7.690232753753662109e+00,2.246692085266113281e+01,2.105479431152343750e+01,1.435823726654052734e+01,5.832451820373535156e+00,-8.048028349876403809e-01,1.196903800964355469e+01,-6.614668369293212891e+00,2.075556218624114990e-01,-2.531288385391235352e+00,-9.786248207092285156e+00,-1.906212925910949707e+00,8.069231510162353516e-01,1.148735904693603516e+01,8.658515930175781250e+00,2.666122838854789734e-02
-8.971090316772460938e+00,-2.475716352462768555e+00,-9.663643836975097656e+00,7.210150718688964844e+00,-2.880490779876708984e+00,8.548661231994628906e+00,2.524316215515136719e+01,2.131352996826171875e+01,1.646150398254394531e+01,7.029410362243652344e+00,2.412923574447631836e-01,1.197264671325683594e+01,-5.439826965332031250e+00,1.671330213546752930e+00,-1.567692637443542480e+00,-8.400606155395507812e+00,-2.119458675384521484e+00,2.060576915740966797e+00,1.254761791229248047e+01,7.890978813171386719e+00,2.835268713533878326e-02
-8.341379165649414062e+00,-1.161137938499450684e+00,-8.587350845336914062e+00,9.359505653381347656e+00,-1.619169235229492188e+00,9.210842132568359375e+00,2.807213973999023438e+01,2.087058448791503906e+01,1.814060974121093750e+01,7.941060066223144531e+00,1.181278705596923828e+00,1.150522804260253906e+01,-4.085711479187011719e+00,2.699308633804321289e+00,-4.880275726318359375e-01,-7.160214424133300781e+00,-1.796278715133666992e+00,3.033596515655517578e+00,1.353108024597167969e+01,7.011688232421875000e+00,2.882785908877849579e-02
-6.592793941497802734e+00,6.789250373840332031e-01,-7.293174266815185547e+00,1.156702232360839844e+01,-6.062131375074386597e-02,9.784394264221191406e+00,3.099808311462402344e+01,1.998469543457031250e+01,1.937452507019042969e+01,8.548455238342285156e+00,2.019769430160522461e+00,1.063896846771240234e+01,-2.573835134506225586e+00,3.290448427200317383e+00,6.595272421836853027e-01,-6.106573581695556641e+00,-9.485934972763061523e-01,3.731732130050659180e+00,1.440908908843994141e+01,6.166783332824707031e+00,2.814931981265544891e-02
-4.069815158843994141e+00,2.916136503219604492e+00,-5.693172931671142578e+00,1.373884868621826172e+01,1.720576405525207520e+00,1.023893070220947266e+01,3.406521987915039062e+01,1.888084602355957031e+01,2.022517967224121094e+01,8.841565132141113281e+00,2.853646993637084961e+00,9.415376663208007812e+00,-9.830783009529113770e-01,3.515644550323486328e+00,1.826792001724243164e+00,-5.244293689727783203e+00,2.620069384574890137e-01,4.167635440826416016e+00,1.513350391387939453e+01,5.502403259277343750e+00,2.653607912361621857e-02
-1.189953804016113281e+00,5.210578918457031250e+00,-3.834598541259765625e+00,1.563043880462646484e+01,3.610937356948852539e+00,1.038580036163330078e+01,3.727014541625976562e+01,1.764903640747070312e+01,2.078020858764648438e+01,8.778038978576660156e+00,3.806320190429687500e+00,7.872352600097656250e+00,5.443351864814758301e-01,3.465600967407226562e+00,2.959016799926757812e+00,-4.573375701904296875e+00,1.567971944808959961e+00,4.333255767822265625e+00,1.563325786590576172e+01,5.100828170776367188e+00,2.430882863700389862e-02
1.648569703102111816e+00,7.132152557373046875e+00,-1.930085062980651855e+00,1.687167167663574219e+01,5.439691066741943359e+00,9.945191383361816406e+00,4.049378585815429688e+01,1.621473693847656250e+01,2.106648635864257812e+01,8.270948410034179688e+00,4.938917160034179688e+00,6.056817054748535156e+00,1.818374872207641602e+00,3.202872276306152344e+00,3.988312244415283203e+00,-4.105347156524658203e+00,2.673936128616333008e+00,4.176836490631103516e+00,1.580977725982666016e+01,4.979249954223632812e+00,2.176479622721672058e-02
4.073716163635253906e+00,8.318394660949707031e+00,-3.117080330848693848e-01,1.706995201110839844e+01,6.967976093292236328e+00,8.709458351135253906e+00,4.346225357055664062e+01,1.439514636993408203e+01,2.102208328247070312e+01,7.202155590057373047e+00,6.176469802856445312e+00,4.044568538665771484e+00,2.645425081253051758e+00,2.728500843048095703e+00,4.816128253936767578e+00,-3.881707668304443359e+00,3.340163707733154297e+00,3.622468709945678711e+00,1.557938575744628906e+01,5.078722953796386719e+00,1.910930499434471130e-02
5.714823246002197266e+00,8.621892929077148438e+00,6.937071084976196289e-01,1.595165252685546875e+01,7.945040702819824219e+00,6.698861598968505859e+00,4.578089523315429688e+01,1.201870918273925781e+01,2.052197456359863281e+01,5.500335216522216797e+00,7.314833641052246094e+00,1.942084908485412598e+00,2.889237642288208008e+00,2.011209487915039062e+00,5.325301170349121094e+00,-3.950874328613281250e+00,3.472614526748657227e+00,2.622996091842651367e+00,1.493291378021240234e+01,5.292405128479003906e+00,1.640492491424083710e-02
6.230166912078857422e+00,8.150170326232910156e+00,8.827146291732788086e-01,1.344010639190673828e+01,8.183902740478515625e+00,4.203340530395507812e+00,4.703802871704101562e+01,9.044647216796875000e+00,1.947384643554687500e+01,3.201149940490722656e+00,8.093349456787109375e+00,-1.396447718143463135e-01,2.511567354202270508e+00,1.033274650573730469e+00,5.405235767364501953e+00,-4.335903167724609375e+00,3.140163183212280273e+00,1.208322405815124512e+00,1.395747566223144531e+01,5.503631591796875000e+00,1.360081974416971207e-02
5.392389297485351562e+00,7.158166408538818359e+00,2.198756933212280273e-01,9.686006546020507812e+00,7.602419853210449219e+00,1.647045969963073730e+00,4.691554641723632812e+01,5.600922584533691406e+00,1.787419700622558594e+01,4.617424905300140381e-01,8.284807205200195312e+00,-2.135650873184204102e+00,1.569781780242919922e+00,-1.948781460523605347e-01,4.982567787170410156e+00,-5.036793231964111328e+00,2.521617889404296875e+00,-5.214898586273193359e-01,1.280781173706054688e+01,5.625209331512451172e+00,1.061681285500526428e-02
3.187710762023925781e+00,5.928567409515380859e+00,-1.175367474555969238e+00,5.030393123626708984e+00,6.292461395263671875e+00,-5.623319745063781738e-01,4.530287551879882812e+01,1.975801467895507812e+00,1.585038757324218750e+01,-2.458211660385131836e+00,7.770409584045410156e+00,-4.045031070709228516e+00,1.845922470092773438e-01,-1.612779498100280762e+00,4.049632072448730469e+00,-6.028184413909912109e+00,1.838171601295471191e+00,-2.419222831726074219e+00,1.163636875152587891e+01,5.653454780578613281e+00,7.400107569992542267e-03
-1.000158637762069702e-01,4.666017055511474609e+00,-3.094319105148315430e+00,-6.011427938938140869e-02,4.513425350189208984e+00,-2.169037103652954102e+00,4.236842727661132812e+01,-1.452455163002014160e+00,1.363261127471923828e+01,-5.263373851776123047e+00,6.593985080718994141e+00,-5.921926498413085938e+00,-1.483850002288818359e+00,-3.123469829559326172e+00,2.668843030929565430e+00,-7.263964653015136719e+00,1.275255680084228516e+00,-4.328456878662109375e+00,1.054401493072509766e+01,5.657138824462890625e+00,3.981992136687040329e-03
-3.937534332275390625e+00,3.426012516021728516e+00,-5.337471008300781250e+00,-5.085850238800048828e+00,2.602528572082519531e+00,-3.178134202957153320e+00,3.852047348022460938e+01,-4.339334011077880859e+00,1.148728084564208984e+01,-7.718586921691894531e+00,4.926230430603027344e+00,-7.843939304351806641e+00,-3.277784109115600586e+00,-4.649798870086669922e+00,9.540809392929077148e-01,-8.716467857360839844e+00,9.335325360298156738e-01,-6.134178638458251953e+00,9.533043861389160156e+00,5.717313766479492188e+00,4.778370202984660864e-04
-7.693755149841308594e+00,2.163462162017822266e+00,-7.770943164825439453e+00,-9.590770721435546875e+00,8.732104897499084473e-01,-3.802330970764160156e+00,3.426935195922851562e+01,-6.464065551757812500e+00,9.618879318237304688e+00,-9.696800231933593750e+00,2.994356632232666016e+00,-9.849871635437011719e+00,-5.070522785186767578e+00,-6.157361507415771484e+00,-9.687303900718688965e-01,-1.037416553497314453e+01,8.196248412132263184e-01,-7.771979808807373047e+00,8.503733634948730469e+00,5.874505519866943359e+00,-2.940278500318527222e-03
-1.082577610015869141e+01,8.020583987236022949e-01,-1.033698272705078125e+01,-1.324573135375976562e+01,-4.670110642910003662e-01,-4.365754127502441406e+00,3.007266807556152344e+01,-7.805557250976562500e+00,8.123224258422851562e+00,-1.120247077941894531e+01,1.008275032043457031e+00,-1.190994453430175781e+01,-6.783185958862304688e+00,-7.682648181915283203e+00,-2.995566129684448242e+00,-1.226472473144531250e+01,8.646581172943115234e-01,-9.231509208679199219e+00,7.293318748474121094e+00,6.115204811096191406e+00,-6.078765727579593658e-03
-1.299600696563720703e+01,-6.495276093482971191e-01,-1.300933933258056641e+01,-1.588814163208007812e+01,-1.330589294433593750e+00,-5.134288311004638672e+00,2.622131156921386719e+01,-8.514269828796386719e+00,6.992134571075439453e+00,-1.233367443084716797e+01,-8.728509545326232910e-01,-1.392490005493164062e+01,-8.383503913879394531e+00,-9.293425559997558594e+00,-5.053061962127685547e+00,-1.439275741577148438e+01,9.772413372993469238e-01,-1.052081680297851562e+01,5.757376194000244141e+00,6.375553607940673828e+00,-8.759678341448307037e-03
-1.408318901062011719e+01,-2.057756662368774414e+00,-1.572369766235351562e+01,-1.753783035278320312e+01,-1.719685912132263184e+00,-6.213021755218505859e+00,2.282585906982421875e+01,-8.815191268920898438e+00,6.166018962860107422e+00,-1.321077537536621094e+01,-2.525612115859985352e+00,-1.574855613708496094e+01,-9.867892265319824219e+00,-1.104495143890380859e+01,-7.073327541351318359e+00,-1.671445655822753906e+01,1.089824557304382324e+00,-1.164450454711914062e+01,3.848910331726074219e+00,6.568358898162841797e+00,-1.084613706916570663e-02
-1.413279438018798828e+01,-3.191970825195312500e+00,-1.833961486816406250e+01,-1.839043426513671875e+01,-1.667806386947631836e+00,-7.519656658172607422e+00,1.986249160766601562e+01,-8.927685737609863281e+00,5.586452484130859375e+00,-1.392404651641845703e+01,-3.827752590179443359e+00,-1.722931861877441406e+01,-1.122917842864990234e+01,-1.292366981506347656e+01,-8.984093666076660156e+00,-1.910301780700683594e+01,1.169294953346252441e+00,-1.258417034149169922e+01,1.666496276855468750e+00,6.602744579315185547e+00,-1.224232371896505356e-02
-1.327848148345947266e+01,-3.823246002197265625e+00,-2.064445686340332031e+01,-1.876848793029785156e+01,-1.170627355575561523e+00,-8.854146003723144531e+00,1.728868293762207031e+01,-8.964245796203613281e+00,5.225391864776611328e+00,-1.450357913970947266e+01,-4.632796287536621094e+00,-1.824536895751953125e+01,-1.243748474121093750e+01,-1.483992195129394531e+01,-1.068352603912353516e+01,-2.136477279663085938e+01,1.218301773071289062e+00,-1.331220912933349609e+01,-5.652053952217102051e-01,6.373097419738769531e+00,-1.291499659419059753e-02
-1.173382854461669922e+01,-3.837120294570922852e+00,-2.242690277099609375e+01,-1.906855201721191406e+01,-1.978859454393386841e-01,-1.002404022216796875e+01,1.507721614837646484e+01,-8.931903839111328125e+00,5.064141273498535156e+00,-1.494380187988281250e+01,-4.819640159606933594e+00,-1.874978446960449219e+01,-1.344978427886962891e+01,-1.665712928771972656e+01,-1.206760025024414062e+01,-2.327838706970214844e+01,1.230222344398498535e+00,-1.382517242431640625e+01,-2.598609924316406250e+00,5.778716564178466797e+00,-1.290326379239559174e-02
-9.811624526977539062e+00,-3.330712556838989258e+00,-2.354257202148437500e+01,-1.967925453186035156e+01,1.246094703674316406e+00,-1.093944454193115234e+01,1.319746875762939453e+01,-8.775818824768066406e+00,5.039603233337402344e+00,-1.524471282958984375e+01,-4.367524147033691406e+00,-1.879129219055175781e+01,-1.424815082550048828e+01,-1.824914169311523438e+01,-1.305747604370117188e+01,-2.467094612121582031e+01,1.149427413940429688e+00,-1.418516635894775391e+01,-4.260637283325195312e+00,4.768023967742919922e+00,-1.232836302369832993e-02
-7.912845134735107422e+00,-2.595381259918212891e+00,-2.397440147399902344e+01,-2.088347434997558594e+01,3.069444417953491211e+00,-1.167759227752685547e+01,1.158309745788574219e+01,-8.448179244995117188e+00,5.038434982299804688e+00,-1.543306159973144531e+01,-3.418310880661010742e+00,-1.848900413513183594e+01,-1.485409641265869141e+01,-1.953567695617675781e+01,-1.362249279022216797e+01,-2.545714187622070312e+01,8.845257759094238281e-01,-1.451410675048828125e+01,-5.516901016235351562e+00,3.345931053161621094e+00,-1.141712628304958344e-02
-6.490827560424804688e+00,-2.026539802551269531e+00,-2.384445953369140625e+01,-2.280282402038574219e+01,5.057079315185546875e+00,-1.243219947814941406e+01,1.009120655059814453e+01,-7.967267513275146484e+00,4.893543243408203125e+00,-1.559577655792236328e+01,-2.244192838668823242e+00,-1.801165962219238281e+01,-1.534052658081054688e+01,-2.052091026306152344e+01,-1.380316734313964844e+01,-2.567386436462402344e+01,3.096892237663269043e-01,-1.498911571502685547e+01,-6.463683605194091797e+00,1.615595459938049316e+00,-1.046091504395008087e-02
-5.931390285491943359e+00,-1.938091993331909180e+00,-2.336800384521484375e+01,-2.537517547607421875e+01,6.887995243072509766e+00,-1.342230415344238281e+01,8.510858535766601562e+00,-7.431514739990234375e+00,4.451857566833496094e+00,-1.585322284698486328e+01,-1.223471641540527344e+00,-1.752709579467773438e+01,-1.581022357940673828e+01,-2.126947975158691406e+01,-1.368928813934326172e+01,-2.543177986145019531e+01,-6.850163936614990234e-01,-1.577696228027343750e+01,-7.225923538208007812e+00,-2.228093445301055908e-01,-9.751088917255401611e-03
-6.415041446685791016e+00,-2.430625200271606445e+00,-2.277210426330566406e+01,-2.836655998229980469e+01,8.232540130615234375e+00,-1.475806045532226562e+01,6.622604846954345703e+00,-7.012474060058593750e+00,3.639763355255126953e+00,-1.632019233703613281e+01,-7.079207897186279297e-01,-1.714088821411132812e+01,-1.633967971801757812e+01,-2.184810829162597656e+01,-1.338049888610839844e+01,-2.485539054870605469e+01,-2.147273302078247070e+00,-1.696850776672363281e+01,-7.834569454193115234e+00,-1.902794599533081055e+00,-9.485148824751377106e-03
-7.828791618347167969e+00,-3.311635732650756836e+00,-2.221426963806152344e+01,-3.141081809997558594e+01,8.845367431640625000e+00,-1.630779075622558594e+01,4.297161579132080078e+00,-6.832483768463134766e+00,2.495820522308349609e+00,-1.703234863281250000e+01,-9.086050391197204590e-01,-1.686115837097167969e+01,-1.693845367431640625e+01,-2.225888252258300781e+01,-1.292717075347900391e+01,-2.400694465637207031e+01,-4.034697532653808594e+00,-1.851429748535156250e+01,-8.170413970947265625e+00,-3.132081985473632812e+00,-9.653316810727119446e-03
-9.756506919860839844e+00,-4.189177513122558594e+00,-2.171943664550781250e+01,-3.406776809692382812e+01,8.663788795471191406e+00,-1.770178794860839844e+01,1.546435952186584473e+00,-6.884512424468994141e+00,1.171931743621826172e+00,-1.789719009399414062e+01,-1.825524210929870605e+00,-1.660489082336425781e+01,-1.751093482971191406e+01,-2.239858818054199219e+01,-1.230959415435791016e+01,-2.283802604675292969e+01,-6.212188720703125000e+00,-2.019925498962402344e+01,-7.991602420806884766e+00,-3.732603073120117188e+00,-1.005613803863525391e-02
-1.163875198364257812e+01,-4.664368152618408203e+00,-2.121147918701171875e+01,-3.591838073730468750e+01,7.822907924652099609e+00,-1.846652412414550781e+01,-1.486677169799804688e+00,-7.012474060058593750e+00,-1.227449625730514526e-01,-1.870073509216308594e+01,-3.267220973968505859e+00,-1.625748443603515625e+01,-1.790294837951660156e+01,-2.210353851318359375e+01,-1.145768833160400391e+01,-2.124488258361816406e+01,-8.481071472167968750e+00,-2.170133972167968750e+01,-7.062013626098632812e+00,-3.685936689376831055e+00,-1.035727653652429581e-02
-1.296982574462890625e+01,-4.475332260131835938e+00,-2.055126571655273438e+01,-3.662954711914062500e+01,6.616708278656005859e+00,-1.817658233642578125e+01,-4.591237545013427734e+00,-6.943571567535400391e+00,-1.202421188354492188e+00,-1.916213226318359375e+01,-4.907295227050781250e+00,-1.572690010070800781e+01,-1.795075416564941406e+01,-2.121526527404785156e+01,-1.030575275421142578e+01,-1.915143394470214844e+01,-1.063737010955810547e+01,-2.267780876159667969e+01,-5.288802146911621094e+00,-3.122257471084594727e+00,-1.020670682191848755e-02
-1.344934368133544922e+01,-3.570042371749877930e+00,-1.960754013061523438e+01,-3.600298309326171875e+01,5.386730670928955078e+00,-1.662431907653808594e+01,-7.552903175354003906e+00,-6.399381637573242188e+00,-1.954922914505004883e+00,-1.902505111694335938e+01,-6.380132675170898438e+00,-1.499328613281250000e+01,-1.755396080017089844e+01,-1.967642593383789062e+01,-8.848314285278320312e+00,-1.658304023742675781e+01,-1.249565505981445312e+01,-2.288138389587402344e+01,-2.827855110168457031e+00,-2.319106578826904297e+00,-9.385420940816402435e-03
-1.304423427581787109e+01,-2.075099468231201172e+00,-1.831861495971679688e+01,-3.404794311523437500e+01,4.423716545104980469e+00,-1.393381690979003906e+01,-1.021516990661621094e+01,-5.239286422729492188e+00,-2.382586956024169922e+00,-1.816466712951660156e+01,-7.402007579803466797e+00,-1.412071037292480469e+01,-1.673527717590332031e+01,-1.758710670471191406e+01,-7.175162315368652344e+00,-1.371261692047119141e+01,-1.394334316253662109e+01,-2.224650573730468750e+01,-7.118207216262817383e-02,-1.600691914558410645e+00,-7.911016233265399933e-03
-1.193087100982666016e+01,-1.916796714067459106e-01,-1.669892501831054688e+01,-3.096006202697753906e+01,3.906002044677734375e+00,-1.053935146331787109e+01,-1.250318908691406250e+01,-3.532189130783081055e+00,-2.575386285781860352e+00,-1.665230941772460938e+01,-7.855277061462402344e+00,-1.322738075256347656e+01,-1.564290142059326172e+01,-1.520899391174316406e+01,-5.480110168457031250e+00,-1.084680557250976562e+01,-1.493937301635742188e+01,-2.091694259643554688e+01,2.491778850555419922e+00,-1.233502149581909180e+00,-6.031834986060857773e-03
-1.040413188934326172e+01,1.889447212219238281e+00,-1.483772563934326172e+01,-2.710417747497558594e+01,3.876819849014282227e+00,-7.039797782897949219e+00,-1.440164852142333984e+01,-1.560730695724487305e+00,-2.660685300827026367e+00,-1.475656795501708984e+01,-7.811449527740478516e+00,-1.243601703643798828e+01,-1.450989055633544922e+01,-1.289135074615478516e+01,-4.015006542205810547e+00,-8.342967033386230469e+00,-1.552480506896972656e+01,-1.918022918701171875e+01,4.455263614654541016e+00,-1.372272849082946777e+00,-4.117455333471298218e-03
-8.771291732788085938e+00,3.996587991714477539e+00,-1.284920787811279297e+01,-2.294558525085449219e+01,4.244299888610839844e+00,-4.018837451934814453e+00,-1.593436622619628906e+01,2.672978341579437256e-01,-2.758837699890136719e+00,-1.286862850189208984e+01,-7.489662647247314453e+00,-1.184948635101318359e+01,-1.358005619049072266e+01,-1.097718334197998047e+01,-3.036081075668334961e+00,-6.537713050842285156e+00,-1.582017040252685547e+01,-1.736990737915039062e+01,5.620975494384765625e+00,-2.034196853637695312e+00,-2.512036357074975967e-03
-7.287267684936523438e+00,5.961518764495849609e+00,-1.083706569671630859e+01,-1.893107795715332031e+01,4.812813282012939453e+00,-1.884160399436950684e+00,-1.713536262512207031e+01,1.591915488243103027e+00,-2.932941198348999023e+00,-1.137187290191650391e+01,-7.164415836334228516e+00,-1.151742076873779297e+01,-1.303028297424316406e+01,-9.701072692871093750e+00,-2.722912549972534180e+00,-5.643155574798583984e+00,-1.598440933227539062e+01,-1.574705791473388672e+01,6.038201808929443359e+00,-3.098924398422241211e+00,-1.379834488034248352e-03
-6.132567405700683594e+00,7.584797859191894531e+00,-8.865612030029296875e+00,-1.538715457916259766e+01,5.330527782440185547e+00,-7.813705801963806152e-01,-1.803185844421386719e+01,2.237350225448608398e+00,-3.190006971359252930e+00,-1.051037502288818359e+01,-7.088294029235839844e+00,-1.144342803955078125e+01,-1.292271900177001953e+01,-9.143295288085937500e+00,-3.141200542449951172e+00,-5.723850250244140625e+00,-1.617646408081054688e+01,-1.444049835205078125e+01,5.916701793670654297e+00,-4.345404624938964844e+00,-6.602311623282730579e-04
-5.420180320739746094e+00,8.658311843872070312e+00,-6.968973636627197266e+00,-1.245789813995361328e+01,5.547773361206054688e+00,-5.775253772735595703e-01,-1.864086151123046875e+01,2.255630493164062500e+00,-3.486801147460937500e+00,-1.032425594329833984e+01,-7.400854110717773438e+00,-1.160855865478515625e+01,-1.320955753326416016e+01,-9.246509552001953125e+00,-4.238385677337646484e+00,-6.699102401733398438e+00,-1.649302101135253906e+01,-1.343757534027099609e+01,5.491451740264892578e+00,-5.528025627136230469e+00,-1.127069481299258769e-04
-5.148729324340820312e+00,9.039852142333984375e+00,-5.152400970458984375e+00,-1.010233306884765625e+01,5.284052371978759766e+00,-9.396354556083679199e-01,-1.890453720092773438e+01,1.898461699485778809e+00,-3.738024473190307617e+00,-1.065748691558837891e+01,-8.076721191406250000e+00,-1.198032760620117188e+01,-1.374618339538574219e+01,-9.860586166381835938e+00,-5.860073089599609375e+00,-8.379856109619140625e+00,-1.693275833129882812e+01,-1.264167690277099609e+01,4.909169197082519531e+00,-6.469947338104248047e+00,5.286785890348255634e-04
-5.213491916656494141e+00,8.725949287414550781e+00,-3.422457218170166016e+00,-8.172408103942871094e+00,4.486404418945312500e+00,-1.518251895904541016e+00,-1.873442459106445312e+01,1.456922531127929688e+00,-3.836176872253417969e+00,-1.124370670318603516e+01,-8.937126159667968750e+00,-1.251813125610351562e+01,-1.434256839752197266e+01,-1.080620098114013672e+01,-7.792739391326904297e+00,-1.049866580963134766e+01,-1.739898490905761719e+01,-1.194584178924560547e+01,4.192778110504150391e+00,-7.107310295104980469e+00,1.418405445292592049e-03
-5.431203842163085938e+00,7.896966457366943359e+00,-1.800142407417297363e+00,-6.513465881347656250e+00,3.279124259948730469e+00,-2.032296419143676758e+00,-1.801484680175781250e+01,1.115221858024597168e+00,-3.655062437057495117e+00,-1.182324028015136719e+01,-9.706415176391601562e+00,-1.316692256927490234e+01,-1.480868053436279297e+01,-1.191654300689697266e+01,-9.802055358886718750e+00,-1.279500389099121094e+01,-1.774997901916503906e+01,-1.128566074371337891e+01,3.278089761734008789e+00,-7.495377063751220703e+00,2.519320230931043625e-03
-5.602066516876220703e+00,6.880682945251464844e+00,-3.405841886997222900e-01,-5.059412956237792969e+00,1.939983606338500977e+00,-2.351358413696289062e+00,-1.667435646057128906e+01,8.424237370491027832e-01,-3.064979553222656250e+00,-1.224340152740478516e+01,-1.009048366546630859e+01,-1.388248920440673828e+01,-1.501783275604248047e+01,-1.305503463745117188e+01,-1.168435192108154297e+01,-1.501295280456542969e+01,-1.786256217956542969e+01,-1.067148590087890625e+01,2.092892408370971680e+00,-7.756953716278076172e+00,3.630012273788452148e-03
-5.551083087921142578e+00,6.029155254364013672e+00,8.695890903472900391e-01,-3.878986120223999023e+00,8.180884718894958496e-01,-2.523550510406494141e+00,-1.476398944854736328e+01,4.065092504024505615e-01,-1.963102221488952637e+00,-1.247855758666992188e+01,-9.890953063964843750e+00,-1.463775920867919922e+01,-1.492222023010253906e+01,-1.411533260345458984e+01,-1.329508972167968750e+01,-1.695192909240722656e+01,-1.770229721069335938e+01,-1.016312313079833984e+01,6.245769858360290527e-01,-7.993968963623046875e+00,4.504095297306776047e-03
-5.161130905151367188e+00,5.607727050781250000e+00,1.731935977935791016e+00,-3.118912935256958008e+00,1.987764090299606323e-01,-2.672952651977539062e+00,-1.249978637695312500e+01,-5.004741549491882324e-01,-3.120388388633728027e-01,-1.258889198303222656e+01,-9.053615570068359375e+00,-1.541558837890625000e+01,-1.454216003417968750e+01,-1.500881958007812500e+01,-1.456090354919433594e+01,-1.848512649536132812e+01,-1.733540725708007812e+01,-9.820381164550781250e+00,-1.042035341262817383e+00,-8.249404907226562500e+00,4.989045672118663788e-03
-4.346777439117431641e+00,5.716986179351806641e+00,2.183454036712646484e+00,-2.888908147811889648e+00,2.214737087488174438e-01,-2.913515329360961914e+00,-1.021346855163574219e+01,-2.095077514648437500e+00,1.826281070709228516e+00,-1.263570022583007812e+01,-7.653439521789550781e+00,-1.618529510498046875e+01,-1.392306709289550781e+01,-1.565625762939453125e+01,-1.545879936218261719e+01,-1.954337882995605469e+01,-1.688375091552734375e+01,-9.646709442138671875e+00,-2.710940122604370117e+00,-8.523262977600097656e+00,5.108327604830265045e-03
-3.076331615447998047e+00,6.297967433929443359e+00,2.245143890380859375e+00,-3.174431324005126953e+00,8.505131602287292480e-01,-3.261698007583618164e+00,-8.263975143432617188e+00,-4.385737895965576172e+00,4.266068935394287109e+00,-1.263012790679931641e+01,-5.868041992187500000e+00,-1.690447235107421875e+01,-1.310796833038330078e+01,-1.599926471710205078e+01,-1.599644279479980469e+01,-2.011285209655761719e+01,-1.645858383178710938e+01,-9.582302093505859375e+00,-4.127675056457519531e+00,-8.816768646240234375e+00,5.016421899199485779e-03
-1.391130685806274414e+00,7.203257560729980469e+00,2.002321720123291016e+00,-3.791743040084838867e+00,1.911882162094116211e+00,-3.617477416992187500e+00,-6.909876346588134766e+00,-7.124968051910400391e+00,6.716373443603515625e+00,-1.252870941162109375e+01,-3.914254426956176758e+00,-1.750904846191406250e+01,-1.212913322448730469e+01,-1.600135040283203125e+01,-1.618040084838867188e+01,-2.019585227966308594e+01,-1.611421203613281250e+01,-9.524794578552246094e+00,-5.041217327117919922e+00,-9.127468109130859375e+00,4.908872302621603012e-03
5.917019844055175781e-01,8.281974792480468750e+00,1.616431355476379395e+00,-4.420951366424560547e+00,3.163476228713989258e+00,-3.808661460876464844e+00,-6.197103500366210938e+00,-9.871229171752929688e+00,8.853524208068847656e+00,-1.225454616546630859e+01,-1.983534097671508789e+00,-1.792593574523925781e+01,-1.100568389892578125e+01,-1.564374732971191406e+01,-1.599315738677978516e+01,-1.980390739440917969e+01,-1.581089878082275391e+01,-9.359174728393554688e+00,-5.261292457580566406e+00,-9.484832763671875000e+00,4.875629674643278122e-03
2.684768676757812500e+00,9.417923927307128906e+00,1.247604250907897949e+00,-4.726302623748779297e+00,4.379403114318847656e+00,-3.695976972579956055e+00,-5.953841686248779297e+00,-1.213376617431640625e+01,1.041110992431640625e+01,-1.175860023498535156e+01,-2.096703946590423584e-01,-1.810730934143066406e+01,-9.763913154602050781e+00,-1.493062591552734375e+01,-1.540843009948730469e+01,-1.894162750244140625e+01,-1.545858001708984375e+01,-9.017582893371582031e+00,-4.719127655029296875e+00,-9.903601646423339844e+00,4.879540763795375824e-03
4.649688243865966797e+00,1.053132629394531250e+01,1.012657284736633301e+00,-4.477791786193847656e+00,5.386730670928955078e+00,-3.278157472610473633e+00,-5.867084503173828125e+00,-1.351041221618652344e+01,1.126643753051757812e+01,-1.104198551177978516e+01,1.332368493080139160e+00,-1.805497169494628906e+01,-8.457604408264160156e+00,-1.388909435272216797e+01,-1.440760421752929688e+01,-1.763437461853027344e+01,-1.494864463806152344e+01,-8.468965530395507812e+00,-3.480057716369628906e+00,-1.035184288024902344e+01,4.779812879860401154e-03
6.231544971466064453e+00,1.153547000885009766e+01,9.352167248725891113e-01,-3.650303125381469727e+00,6.076296329498291016e+00,-2.736258506774902344e+00,-5.623822689056396484e+00,-1.383664512634277344e+01,1.150363922119140625e+01,-1.016042613983154297e+01,2.618361949920654297e+00,-1.781223869323730469e+01,-7.158465862274169922e+00,-1.256293964385986328e+01,-1.300929546356201172e+01,-1.594209384918212891e+01,-1.420029735565185547e+01,-7.724823951721191406e+00,-1.721747279167175293e+00,-1.074236583709716797e+01,4.425877705216407776e-03
7.247075080871582031e+00,1.235404682159423828e+01,9.772183895111083984e-01,-2.419645786285400391e+00,6.405947685241699219e+00,-2.367817878723144531e+00,-5.035232067108154297e+00,-1.319402313232421875e+01,1.138562297821044922e+01,-9.162961006164550781e+00,3.659843921661376953e+00,-1.741700744628906250e+01,-5.938208580017089844e+00,-1.099803543090820312e+01,-1.126606369018554688e+01,-1.392703437805175781e+01,-1.314996242523193359e+01,-6.770206928253173828e+00,3.380205631256103516e-01,-1.093271541595458984e+01,3.768848720937967300e-03
7.621870517730712891e+00,1.294023036956787109e+01,1.084847688674926758e+00,-1.060767054557800293e+00,6.398381710052490234e+00,-2.441252708435058594e+00,-4.082600116729736328e+00,-1.183706283569335938e+01,1.129097557067871094e+01,-8.035100936889648438e+00,4.513328552246093750e+00,-1.685213470458984375e+01,-4.820734500885009766e+00,-9.218360900878906250e+00,-9.243607521057128906e+00,-1.165375137329101562e+01,-1.172214221954345703e+01,-5.536105155944824219e+00,2.506679773330688477e+00,-1.078166389465332031e+01,2.906498033553361893e-03
7.413803577423095703e+00,1.333391094207763672e+01,1.246291637420654297e+00,1.712123304605484009e-01,6.134660720825195312e+00,-3.040127277374267578e+00,-2.879901885986328125e+00,-1.007793712615966797e+01,1.159945487976074219e+01,-6.699946403503417969e+00,5.275697708129882812e+00,-1.602918815612792969e+01,-3.767799377441406250e+00,-7.223915576934814453e+00,-6.992298126220703125e+00,-9.156829833984375000e+00,-9.814850807189941406e+00,-3.901754617691040039e+00,4.690239906311035156e+00,-1.023149299621582031e+01,2.012860262766480446e-03
6.767557621002197266e+00,1.366342258453369141e+01,1.507489562034606934e+00,1.129565358161926270e+00,5.730432987213134766e+00,-4.002377986907958984e+00,-1.598951578140258789e+00,-8.188036918640136719e+00,1.257747268676757812e+01,-5.034904003143310547e+00,6.065747261047363281e+00,-1.480559730529785156e+01,-2.701717376708984375e+00,-5.010529994964599609e+00,-4.557029247283935547e+00,-6.454712867736816406e+00,-7.335371494293212891e+00,-1.760191917419433594e+00,6.871507644653320312e+00,-9.315361022949218750e+00,1.283479854464530945e-03
5.859505653381347656e+00,1.409352207183837891e+01,1.951132297515869141e+00,1.794464230537414551e+00,5.321881294250488281e+00,-4.996281147003173828e+00,-3.622308373451232910e-01,-6.341728210449218750e+00,1.429046630859375000e+01,-2.965302944183349609e+00,6.999967098236083984e+00,-1.306495666503906250e+01,-1.550778985023498535e+00,-2.596969842910766602e+00,-1.981600761413574219e+00,-3.568151473999023438e+00,-4.259863853454589844e+00,9.138863086700439453e-01,9.057360649108886719e+00,-8.179406166076660156e+00,8.239505696110427380e-04
4.849487304687500000e+00,1.477162265777587891e+01,2.638909816741943359e+00,2.234645605087280273e+00,5.040867328643798828e+00,-5.645800590515136719e+00,7.826290130615234375e-01,-4.624787807464599609e+00,1.660055160522460938e+01,-5.256924033164978027e-01,8.139484405517578125e+00,-1.080095195770263672e+01,-3.090085089206695557e-01,-5.100286006927490234e-02,6.650022268295288086e-01,-5.617006421089172363e-01,-6.982614398002624512e-01,3.993964195251464844e+00,1.120194911956787109e+01,-7.049591541290283203e+00,5.853864131495356560e-04
3.829823493957519531e+00,1.574454879760742188e+01,3.561634063720703125e+00,2.534709215164184570e+00,4.969532966613769531e+00,-5.725565910339355469e+00,1.839030146598815918e+00,-3.092056035995483398e+00,1.920860099792480469e+01,2.105609893798828125e+00,9.458925247192382812e+00,-8.173298835754394531e+00,9.315667748451232910e-01,2.482453107833862305e+00,3.255760431289672852e+00,2.435527801513671875e+00,3.111023902893066406e+00,7.194807052612304688e+00,1.316658020019531250e+01,-6.160476207733154297e+00,3.702876274473965168e-04
2.845985651016235352e+00,1.690998077392578125e+01,4.624801635742187500e+00,2.725058078765869141e+00,5.156515121459960938e+00,-5.296351432800292969e+00,2.827386140823364258e+00,-1.822279334068298340e+00,2.174887847900390625e+01,4.639951705932617188e+00,1.084410762786865234e+01,-5.479773044586181641e+00,2.019161701202392578e+00,4.803224086761474609e+00,5.611094951629638672e+00,5.216033458709716797e+00,6.832891941070556641e+00,1.015987110137939453e+01,1.477931976318359375e+01,-5.692585945129394531e+00,-7.946440746309235692e-05
1.936555862426757812e+00,1.804245948791503906e+01,5.697156906127929688e+00,2.836094856262207031e+00,5.609380722045898438e+00,-4.636703491210937500e+00,3.742593526840209961e+00,-9.124836325645446777e-01,2.390005111694335938e+01,6.780879974365234375e+00,1.213702106475830078e+01,-3.067782163619995117e+00,2.796015262603759766e+00,6.718433380126953125e+00,7.539381027221679688e+00,7.560788631439208984e+00,1.014945983886718750e+01,1.258436870574951172e+01,1.592210674285888672e+01,-5.715919017791748047e+00,-9.672358282841742039e-04
1.162162542343139648e+00,1.888878440856933594e+01,6.621193408966064453e+00,2.936556577682495117e+00,6.273006439208984375e+00,-4.066949844360351562e+00,4.540422916412353516e+00,-4.146974086761474609e-01,2.543193054199218750e+01,8.322214126586914062e+00,1.318657588958740234e+01,-1.200812578201293945e+00,3.174880743026733398e+00,8.095674514770507812e+00,8.877465248107910156e+00,9.285347938537597656e+00,1.284615898132324219e+01,1.430842971801757812e+01,1.661328125000000000e+01,-6.124862670898437500e+00,-2.326269168406724930e-03
6.192604899406433105e-01,1.930327606201171875e+01,7.265656948089599609e+00,3.174492597579956055e+00,7.033906459808349609e+00,-3.774476289749145508e+00,5.151128292083740234e+00,-2.811107039451599121e-01,2.622065544128417969e+01,9.211574554443359375e+00,1.388205051422119141e+01,4.894711822271347046e-02,3.160538673400878906e+00,8.925563812255859375e+00,9.560742378234863281e+00,1.030440521240234375e+01,1.485146427154541016e+01,1.535965919494628906e+01,1.702133750915527344e+01,-6.648015975952148438e+00,-3.964930772781372070e-03
3.932809233665466309e-01,1.927552795410156250e+01,7.518979549407958984e+00,3.712492227554321289e+00,7.728876113891601562e+00,-3.725097656250000000e+00,5.515170097351074219e+00,-3.570441901683807373e-01,2.621948623657226562e+01,9.531432151794433594e+00,1.417269706726074219e+01,8.195570707321166992e-01,2.843821525573730469e+00,9.301933288574218750e+00,9.615491867065429688e+00,1.063871192932128906e+01,1.621570777893066406e+01,1.588642406463623047e+01,1.736405944824218750e+01,-6.920645236968994141e+00,-5.525374785065650940e-03
5.159161686897277832e-01,1.893734550476074219e+01,7.290595531463623047e+00,4.640442371368408203e+00,8.144992828369140625e+00,-3.714968681335449219e+00,5.630846500396728516e+00,-4.146974086761474609e-01,2.543543624877929688e+01,9.446730613708496094e+00,1.408042812347412109e+01,1.387137413024902344e+00,2.383685111999511719e+00,9.379083633422851562e+00,9.167638778686523438e+00,1.040123939514160156e+01,1.704352569580078125e+01,1.606354522705078125e+01,1.778930854797363281e+01,-6.589068889617919922e+00,-6.596958264708518982e-03
9.306712746620178223e-01,1.846215438842773438e+01,6.529314994812011719e+00,5.882996559143066406e+00,8.071496963500976562e+00,-3.507325172424316406e+00,5.549192428588867188e+00,-2.150204479694366455e-01,2.391641044616699219e+01,9.132446289062500000e+00,1.369636058807373047e+01,2.050367355346679688e+00,1.964184284210205078e+00,9.315486907958984375e+00,8.410997390747070312e+00,9.771821022033691406e+00,1.743557929992675781e+01,1.601178932189941406e+01,1.826728439331054688e+01,-5.467850685119628906e+00,-6.896140985190868378e-03
1.481840848922729492e+00,1.795748138427734375e+01,5.243013858795166016e+00,7.170494556427001953e+00,7.380850791931152344e+00,-2.990748643875122070e+00,5.384182929992675781e+00,4.051030576229095459e-01,2.175238418579101562e+01,8.714513778686523438e+00,1.316350936889648438e+01,3.003252744674682617e+00,1.752641201019287109e+00,9.210186004638671875e+00,7.557995796203613281e+00,8.941819190979003906e+00,1.747796440124511719e+01,1.574610614776611328e+01,1.860771369934082031e+01,-3.647866964340209961e+00,-6.411191076040267944e-03
1.965492248535156250e+00,1.742679405212402344e+01,3.531445264816284180e+00,8.115629196166992188e+00,6.088185310363769531e+00,-2.222214221954345703e+00,5.249794006347656250e+00,1.503326416015625000e+00,1.910227012634277344e+01,8.250886917114257812e+00,1.264219188690185547e+01,4.251207828521728516e+00,1.862595796585083008e+00,9.100716590881347656e+00,6.817779541015625000e+00,8.079539299011230469e+00,1.725147247314453125e+01,1.521244144439697266e+01,1.854581832885742188e+01,-1.475429892539978027e+00,-5.454978905618190765e-03
2.168046951293945312e+00,1.677990913391113281e+01,1.579679965972900391e+00,8.335059165954589844e+00,4.365352153778076172e+00,-1.413164019584655762e+00,5.232782363891601562e+00,2.998091220855712891e+00,1.618574142456054688e+01,7.729307651519775391e+00,1.225697040557861328e+01,5.610152244567871094e+00,2.315561056137084961e+00,8.958926200866699219e+00,6.326126575469970703e+00,7.300260066986083984e+00,1.682365608215332031e+01,1.433028316497802734e+01,1.786725234985351562e+01,6.012184619903564453e-01,-4.551563877612352371e-03
1.921398639678955078e+00,1.589716529846191406e+01,-3.983364701271057129e-01,7.608032226562500000e+00,2.465264081954956055e+00,-7.952978610992431641e-01,5.328045845031738281e+00,4.700970172882080078e+00,1.325402355194091797e+01,7.101851940155029297e+00,1.202860546112060547e+01,6.794039726257324219e+00,3.025485754013061523e+00,8.723303794860839844e+00,6.121362686157226562e+00,6.629342079162597656e+00,1.624219703674316406e+01,1.305132579803466797e+01,1.652845954895019531e+01,2.214888572692871094e+00,-4.205450415611267090e-03
1.170430064201354980e+00,1.473520278930664062e+01,-2.196533203125000000e+00,5.980814933776855469e+00,6.202977299690246582e-01,-4.939615130424499512e-01,5.435216903686523438e+00,6.374319076538085938e+00,1.055249595642089844e+01,6.329513072967529297e+00,1.187290191650390625e+01,7.561040401458740234e+00,3.836998939514160156e+00,8.342764854431152344e+00,6.144357204437255859e+00,6.029896259307861328e+00,1.552166461944580078e+01,1.140202331542968750e+01,1.468876838684082031e+01,3.218213081359863281e+00,-4.663024563342332840e-03
-2.009626850485801697e-02,1.337032985687255859e+01,-3.690217733383178711e+00,3.749504566192626953e+00,-1.026877880096435547e+00,-4.686391353607177734e-01,5.406297683715820312e+00,7.793150424957275391e+00,8.258768081665039062e+00,5.407832622528076172e+00,1.162147045135498047e+01,7.823625087738037109e+00,4.566045761108398438e+00,7.792284965515136719e+00,6.275756835937500000e+00,5.412006378173828125e+00,1.461702632904052734e+01,9.492789268493652344e+00,1.264848613739013672e+01,3.722945451736450195e+00,-5.763939116150140762e-03
-1.497230768203735352e+00,1.196383571624755859e+01,-4.837388515472412109e+00,1.362213850021362305e+00,-2.461131095886230469e+00,-5.433401465415954590e-01,5.084784030914306641e+00,8.828096389770507812e+00,6.440611839294433594e+00,4.382505416870117188e+00,1.109092617034912109e+01,7.684662818908691406e+00,5.071598529815673828e+00,7.095845222473144531e+00,6.396206378936767578e+00,4.699588298797607422e+00,1.345410823822021484e+01,7.489243030548095703e+00,1.074001979827880859e+01,4.022592067718505859e+00,-7.003690581768751144e-03
-3.057040691375732422e+00,1.069608211517333984e+01,-5.670859336853027344e+00,-7.051850557327270508e-01,-3.767847061157226562e+00,-4.711713790893554688e-01,4.417941570281982422e+00,9.500247955322265625e+00,5.058299064636230469e+00,3.358292341232299805e+00,1.017977333068847656e+01,7.402225971221923828e+00,5.298678398132324219e+00,6.331638336181640625e+00,6.455336093902587891e+00,3.878808736801147461e+00,1.197992992401123047e+01,5.597260951995849609e+00,9.239610671997070312e+00,4.408202648162841797e+00,-7.733070757240056992e-03
-4.487326145172119141e+00,9.679799079895019531e+00,-6.239194393157958984e+00,-2.057454347610473633e+00,-5.012956142425537109e+00,-2.296519279479980469e-02,3.516343355178833008e+00,1.000225257873535156e+01,4.001992225646972656e+00,2.471161365509033203e+00,8.916847229003906250e+00,7.265970706939697266e+00,5.304654598236083984e+00,5.610176563262939453e+00,6.484900951385498047e+00,3.025751352310180664e+00,1.022760581970214844e+01,4.022717952728271484e+00,8.296266555786132812e+00,5.034512996673583984e+00,-7.422155234962701797e-03
-5.613090038299560547e+00,8.923655509948730469e+00,-6.571270465850830078e+00,-2.456657886505126953e+00,-6.170518398284912109e+00,9.380192756652832031e-01,2.647066354751586914e+00,1.062378215789794922e+01,3.149001359939575195e+00,1.848163485527038574e+00,7.434782505035400391e+00,7.476219177246093750e+00,5.205456256866455078e+00,5.034675598144531250e+00,6.565930366516113281e+00,2.262610912322998047e+00,8.329586029052734375e+00,2.934684276580810547e+00,7.906549930572509766e+00,5.868365287780761719e+00,-5.867577623575925827e-03
-6.329610347747802734e+00,8.314926147460937500e+00,-6.676274299621582031e+00,-1.845955729484558105e+00,-7.108673572540283203e+00,2.413048028945922852e+00,2.165646791458129883e+00,1.163763523101806641e+01,2.401173591613769531e+00,1.557282567024230957e+00,5.880056858062744141e+00,8.069065093994140625e+00,5.100282192230224609e+00,4.663518905639648438e+00,6.741129875183105469e+00,1.697748541831970215e+00,6.489844322204589844e+00,2.410219907760620117e+00,7.919157981872558594e+00,6.723094463348388672e+00,-3.257060423493385315e-03
-6.618974208831787109e+00,7.723539352416992188e+00,-6.566020011901855469e+00,-3.456374108791351318e-01,-7.633954048156738281e+00,4.276775360107421875e+00,2.368081331253051758e+00,1.316896057128906250e+01,1.709432959556579590e+00,1.581801176071166992e+00,4.305724143981933594e+00,8.923594474792480469e+00,4.996303081512451172e+00,4.475855827331542969e+00,6.946988582611083984e+00,1.347303390502929688e+00,4.900434494018554688e+00,2.401018857955932617e+00,8.067021369934082031e+00,7.396070957183837891e+00,-5.013275222154334188e-05
-6.544566631317138672e+00,7.093998432159423828e+00,-6.285133838653564453e+00,1.803717255592346191e+00,-7.600448608398437500e+00,6.300034046173095703e+00,3.387057542800903320e+00,1.514182567596435547e+01,1.051578283309936523e+00,1.820301294326782227e+00,2.655269384384155273e+00,9.843995094299316406e+00,4.796711921691894531e+00,4.376811027526855469e+00,7.005023479461669922e+00,1.119052886962890625e+00,3.677913427352905273e+00,2.739160299301147461e+00,8.031488418579101562e+00,7.776769161224365234e+00,3.197859274223446846e-03
-6.238667488098144531e+00,6.476597785949707031e+00,-5.930744647979736328e+00,4.266354084014892578e+00,-7.005995273590087891e+00,8.178955078125000000e+00,5.108600139617919922e+00,1.727639961242675781e+01,4.135877192020416260e-01,2.108953237533569336e+00,8.029774427413940430e-01,1.063355445861816406e+01,4.334185123443603516e+00,4.212084293365478516e+00,6.663384914398193359e+00,8.285522460937500000e-01,2.826254606246948242e+00,3.163562297821044922e+00,7.512248039245605469e+00,7.870101928710937500e+00,6.007831543684005737e-03
-5.854226589202880859e+00,6.023952484130859375e+00,-5.626232624053955078e+00,6.678760051727294922e+00,-6.009475708007812500e+00,9.598274230957031250e+00,7.202690124511718750e+00,1.918036270141601562e+01,-2.267397493124008179e-01,2.268324851989746094e+00,-1.359567761421203613e+00,1.116955184936523438e+01,3.448572158813476562e+00,3.823204040527343750e+00,5.706359386444091797e+00,2.729122042655944824e-01,2.263338804244995117e+00,3.397041082382202148e+00,6.322465419769287109e+00,7.773085117340087891e+00,8.047359064221382141e-03
-5.509745597839355469e+00,5.888679504394531250e+00,-5.471351623535156250e+00,8.710469245910644531e+00,-4.860559940338134766e+00,1.028577709197998047e+01,9.227033615112304688e+00,2.050498008728027344e+01,-9.044586420059204102e-01,2.159105062484741211e+00,-3.836979627609252930e+00,1.142221164703369141e+01,2.052626132965087891e+00,3.114253282546997070e+00,4.056201934814453125e+00,-6.746731400489807129e-01,1.883204817771911621e+00,3.230270624160766602e+00,4.436923980712890625e+00,7.604841232299804688e+00,9.136541746556758881e-03
-5.246562004089355469e+00,6.169631481170654297e+00,-5.487102031707763672e+00,1.016055583953857422e+01,-3.795948505401611328e+00,1.016802787780761719e+01,1.076485443115234375e+01,2.107869911193847656e+01,-1.644106984138488770e+00,1.725569963455200195e+00,-6.495468616485595703e+00,1.142040634155273438e+01,1.822019368410110474e-01,2.098785877227783203e+00,1.854166865348815918e+00,-1.961175799369812012e+00,1.635521888732910156e+00,2.593092441558837891e+00,2.014948844909667969e+00,7.436596870422363281e+00,9.150229394435882568e-03
-5.030228137969970703e+00,6.854669094085693359e+00,-5.586855888366699219e+00,1.098936653137207031e+01,-2.948582649230957031e+00,9.409622192382812500e+00,1.154907417297363281e+01,2.092261314392089844e+01,-2.429326057434082031e+00,9.833220839500427246e-01,-9.114743232727050781e+00,1.121557235717773438e+01,-2.006134510040283203e+00,8.956547975540161133e-01,-5.843871235847473145e-01,-3.367567777633666992e+00,1.550753355026245117e+00,1.554514884948730469e+00,-6.775355339050292969e-01,7.247475624084472656e+00,7.941765710711479187e-03
-4.758777141571044922e+00,7.798113346099853516e+00,-5.596044063568115234e+00,1.130529212951660156e+01,-2.302249908447265625e+00,8.339752197265625000e+00,1.154226970672607422e+01,2.020265197753906250e+01,-3.170142889022827148e+00,-2.998299896717071533e-03,-1.144913864135742188e+01,1.083026695251464844e+01,-4.276937007904052734e+00,-3.199870884418487549e-01,-2.860881805419921875e+00,-4.571070194244384766e+00,1.721614837646484375e+00,2.801585197448730469e-01,-3.316147327423095703e+00,6.946601390838623047e+00,5.368401762098073959e-03
-4.299928188323974609e+00,8.767571449279785156e+00,-5.298094272613525391e+00,1.132511997222900391e+01,-1.706716060638427734e+00,7.371170997619628906e+00,1.095878314971923828e+01,1.915505027770996094e+01,-3.698296308517456055e+00,-1.120828032493591309e+00,-1.328643703460693359e+01,1.026629638671875000e+01,-6.354124069213867188e+00,-1.374029874801635742e+00,-4.622728824615478516e+00,-5.258127212524414062e+00,2.265987634658813477e+00,-1.019500970840454102e+00,-5.599429130554199219e+00,6.390290260314941406e+00,1.346054021269083023e-03
-3.565494775772094727e+00,9.511573791503906250e+00,-4.528938770294189453e+00,1.129207420349121094e+01,-1.003099679946899414e+00,6.869787693023681641e+00,1.015584945678710938e+01,1.800901794433593750e+01,-3.839682340621948242e+00,-2.255375146865844727e+00,-1.450784301757812500e+01,9.493882179260253906e+00,-8.007029533386230469e+00,-2.176812171936035156e+00,-5.696918964385986328e+00,-5.269654750823974609e+00,3.243474721908569336e+00,-2.177693128585815430e+00,-7.316475391387939453e+00,5.460649490356445312e+00,-3.998173400759696960e-03
-2.536185503005981445e+00,9.875771522521972656e+00,-3.250512838363647461e+00,1.138063907623291016e+01,-1.189858019351959229e-01,7.028052330017089844e+00,9.524730682373046875e+00,1.691360664367675781e+01,-3.493812084197998047e+00,-3.314137220382690430e+00,-1.509028816223144531e+01,8.468808174133300781e+00,-9.093428611755371094e+00,-2.753355979919433594e+00,-6.118492126464843750e+00,-4.677125930786132812e+00,4.616989612579345703e+00,-3.116208314895629883e+00,-8.385904312133789062e+00,4.141713619232177734e+00,-1.025950442999601364e-02
-1.247826576232910156e+00,9.816805839538574219e+00,-1.567820668220520020e+00,1.164236831665039062e+01,9.110392928123474121e-01,7.800384998321533203e+00,9.393744468688964844e+00,1.593209648132324219e+01,-2.691065788269042969e+00,-4.220214366912841797e+00,-1.506722068786621094e+01,7.175735473632812500e+00,-9.561931610107421875e+00,-3.212088823318481445e+00,-6.060457229614257812e+00,-3.736457347869873047e+00,6.256730556488037109e+00,-3.815494060516357422e+00,-8.826054573059082031e+00,2.548920631408691406e+00,-1.674571074545383453e-02
2.513547539710998535e-01,9.407518386840820312e+00,3.143794536590576172e-01,1.203231906890869141e+01,1.970246672630310059e+00,8.974077224731445312e+00,9.965323448181152344e+00,1.507292270660400391e+01,-1.573998093605041504e+00,-4.916768550872802734e+00,-1.449746227264404297e+01,5.665195465087890625e+00,-9.418512344360351562e+00,-3.658310651779174805e+00,-5.722104072570800781e+00,-2.765816450119018555e+00,7.997134208679199219e+00,-4.261748790740966797e+00,-8.716017723083496094e+00,9.033210873603820801e-01,-2.261986397206783295e-02
1.947579264640808105e+00,8.784914016723632812e+00,2.175578832626342773e+00,1.245928192138671875e+01,2.947311401367187500e+00,1.028071308135986328e+01,1.132282447814941406e+01,1.431780624389648438e+01,-3.412508666515350342e-01,-5.351418018341064453e+00,-1.344098663330078125e+01,4.053592205047607422e+00,-8.676318168640136719e+00,-4.116000652313232422e+00,-5.219501018524169922e+00,-1.995759248733520508e+00,9.691180229187011719e+00,-4.402066230773925781e+00,-8.145196914672851562e+00,-5.568414926528930664e-01,-2.712520584464073181e-02
3.842224836349487305e+00,8.059988021850585938e+00,3.851708173751831055e+00,1.281750774383544922e+01,3.801162242889404297e+00,1.144680881500244141e+01,1.344073009490966797e+01,1.364143562316894531e+01,8.354092836380004883e-01,-5.504102706909179688e+00,-1.197852993011474609e+01,2.498836994171142578e+00,-7.346106052398681641e+00,-4.517392158508300781e+00,-4.553744316101074219e+00,-1.486230373382568359e+00,1.124880218505859375e+01,-4.158236026763916016e+00,-7.178928375244140625e+00,-1.651042342185974121e+00,-2.979829721152782440e-02
5.903599262237548828e+00,7.307313919067382812e+00,5.246951103210449219e+00,1.301314353942871094e+01,4.564223766326904297e+00,1.229890632629394531e+01,1.621186828613281250e+01,1.303959274291992188e+01,1.856661558151245117e+00,-5.385967254638671875e+00,-1.020927906036376953e+01,1.157037258148193359e+00,-5.441022396087646484e+00,-4.711310863494873047e+00,-3.630663394927978516e+00,-1.110424041748046875e+00,1.264218425750732422e+01,-3.462400674819946289e+00,-5.863061428070068359e+00,-2.272440433502197266e+00,-3.059220686554908752e-02
7.989776134490966797e+00,6.558108329772949219e+00,6.349495410919189453e+00,1.294572830200195312e+01,5.274325370788574219e+00,1.273445129394531250e+01,1.946442794799804688e+01,1.250665187835693359e+01,2.706147193908691406e+00,-5.069453239440917969e+00,-8.248571395874023438e+00,1.139165759086608887e-01,-3.016044139862060547e+00,-4.562222957611083984e+00,-2.353899002075195312e+00,-6.493119597434997559e-01,1.386867904663085938e+01,-2.346763849258422852e+00,-4.240005493164062500e+00,-2.427175998687744141e+00,-2.987651526927947998e-02
9.803124427795410156e+00,5.798497200012207031e+00,7.172465801239013672e+00,1.250819110870361328e+01,5.917415142059326172e+00,1.273951625823974609e+01,2.298746681213378906e+01,1.202152156829833984e+01,3.416583538055419922e+00,-4.663780212402343750e+00,-6.204822540283203125e+00,-6.350368857383728027e-01,-1.942732334136962891e-01,-4.017998695373535156e+00,-7.037416100502014160e-01,7.232844084501266479e-02,1.491768932342529297e+01,-9.700449109077453613e-01,-2.384265899658203125e+00,-2.228230237960815430e+00,-2.827696129679679871e-02
1.097711563110351562e+01,5.038885593414306641e+00,7.746050834655761719e+00,1.161593055725097656e+01,6.422160148620605469e+00,1.236474514007568359e+01,2.656493949890136719e+01,1.156591987609863281e+01,4.046394348144531250e+00,-4.273709774017333984e+00,-4.123012065887451172e+00,-1.152987837791442871e+00,2.842626333236694336e+00,-3.133895635604858398e+00,1.253014564514160156e+00,1.114441752433776855e+00,1.576405048370361328e+01,4.377278685569763184e-01,-3.886866271495819092e-01,-1.865952730178833008e+00,-2.642711251974105835e-02
1.120447254180908203e+01,4.313960075378417969e+00,8.103065490722656250e+00,1.023722457885742188e+01,6.705336093902587891e+00,1.168357276916503906e+01,2.999611663818359375e+01,1.110047626495361328e+01,4.663352489471435547e+00,-3.961653709411621094e+00,-1.995067715644836426e+00,-1.514831542968750000e+00,5.884306430816650391e+00,-2.049618244171142578e+00,3.386065006256103516e+00,2.394027709960937500e+00,1.637597274780273438e+01,1.659177780151367188e+00,1.643571734428405762e+00,-1.536832809448242188e+00,-2.475129626691341400e-02
1.036256122589111328e+01,3.663607835769653320e+00,8.267134666442871094e+00,8.427589416503906250e+00,6.721548080444335938e+00,1.074917697906494141e+01,3.308877182006835938e+01,1.055769252777099609e+01,5.328217983245849609e+00,-3.744328737258911133e+00,1.951580643653869629e-01,-1.772904753684997559e+00,8.713248252868652344e+00,-9.465743303298950195e-01,5.544300079345703125e+00,3.726641654968261719e+00,1.671637153625488281e+01,2.560888528823852539e+00,3.587570905685424805e+00,-1.359992265701293945e+00,-2.337270975112915039e-02
8.597440719604492188e+00,3.112109184265136719e+00,8.276322364807128906e+00,6.356225013732910156e+00,6.512949466705322266e+00,9.604604721069335938e+00,3.568809509277343750e+01,9.858822822570800781e+00,6.102921009063720703e+00,-3.592758655548095703e+00,2.441898345947265625e+00,-1.932621240615844727e+00,1.116571521759033203e+01,2.093478105962276459e-02,7.589750766754150391e+00,4.900171756744384766e+00,1.677200126647949219e+01,3.147460460662841797e+00,5.330980300903320312e+00,-1.366132616996765137e+00,-2.216229028999805450e-02
6.289417743682861328e+00,2.638652801513671875e+00,8.208069801330566406e+00,4.270319938659667969e+00,6.224369049072265625e+00,8.304300308227539062e+00,3.769542694091796875e+01,8.947621345520019531e+00,7.055232524871826172e+00,-3.463478326797485352e+00,4.699018955230712891e+00,-1.973227143287658691e+00,1.312697124481201172e+01,7.517794966697692871e-01,9.415107727050781250e+00,5.757840156555175781e+00,1.657200050354003906e+01,3.528157234191894531e+00,6.769493579864501953e+00,-1.491394639015197754e+00,-2.087169699370861053e-02
3.935923576354980469e+00,2.161727905273437500e+00,8.151629447937011719e+00,2.413097620010375977e+00,6.052518367767333984e+00,6.901440620422363281e+00,3.907164001464843750e+01,7.781901359558105469e+00,8.210860252380371094e+00,-3.347571611404418945e+00,6.877711296081542969e+00,-1.919085979461669922e+00,1.453128337860107422e+01,1.183405399322509766e+00,1.090868091583251953e+01,6.200508117675781250e+00,1.614550781250000000e+01,3.829493999481201172e+00,7.805681705474853516e+00,-1.646130084991455078e+00,-1.932689547538757324e-02
1.979271411895751953e+00,1.540858387947082520e+00,8.173943519592285156e+00,9.088137149810791016e-01,6.148711681365966797e+00,5.440339088439941406e+00,3.982353973388671875e+01,6.323697090148925781e+00,9.497357368469238281e+00,-3.304106712341308594e+00,8.861485481262207031e+00,-1.903746008872985840e+00,1.532367420196533203e+01,1.259513258934020996e+00,1.193031120300292969e+01,6.170535564422607422e+00,1.551239395141601562e+01,4.089426040649414062e+00,8.326067924499511719e+00,-1.791041135787963867e+00,-1.755526475608348846e-02
6.592202782630920410e-01,6.355682611465454102e-01,8.263196945190429688e+00,-2.821878194808959961e-01,6.585364341735839844e+00,3.960245609283447266e+00,3.999365234375000000e+01,4.561758518218994141e+00,1.072309398651123047e+01,-3.441188573837280273e+00,1.054308128356933594e+01,-2.160916805267333984e+00,1.543840980529785156e+01,9.290171861648559570e-01,1.233655452728271484e+01,5.640256881713867188e+00,1.465411186218261719e+01,4.219391822814941406e+00,8.214884757995605469e+00,-1.954373002052307129e+00,-1.575821079313755035e-02
1.950514968484640121e-03,-6.321848630905151367e-01,8.339324951171875000e+00,-1.323818445205688477e+00,7.352749347686767578e+00,2.481418609619140625e+00,3.966363525390625000e+01,2.535459280014038086e+00,1.160412883758544922e+01,-3.856891870498657227e+00,1.187174892425537109e+01,-2.937843084335327148e+00,1.483126831054687500e+01,1.710655093193054199e-01,1.203324031829833984e+01,4.628115653991699219e+00,1.352563095092773438e+01,4.061822414398193359e+00,7.398771762847900391e+00,-2.229458332061767578e+00,-1.419581193476915359e-02
-1.385977268218994141e-01,-2.234652519226074219e+00,8.248758316040039062e+00,-2.417001962661743164e+00,8.362238883972167969e+00,9.924623966217041016e-01,3.891513824462890625e+01,3.390128016471862793e-01,1.185418319702148438e+01,-4.583537101745605469e+00,1.285440921783447266e+01,-4.383413314819335938e+00,1.351659297943115234e+01,-9.674258232116699219e-01,1.101599025726318359e+01,3.203279495239257812e+00,1.208059310913085938e+01,3.477550983428955078e+00,5.891484737396240234e+00,-2.752611637115478516e+00,-1.302450150251388550e-02
2.399729937314987183e-02,-4.015750408172607422e+00,7.820866584777832031e+00,-3.675418615341186523e+00,9.502508163452148438e+00,-5.091549754142761230e-01,3.782641601562500000e+01,-1.856027603149414062e+00,1.130265998840332031e+01,-5.535308361053466797e+00,1.353950405120849609e+01,-6.411002159118652344e+00,1.159597301483154297e+01,-2.338411331176757812e+00,9.403062820434570312e+00,1.517914772033691406e+00,1.032561969757080078e+01,2.449324846267700195e+00,3.856933832168579102e+00,-3.622077703475952148e+00,-1.220712624490261078e-02
3.202509582042694092e-01,-5.710134506225585938e+00,6.936206340789794922e+00,-5.052803516387939453e+00,1.066115093231201172e+01,-1.986716032028198242e+00,3.644680023193359375e+01,-3.802174806594848633e+00,9.958907127380371094e+00,-6.517170906066894531e+00,1.398123931884765625e+01,-8.664178848266601562e+00,9.259436607360839844e+00,-3.694800853729248047e+00,7.416741847991943359e+00,-1.974221318960189819e-01,8.357400894165039062e+00,1.123211979866027832e+00,1.609184980392456055e+00,-4.818207263946533203e+00,-1.153054274618625641e-02
6.674878001213073730e-01,-7.019509792327880859e+00,5.572464466094970703e+00,-6.364094734191894531e+00,1.172468185424804688e+01,-3.340197324752807617e+00,3.477458953857421875e+01,-5.221006393432617188e+00,8.012218475341796875e+00,-7.285051822662353516e+00,1.420960426330566406e+01,-1.059611797332763672e+01,6.728088855743408203e+00,-4.739460468292236328e+00,5.330776214599609375e+00,-1.659147381782531738e+00,6.356068611145019531e+00,-2.535069584846496582e-01,-4.517290592193603516e-01,-6.160476207733154297e+00,-1.072489935904741287e-02
1.060196161270141602e+00,-7.692407608032226562e+00,3.809706449508666992e+00,-7.379288196563720703e+00,1.258177471160888672e+01,-4.402471542358398438e+00,3.276895904541015625e+01,-5.877690315246582031e+00,5.747702598571777344e+00,-7.642801761627197266e+00,1.422805786132812500e+01,-1.163201999664306641e+01,4.201522350311279297e+00,-5.218002319335937500e+00,3.402489900588989258e+00,-2.592899322509765625e+00,4.529572010040283203e+00,-1.448503613471984863e+00,-1.964747190475463867e+00,-7.345553398132324219e+00,-9.635717608034610748e-03
1.523178577423095703e+00,-7.657722473144531250e+00,1.791000843048095703e+00,-7.950334548950195312e+00,1.309732818603515625e+01,-5.019071578979492188e+00,3.037206649780273438e+01,-5.665357589721679688e+00,3.424762725830078125e+00,-7.519093990325927734e+00,1.403314018249511719e+01,-1.135589981079101562e+01,1.815984606742858887e+00,-4.995933532714843750e+00,1.830076932907104492e+00,-2.802705287933349609e+00,3.043473958969116211e+00,-2.360565662384033203e+00,-2.722402334213256836e+00,-8.057827949523925781e+00,-8.323614485561847687e-03
2.075726032257080078e+00,-7.069803714752197266e+00,-3.130205869674682617e-01,-8.065337181091308594e+00,1.316001605987548828e+01,-5.078578948974609375e+00,2.758561706542968750e+01,-4.603694915771484375e+00,1.201143741607666016e+00,-6.951820373535156250e+00,1.365599250793457031e+01,-9.622478485107421875e+00,-3.269358873367309570e-01,-4.085766315460205078e+00,7.536967992782592773e-01,-2.194037437438964844e+00,1.981218457221984863e+00,-3.035698413848876953e+00,-2.705209016799926758e+00,-8.111862182617187500e+00,-7.031066808849573135e-03
