Fp1,Fp2,F7,F3,Fz,F4,F8,T3,C3,Cz,C4,T4,T5,P3,Pz,P4,T6,O1,Oz,O2,A1
-7.904552459716796875e+00,-2.385039329528808594e+01,-1.614339065551757812e+01,-1.577739715576171875e+01,-1.452651023864746094e+01,-1.247831058502197266e+01,-1.021185111999511719e+01,1.285961627960205078e+00,-1.358983516693115234e+01,-2.756051778793334961e+00,-1.890469908714294434e+00,-2.300841712951660156e+01,-1.596239948272705078e+01,-5.105537891387939453e+00,-1.481513118743896484e+01,-1.140832233428955078e+01,-1.543822574615478516e+01,-1.479653739929199219e+01,-1.239696025848388672e+01,4.969557762145996094e+00,2.219282388687133789e-01
-9.220563888549804688e+00,-2.616435432434082031e+01,-1.745325469970703125e+01,-1.742154502868652344e+01,-1.555669784545898438e+01,-1.400555801391601562e+01,-1.076058292388916016e+01,6.302018165588378906e-01,-1.431832504272460938e+01,-3.708937168121337891e+00,-1.769930124282836914e+00,-2.405822372436523438e+01,-1.729196357727050781e+01,-6.209496021270751953e+00,-1.492363643646240234e+01,-1.153348541259765625e+01,-1.729295730590820312e+01,-1.558551692962646484e+01,-1.250450706481933594e+01,4.696017265319824219e+00,2.231748700141906738e-01
-1.038151073455810547e+01,-2.783056831359863281e+01,-1.825200080871582031e+01,-1.829709243774414062e+01,-1.628282928466796875e+01,-1.504062175750732422e+01,-1.089107990264892578e+01,1.909952610731124878e-01,-1.473508930206298828e+01,-4.330028533935546875e+00,-1.475496888160705566e+00,-2.527626991271972656e+01,-1.797941017150878906e+01,-7.038238048553466797e+00,-1.437973594665527344e+01,-1.115117073059082031e+01,-1.854259872436523438e+01,-1.604318046569824219e+01,-1.230114650726318359e+01,4.202846527099609375e+00,2.204534560441970825e-01
-1.109970569610595703e+01,-2.880014991760253906e+01,-1.836471939086914062e+01,-1.847111511230468750e+01,-1.645886230468750000e+01,-1.561730003356933594e+01,-1.056697559356689453e+01,-5.910848453640937805e-02,-1.482996177673339844e+01,-4.593175411224365234e+00,-1.107949376106262207e+00,-2.647917366027832031e+01,-1.797941017150878906e+01,-7.509816646575927734e+00,-1.327133369445800781e+01,-1.032282447814941406e+01,-1.904903411865234375e+01,-1.620743560791015625e+01,-1.194135284423828125e+01,3.378232955932617188e+00,2.096248716115951538e-01
-1.115071392059326172e+01,-2.908328437805175781e+01,-1.772727775573730469e+01,-1.807956504821777344e+01,-1.590676116943359375e+01,-1.580107688903808594e+01,-9.842821121215820312e+00,-1.780602633953094482e-01,-1.463513374328613281e+01,-4.472226142883300781e+00,-7.660905718803405762e-01,-2.740784835815429688e+01,-1.741472244262695312e+01,-7.608770847320556641e+00,-1.187724590301513672e+01,-9.250980377197265625e+00,-1.875964355468750000e+01,-1.618918418884277344e+01,-1.161480236053466797e+01,2.203208684921264648e+00,1.877232640981674194e-01
-1.039171218872070312e+01,-2.875533676147460938e+01,-1.639797973632812500e+01,-1.728377723693847656e+01,-1.462452793121337891e+01,-1.567644691467285156e+01,-8.839488029479980469e+00,-2.482113093137741089e-01,-1.420312213897705078e+01,-3.924684762954711914e+00,-4.914179742336273193e-01,-2.780825614929199219e+01,-1.650631332397460938e+01,-7.387670040130615234e+00,-1.054084491729736328e+01,-8.200755119323730469e+00,-1.771882247924804688e+01,-1.608810424804687500e+01,-1.144859313964843750e+01,7.666239738464355469e-01,1.540316045284271240e-01
-8.775772094726562500e+00,-2.795685768127441406e+01,-1.454784393310546875e+01,-1.621063995361328125e+01,-1.278419399261474609e+01,-1.534691619873046875e+01,-7.707796573638916016e+00,-3.458127677440643311e-01,-1.360169506072998047e+01,-2.922765970230102539e+00,-2.503383755683898926e-01,-2.756935882568359375e+01,-1.550725078582763672e+01,-6.973299026489257812e+00,-9.571164131164550781e+00,-7.395165443420410156e+00,-1.604989242553710938e+01,-1.597298717498779297e+01,-1.146228122711181641e+01,-7.538197040557861328e-01,1.101550534367561340e-01
-6.339620590209960938e+00,-2.681821060180664062e+01,-1.240230941772460938e+01,-1.492541313171386719e+01,-1.066180801391601562e+01,-1.488641834259033203e+01,-6.588940620422363281e+00,-5.440657138824462891e-01,-1.289522933959960938e+01,-1.463200688362121582e+00,2.433424443006515503e-02,-2.677359008789062500e+01,-1.464794445037841797e+01,-6.545012950897216797e+00,-9.112420082092285156e+00,-6.968475818634033203e+00,-1.391892433166503906e+01,-1.583259963989257812e+01,-1.157178306579589844e+01,-2.148474931716918945e+00,5.940980091691017151e-02
-3.205677032470703125e+00,-2.540864944458007812e+01,-1.018486785888671875e+01,-1.339909362792968750e+01,-8.587430953979492188e+00,-1.428439140319824219e+01,-5.598443031311035156e+00,-8.612704873085021973e-01,-1.213963317871093750e+01,3.935362398624420166e-01,3.800254166126251221e-01,-2.565648841857910156e+01,-1.407570266723632812e+01,-6.291442394256591797e+00,-9.171479225158691406e+00,-6.933203220367431641e+00,-1.148869991302490234e+01,-1.557990074157714844e+01,-1.165782070159912109e+01,-3.185730934143066406e+00,5.959440488368272781e-03
4.199856221675872803e-01,-2.368743896484375000e+01,-8.047106742858886719e+00,-1.153197956085205078e+01,-6.823110580444335938e+00,-1.344366550445556641e+01,-4.796204090118408203e+00,-1.251676321029663086e+00,-1.135693073272705078e+01,2.536302089691162109e+00,8.127830028533935547e-01,-2.450069046020507812e+01,-1.383585262298583984e+01,-6.337827205657958984e+00,-9.604127883911132812e+00,-7.202870845794677734e+00,-8.867740631103515625e+00,-1.507450485229492188e+01,-1.162066841125488281e+01,-3.685889959335327148e+00,-4.596725851297378540e-02
4.214995384216308594e+00,-2.156291389465332031e+01,-6.037611961364746094e+00,-9.227998733520507812e+00,-5.458862781524658203e+00,-1.221848773956298828e+01,-4.161900520324707031e+00,-1.596331477165222168e+00,-1.052001476287841797e+01,4.811458587646484375e+00,1.265301227569580078e+00,-2.352490806579589844e+01,-1.384907245635986328e+01,-6.688805580139160156e+00,-1.019747352600097656e+01,-7.625009059906005859e+00,-6.113595485687255859e+00,-1.417461872100830078e+01,-1.140166378021240234e+01,-3.614010810852050781e+00,-9.251633286476135254e-02
7.754964351654052734e+00,-1.895359802246093750e+01,-4.127230644226074219e+00,-6.479897499084472656e+00,-4.432676315307617188e+00,-1.048634052276611328e+01,-3.609960317611694336e+00,-1.730533480644226074e+00,-9.578060150146484375e+00,7.035947322845458984e+00,1.664465785026550293e+00,-2.280484771728515625e+01,-1.395672225952148438e+01,-7.214499950408935547e+00,-1.074686717987060547e+01,-8.041458129882812500e+00,-3.272304534912109375e+00,-1.280162620544433594e+01,-1.097343254089355469e+01,-3.075915575027465820e+00,-1.305182427167892456e-01
1.059306049346923828e+01,-1.587985992431640625e+01,-2.277095794677734375e+00,-3.414568901062011719e+00,-3.580521583557128906e+00,-8.228210449218750000e+00,-3.034487724304199219e+00,-1.510930180549621582e+00,-8.481938362121582031e+00,9.033246994018554688e+00,1.954946875572204590e+00,-2.230517959594726562e+01,-1.396805286407470703e+01,-7.701540470123291016e+00,-1.112045574188232422e+01,-8.336157798767089844e+00,-4.112821817398071289e-01,-1.097798824310302734e+01,-1.033401775360107422e+01,-2.282249927520751953e+00,-1.576997041702270508e-01
1.234978294372558594e+01,-1.253317260742187500e+01,-4.988674223423004150e-01,-3.147982358932495117e-01,-2.746370077133178711e+00,-5.596190929412841797e+00,-2.361676692962646484e+00,-8.948209881782531738e-01,-7.241811752319335938e+00,1.062356853485107422e+01,2.103151559829711914e+00,-2.197206878662109375e+01,-1.375275421142578125e+01,-7.958203315734863281e+00,-1.130999660491943359e+01,-8.493180274963378906e+00,2.326420068740844727e+00,-8.862342834472656250e+00,-9.520572662353515625e+00,-1.492577552795410156e+00,-1.730503886938095093e-01
1.284558296203613281e+01,-9.235371589660644531e+00,1.118057250976562500e+00,2.465931653976440430e+00,-1.862209439277648926e+00,-2.881788253784179688e+00,-1.589388132095336914e+00,2.629279159009456635e-02,-5.939001083374023438e+00,1.165817642211914062e+01,2.097223281860351562e+00,-2.180046463012695312e+01,-1.327683067321777344e+01,-7.893264293670654297e+00,-1.141575431823730469e+01,-8.591033935546875000e+00,4.740201950073242188e+00,-6.720024585723876953e+00,-8.628911972045898438e+00,-9.175444245338439941e-01,-1.770184189081192017e-01
1.222532272338867188e+01,-6.306255817413330078e+00,2.449299335479736328e+00,4.644834995269775391e+00,-9.760484099388122559e-01,-3.934098482131958008e-01,-7.924975752830505371e-01,1.072458386421203613e+00,-4.687015533447265625e+00,1.208149909973144531e+01,1.939138412475585938e+00,-2.183242988586425781e+01,-1.258560848236083984e+01,-7.528370857238769531e+00,-1.158469295501708984e+01,-8.736677169799804688e+00,6.649194717407226562e+00,-4.826192855834960938e+00,-7.801779747009277344e+00,-6.130563616752624512e-01,-1.713882088661193848e-01
1.089706993103027344e+01,-3.961741685867309570e+00,3.370480060577392578e+00,6.089581489562988281e+00,-2.219113558530807495e-01,1.632358312606811523e+00,-1.100597530603408813e-01,2.066773414611816406e+00,-3.590893030166625977e+00,1.195564651489257812e+01,1.615064263343811035e+00,-2.209320068359375000e+01,-1.177540493011474609e+01,-6.967114448547363281e+00,-1.193081188201904297e+01,-9.017723083496093750e+00,7.935010433197021484e+00,-3.375986337661743164e+00,-7.195606708526611328e+00,-4.623098075389862061e-01,-1.588648557662963867e-01
9.411710739135742188e+00,-2.275157928466796875e+00,3.807749271392822266e+00,6.850928783416748047e+00,2.301707863807678223e-01,3.092009782791137695e+00,3.092437386512756348e-01,2.905535936355590820e+00,-2.691293001174926758e+00,1.148165512084960938e+01,1.091407775878906250e+00,-2.249192428588867188e+01,-1.094631576538085938e+01,-6.319273471832275391e+00,-1.248157882690429688e+01,-9.446688652038574219e+00,8.579562187194824219e+00,-2.418541193008422852e+00,-6.915985107421875000e+00,-2.117310911417007446e-01,-1.425038278102874756e-01
8.277288436889648438e+00,-1.173175096511840820e+00,3.768880844116210938e+00,7.126463890075683594e+00,2.741787731647491455e-01,4.029904365539550781e+00,3.680745959281921387e-01,3.634496688842773438e+00,-1.944167733192443848e+00,1.097661018371582031e+01,3.563126921653747559e-01,-2.279307174682617188e+01,-1.014744472503662109e+01,-5.638963222503662109e+00,-1.314359951019287109e+01,-9.948475837707519531e+00,8.673285484313964844e+00,-1.838739514350891113e+00,-6.939449787139892578e+00,4.152148067951202393e-01,-1.250754296779632568e-01
7.765166282653808594e+00,-5.050597190856933594e-01,3.349102258682250977e+00,7.159093379974365234e+00,-9.188773483037948608e-02,4.600245952606201172e+00,6.001488119363784790e-02,4.424458503723144531e+00,-1.244478940963745117e+00,1.079191684722900391e+01,-5.388434529304504395e-01,-2.266016387939453125e+01,-9.378789901733398438e+00,-4.906083106994628906e+00,-1.373557090759277344e+01,-1.038654327392578125e+01,8.367452621459960938e+00,-1.406344890594482422e+00,-7.099792480468750000e+00,1.598225831985473633e+00,-1.086084768176078796e-01
7.848819732666015625e+00,-1.282264143228530884e-01,2.674736022949218750e+00,7.135527610778808594e+00,-7.760120630264282227e-01,4.982585906982421875e+00,-5.229453444480895996e-01,5.458424091339111328e+00,-5.041302442550659180e-01,1.117601299285888672e+01,-1.473520874977111816e+00,-2.182065391540527344e+01,-8.613912582397460938e+00,-4.072702884674072266e+00,-1.406932830810546875e+01,-1.065165996551513672e+01,7.810046195983886719e+00,-8.925254344940185547e-01,-7.158454418182373047e+00,3.320330381393432617e+00,-9.424369037151336670e-02
8.228320121765136719e+00,4.174484871327877045e-03,1.858499884605407715e+00,7.111962318420410156e+00,-1.640169024467468262e+00,5.295217514038085938e+00,-1.238542437553405762e+00,6.785193920135498047e+00,2.887374460697174072e-01,1.215668392181396484e+01,-2.261969566345214844e+00,-2.021734237670898438e+01,-7.862255573272705078e+00,-3.148099184036254883e+00,-1.403361797332763672e+01,-1.072334384918212891e+01,7.079992294311523438e+00,-1.891823858022689819e-01,-6.943360805511474609e+00,5.353911399841308594e+00,-8.237217366695404053e-02
8.516006469726562500e+00,-1.241525411605834961e-01,9.917349815368652344e-01,7.034014701843261719e+00,-2.532331228256225586e+00,5.567713737487792969e+00,-1.916701674461364746e+00,8.285816192626953125e+00,1.054498553276062012e+00,1.352471923828125000e+01,-2.698679447174072266e+00,-1.806052589416503906e+01,-7.154035568237304688e+00,-2.226587772369384766e+00,-1.361882495880126953e+01,-1.065734958648681641e+01,6.195377349853515625e+00,6.517407894134521484e-01,-6.431046962738037109e+00,7.312618255615234375e+00,-7.281465828418731689e-02
8.411950111389160156e+00,-5.600570440292358398e-01,1.346871852874755859e-01,6.796546936035156250e+00,-3.330476284027099609e+00,5.738816261291503906e+00,-2.423716545104980469e+00,9.710187911987304688e+00,1.666090965270996094e+00,1.488131427764892578e+01,-2.619636774063110352e+00,-1.574556732177734375e+01,-6.542133808135986328e+00,-1.456600069999694824e+00,-1.289225101470947266e+01,-1.054128932952880859e+01,5.144691467285156250e+00,1.444932103157043457e+00,-5.758390426635742188e+00,8.796123504638671875e+00,-6.509857624769210815e-02
7.836577415466308594e+00,-1.291317343711853027e+00,-6.718317270278930664e-01,6.337925910949707031e+00,-3.980594396591186523e+00,5.730366706848144531e+00,-2.692199230194091797e+00,1.075635337829589844e+01,2.010005712509155273e+00,1.579170417785644531e+01,-1.969512462615966797e+00,-1.370988273620605469e+01,-6.035993099212646484e+00,-9.788365960121154785e-01,-1.195141410827636719e+01,-1.042295455932617188e+01,3.927934885025024414e+00,1.964367032051086426e+00,-5.150262355804443359e+00,9.555846214294433594e+00,-5.866986885666847229e-02
6.926591396331787109e+00,-2.212012767791748047e+00,-1.377292871475219727e+00,5.696218967437744141e+00,-4.454680442810058594e+00,5.485331058502197266e+00,-2.706104755401611328e+00,1.126571083068847656e+01,2.067607164382934570e+00,1.594697666168212891e+01,-7.957315444946289062e-01,-1.225630378723144531e+01,-5.577066421508789062e+00,-8.242205977439880371e-01,-1.085949325561523438e+01,-1.026138114929199219e+01,2.615810871124267578e+00,2.068253993988037109e+00,-4.782647609710693359e+00,9.540871620178222656e+00,-5.299891531467437744e-02
5.916628837585449219e+00,-3.138819217681884766e+00,-1.931167244911193848e+00,4.982002735137939453e+00,-4.750734329223632812e+00,5.020608425140380859e+00,-2.497522592544555664e+00,1.125046062469482422e+01,1.925297737121582031e+00,1.526377582550048828e+01,7.396687269210815430e-01,-1.147231292724609375e+01,-5.055817127227783203e+00,-9.061670899391174316e-01,-9.643959045410156250e+00,-9.958716392517089844e+00,1.339860677719116211e+00,1.746765851974487305e+00,-4.700520992279052734e+00,8.901946067810058594e+00,-4.776795208454132080e-02
4.986239433288574219e+00,-3.878227233886718750e+00,-2.304303884506225586e+00,4.333045005798339844e+00,-4.886758804321289062e+00,4.420693874359130859e+00,-2.127423048019409180e+00,1.085700511932373047e+01,1.723692417144775391e+00,1.385814762115478516e+01,2.411417245864868164e+00,-1.127379131317138672e+01,-4.368371486663818359e+00,-1.080883145332336426e+00,-8.332280158996582031e+00,-9.440999984741210938e+00,2.464240640401840210e-01,1.112212896347045898e+00,-4.829577445983886719e+00,7.907617568969726562e+00,-4.300141707062721252e-02
4.157866477966308594e+00,-4.291725635528564453e+00,-2.496702194213867188e+00,3.845420122146606445e+00,-4.884758472442626953e+00,3.814442157745361328e+00,-1.663194179534912109e+00,1.025614547729492188e+01,1.596630334854125977e+00,1.196218395233154297e+01,3.982386589050292969e+00,-1.150596046447753906e+01,-3.495845079421997070e+00,-1.235499143600463867e+00,-7.021975040435791016e+00,-8.737814903259277344e+00,-5.641989111900329590e-01,3.077905774116516113e-01,-5.058358669281005859e+00,6.802475929260253906e+00,-3.913930058479309082e-02
3.311130285263061523e+00,-4.344686031341552734e+00,-2.539457559585571289e+00,3.528192281723022461e+00,-4.756735324859619141e+00,3.330708265304565430e+00,-1.165806055068969727e+00,9.505834579467773438e+00,1.589853644371032715e+00,9.809611320495605469e+00,5.245090484619140625e+00,-1.207797145843505859e+01,-2.566660881042480469e+00,-1.380838274955749512e+00,-5.898464202880859375e+00,-8.028942108154296875e+00,-1.080498337745666504e+00,-5.752489566802978516e-01,-5.351667881011962891e+00,5.701327323913574219e+00,-3.679269924759864807e-02
2.321571111679077148e+00,-4.100253582000732422e+00,-2.477267980575561523e+00,3.310664415359497070e+00,-4.514691352844238281e+00,3.053987026214599609e+00,-6.887413859367370605e-01,8.529820442199707031e+00,1.647455096244812012e+00,7.558971881866455078e+00,6.071084499359130859e+00,-1.299150562286376953e+01,-1.813115119934082031e+00,-1.639046907424926758e+00,-5.196613311767578125e+00,-7.573806285858154297e+00,-1.368244767189025879e+00,-1.529886245727539062e+00,-5.779900074005126953e+00,4.588198661804199219e+00,-3.637715801596641541e-02
1.183068275451660156e+00,-3.682681322097778320e+00,-2.378153800964355469e+00,3.084073066711425781e+00,-4.202634811401367188e+00,2.982166290283203125e+00,-3.068756759166717529e-01,7.169499874114990234e+00,1.630513548851013184e+00,5.306697368621826172e+00,6.399110794067382812e+00,-1.428525829315185547e+01,-1.510941386222839355e+00,-2.170926094055175781e+00,-5.108710289001464844e+00,-7.607941150665283203e+00,-1.550758242607116699e+00,-2.610872507095336914e+00,-6.481886863708496094e+00,3.414172649383544922e+00,-3.779489547014236450e-02
8.945249021053314209e-02,-3.220296621322631836e+00,-2.312077522277832031e+00,2.777721405029296875e+00,-3.900579690933227539e+00,3.043425083160400391e+00,-1.047114953398704529e-01,5.327271938323974609e+00,1.388248443603515625e+00,3.145952463150024414e+00,6.235097408294677734e+00,-1.589698123931884766e+01,-1.862218379974365234e+00,-3.044506549835205078e+00,-5.693814754486083984e+00,-8.216685295104980469e+00,-1.736560344696044922e+00,-3.857516527175903320e+00,-7.547577857971191406e+00,2.200213670730590820e+00,-4.026371613144874573e-02
-6.185413002967834473e-01,-2.761985778808593750e+00,-2.323737859725952148e+00,2.411549806594848633e+00,-3.702543735504150391e+00,3.136369705200195312e+00,-1.592637300491333008e-01,3.085488557815551758e+00,8.444224596023559570e-01,1.240182161331176758e+00,5.648207187652587891e+00,-1.757936477661132812e+01,-2.883943319320678711e+00,-4.146918773651123047e+00,-6.807711601257324219e+00,-9.272599220275878906e+00,-1.950314879417419434e+00,-5.209451675415039062e+00,-8.910489082336425781e+00,1.093075156211853027e+00,-4.254513233900070190e-02
-6.144606471061706543e-01,-2.289416551589965820e+00,-2.411191701889038086e+00,2.105198144912719727e+00,-3.674538612365722656e+00,3.182842016220092773e+00,-4.929950833320617676e-01,7.552536725997924805e-01,5.155479162931442261e-02,-1.850596070289611816e-01,4.776763439178466797e+00,-1.892863655090332031e+01,-4.375926017761230469e+00,-5.187484264373779297e+00,-8.111148834228515625e+00,-1.045936489105224609e+01,-2.113097190856933594e+00,-6.502423286437988281e+00,-1.032228565216064453e+01,3.243675529956817627e-01,-4.342510923743247986e-02
2.587997019290924072e-01,-1.706852555274963379e+00,-2.488928556442260742e+00,2.043565273284912109e+00,-3.792560100555419922e+00,3.168055295944213867e+00,-1.029960274696350098e+00,-1.212025761604309082e+00,-8.090793490409851074e-01,-9.091216325759887695e-01,3.826277732849121094e+00,-1.951915359497070312e+01,-5.952895164489746094e+00,-5.809040546417236328e+00,-9.156371116638183594e+00,-1.136736011505126953e+01,-2.057192087173461914e+00,-7.494965553283691406e+00,-1.143490600585937500e+01,7.678382098674774170e-02,-4.221921786665916443e-02
1.856376409530639648e+00,-9.185579419136047363e-01,-2.428682565689086914e+00,2.395235061645507812e+00,-3.942587375640869141e+00,3.151156187057495117e+00,-1.607572317123413086e+00,-2.371042966842651367e+00,-1.505379796028137207e+00,-8.339368700981140137e-01,3.016092300415039062e+00,-1.909182739257812500e+01,-7.188030242919921875e+00,-5.731732845306396484e+00,-9.545067787170410156e+00,-1.165295791625976562e+01,-1.601730585098266602e+00,-7.975091934204101562e+00,-1.194330883026123047e+01,3.782769143581390381e-01,-3.900078684091567993e-02
3.790607213973999023e+00,1.121321395039558411e-01,-2.092471122741699219e+00,3.223653316497802734e+00,-3.948588609695434570e+00,3.216639995574951172e+00,-2.022597074508666992e+00,-2.456444263458251953e+00,-1.840823888778686523e+00,-6.247574836015701294e-02,2.516148567199707031e+00,-1.769544982910156250e+01,-7.760272026062011719e+00,-4.895259857177734375e+00,-9.050613403320312500e+00,-1.115799808502197266e+01,-6.381908655166625977e-01,-7.855762481689453125e+00,-1.174581336975097656e+01,1.052143931388854980e+00,-3.458461537957191467e-02
5.557531356811523438e+00,1.297629475593566895e+00,-1.406444191932678223e+00,4.434557914733886719e+00,-3.660536050796508789e+00,3.389854669570922852e+00,-2.119935512542724609e+00,-1.520080327987670898e+00,-1.744256615638732910e+00,1.111060500144958496e+00,2.383752346038818359e+00,-1.569004821777343750e+01,-7.578967571258544922e+00,-3.508354425430297852e+00,-7.732067108154296875e+00,-9.966681480407714844e+00,8.153399825096130371e-01,-7.201554775238037109e+00,-1.098320960998535156e+01,1.795893430709838867e+00,-3.018473647534847260e-02
6.738881111145019531e+00,2.436277151107788086e+00,-4.172438383102416992e-01,5.812233924865722656e+00,-3.050425291061401367e+00,3.601092338562011719e+00,-1.862149357795715332e+00,1.360944360494613647e-01,-1.276668071746826172e+00,2.296037673950195312e+00,2.535909175872802734e+00,-1.360389328002929688e+01,-6.797092914581298828e+00,-1.957555890083312988e+00,-5.887476444244384766e+00,-8.355501174926757812e+00,2.596079587936401367e+00,-6.185146808624267578e+00,-9.980091094970703125e+00,2.338980436325073242e+00,-2.696630731225013733e-02
7.169390201568603516e+00,3.324381589889526367e+00,7.429773807525634766e-01,7.124651432037353516e+00,-2.212273120880126953e+00,3.734171867370605469e+00,-1.324114561080932617e+00,2.097273826599121094e+00,-5.651201009750366211e-01,3.214599609375000000e+00,2.820462226867675781e+00,-1.189627361297607422e+01,-5.711156368255615234e+00,-6.294044256210327148e-01,-3.931633234024047852e+00,-6.664673328399658203e+00,4.490273952484130859e+00,-4.970792293548583984e+00,-9.066921234130859375e+00,2.564600944519042969e+00,-2.563819661736488342e-02
6.957196235656738281e+00,3.853985309600830078e+00,1.912915706634521484e+00,8.221353530883789062e+00,-1.320110917091369629e+00,3.710935831069946289e+00,-6.480945944786071777e-01,3.985251903533935547e+00,2.684074938297271729e-01,3.807905435562133789e+00,3.099086761474609375e+00,-1.079094791412353516e+01,-4.608222007751464844e+00,2.410836815834045410e-01,-2.229884862899780273e+00,-5.159312248229980469e+00,6.300610065460205078e+00,-3.630088329315185547e+00,-8.433372497558593750e+00,2.536648035049438477e+00,-2.620040439069271088e-02
6.347138404846191406e+00,4.039346694946289062e+00,2.927380323410034180e+00,9.067899703979492188e+00,-5.819767713546752930e-01,3.552507638931274414e+00,7.601941935718059540e-03,5.571275711059570312e+00,1.144289135932922363e+00,4.255744934082031250e+00,3.286812782287597656e+00,-1.021893692016601562e+01,-3.671483516693115234e+00,6.430853009223937988e-01,-9.937480688095092773e-01,-3.949790000915527344e+00,7.877460956573486328e+00,-2.154612064361572266e+00,-8.063802719116210938e+00,2.459777355194091797e+00,-2.801739051938056946e-02
5.547329902648925781e+00,3.994533777236938477e+00,3.640615224838256836e+00,9.724107742309570312e+00,-1.919059157371520996e-01,3.389854669570922852e+00,5.210347771644592285e-01,6.788243770599365234e+00,2.021864891052246094e+00,4.849050998687744141e+00,3.379687786102294922e+00,-9.895919799804687500e+00,-2.916049242019653320e+00,7.621396183967590332e-01,-2.149819284677505493e-01,-2.968972921371459961e+00,9.105727195739746094e+00,-5.176899433135986328e-01,-7.780270099639892578e+00,2.578577518463134766e+00,-3.011955320835113525e-02
4.598577022552490234e+00,3.841763496398925781e+00,3.930184602737426758e+00,1.024254894256591797e+01,-2.819222807884216309e-01,3.377180576324462891e+00,8.248159289360046387e-01,7.697157382965087891e+00,2.872334003448486328e+00,5.813377380371093750e+00,3.436993598937988281e+00,-9.508971214294433594e+00,-2.219161033630371094e+00,8.688246607780456543e-01,3.083159923553466797e-01,-2.020015478134155273e+00,9.876888275146484375e+00,1.238561987876892090e+00,-7.318796634674072266e+00,3.047788619995117188e+00,-3.153729066252708435e-02
3.392743349075317383e+00,3.615663528442382812e+00,3.702804565429687500e+00,1.057246589660644531e+01,-8.900327682495117188e-01,3.590530395507812500e+00,9.007611870765686035e-01,8.355967521667480469e+00,3.619459390640258789e+00,7.129110813140869141e+00,3.523940324783325195e+00,-8.883125305175781250e+00,-1.433509349822998047e+00,1.182695150375366211e+00,8.535896539688110352e-01,-8.855902552604675293e-01,1.004953575134277344e+01,2.937254667282104492e+00,-6.501441001892089844e+00,3.854432344436645508e+00,-3.155358880758285522e-02
1.789045691490173340e+00,3.228645563125610352e+00,2.913776397705078125e+00,1.053983688354492188e+01,-1.946224689483642578e+00,3.947521924972534180e+00,7.627760767936706543e-01,8.779923439025878906e+00,4.142955303192138672e+00,8.518394470214843750e+00,3.684001207351684570e+00,-8.048663139343261719e+00,-4.759964048862457275e-01,1.796520709991455078e+00,1.643343687057495117e+00,5.606027245521545410e-01,9.488841056823730469e+00,4.299016952514648438e+00,-5.293006420135498047e+00,4.828794002532958984e+00,-3.004622273147106171e-02
-1.757901459932327271e-01,2.566641092300415039e+00,1.642780423164367676e+00,9.943449020385742188e+00,-3.236459016799926758e+00,4.247478961944580078e+00,4.632736146450042725e-01,8.956826210021972656e+00,4.341172218322753906e+00,9.577519416809082031e+00,3.946817636489868164e+00,-7.185599803924560547e+00,6.344920396804809570e-01,2.684016466140747070e+00,2.768228292465209961e+00,2.315150022506713867e+00,8.178361892700195312e+00,5.072553634643554688e+00,-3.802994251251220703e+00,5.694338798522949219e+00,-2.745518274605274200e-02
-2.228359937667846680e+00,1.578726768493652344e+00,1.171964183449745178e-01,8.674536705017089844e+00,-4.444678783416748047e+00,4.277052402496337891e+00,8.889547735452651978e-02,8.892775535583496094e+00,4.198862552642822266e+00,9.981228828430175781e+00,4.324245452880859375e+00,-6.509281635284423828e+00,1.786529421806335449e+00,3.758597850799560547e+00,4.152701377868652344e+00,4.250613689422607422e+00,6.282523155212402344e+00,5.149766921997070312e+00,-2.223034143447875977e+00,6.188508033752441406e+00,-2.457081899046897888e-02
-3.942235469818115234e+00,3.423060178756713867e-01,-1.367575764656066895e+00,6.807423114776611328e+00,-5.268828392028808594e+00,3.926398038864135742e+00,-2.737164795398712158e-01,8.630471229553222656e+00,3.795652151107788086e+00,9.633090972900390625e+00,4.806404590606689453e+00,-6.174487590789794922e+00,2.812031507492065430e+00,4.912033081054687500e+00,5.578379154205322266e+00,6.153079986572265625e+00,4.112092494964599609e+00,4.619101047515869141e+00,-7.662640213966369629e-01,6.184514999389648438e+00,-2.215088717639446259e-02
-4.921592712402343750e+00,-9.491119980812072754e-01,-2.531683921813964844e+00,4.612205505371093750e+00,-5.520874023437500000e+00,3.246213197708129883e+00,-5.550348758697509766e-01,8.298016548156738281e+00,3.307733774185180664e+00,8.701453208923339844e+00,5.361678123474121094e+00,-6.218229293823242188e+00,3.567465782165527344e+00,6.070106983184814453e+00,6.782925605773925781e+00,7.807497501373291016e+00,2.051827669143676758e+00,3.733253717422485352e+00,4.108844995498657227e-01,5.730278491973876953e+00,-2.057833783328533173e-02
-4.990963935852050781e+00,-2.075538158416748047e+00,-3.209937095642089844e+00,2.456867933273315430e+00,-5.202816486358642578e+00,2.397038221359252930e+00,-7.165523171424865723e-01,8.054013252258300781e+00,2.929935693740844727e+00,7.539358139038085938e+00,5.934735774993896484e+00,-6.578259468078613281e+00,3.981065988540649414e+00,7.194165706634521484e+00,7.565812587738037109e+00,9.075049400329589844e+00,4.174276888370513916e-01,2.808098077774047852e+00,1.261481881141662598e+00,5.018475055694580078e+00,-1.959243975579738617e-02
-4.293171882629394531e+00,-2.898460626602172852e+00,-3.431486845016479492e+00,6.948931217193603516e-01,-4.530694484710693359e+00,1.568987011909484863e+00,-7.839403748512268066e-01,8.047912597656250000e+00,2.794402599334716797e+00,6.501481533050537109e+00,6.428751468658447266e+00,-7.143540382385253906e+00,4.056609630584716797e+00,8.253285408020019531e+00,7.841882705688476562e+00,9.925015449523925781e+00,-6.480564475059509277e-01,2.082292795181274414e+00,1.826591372489929199e+00,4.338618278503417969e+00,-1.854135841131210327e-02
-3.238322257995605469e+00,-3.407694816589355469e+00,-3.375127792358398438e+00,-4.634422063827514648e-01,-3.834567785263061523e+00,8.909144997596740723e-01,-8.160299062728881836e-01,8.362067222595214844e+00,2.923158884048461914e+00,5.798667430877685547e+00,6.729113101959228516e+00,-7.816493988037109375e+00,3.839422225952148438e+00,9.184073448181152344e+00,7.639980792999267578e+00,1.040176963806152344e+01,-1.198885440826416016e+00,1.645686626434326172e+00,2.184428930282592773e+00,3.943283081054687500e+00,-1.674881577491760254e-02
-2.285489320755004883e+00,-3.696939945220947266e+00,-3.217710733413696289e+00,-9.782578945159912109e-01,-3.354480504989624023e+00,4.029557406902313232e-01,-8.449105620384216309e-01,8.981226921081542969e+00,3.265379667282104492e+00,5.453798294067382812e+00,6.772586345672607422e+00,-8.543283462524414062e+00,3.403158903121948242e+00,9.893760681152343750e+00,7.069983959197998047e+00,1.058951282501220703e+01,-1.376466155052185059e+00,1.457566976547241211e+00,2.415165662765502930e+00,3.907343387603759766e+00,-1.395407784730195999e-02
-1.742761969566345215e+00,-3.868042469024658203e+00,-3.031142473220825195e+00,-9.256887435913085938e-01,-3.132440328598022461e+00,9.032414853572845459e-02,-8.417015671730041504e-01,9.804738998413085938e+00,3.729579925537109375e+00,5.344289779663085938e+00,6.592764854431152344e+00,-9.323909759521484375e+00,2.823363065719604492e+00,1.025247001647949219e+01,6.263748168945312500e+00,1.055082702636718750e+01,-1.297541379928588867e+00,1.407027363777160645e+00,2.555954217910766602e+00,4.105010986328125000e+00,-1.052380353212356567e-02
-1.661148905754089355e+00,-3.947483062744140625e+00,-2.743516445159912109e+00,-4.271875917911529541e-01,-3.026420831680297852e+00,-3.641838207840919495e-02,-7.219005823135375977e-01,1.064350128173828125e+01,4.246299266815185547e+00,5.326311111450195312e+00,6.320067882537841797e+00,-1.019874858856201172e+01,2.185020923614501953e+00,1.012723159790039062e+01,5.320163726806640625e+00,1.029253768920898438e+01,-9.769095778465270996e-01,1.412642836570739746e+00,2.589195966720581055e+00,4.288702487945556641e+00,-7.354262284934520721e-03
-1.869262337684631348e+00,-3.868042469024658203e+00,-2.183811902999877930e+00,4.175452291965484619e-01,-2.772374868392944336e+00,8.398701995611190796e-02,-3.678458333015441895e-01,1.129926109313964844e+01,4.791819572448730469e+00,5.324676513671875000e+00,6.148150920867919922e+00,-1.119808483123779297e+01,1.595782160758972168e+00,9.437644004821777344e+00,4.299664497375488281e+00,9.781647682189941406e+00,-3.257803916931152344e-01,1.464586377143859863e+00,2.481649160385131836e+00,4.180883407592773438e+00,-5.545423831790685654e-03
-2.105940341949462891e+00,-3.523800134658813477e+00,-1.217932462692260742e+00,1.528749585151672363e+00,-2.168265104293823242e+00,5.254735350608825684e-01,2.964079380035400391e-01,1.159511566162109375e+01,5.361057758331298828e+00,5.360634326934814453e+00,6.235097408294677734e+00,-1.232696342468261719e+01,1.172739028930664062e+00,8.189892768859863281e+00,3.209116935729980469e+00,8.962404251098632812e+00,7.413480281829833984e-01,1.603570342063903809e+00,2.213759899139404297e+00,3.620825052261352539e+00,-5.798009224236011505e-03
-2.154908180236816406e+00,-2.843463420867919922e+00,1.541213840246200562e-01,2.832103490829467773e+00,-1.174084424972534180e+00,1.317614316940307617e+00,1.263373136520385742e+00,1.145481395721435547e+01,5.938766956329345703e+00,5.512638568878173828e+00,6.657974720001220703e+00,-1.351977348327636719e+01,1.029206514358520508e+00,6.510762691497802734e+00,2.059509754180908203e+00,7.820013523101806641e+00,2.224475622177124023e+00,1.884346008300781250e+00,1.830502152442932129e+00,2.624500274658203125e+00,-8.160906843841075897e-03
-1.905988216400146484e+00,-1.857585787773132324e+00,1.786593437194824219e+00,4.242408275604248047e+00,8.214388787746429443e-02,2.386476278305053711e+00,2.444268703460693359e+00,1.094545650482177734e+01,6.484286785125732422e+00,5.823184013366699219e+00,7.398997783660888672e+00,-1.465369987487792969e+01,1.238839507102966309e+00,4.644547462463378906e+00,8.975411653518676758e-01,6.406817913055419922e+00,3.977262735366821289e+00,2.326567649841308594e+00,1.443333745002746582e+00,1.358628630638122559e+00,-1.203116867691278458e-02
-1.318373799324035645e+00,-6.598669290542602539e-01,3.483198165893554688e+00,5.665402412414550781e+00,1.418386697769165039e+00,3.584193229675292969e+00,3.720363378524780273e+00,1.028054618835449219e+01,6.958652019500732422e+00,6.267755031585693359e+00,8.369244575500488281e+00,-1.559415245056152344e+01,1.805415272712707520e+00,2.889655828475952148e+00,-1.998735815286636353e-01,4.833187103271484375e+00,5.779377937316894531e+00,2.920408248901367188e+00,1.193042993545532227e+00,4.184256494045257568e-02,-1.637401059269905090e-02
-3.614599704742431641e-01,6.661790013313293457e-01,5.104009628295898438e+00,7.028576374053955078e+00,2.724623918533325195e+00,4.781910419464111328e+00,4.981482982635498047e+00,9.765088081359863281e+00,7.333062171936035156e+00,6.746649265289306641e+00,9.436318397521972656e+00,-1.623850631713867188e+01,2.636393070220947266e+00,1.518211841583251953e+00,-1.164060235023498535e+00,3.216318368911743164e+00,7.436797618865966797e+00,3.633578538894653320e+00,1.163712024688720703e+00,-1.142166733741760254e+00,-2.007316611707210541e-02
9.973984360694885254e-01,2.071665525436401367e+00,6.635424137115478516e+00,8.297488212585449219e+00,4.030861377716064453e+00,5.931042671203613281e+00,6.152751445770263672e+00,9.707138061523437500e+00,7.610904693603515625e+00,7.151993274688720703e+00,1.044213390350341797e+01,-1.657161712646484375e+01,3.542914152145385742e+00,6.724623441696166992e-01,-1.995018839836120605e+00,1.625619769096374512e+00,8.868952751159667969e+00,4.440808296203613281e+00,1.326009988784790039e+00,-2.103550434112548828e+00,-2.229754999279975891e-02
2.776564359664916992e+00,3.581035614013671875e+00,8.161007881164550781e+00,9.464887619018554688e+00,5.469122886657714844e+00,7.101298332214355469e+00,7.195662021636962891e+00,1.030494689941406250e+01,7.843004703521728516e+00,7.462539196014404297e+00,1.123058223724365234e+01,-1.666919517517089844e+01,4.307791233062744141e+00,3.539533615112304688e-01,-2.775158643722534180e+00,6.564288586378097534e-02,1.014161491394042969e+01,5.344906330108642578e+00,1.558702111244201660e+00,-2.828331708908081055e+00,-2.253383956849575043e-02
4.900545597076416016e+00,5.206511497497558594e+00,9.777933120727539062e+00,1.053802490234375000e+01,7.159430027008056641e+00,8.410971641540527344e+00,8.093099594116210938e+00,1.155851554870605469e+01,8.100517272949218750e+00,7.763278007507324219e+00,1.168112468719482422e+01,-1.667255973815917969e+01,4.753497600555419922e+00,4.266228973865509033e-01,-3.623972415924072266e+00,-1.522779941558837891e+00,1.138632392883300781e+01,6.365525722503662109e+00,1.691668987274169922e+00,-3.348457336425781250e+00,-2.068426087498664856e-02
7.167349815368652344e+00,6.895132064819335938e+00,1.151923656463623047e+01,1.148970794677734375e+01,9.125786781311035156e+00,9.912870407104492188e+00,8.848274230957031250e+00,1.326044082641601562e+01,8.456291198730468750e+00,8.207848548889160156e+00,1.174238204956054688e+01,-1.674658584594726562e+01,4.813932418823242188e+00,6.894701123237609863e-01,-4.622496128082275391e+00,-3.214746236801147461e+00,1.271489048004150391e+01,7.483013153076171875e+00,1.589988470077514648e+00,-3.748784303665161133e+00,-1.691992208361625671e-02
9.305613517761230469e+00,8.500238418579101562e+00,1.329552078247070312e+01,1.228912258148193359e+01,1.123617076873779297e+01,1.153306198120117188e+01,9.468671798706054688e+00,1.505386734008789062e+01,8.959457397460937500e+00,8.941718101501464844e+00,1.146178150177001953e+01,-1.699894332885742188e+01,4.574081897735595703e+00,9.492250084877014160e-01,-5.750127792358398438e+00,-5.042115211486816406e+00,1.413882446289062500e+01,8.622961997985839844e+00,1.222373962402343750e+00,-4.098196506500244141e+00,-1.170525234192609787e-02
1.108069896697998047e+01,9.838505744934082031e+00,1.492410659790039062e+01,1.291632843017578125e+01,1.322853279113769531e+01,1.305608558654785156e+01,9.968199729919433594e+00,1.657888984680175781e+01,9.620180130004882812e+00,1.001882076263427734e+01,1.099147891998291016e+01,-1.742794990539550781e+01,4.237913608551025391e+00,1.088379383087158203e+00,-6.855783462524414062e+00,-6.953684329986572266e+00,1.556769180297851562e+01,9.650601387023925781e+00,6.768183708190917969e-01,-4.422651290893554688e+00,-5.740974098443984985e-03
1.237222671508789062e+01,1.077957057952880859e+01,1.622813987731933594e+01,1.340032768249511719e+01,1.482882308959960938e+01,1.423690319061279297e+01,1.037466716766357422e+01,1.760675621032714844e+01,1.043168354034423828e+01,1.134436130523681641e+01,1.057452964782714844e+01,-1.790406417846679688e+01,4.075495243072509766e+00,1.093017816543579102e+00,-7.677127838134765625e+00,-8.802672386169433594e+00,1.686666107177734375e+01,1.042554187774658203e+01,1.234412640333175659e-01,-4.717155933380126953e+00,7.664158329134806991e-05
1.323120498657226562e+01,1.130917453765869141e+01,1.712017059326171875e+01,1.380637931823730469e+01,1.588501548767089844e+01,1.488962745666503906e+01,1.073941802978515625e+01,1.806426239013671875e+01,1.138210868835449219e+01,1.269932174682617188e+01,1.049153518676757812e+01,-1.822371864318847656e+01,4.339897155761718750e+00,1.015709877014160156e+00,-7.932595729827880859e+00,-1.037971687316894531e+01,1.793214607238769531e+01,1.084389781951904297e+01,-2.656825780868530273e-01,-4.975721359252929688e+00,4.802435636520385742e-03
1.380861759185791016e+01,1.153934860229492188e+01,1.764295005798339844e+01,1.420336723327636719e+01,1.643311500549316406e+01,1.498257160186767578e+01,1.112770175933837891e+01,1.803986167907714844e+01,1.245790100097656250e+01,1.380747985839843750e+01,1.095986175537109375e+01,-1.821698760986328125e+01,5.195426940917968750e+00,9.368557333946228027e-01,-7.427153110504150391e+00,-1.149024677276611328e+01,1.873783493041992188e+01,1.089022541046142578e+01,-3.966941237449645996e-01,-5.219311714172363281e+00,7.711243350058794022e-03
1.425544929504394531e+01,1.163915824890136719e+01,1.794223594665527344e+01,1.462210845947265625e+01,1.665915679931640625e+01,1.463614177703857422e+01,1.160476684570312500e+01,1.771350669860839844e+01,1.364550876617431641e+01,1.443183994293212891e+01,1.207238483428955078e+01,-1.783340454101562500e+01,6.681743621826171875e+00,9.059324860572814941e-01,-6.125089168548583984e+00,-1.202161788940429688e+01,1.933799171447753906e+01,1.064875888824462891e+01,-2.852365374565124512e-01,-5.498841762542724609e+00,8.436408825218677521e-03
1.464719200134277344e+01,1.172674655914306641e+01,1.817544746398925781e+01,1.500459480285644531e+01,1.680318260192871094e+01,1.402777767181396484e+01,1.220591068267822266e+01,1.724990081787109375e+01,1.490765953063964844e+01,1.445472240447998047e+01,1.375994205474853516e+01,-1.718905258178710938e+01,8.723304748535156250e+00,9.275787472724914551e-01,-4.162378787994384766e+00,-1.197496604919433594e+01,1.980989646911621094e+01,1.025848102569580078e+01,-4.863359779119491577e-02,-5.890183925628662109e+00,7.197924423962831497e-03
1.492875766754150391e+01,1.178378105163574219e+01,1.842226028442382812e+01,1.521668434143066406e+01,1.702522277832031250e+01,1.329267120361328125e+01,1.290974140167236328e+01,1.672529220581054688e+01,1.616303253173828125e+01,1.389083671569824219e+01,1.579528617858886719e+01,-1.652619361877441406e+01,1.111992073059082031e+01,9.615942835807800293e-01,-1.816465854644775391e+00,-1.147773075103759766e+01,2.016834640502929688e+01,9.849951744079589844e+00,1.429952234029769897e-01,-6.453237056732177734e+00,4.753548186272382736e-03
1.493895912170410156e+01,1.167989635467529297e+01,1.862048912048339844e+01,1.510973262786865234e+01,1.730527305603027344e+01,1.246884441375732422e+01,1.362212944030761719e+01,1.612748336791992188e+01,1.727779197692871094e+01,1.286113262176513672e+01,1.783853340148925781e+01,-1.612410354614257812e+01,1.358452510833740234e+01,9.430403709411621094e-01,5.431819558143615723e-01,-1.073927307128906250e+01,2.034099388122558594e+01,9.473712921142578125e+00,1.175750792026519775e-01,-7.175023555755615234e+00,2.113621914759278297e-03
1.451865196228027344e+01,1.123380756378173828e+01,1.860299873352050781e+01,1.459491729736328125e+01,1.746130180358886719e+01,1.150982666015625000e+01,1.419332408905029297e+01,1.538937282562255859e+01,1.808760070800781250e+01,1.152578544616699219e+01,1.953794670104980469e+01,-1.617457389831542969e+01,1.578283882141113281e+01,8.131629228591918945e-01,2.556711435317993164e+00,-1.000536727905273438e+01,2.019465446472167969e+01,9.079222679138183594e+00,-2.324408441781997681e-01,-7.948722839355468750e+00,2.477479283697903156e-04
1.357397937774658203e+01,1.031107521057128906e+01,1.815989875793457031e+01,1.367586231231689453e+01,1.721525764465332031e+01,1.032478332519531250e+01,1.445324897766113281e+01,1.446215915679931641e+01,1.841457366943359375e+01,1.002862834930419922e+01,2.059514045715332031e+01,-1.671966743469238281e+01,1.738247108459472656e+01,5.348541140556335449e-01,3.942558050155639648e+00,-9.479685783386230469e+00,1.959285354614257812e+01,8.537325859069824219e+00,-9.324727058410644531e-01,-8.589645385742187500e+00,-2.329794224351644516e-04
1.210698413848876953e+01,8.887256622314453125e+00,1.712405776977539062e+01,1.243595409393310547e+01,1.632509613037109375e+01,8.871469497680664062e+00,1.425643348693847656e+01,1.333669185638427734e+01,1.811470794677734375e+01,8.462822914123535156e+00,2.085202789306640625e+01,-1.765170669555664062e+01,1.814546012878417969e+01,1.081139147281646729e-01,4.574361324310302734e+00,-9.258945465087890625e+00,1.845831108093261719e+01,7.721672534942626953e+00,-1.906260013580322266e+00,-8.904116630554199219e+00,7.936586043797433376e-04
1.022580146789550781e+01,7.082530021667480469e+00,1.546049022674560547e+01,1.099845790863037109e+01,1.471680259704589844e+01,7.209029674530029297e+00,1.354725456237792969e+01,1.207092285156250000e+01,1.713548088073730469e+01,6.897018909454345703e+00,2.032244491577148438e+01,-1.875703430175781250e+01,1.798493003845214844e+01,-4.067573845386505127e-01,4.505687236785888672e+00,-9.310148239135742188e+00,1.682226562500000000e+01,6.570492267608642578e+00,-3.003237247467041016e+00,-8.764351844787597656e+00,3.018041141331195831e-03
8.109981536865234375e+00,5.098553657531738281e+00,1.328774738311767578e+01,9.473951339721679688e+00,1.251240253448486328e+01,5.487443447113037109e+00,1.237598514556884766e+01,1.077465343475341797e+01,1.555144023895263672e+01,5.416205883026123047e+00,1.920201683044433594e+01,-1.979001617431640625e+01,1.700475311279296875e+01,-8.922516703605651855e-01,3.963160514831542969e+00,-9.471721649169921875e+00,1.482283878326416016e+01,5.145555496215820312e+00,-4.016132354736328125e+00,-8.169351577758789062e+00,5.918700713664293289e-03
5.971717834472656250e+00,3.132909536361694336e+00,1.084681320190429688e+01,7.934942245483398438e+00,1.001194858551025391e+01,3.873588800430297852e+00,1.091056251525878906e+01,9.554635047912597656e+00,1.356927108764648438e+01,4.134795665740966797e+00,1.780494117736816406e+01,-2.056391334533691406e+01,1.547877597808837891e+01,-1.212306737899780273e+00,3.269550323486328125e+00,-9.516097068786621094e+00,1.265734100341796875e+01,3.619539737701416016e+00,-4.751361370086669922e+00,-7.263874053955078125e+00,8.933431468904018402e-03
4.010962963104248047e+00,1.344478964805603027e+00,8.462238311767578125e+00,6.452127933502197266e+00,7.595509052276611328e+00,2.500544548034667969e+00,9.397005081176757812e+00,8.484068870544433594e+00,1.149222946166992188e+01,3.193351745605468750e+00,1.646319580078125000e+01,-2.099292182922363281e+01,1.376016330718994141e+01,-1.254053115844726562e+00,2.748999357223510742e+00,-9.246429443359375000e+00,1.056090259552001953e+01,2.225488424301147461e+00,-5.101377487182617188e+00,-6.307482242584228516e+00,1.158965378999710083e-02
2.401144027709960938e+00,-1.730390191078186035e-01,6.448855876922607422e+00,5.103456020355224609e+00,5.607147693634033203e+00,1.421120762825012207e+00,8.085612297058105469e+00,7.578205585479736328e+00,9.637122154235839844e+00,2.689940690994262695e+00,1.540204906463623047e+01,-2.110227584838867188e+01,1.217564010620117188e+01,-9.927520751953125000e-01,2.592422008514404297e+00,-8.576242446899414062e+00,8.743988990783691406e+00,1.166964173316955566e+00,-5.074001789093017578e+00,-5.568724155426025391e+00,1.369181741029024124e-02
1.289165258407592773e+00,-1.380942583084106445e+00,5.043763637542724609e+00,4.015817165374755859e+00,4.264904022216796875e+00,5.951818823814392090e-01,7.163572311401367188e+00,6.815694332122802734e+00,8.239438056945800781e+00,2.650713682174682617e+00,1.467881107330322266e+01,-2.096095657348632812e+01,1.091973018646240234e+01,-4.917961955070495605e-01,2.794324398040771484e+00,-7.569254875183105469e+00,7.372671604156494141e+00,5.590847730636596680e-01,-4.784603118896484375e+00,-5.232289791107177734e+00,1.529695838689804077e-02
8.035672307014465332e-01,-2.224234580993652344e+00,4.416039466857910156e+00,3.332417249679565430e+00,3.684798479080200195e+00,-2.374412864446640015e-02,6.748547554016113281e+00,6.196535110473632812e+00,7.434711456298828125e+00,3.023368597030639648e+00,1.422431659698486328e+01,-2.065476226806640625e+01,1.005853557586669922e+01,1.359447985887527466e-01,3.213237524032592773e+00,-6.373386383056640625e+00,6.565337181091308594e+00,4.467745125293731689e-01,-4.356371402740478516e+00,-5.387029647827148438e+00,1.667395606637001038e-02
1.017801642417907715e+00,-2.649954319000244141e+00,4.635645866394042969e+00,3.176522254943847656e+00,3.882834434509277344e+00,-4.694553613662719727e-01,6.874766349792480469e+00,5.739028453826904297e+00,7.228024005889892578e+00,3.685321569442749023e+00,1.390814685821533203e+01,-2.027790832519531250e+01,9.550505638122558594e+00,7.791473865509033203e-01,3.662367105484008789e+00,-5.141107082366943359e+00,6.379535198211669922e+00,8.019557595252990723e-01,-3.873388528823852539e+00,-6.036937236785888672e+00,1.819761842489242554e-02
1.913505673408508301e+00,-2.625511169433593750e+00,5.632619857788085938e+00,3.564446926116943359e+00,4.772996425628662109e+00,-7.187156677246093750e-01,7.480189323425292969e+00,5.470624446868896484e+00,7.502478122711181641e+00,4.494375228881835938e+00,1.358604812622070312e+01,-1.991787719726562500e+01,9.304989814758300781e+00,1.372872829437255859e+00,4.002991676330566406e+00,-3.949790000915527344e+00,6.767581462860107422e+00,1.551626801490783691e+00,-3.353253126144409180e+00,-7.086173057556152344e+00,2.024274505674839020e-02
3.292767286300659180e+00,-2.197754383087158203e+00,7.181524753570556641e+00,4.374737739562988281e+00,6.149246215820312500e+00,-7.292775511741638184e-01,8.403298377990722656e+00,5.409623146057128906e+00,8.059857368469238281e+00,5.332848548889160156e+00,1.315724277496337891e+01,-1.963860321044921875e+01,9.220003128051757812e+00,1.918667316436767578e+00,4.204893589019775391e+00,-2.766437768936157227e+00,7.550251960754394531e+00,2.573650360107421875e+00,-2.772500514984130859e+00,-8.360031127929687500e+00,2.302118763327598572e-02
4.776085853576660156e+00,-1.515380501747131348e+00,8.897563934326171875e+00,5.373552799224853516e+00,7.667521953582763672e+00,-4.757924973964691162e-01,9.394865989685058594e+00,5.556025505065917969e+00,8.676531791687011719e+00,6.150074481964111328e+00,1.256047248840332031e+01,-1.942662239074707031e+01,9.214337348937988281e+00,2.489200353622436523e+00,4.344989299774169922e+00,-1.465888023376464844e+00,8.452954292297363281e+00,3.705176353454589844e+00,-2.090067148208618164e+00,-9.592958450317382812e+00,2.648405358195304871e-02
5.859499931335449219e+00,-7.881939411163330078e-01,1.031820297241210938e+01,6.296233177185058594e+00,8.907747268676757812e+00,3.329000994563102722e-02,1.017143344879150391e+01,5.897630691528320312e+00,9.162756919860839844e+00,6.980375766754150391e+00,1.175819110870361328e+01,-1.916416931152343750e+01,9.237000465393066406e+00,3.183426380157470703e+00,4.546891689300537109e+00,9.408885985612869263e-02,9.163276672363281250e+00,4.759489059448242188e+00,-1.288354754447937012e+00,-1.046449279785156250e+01,3.026468865573406219e-02
6.024766445159912109e+00,-2.606272995471954346e-01,1.101977729797363281e+01,6.907123565673828125e+00,9.475851058959960938e+00,7.198120355606079102e-01,1.047200584411621094e+01,6.422238349914550781e+00,9.384692192077636719e+00,7.880958557128906250e+00,1.069704532623291016e+01,-1.865440750122070312e+01,9.242666244506835938e+00,4.075560569763183594e+00,4.898503780364990234e+00,1.972660541534423828e+00,9.416493415832519531e+00,5.530218124389648438e+00,-3.810509443283081055e-01,-1.068112850189208984e+01,3.380903601646423340e-02
4.973997592926025391e+00,-1.241525411605834961e-01,1.075741577148437500e+01,7.066643714904785156e+00,9.151791572570800781e+00,1.442244529724121094e+00,1.015004062652587891e+01,7.108498573303222656e+00,9.289818763732910156e+00,8.877974510192871094e+00,9.339490890502929688e+00,-1.771059036254882812e+01,9.193562507629394531e+00,5.168695926666259766e+00,5.399826049804687500e+00,4.087902545928955078e+00,9.085996627807617188e+00,5.832052230834960938e+00,5.829593539237976074e-01,-1.008712768554687500e+01,3.659562394022941589e-02
2.780644893646240234e+00,-4.439516365528106689e-01,9.566100120544433594e+00,6.742165088653564453e+00,7.991580963134765625e+00,2.040046691894531250e+00,9.229069709777832031e+00,7.935060977935791016e+00,8.903550148010253906e+00,9.906044006347656250e+00,7.719120025634765625e+00,-1.625869369506835938e+01,9.087801933288574219e+00,6.387070178985595703e+00,5.975316524505615234e+00,6.229315280914306641e+00,8.227689743041992188e+00,5.575142383575439453e+00,1.548925042152404785e+00,-8.738394737243652344e+00,3.831483423709869385e-02
-1.145803034305572510e-01,-1.165027260780334473e+00,7.725682258605957031e+00,5.975379467010498047e+00,6.297273159027099609e+00,2.361127853393554688e+00,7.895214080810546875e+00,8.837874412536621094e+00,8.319064140319824219e+00,1.080826091766357422e+01,5.986113548278808594e+00,-1.441816616058349609e+01,8.968821525573730469e+00,7.613174915313720703e+00,6.528831005096435547e+00,8.143159866333007812e+00,7.022442817687988281e+00,4.817048072814941406e+00,2.495336771011352539e+00,-6.892498493194580078e+00,3.903185203671455383e-02
-3.034289598464965820e+00,-2.099981307983398438e+00,5.634563446044921875e+00,4.887740612030029297e+00,4.472941875457763672e+00,2.346341133117675781e+00,6.415885925292968750e+00,9.746788024902343750e+00,7.665117740631103516e+00,1.139012622833251953e+01,4.391431331634521484e+00,-1.245987224578857422e+01,8.927271842956542969e+00,8.735687255859375000e+00,6.997189521789550781e+00,9.647382736206054688e+00,5.702097415924072266e+00,3.759927511215209961e+00,3.435882329940795898e+00,-4.877885818481445312e+00,3.913777321577072144e-02
-5.321496963500976562e+00,-3.010492086410522461e+00,3.673653364181518555e+00,3.640581607818603516e+00,2.868650197982788086e+00,2.050608634948730469e+00,5.053149223327636719e+00,1.058555030822753906e+01,7.080631732940673828e+00,1.151924800872802734e+01,3.217650651931762695e+00,-1.071524047851562500e+01,9.070804595947265625e+00,9.700490951538085938e+00,7.372150897979736328e+00,1.069305610656738281e+01,4.457388401031494141e+00,2.694383859634399414e+00,4.390115737915039062e+00,-2.983071565628051758e+00,3.915407136082649231e-02
-6.586500644683837891e+00,-3.676570415496826172e+00,2.089766740798950195e+00,2.406111478805541992e+00,1.686435341835021973e+00,1.628133535385131836e+00,3.994194269180297852e+00,1.130841159820556641e+01,6.675727367401123047e+00,1.117928218841552734e+01,2.670281410217285156e+00,-9.441676139831542969e+00,9.480628013610839844e+00,1.052150154113769531e+01,7.683932304382324219e+00,1.136893272399902344e+01,3.385327100753784180e+00,1.908211946487426758e+00,5.359992504119873047e+00,-1.389750480651855469e+00,3.966739028692245483e-02
-6.817057609558105469e+00,-3.990258693695068359e+00,9.684139490127563477e-01,1.342038273811340332e+00,9.402998089790344238e-01,1.250018358230590820e+00,3.310686588287353516e+00,1.192147064208984375e+01,6.496146202087402344e+00,1.047483348846435547e+01,2.782917022705078125e+00,-8.714886665344238281e+00,1.015863037109375000e+01,1.125438213348388672e+01,7.954508781433105469e+00,1.183317089080810547e+01,2.485913991928100586e+00,1.571281075477600098e+00,6.296627044677734375e+00,-1.468401998281478882e-01,4.116660729050636292e-02
-6.319217681884765625e+00,-3.976000308990478516e+00,2.804436087608337402e-01,5.553128123283386230e-01,5.462282299995422363e-01,1.030331254005432129e+00,2.989791154861450195e+00,1.248572921752929688e+01,6.519864559173583984e+00,9.582422256469726562e+00,3.407352685928344727e+00,-8.415422439575195312e+00,1.102737998962402344e+01,1.194860744476318359e+01,8.170145988464355469e+00,1.223027610778808594e+01,1.721330404281616211e+00,1.684995293617248535e+00,7.125715255737304688e+00,7.556424140930175781e-01,4.392875358462333679e-02
-5.515328407287597656e+00,-3.745826244354248047e+00,-7.182406261563301086e-03,1.039426997303962708e-01,4.502107501029968262e-01,9.923084974288940430e-01,2.995139360427856445e+00,1.309878826141357422e+01,6.674033164978027344e+00,8.685109138488769531e+00,4.300532817840576172e+00,-8.302702903747558594e+00,1.195467567443847656e+01,1.261654853820800781e+01,8.277277946472167969e+00,1.262624454498291016e+01,1.101442217826843262e+00,2.117389917373657227e+00,7.772951126098632812e+00,1.303720951080322266e+00,4.795382544398307800e-02
-4.756326198577880859e+00,-3.440285921096801758e+00,1.171964183449745178e-01,-3.008449682965874672e-03,6.842532753944396973e-01,1.083140611648559570e+00,3.307477712631225586e+00,1.386434936523437500e+01,6.877332687377929688e+00,7.908744335174560547e+00,5.217425346374511719e+00,-8.159700393676757812e+00,1.280642795562744141e+01,1.321336650848388672e+01,8.200362205505371094e+00,1.298238754272460938e+01,7.035298943519592285e-01,2.676133394241333008e+00,8.195316314697265625e+00,1.430507779121398926e+00,5.293220654129981995e-02
-4.207478046417236328e+00,-3.183631658554077148e+00,6.982787251472473145e-01,2.018301934003829956e-01,1.322369217872619629e+00,1.190871834754943848e+00,3.920388221740722656e+00,1.484341430664062500e+01,7.051831245422363281e+00,7.307266235351562500e+00,6.003898143768310547e+00,-7.875377178192138672e+00,1.347876358032226562e+01,1.365556812286376953e+01,7.877593517303466797e+00,1.319402599334716797e+01,6.574904918670654297e-01,3.194164514541625977e+00,8.400633811950683594e+00,1.060130476951599121e+00,5.834242329001426697e-02
-3.854501485824584961e+00,-3.024750709533691406e+00,1.728290796279907227e+00,6.586384773254394531e-01,2.386562585830688477e+00,1.245793581008911133e+00,4.794293880462646484e+00,1.602988243103027344e+01,7.156868934631347656e+00,6.888846397399902344e+00,6.594740867614746094e+00,-7.483381748199462891e+00,1.392824745178222656e+01,1.386120796203613281e+01,7.299356460571289062e+00,1.315533924102783203e+01,1.057047009468078613e+00,3.595673799514770508e+00,8.428009033203125000e+00,2.125555425882339478e-01,6.358968466520309448e-02
-3.605581283569335938e+00,-2.924940824508666992e+00,3.092571020126342773e+00,1.320285439491271973e+00,3.756811618804931641e+00,1.258467793464660645e+00,5.820089817047119141e+00,1.736885261535644531e+01,7.189058303833007812e+00,6.658389091491699219e+00,6.986001014709472656e+00,-7.072880268096923828e+00,1.417187500000000000e+01,1.379936122894287109e+01,6.520589828491210938e+00,1.284357166290283203e+01,1.903843879699707031e+00,3.900315284729003906e+00,8.341971397399902344e+00,-9.185427427291870117e-01,6.815252453088760376e-02
-3.393387317657470703e+00,-2.808835268020629883e+00,4.571513175964355469e+00,2.139640092849731445e+00,5.183070659637451172e+00,1.330288529396057129e+00,6.823422908782958984e+00,1.881457328796386719e+01,7.168728351593017578e+00,6.666561126708984375e+00,7.183607101440429688e+00,-6.679202556610107422e+00,1.427574729919433594e+01,1.352105236053466797e+01,5.666282176971435547e+00,1.233268165588378906e+01,3.084426641464233398e+00,4.186706542968750000e+00,8.205093383789062500e+00,-2.002719879150390625e+00,7.176204770803451538e-02
-3.217919111251831055e+00,-2.603104829788208008e+00,5.939680099487304688e+00,3.071383953094482422e+00,6.425296306610107422e+00,1.587998390197753906e+00,7.645985603332519531e+00,2.033959579467773438e+01,7.128068447113037109e+00,7.006526947021484375e+00,7.189535617828369141e+00,-6.236735820770263672e+00,1.432862758636474609e+01,1.315306663513183594e+01,4.897130489349365234e+00,1.178196811676025391e+01,4.427791595458984375e+00,4.546099185943603516e+00,8.077993392944335938e+00,-2.733491182327270508e+00,7.453234493732452393e-02
-3.101620435714721680e+00,-2.258862495422363281e+00,7.094070911407470703e+00,4.075637340545654297e+00,7.385470867156982422e+00,2.135103702545166016e+00,8.223597526550292969e+00,2.194087028503417969e+01,7.109432697296142578e+00,7.753471374511718750e+00,7.013665676116943359e+00,-5.619300842285156250e+00,1.442872238159179688e+01,1.285465717315673828e+01,4.371085643768310547e+00,1.135755443572998047e+01,5.795820713043212891e+00,5.040264606475830078e+00,7.988044738769531250e+00,-2.992056608200073242e+00,7.690338790416717529e-02
-3.050612211227416992e+00,-1.741480469703674316e+00,8.085214614868164062e+00,5.121582984924316406e+00,8.161611557006835938e+00,3.007514715194702148e+00,8.610811233520507812e+00,2.359704589843750000e+01,7.146704196929931641e+00,8.922103881835937500e+00,6.683663368225097656e+00,-4.724273204803466797e+00,1.465724182128906250e+01,1.275106525421142578e+01,4.173303604125976562e+00,1.115388107299804688e+01,7.153984069824218750e+00,5.698683738708496094e+00,7.923516750335693359e+00,-2.889229297637939453e+00,7.952702045440673828e-02
-3.022047519683837891e+00,-1.044847965240478516e+00,9.078301429748535156e+00,6.174779891967773438e+00,8.971758842468261719e+00,4.141860485076904297e+00,8.944542884826660156e+00,2.522881889343261719e+01,7.256824493408203125e+00,1.041435813903808594e+01,6.258810043334960938e+00,-3.568475484848022461e+00,1.505384445190429688e+01,1.288248825073242188e+01,4.281808853149414062e+00,1.113226222991943359e+01,8.543388366699218750e+00,6.515740871429443359e+00,7.845300674438476562e+00,-2.706536531448364258e+00,8.295729011297225952e-02
-2.944515228271484375e+00,-1.485957801342010498e-01,1.023463630676269531e+01,7.208036899566650391e+00,1.001794910430908203e+01,5.440971374511718750e+00,9.374542236328125000e+00,2.668979072570800781e+01,7.441488265991210938e+00,1.203083133697509766e+01,5.824076652526855469e+00,-2.338653326034545898e+00,1.561664295196533203e+01,1.318398952484130859e+01,4.581228733062744141e+00,1.114136505126953125e+01,1.004131507873535156e+01,7.471781730651855469e+00,7.712334156036376953e+00,-2.736486196517944336e+00,8.747939020395278931e-02
-2.758845329284667969e+00,9.717195034027099609e-01,1.158725547790527344e+01,8.195975303649902344e+00,1.133218765258789062e+01,6.814015388488769531e+00,9.966059684753417969e+00,2.776950836181640625e+01,7.692224025726318359e+00,1.352145099639892578e+01,5.462457180023193359e+00,-1.352776527404785156e+00,1.630975341796875000e+01,1.350404453277587891e+01,4.920479774475097656e+00,1.098775672912597656e+01,1.166256046295166016e+01,8.528902053833007812e+00,7.524615764617919922e+00,-3.109858512878417969e+00,9.303627163171768188e-02
-2.477280139923095703e+00,2.324245691299438477e+00,1.299040412902832031e+01,9.098715782165527344e+00,1.273844337463378906e+01,8.199733734130859375e+00,1.066989135742187500e+01,2.825446510314941406e+01,7.992090702056884766e+00,1.465575981140136719e+01,5.227305889129638672e+00,-9.456397294998168945e-01,1.708407402038574219e+01,1.366948413848876953e+01,5.197923660278320312e+00,1.053148365020751953e+01,1.331011486053466797e+01,9.642177581787109375e+00,7.358407020568847656e+00,-3.750780820846557617e+00,9.928572922945022583e-02
-2.187553405761718750e+00,3.890650033950805664e+00,1.417977714538574219e+01,9.878190040588378906e+00,1.391865825653076172e+01,9.572777748107910156e+00,1.134591102600097656e+01,2.799826049804687500e+01,8.324146270751953125e+00,1.530954074859619141e+01,5.146287441253662109e+00,-1.298940300941467285e+00,1.789805412292480469e+01,1.357516765594482422e+01,5.413560867309570312e+00,9.750926017761230469e+00,1.479488658905029297e+01,1.075124168395996094e+01,7.350585460662841797e+00,-4.417659759521484375e+00,1.057633236050605774e-01
-2.020246505737304688e+00,5.591492176055908203e+00,1.488135147094726562e+01,1.049633121490478516e+01,1.456077480316162109e+01,1.088245105743408203e+01,1.184436893463134766e+01,2.697649574279785156e+01,8.673144340515136719e+00,1.546808242797851562e+01,5.247066497802734375e+00,-2.343700408935546875e+00,1.872336769104003906e+01,1.322882843017578125e+01,5.669029235839843750e+00,8.750765800476074219e+00,1.591298770904541016e+01,1.178870773315429688e+01,7.628252029418945312e+00,-4.854924201965332031e+00,1.120290756225585938e-01
-2.073295116424560547e+00,7.310667037963867188e+00,1.495131397247314453e+01,1.094045066833496094e+01,1.449276256561279297e+01,1.202947044372558594e+01,1.207434368133544922e+01,2.530507087707519531e+01,9.042470932006835938e+00,1.520820522308349609e+01,5.553356170654296875e+00,-3.760267257690429688e+00,1.954112434387207031e+01,1.275415706634521484e+01,6.112664699554443359e+00,7.714194774627685547e+00,1.654109764099121094e+01,1.270824813842773438e+01,8.244201660156250000e+00,-4.904840469360351562e+00,1.177896559238433838e-01
-2.373223304748535156e+00,8.923921585083007812e+00,1.444796848297119141e+01,1.123048782348632812e+01,1.377863216400146484e+01,1.287864589691162109e+01,1.204546356201171875e+01,2.323409080505371094e+01,9.460928916931152344e+00,1.464595317840576172e+01,6.077012538909912109e+00,-5.096079826354980469e+00,2.032299804687500000e+01,1.232277870178222656e+01,6.843358993530273438e+00,6.791407585144042969e+00,1.671045684814453125e+01,1.350424766540527344e+01,9.133907318115234375e+00,-4.582382678985595703e+00,1.228902563452720642e-01
-2.834337472915649414e+00,1.032533359527587891e+01,1.359869480133056641e+01,1.139182090759277344e+01,1.269643592834472656e+01,1.328422164916992188e+01,1.184864711761474609e+01,2.103805732727050781e+01,9.965789794921875000e+00,1.385324478149414062e+01,6.790370941162109375e+00,-5.965871810913085938e+00,2.101044464111328125e+01,1.205683898925781250e+01,7.836389064788818359e+00,6.026780128479003906e+00,1.657233810424804688e+01,1.418793582916259766e+01,1.011356067657470703e+01,-4.050277233123779297e+00,1.274041980504989624e-01
-3.262806177139282227e+00,1.147009277343750000e+01,1.274164676666259766e+01,1.144257736206054688e+01,1.164424514770507812e+01,1.318071556091308594e+01,1.162188148498535156e+01,1.899452590942382812e+01,1.060279369354248047e+01,1.284478759765625000e+01,7.640077590942382812e+00,-6.199723243713378906e+00,2.154302597045898438e+01,1.195633888244628906e+01,8.969513893127441406e+00,5.363420009613037109e+00,1.636351585388183594e+01,1.479581546783447266e+01,1.095046997070312500e+01,-3.544128179550170898e+00,1.316737085580825806e-01
-3.421951770782470703e+00,1.238875102996826172e+01,1.220331954956054688e+01,1.141176128387451172e+01,1.101613044738769531e+01,1.262516021728515625e+01,1.149887084960937500e+01,1.727735137939453125e+01,1.143123912811279297e+01,1.159279823303222656e+01,8.543137550354003906e+00,-5.893529415130615234e+00,2.188863563537597656e+01,1.190222263336181641e+01,1.008890533447265625e+01,4.706886768341064453e+00,1.631089973449707031e+01,1.536579036712646484e+01,1.145496177673339844e+01,-3.276578187942504883e+00,1.361958086490631104e-01
-3.115902662277221680e+00,1.317297172546386719e+01,1.220915031433105469e+01,1.135194110870361328e+01,1.106213855743408203e+01,1.180555915832519531e+01,1.157267665863037109e+01,1.599023151397705078e+01,1.249347877502441406e+01,1.009073734283447266e+01,9.424461364746093750e+00,-5.348437309265136719e+00,2.205860900878906250e+01,1.171049880981445312e+01,1.107781410217285156e+01,4.000288963317871094e+00,1.656904983520507812e+01,1.592032241821289062e+01,1.155468750000000000e+01,-3.367425441741943359e+00,1.414756625890731812e-01
-2.271206855773925781e+00,1.393071174621582031e+01,1.283493137359619141e+01,1.136644268035888672e+01,1.183627986907958984e+01,1.098806953430175781e+01,1.189036369323730469e+01,1.514231872558593750e+01,1.379967689514160156e+01,8.412155151367187500e+00,1.024847984313964844e+01,-4.926158905029296875e+00,2.211526679992675781e+01,1.122809696197509766e+01,1.190877246856689453e+01,3.267521142959594727e+00,1.718400382995605469e+01,1.646502685546875000e+01,1.128679847717285156e+01,-3.826653242111206055e+00,1.477577090263366699e-01
-9.858003258705139160e-01,1.474141311645507812e+01,1.401458644866943359e+01,1.160028457641601562e+01,1.319452667236328125e+01,1.041772842407226562e+01,1.245086097717285156e+01,1.471531295776367188e+01,1.531256389617919922e+01,6.730304718017578125e+00,1.100728702545166016e+01,-4.892511367797851562e+00,2.212471008300781250e+01,1.040244770050048828e+01,1.261611747741699219e+01,2.604161024093627930e+00,1.812123680114746094e+01,1.699428939819335938e+01,1.075297546386718750e+01,-4.583381175994873047e+00,1.549686193466186523e-01
4.873164296150207520e-01,1.560711097717285156e+01,1.555766105651855469e+01,1.217310810089111328e+01,1.483082389831542969e+01,1.023817634582519531e+01,1.319426918029785156e+01,1.466346168518066406e+01,1.691862869262695312e+01,5.267470836639404297e+00,1.168705272674560547e+01,-5.326566219329833984e+00,2.210771179199218750e+01,9.300035476684570312e+00,1.321495723724365234e+01,2.104649782180786133e+00,1.927057838439941406e+01,1.748705101013183594e+01,1.004121112823486328e+01,-5.495846748352050781e+00,1.627987772226333618e-01
1.829852223396301270e+00,1.644836616516113281e+01,1.718819046020507812e+01,1.310847759246826172e+01,1.638310623168945312e+01,1.043885231018066406e+01,1.398581123352050781e+01,1.490746498107910156e+01,1.843321037292480469e+01,4.203442573547363281e+00,1.223046970367431641e+01,-6.122333526611328125e+00,2.201139450073242188e+01,8.041460990905761719e+00,1.365035247802734375e+01,1.797433376312255859e+00,2.048733520507812500e+01,1.790259742736816406e+01,9.171059608459472656e+00,-6.368380069732666016e+00,1.708000302314758301e-01
2.778604745864868164e+00,1.714296150207519531e+01,1.862631988525390625e+01,1.428312778472900391e+01,1.755331802368164062e+01,1.089512538909912109e+01,1.465220451354980469e+01,1.534057140350341797e+01,1.965639495849609375e+01,3.590523481369018555e+00,1.256244850158691406e+01,-7.081292152404785156e+00,2.172244071960449219e+01,6.748871326446533203e+00,1.381105041503906250e+01,1.631308913230895996e+00,2.164489746093750000e+01,1.820162391662597656e+01,8.093636512756347656e+00,-7.007305622100830078e+00,1.785242557525634766e-01
3.202992916107177734e+00,1.758497619628906250e+01,1.965827560424804688e+01,1.542696094512939453e+01,1.819343566894531250e+01,1.143378067016601562e+01,1.502337360382080078e+01,1.581637859344482422e+01,2.042554473876953125e+01,3.322473287582397461e+00,1.261975383758544922e+01,-8.008285522460937500e+00,2.114453315734863281e+01,5.511943340301513672e+00,1.360640048980712891e+01,1.520938634872436523e+00,2.261665916442871094e+01,1.834762763977050781e+01,6.779610157012939453e+00,-7.285837173461914062e+00,1.856618374586105347e-01
3.096895933151245117e+00,1.770923042297363281e+01,2.016162109375000000e+01,1.618649482727050781e+01,1.832946014404296875e+01,1.189427852630615234e+01,1.498593616485595703e+01,1.616103363037109375e+01,2.066780853271484375e+01,3.181910514831542969e+00,1.239250659942626953e+01,-8.790594100952148438e+00,2.025878715515136719e+01,4.378608226776123047e+00,1.304327201843261719e+01,1.404879093170166016e+00,2.331711578369140625e+01,1.832657051086425781e+01,5.262222290039062500e+00,-7.183010101318359375e+00,1.920986920595169067e-01
2.556208848953247070e+00,1.754627418518066406e+01,2.014413070678710938e+01,1.627894401550292969e+01,1.812942314147949219e+01,1.219001102447509766e+01,1.453775215148925781e+01,1.621593475341796875e+01,2.043401527404785156e+01,2.936742782592773438e+00,1.195579719543457031e+01,-9.391204833984375000e+00,1.917284965515136719e+01,3.402981042861938477e+00,1.228098773956298828e+01,1.311576247215270996e+00,2.369694137573242188e+01,1.815389251708984375e+01,3.692039251327514648e+00,-6.793664932250976562e+00,1.977940946817398071e-01
1.733956813812255859e+00,1.719999504089355469e+01,1.970880508422851562e+01,1.561185932159423828e+01,1.779336166381835938e+01,1.232520294189453125e+01,1.378364753723144531e+01,1.589873027801513672e+01,1.987833023071289062e+01,2.467655181884765625e+00,1.144992542266845703e+01,-9.800024032592773438e+00,1.809446716308593750e+01,2.677831888198852539e+00,1.158600425720214844e+01,1.346849322319030762e+00,2.375284576416015625e+01,1.789698219299316406e+01,2.284154176712036133e+00,-6.278531074523925781e+00,2.027887701988220215e-01
7.709220051765441895e-01,1.679464530944824219e+01,1.899751281738281250e+01,1.431394386291503906e+01,1.745530128479003906e+01,1.232731533050537109e+01,1.289048767089843750e+01,1.521856975555419922e+01,1.918880653381347656e+01,1.789357781410217285e+00,1.102309608459472656e+01,-9.988451004028320312e+00,1.726726722717285156e+01,2.317576646804809570e+00,1.120692157745361328e+01,1.639273881912231445e+00,2.351442718505859375e+01,1.762884140014648438e+01,1.234106302261352539e+00,-5.791349887847900391e+00,2.072293907403945923e-01
-2.227176874876022339e-01,1.640966415405273438e+01,1.814240837097167969e+01,1.268248558044433594e+01,1.713324165344238281e+01,1.221958446502685547e+01,1.202620983123779297e+01,1.428220558166503906e+01,1.850605773925781250e+01,1.022800087928771973e+00,1.078004074096679688e+01,-9.906014442443847656e+00,1.685555458068847656e+01,2.404161691665649414e+00,1.127010250091552734e+01,2.263947248458862305e+00,2.301950263977050781e+01,1.741545295715332031e+01,6.142457127571105957e-01,-5.422969341278076172e+00,2.114092707633972168e-01
-1.191873431205749512e+00,1.605319976806640625e+01,1.721734046936035156e+01,1.105646514892578125e+01,1.673517036437988281e+01,1.200834655761718750e+01,1.129028892517089844e+01,1.323908996582031250e+01,1.786735916137695312e+01,3.085447549819946289e-01,1.073261451721191406e+01,-9.519065856933593750e+00,1.689143943786621094e+01,2.908209800720214844e+00,1.169862937927246094e+01,3.177631855010986328e+00,2.229931449890136719e+01,1.725260353088378906e+01,3.209362924098968506e-01,-5.167398929595947266e+00,2.158091515302658081e-01
-2.124303340911865234e+00,1.567229270935058594e+01,1.625923538208007812e+01,9.700542449951171875e+00,1.615106391906738281e+01,1.169571495056152344e+01,1.070732879638671875e+01,1.224477577209472656e+01,1.722188377380371094e+01,-2.635132968425750732e-01,1.078992080688476562e+01,-8.847794532775878906e+00,1.725215911865234375e+01,3.692112922668457031e+00,1.224252986907958984e+01,4.235821723937988281e+00,2.139167976379394531e+01,1.708834838867187500e+01,1.214858740568161011e-01,-4.963741302490234375e+00,2.210238128900527954e-01
-3.030208826065063477e+00,1.520787143707275391e+01,1.529918670654296875e+01,8.734356880187988281e+00,1.533891582489013672e+01,1.130281352996826172e+01,1.024630928039550781e+01,1.139991283416748047e+01,1.647814750671386719e+01,-6.770294904708862305e-01,1.081165695190429688e+01,-7.976320266723632812e+00,1.772619438171386719e+01,4.542500972747802734e+00,1.260787677764892578e+01,5.261014461517333984e+00,2.034099388122558594e+01,1.683986282348632812e+01,-2.363516390323638916e-01,-4.764077186584472656e+00,2.275584489107131958e-01
-3.954477548599243164e+00,1.461308574676513672e+01,1.436828899383544922e+01,8.118027687072753906e+00,1.435273647308349609e+01,1.087611389160156250e+01,9.854816436767578125e+00,1.073195266723632812e+01,1.557007598876953125e+01,-9.859408736228942871e-01,1.065950012207031250e+01,-7.039232730865478516e+00,1.808313560485839844e+01,5.255280971527099609e+00,1.257216644287109375e+01,6.105290889739990234e+00,1.919658660888671875e+01,1.643273735046386719e+01,-9.207403063774108887e-01,-4.574396133422851562e+00,2.355597019195556641e-01
-4.933835029602050781e+00,1.388997364044189453e+01,1.352290153503417969e+01,7.730103492736816406e+00,1.333855247497558594e+01,1.045575046539306641e+01,9.500761985778808594e+00,1.021039485931396484e+01,1.451800155639648438e+01,-1.255625367164611816e+00,1.025243186950683594e+01,-6.174487590789794922e+00,1.814357185363769531e+01,5.726859569549560547e+00,1.208732604980468750e+01,6.714034557342529297e+00,1.801764678955078125e+01,1.586837863922119141e+01,-1.939501762390136719e+00,-4.455595970153808594e+00,2.446772307157516479e-01
-5.990724563598632812e+00,1.307723522186279297e+01,1.280383586883544922e+01,7.432815551757812500e+00,1.243238830566406250e+01,1.004806232452392578e+01,9.188423156738281250e+00,9.789488792419433594e+00,1.343712711334228516e+01,-1.507330894470214844e+00,9.612187385559082031e+00,-5.469568729400634766e+00,1.784895133972167969e+01,5.998983860015869141e+00,1.129482460021972656e+01,7.139585971832275391e+00,1.686666107177734375e+01,1.523663330078125000e+01,-3.124471902847290039e+00,-4.478557109832763672e+00,2.541614174842834473e-01
-7.102703571319580078e+00,1.221357440948486328e+01,1.224218845367431641e+01,7.126463890075683594e+00,1.174426269531250000e+01,9.600238800048828125e+00,8.955239295959472656e+00,9.460083961486816406e+00,1.250194931030273438e+01,-1.721444010734558105e+00,8.894877433776855469e+00,-4.931206226348876953e+00,1.726915550231933594e+01,6.232453823089599609e+00,1.047210693359375000e+01,7.501419067382812500e+00,1.579953289031982422e+01,1.471017932891845703e+01,-4.196028709411621094e+00,-4.696191310882568359e+00,2.631159722805023193e-01
-8.169795036315917969e+00,1.134176540374755859e+01,1.184573078155517578e+01,6.771168708801269531e+00,1.130618286132812500e+01,9.032010078430175781e+00,8.842926025390625000e+00,9.261831283569335938e+00,1.186833286285400391e+01,-1.840759038925170898e+00,8.307986259460449219e+00,-4.488739490509033203e+00,1.655527114868164062e+01,6.637547969818115234e+00,9.896616935729980469e+00,7.926970481872558594e+00,1.485243606567382812e+01,1.447573089599609375e+01,-4.888239383697509766e+00,-5.094521522521972656e+00,2.708891034126281738e-01
-9.024692535400390625e+00,1.049032592773437500e+01,1.160085964202880859e+01,6.363304138183593750e+00,1.110614681243896484e+01,8.284229278564453125e+00,8.868597030639648438e+00,9.258780479431152344e+00,1.161420917510986328e+01,-1.826048970222473145e+00,8.039241790771484375e+00,-4.074872970581054688e+00,1.586782550811767578e+01,7.361150741577148438e+00,9.740039825439453125e+00,8.498165130615234375e+00,1.405661106109619141e+01,1.464560031890869141e+01,-5.052492618560791016e+00,-5.600670814514160156e+00,2.772118747234344482e-01
-9.489887237548828125e+00,9.702031135559082031e+00,1.149785900115966797e+01,5.911933898925781250e+00,1.112014961242675781e+01,7.361120700836181641e+00,9.015139579772949219e+00,9.484484672546386719e+00,1.170061111450195312e+01,-1.698561668395996094e+00,8.165710449218750000e+00,-3.659324169158935547e+00,1.532013511657714844e+01,8.426455497741699219e+00,1.001748371124267578e+01,9.220693588256835938e+00,1.343343448638916016e+01,1.520434379577636719e+01,-4.700520992279052734e+00,-6.134772777557373047e+00,2.822228372097015381e-01
-9.444999694824218750e+00,9.025768280029296875e+00,1.152117919921875000e+01,5.409807205200195312e+00,1.132818698883056641e+01,6.345067977905273438e+00,9.217304229736328125e+00,9.887090682983398438e+00,1.197675895690917969e+01,-1.531847715377807617e+00,8.586611747741699219e+00,-3.260599374771118164e+00,1.492353248596191406e+01,9.743782997131347656e+00,1.058198642730712891e+01,1.002628326416015625e+01,1.298619461059570312e+01,1.598349666595458984e+01,-3.984846115112304688e+00,-6.629940032958984375e+00,2.862234711647033691e-01
-8.865547180175781250e+00,8.545050621032714844e+00,1.164555835723876953e+01,4.849673271179199219e+00,1.172025871276855469e+01,5.390274524688720703e+00,9.383099555969238281e+00,1.038119792938232422e+01,1.224274253845214844e+01,-1.410898208618164062e+00,9.058890342712402344e+00,-2.882063150405883789e+00,1.461758136749267578e+01,1.116625118255615234e+01,1.123576545715332031e+01,1.083187294006347656e+01,1.269844818115234375e+01,1.673597526550292969e+01,-3.108828544616699219e+00,-7.037255287170410156e+00,2.894989550113677979e-01
-7.820899009704589844e+00,8.331172943115234375e+00,1.184378719329833984e+01,4.247846603393554688e+00,1.227435970306396484e+01,4.657279968261718750e+00,9.424816131591796875e+00,1.086920452117919922e+01,1.232745075225830078e+01,-1.347154617309570312e+00,9.292065620422363281e+00,-2.459784746170043945e+00,1.434184741973876953e+01,1.258098697662353516e+01,1.181949615478515625e+01,1.158967304229736328e+01,1.255539703369140625e+01,1.724137115478515625e+01,-2.228900432586669922e+00,-7.314788818359375000e+00,2.921714484691619873e-01
-6.462040424346923828e+00,8.394317626953125000e+00,1.206339359283447266e+01,3.647832632064819336e+00,1.291447544097900391e+01,4.239029884338378906e+00,9.290040016174316406e+00,1.131451129913330078e+01,1.213601016998291016e+01,-1.267066478729248047e+00,9.076674461364746094e+00,-1.867585897445678711e+00,1.407933425903320312e+01,1.392923831939697266e+01,1.226175880432128906e+01,1.229968452453613281e+01,1.252251148223876953e+01,1.736491203308105469e+01,-1.409589409828186035e+00,-7.412624359130859375e+00,2.941351234912872314e-01
-4.958318710327148438e+00,8.665229797363281250e+00,1.224024486541748047e+01,3.129391431808471680e+00,1.351658535003662109e+01,4.122848987579345703e+00,8.978771209716796875e+00,1.173541831970214844e+01,1.168366909027099609e+01,-1.015360951423645020e+00,8.377148628234863281e+00,-9.658282995223999023e-01,1.390180683135986328e+01,1.521100521087646484e+01,1.258040714263916016e+01,1.299831771850585938e+01,1.255704116821289062e+01,1.709958076477050781e+01,-6.332970857620239258e-01,-7.274855613708496094e+00,2.951698899269104004e-01
-3.470919609069824219e+00,8.989103317260742188e+00,1.229854679107666016e+01,2.772283315658569336e+00,1.392265892028808594e+01,4.207344055175781250e+00,8.537005424499511719e+00,1.218987464904785156e+01,1.105513572692871094e+01,-4.449374079704284668e-01,7.319955348968505859e+00,2.892297208309173584e-01,1.392635917663574219e+01,1.643092536926269531e+01,1.282626152038574219e+01,1.370946693420410156e+01,1.259979152679443359e+01,1.650433540344238281e+01,1.410398334264755249e-01,-6.862548828125000000e+00,2.950069308280944824e-01
-2.148787260055541992e+00,9.186686515808105469e+00,1.217805480957031250e+01,2.607324600219726562e+00,1.400867462158203125e+01,4.350985527038574219e+00,8.036408424377441406e+00,1.272058296203613281e+01,1.036561107635498047e+01,5.095822811126708984e-01,6.118509769439697266e+00,1.786550998687744141e+00,1.424741840362548828e+01,1.754570770263671875e+01,1.300481414794921875e+01,1.440013504028320312e+01,1.258992671966552734e+01,1.565218162536621094e+01,9.407968521118164062e-01,-6.187683582305908203e+00,2.933936417102813721e-01
-1.118421673774719238e+00,9.113356590270996094e+00,1.187293815612792969e+01,2.625452041625976562e+00,1.374862670898437500e+01,4.443930149078369141e+00,7.564692020416259766e+00,1.332754135131835938e+01,9.703194618225097656e+00,1.797530055046081543e+00,4.974370002746582031e+00,3.270413160324096680e+00,1.487442874908447266e+01,1.846257972717285156e+01,1.307486152648925781e+01,1.498725986480712891e+01,1.249949169158935547e+01,1.459506130218505859e+01,1.748375535011291504e+00,-5.346098423004150391e+00,2.900937497615814209e-01
-4.614360630512237549e-01,8.718190193176269531e+00,1.143761253356933594e+01,2.761406898498535156e+00,1.323253345489501953e+01,4.448154926300048828e+00,7.189244270324707031e+00,1.396195125579833984e+01,9.118708610534667969e+00,3.271805286407470703e+00,4.004123210906982422e+00,4.412751674652099609e+00,1.569974136352539062e+01,1.908259010314941406e+01,1.296360969543457031e+01,1.536843585968017578e+01,1.233342075347900391e+01,1.336526298522949219e+01,2.528578519821166992e+00,-4.505511760711669922e+00,2.849197983741760254e-01
-2.104757130146026611e-01,8.025631904602050781e+00,1.095175743103027344e+01,2.919114589691162109e+00,1.261042022705078125e+01,4.363659858703613281e+00,6.949642181396484375e+00,1.453230953216552734e+01,8.608765602111816406e+00,4.750984191894531250e+00,3.225554943084716797e+00,4.942702293395996094e+00,1.653260803222656250e+01,1.934698295593261719e+01,1.263671970367431641e+01,1.548449516296386719e+01,1.211308956146240234e+01,1.202034759521484375e+01,3.250119686126708984e+00,-3.845621347427368164e+00,2.777088880538940430e-01
-3.349357247352600098e-01,7.098825931549072266e+00,1.049894142150878906e+01,2.989810943603515625e+00,1.204631805419921875e+01,4.205231666564941406e+00,6.856582164764404297e+00,1.498981666564941406e+01,8.168283462524414062e+00,6.096137523651123047e+00,2.618903875350952148e+00,4.755957603454589844e+00,1.719172286987304688e+01,1.929595947265625000e+01,1.216424083709716797e+01,1.536729812622070312e+01,1.186316108703613281e+01,1.069508647918701172e+01,3.928642272949218750e+00,-3.506191968917846680e+00,2.684039771556854248e-01
-7.307593226432800293e-01,6.031470775604248047e+00,1.017050361633300781e+01,2.917301893234252930e+00,1.168625259399414062e+01,3.989769458770751953e+00,6.921831130981445312e+00,1.535582256317138672e+01,7.824368953704833984e+00,7.282749176025390625e+00,2.186146259307861328e+00,3.966919898986816406e+00,1.760721206665039062e+01,1.906558227539062500e+01,1.172884654998779297e+01,1.514997100830078125e+01,1.161981010437011719e+01,9.618311882019042969e+00,4.632585048675537109e+00,-3.550118207931518555e+00,2.570457756519317627e-01
-1.246962308883666992e+00,4.907081604003906250e+00,1.005195522308349609e+01,2.707025051116943359e+00,1.164024448394775391e+01,3.732059478759765625e+00,7.173199176788330078e+00,1.571877765655517578e+01,7.648176193237304688e+00,8.374563217163085938e+00,1.966803312301635742e+00,2.848134994506835938e+00,1.783195495605468750e+01,1.880428123474121094e+01,1.154891967773437500e+01,1.497815704345703125e+01,1.142578601837158203e+01,9.032895088195800781e+00,5.428431034088134766e+00,-3.977399826049804688e+00,2.438298463821411133e-01
-1.714197397232055664e+00,3.829541921615600586e+00,1.024046611785888672e+01,2.440553426742553711e+00,1.198630714416503906e+01,3.480686902999877930e+00,7.648124694824218750e+00,1.619763374328613281e+01,7.724413394927978516e+00,9.476182937622070312e+00,2.002372503280639648e+00,1.719255685806274414e+00,1.800759315490722656e+01,1.860328102111816406e+01,1.176043605804443359e+01,1.492695426940917969e+01,1.135179424285888672e+01,9.111512184143066406e+00,6.359199523925781250e+00,-4.740117549896240234e+00,2.290413677692413330e-01
-2.008004665374755859e+00,2.951622247695922852e+00,1.080600166320800781e+01,2.262905836105346680e+00,1.276644897460937500e+01,3.370843410491943359e+00,8.369070053100585938e+00,1.690524482727050781e+01,8.103905677795410156e+00,1.067260169982910156e+01,2.277045011520385742e+00,8.393691182136535645e-01,1.827577209472656250e+01,1.845484924316406250e+01,1.234279441833496094e+01,1.494971084594726562e+01,1.148497962951660156e+01,9.872413635253906250e+00,7.401425838470458984e+00,-5.744429111480712891e+00,2.130469977855682373e-01
-2.071254730224609375e+00,2.460720300674438477e+00,1.174661636352539062e+01,2.344478607177734375e+00,1.392265892028808594e+01,3.592642784118652344e+00,9.293249130249023438e+00,1.786295890808105469e+01,8.745992660522460938e+00,1.196872138977050781e+01,2.686089992523193359e+00,3.582074642181396484e-01,1.870636940002441406e+01,1.824457168579101562e+01,1.311194610595703125e+01,1.488144111633300781e+01,1.189440155029296875e+01,1.114853954315185547e+01,8.469072341918945312e+00,-6.829604148864746094e+00,1.962459832429885864e-01
-1.928431868553161621e+00,2.542197942733764648e+00,1.294764900207519531e+01,2.819414377212524414e+00,1.528290557861328125e+01,4.315075397491455078e+00,1.028909492492675781e+01,1.900977706909179688e+01,9.520224571228027344e+00,1.327955150604248047e+01,3.031900882720947266e+00,3.144654929637908936e-01,1.925594711303710938e+01,1.785184669494628906e+01,1.378495407104492188e+01,1.451391887664794922e+01,1.259814739227294922e+01,1.265349674224853516e+01,9.452636718750000000e+00,-7.764033317565917969e+00,1.791027635335922241e-01
-1.618301987648010254e+00,3.312160015106201172e+00,1.422253227233886719e+01,3.738469123840332031e+00,1.660714721679687500e+01,5.595174789428710938e+00,1.118760204315185547e+01,2.022979545593261719e+01,1.024701976776123047e+01,1.445799160003662109e+01,3.134655952453613281e+00,6.761779189109802246e-01,1.982441139221191406e+01,1.721792030334472656e+01,1.411733722686767578e+01,1.371401786804199219e+01,1.354688930511474609e+01,1.408404922485351562e+01,1.027585792541503906e+01,-8.317103385925292969e+00,1.621713787317276001e-01
-1.157187819480895996e+00,4.723757266998291016e+00,1.534777164459228516e+01,5.023695468902587891e+00,1.764933586120605469e+01,7.301974296569824219e+00,1.182511520385742188e+01,2.135221099853515625e+01,1.076373958587646484e+01,1.533242321014404297e+01,2.887648344039916992e+00,1.369319915771484375e+00,2.030033683776855469e+01,1.638299560546875000e+01,1.397586822509765625e+01,1.247036075592041016e+01,1.460908412933349609e+01,1.519732475280761719e+01,1.088398647308349609e+01,-8.321096420288085938e+00,1.459488719701766968e-01
-5.267265439033508301e-01,6.571259021759033203e+00,1.615817832946777344e+01,6.481131553649902344e+00,1.825544548034667969e+01,9.131291389465332031e+00,1.211606025695800781e+01,2.219402503967285156e+01,1.097889804840087891e+01,1.575411128997802734e+01,2.312614202499389648e+00,2.282854080200195312e+00,2.061384201049804688e+01,1.545993709564208984e+01,1.336466693878173828e+01,1.089104080200195312e+01,1.562524032592773438e+01,1.586557102203369141e+01,1.123986911773681641e+01,-7.776013374328613281e+00,1.307204067707061768e-01
2.934852838516235352e-01,8.526718139648437500e+00,1.659156036376953125e+01,7.846118450164794922e+00,1.841947555541992188e+01,1.069233703613281250e+01,1.207969188690185547e+01,2.258748054504394531e+01,1.088233089447021484e+01,1.560537624359130859e+01,1.559734463691711426e+00,3.255271673202514648e+00,2.074604225158691406e+01,1.456161785125732422e+01,1.240734767913818359e+01,9.143320083618164062e+00,1.644573020935058594e+01,1.604667091369628906e+01,1.130635166168212891e+01,-6.872532367706298828e+00,1.164370998740196228e-01
1.281003952026367188e+00,1.024996757507324219e+01,1.668095779418945312e+01,8.859435081481933594e+00,1.826144790649414062e+01,1.164924335479736328e+01,1.181869697570800781e+01,2.239532661437988281e+01,1.052655696868896484e+01,1.481430149078369141e+01,8.463760614395141602e-01,4.101510524749755859e+00,2.071582412719726562e+01,1.374833774566650391e+01,1.128246402740478516e+01,7.379670143127441406e+00,1.696531677246093750e+01,1.573922157287597656e+01,1.103064155578613281e+01,-5.932113170623779297e+00,1.027730405330657959e-01
2.333813190460205078e+00,1.153120040893554688e+01,1.654491806030273438e+01,9.370625495910644531e+00,1.798139572143554688e+01,1.186892986297607422e+01,1.147533893585205078e+01,2.157791519165039062e+01,1.001492023468017578e+01,1.339069461822509766e+01,3.918817937374114990e-01,4.658379554748535156e+00,2.056096076965332031e+01,1.301700401306152344e+01,1.018092823028564453e+01,5.702496051788330078e+00,1.718071556091308594e+01,1.498393535614013672e+01,1.038340473175048828e+01,-5.288196086883544922e+00,8.924748748540878296e-02
3.288686752319335938e+00,1.235004901885986328e+01,1.631365203857421875e+01,9.396003723144531250e+00,1.774935340881347656e+01,1.146124172210693359e+01,1.117583656311035156e+01,2.020234489440917969e+01,9.462623596191406250e+00,1.144569778442382812e+01,3.622408509254455566e-01,4.829982757568359375e+00,2.033432960510253906e+01,1.232896327972412109e+01,9.293657302856445312e+00,4.182343482971191406e+00,1.717742729187011719e+01,1.386644840240478516e+01,9.413528442382812500e+00,-5.142440795898437500e+00,7.549379765987396240e-02
3.964035272598266602e+00,1.284502506256103516e+01,1.607849693298339844e+01,9.096902847290039062e+00,1.763733291625976562e+01,1.070923614501953125e+01,1.099720478057861328e+01,1.844856834411621094e+01,8.984869956970214844e+00,9.183616638183593750e+00,8.325436711311340332e-01,4.569213390350341797e+00,2.008881378173828125e+01,1.166256809234619141e+01,8.793707847595214844e+00,2.897723436355590820e+00,1.708205986022949219e+01,1.253978252410888672e+01,8.271576881408691406e+00,-5.510821819305419922e+00,6.139789521694183350e-02
4.217035770416259766e+00,1.321778392791748047e+01,1.586277770996093750e+01,8.716229438781738281e+00,1.758932495117187500e+01,9.940331459045410156e+00,1.095013999938964844e+01,1.654228973388671875e+01,8.683308601379394531e+00,6.867598533630371094e+00,1.765244960784912109e+00,3.908036470413208008e+00,1.987918090820312500e+01,1.101936531066894531e+01,8.801949501037597656e+00,1.936249732971191406e+00,1.700149154663085938e+01,1.121452140808105469e+01,7.164823055267333984e+00,-6.218631744384765625e+00,4.710644111037254333e-02
3.994640111923217773e+00,1.362313461303710938e+01,1.562956714630126953e+01,8.478761672973632812e+00,1.746130180358886719e+01,9.393225669860839844e+00,1.098543834686279297e+01,1.472751235961914062e+01,8.630789756774902344e+00,4.772232055664062500e+00,3.008188009262084961e+00,2.944030761718750000e+00,1.973753738403320312e+01,1.043182468414306641e+01,9.340355873107910156e+00,1.383260130882263184e+00,1.698669242858886719e+01,1.012370777130126953e+01,6.290760993957519531e+00,-6.972364425659179688e+00,3.296165168285369873e-02
3.335614204406738281e+00,1.409366703033447266e+01,1.533416748046875000e+01,8.516828536987304688e+00,1.712924194335937500e+01,9.150302886962890625e+00,1.103678131103515625e+01,1.321469020843505859e+01,8.857807159423828125e+00,3.126339197158813477e+00,4.328197479248046875e+00,1.860575914382934570e+00,1.966199302673339844e+01,9.940145492553710938e+00,1.030591583251953125e+01,1.276303291320800781e+00,1.703766441345214844e+01,9.456866264343261719e+00,5.756937503814697266e+00,-7.499478340148925781e+00,1.934647373855113983e-02
2.339934110641479492e+00,1.454790401458740234e+01,1.495908832550048828e+01,8.821368217468261719e+00,1.655313682556152344e+01,9.148190498352050781e+00,1.103785133361816406e+01,1.213802433013916016e+01,9.340643882751464844e+00,2.060676813125610352e+00,5.436768531799316406e+00,8.948878049850463867e-01,1.958833885192871094e+01,9.539690017700195312e+00,1.145002841949462891e+01,1.538006186485290527e+00,1.709685897827148438e+01,9.281381607055664062e+00,5.528156280517578125e+00,-7.641239643096923828e+00,6.546090822666883469e-03
1.115737438201904297e+00,1.485955524444580078e+01,1.452764892578125000e+01,9.285427093505859375e+00,1.581100177764892578e+01,9.260146141052246094e+00,1.094372177124023438e+01,1.153411483764648438e+01,9.992896080017089844e+00,1.573610186576843262e+00,6.075036525726318359e+00,2.976416349411010742e-01,1.941647720336914062e+01,9.179434776306152344e+00,1.245267295837402344e+01,1.972660541534423828e+00,1.711330032348632812e+01,9.517232894897460938e+00,5.444074153900146484e+00,-7.390661239624023438e+00,-5.260246805846691132e-03
-2.063950598239898682e-01,1.495121765136718750e+01,1.412147426605224609e+01,9.763988494873046875e+00,1.508286952972412109e+01,9.386888504028320312e+00,1.075439357757568359e+01,1.136636257171630859e+01,1.071122074127197266e+01,1.555631279945373535e+00,6.112581729888916016e+00,2.690411210060119629e-01,1.905198097229003906e+01,8.794441223144531250e+00,1.304052448272705078e+01,2.340182542800903320e+00,1.706068420410156250e+01,9.966473579406738281e+00,5.324795246124267578e+00,-6.882515430450439453e+00,-1.587698794901371002e-02
-1.473438739776611328e+00,1.486770343780517578e+01,1.384356498718261719e+01,1.013741111755371094e+01,1.458277893066406250e+01,9.507294654846191406e+00,1.050088596343994141e+01,1.153411483764648438e+01,1.140074443817138672e+01,1.807336807250976562e+00,5.582996845245361328e+00,8.780639171600341797e-01,1.845141029357910156e+01,8.342962265014648438e+00,1.309683799743652344e+01,2.459655523300170898e+00,1.696202850341796875e+01,1.038623332977294922e+01,5.045173645019531250e+00,-6.312473773956298828e+00,-2.496192045509815216e-02
-2.487481594085693359e+00,1.475770854949951172e+01,1.378526306152343750e+01,1.037125301361083984e+01,1.448076057434082031e+01,9.661498069763183594e+00,1.023882102966308594e+01,1.190012073516845703e+01,1.202080726623535156e+01,2.090096950531005859e+00,4.691792964935302734e+00,2.023766994476318359e+00,1.765820503234863281e+01,7.821906566619873047e+00,1.271500873565673828e+01,2.281014919281005859e+00,1.688310432434082031e+01,1.058558464050292969e+01,4.593476772308349609e+00,-5.861232280731201172e+00,-3.210764750838279724e-02
-3.030208826065063477e+00,1.481270599365234375e+01,1.401653003692626953e+01,1.052533531188964844e+01,1.484282588958740234e+01,9.904420852661132812e+00,1.004093551635742188e+01,1.231187629699707031e+01,1.258157539367675781e+01,2.188163995742797852e+00,3.741307020187377930e+00,3.450428247451782227e+00,1.677812385559082031e+01,7.263742923736572266e+00,1.213677120208740234e+01,1.900976777076721191e+00,1.690776824951171875e+01,1.047608184814453125e+01,4.049876689910888672e+00,-5.657575130462646484e+00,-3.698010370135307312e-02
-2.936353921890258789e+00,1.514065265655517578e+01,1.454513931274414062e+01,1.069935798645019531e+01,1.560296440124511719e+01,1.022127723693847656e+01,9.967129707336425781e+00,1.260773086547851562e+01,1.311523628234863281e+01,1.967513084411621094e+00,3.023996591567993164e+00,4.816523551940917969e+00,1.592448234558105469e+01,6.700940608978271484e+00,1.161484718322753906e+01,1.497043967247009277e+00,1.707712745666503906e+01,1.007738018035888672e+01,3.512142896652221680e+00,-5.752415657043457031e+00,-3.957113996148109436e-02
-2.163069486618041992e+00,1.572525310516357422e+01,1.528752613067626953e+01,1.098214340209960938e+01,1.656513977050781250e+01,1.053602123260498047e+01,1.003130912780761719e+01,1.264128112792968750e+01,1.360993099212646484e+01,1.403627276420593262e+00,2.693994045257568359e+00,5.805765151977539062e+00,1.514071941375732422e+01,6.136591911315917969e+00,1.127696990966796875e+01,1.218273520469665527e+00,1.736816215515136719e+01,9.473712921142578125e+00,3.027204513549804688e+00,-6.112809658050537109e+00,-4.035334289073944092e-02
-8.307353854179382324e-01,1.641373825073242188e+01,1.608044052124023438e+01,1.141176128387451172e+01,1.744729995727539062e+01,1.073669719696044922e+01,1.018854808807373047e+01,1.229662609100341797e+01,1.398942375183105469e+01,5.847670435905456543e-01,2.729563236236572266e+00,6.199442863464355469e+00,1.439472770690917969e+01,5.532043457031250000e+00,1.105858516693115234e+01,1.105627417564392090e+00,1.767892837524414062e+01,8.763350486755371094e+00,2.567686557769775391e+00,-6.632935047149658203e+00,-4.026371613144874573e-02
7.974462509155273438e-01,1.701667213439941406e+01,1.670233535766601562e+01,1.196101856231689453e+01,1.793738746643066406e+01,1.074725914001464844e+01,1.032546329498291016e+01,1.150056457519531250e+01,1.411817932128906250e+01,-3.305257856845855713e-01,2.937049865722656250e+00,5.947085380554199219e+00,1.358830165863037109e+01,4.828540802001953125e+00,1.074405765533447266e+01,1.074905872344970703e+00,1.785486412048339844e+01,8.015083312988281250e+00,2.059283494949340820e+00,-7.137087345123291016e+00,-4.041852429509162903e-02
2.364418029785156250e+00,1.736702537536621094e+01,1.692194175720214844e+01,1.253384208679199219e+01,1.778335952758789062e+01,1.056559467315673828e+01,1.030834865570068359e+01,1.025309562683105469e+01,1.386236095428466797e+01,-1.155923843383789062e+00,3.067469835281372070e+00,5.137858867645263672e+00,1.264023208618164062e+01,3.987429618835449219e+00,1.011912155151367188e+01,9.884300827980041504e-01,1.773812294006347656e+01,7.272431373596191406e+00,1.470709204673767090e+00,-7.430593967437744141e+00,-4.177108034491539001e-02
3.535566329956054688e+00,1.743017005920410156e+01,1.659156036376953125e+01,1.303234291076660156e+01,1.688919830322265625e+01,1.029732227325439453e+01,1.003879642486572266e+01,8.639621734619140625e+00,1.318977928161621094e+01,-1.726347446441650391e+00,2.929145574569702148e+00,3.978696584701538086e+00,1.157506942749023438e+01,3.059733390808105469e+00,9.109609603881835938e+00,7.608623504638671875e-01,1.725964164733886719e+01,6.576107501983642578e+00,8.625810146331787109e-01,-7.355720043182373047e+00,-4.479395970702171326e-02
4.076253414154052734e+00,1.727536201477050781e+01,1.570730400085449219e+01,1.337494945526123047e+01,1.534691715240478516e+01,1.010298442840576172e+01,9.515736579895019531e+00,6.864495277404785156e+00,1.220716571807861328e+01,-1.909405946731567383e+00,2.468723058700561523e+00,2.716909170150756836e+00,1.055523300170898438e+01,2.187699317932128906e+00,7.859738349914550781e+00,4.229242503643035889e-01,1.642435455322265625e+01,6.000517368316650391e+00,4.108844995498657227e-01,-6.858555793762207031e+00,-4.938123747706413269e-02
3.935470581054687500e+00,1.705333709716796875e+01,1.444019508361816406e+01,1.356528568267822266e+01,1.344857215881347656e+01,1.011354637145996094e+01,8.860039710998535156e+00,5.180870056152343750e+00,1.117542076110839844e+01,-1.602129101753234863e+00,1.802790164947509766e+00,1.633454084396362305e+00,9.877230644226074219e+00,1.618712306022644043e+00,6.710131168365478516e+00,1.612213402986526489e-01,1.538188934326171875e+01,5.660778999328613281e+00,3.737319707870483398e-01,-6.026953697204589844e+00,-5.488923192024230957e-02
3.227476835250854492e+00,1.689241790771484375e+01,1.309146213531494141e+01,1.363779544830322266e+01,1.159423542022705078e+01,1.038393020629882812e+01,8.284567832946777344e+00,3.896800756454467773e+00,1.040796566009521484e+01,-7.309663891792297363e-01,1.150689601898193359e+00,1.002560377120971680e+00,9.862122535705566406e+00,1.634173870086669922e+00,6.075580596923828125e+00,2.522484362125396729e-01,1.433942508697509766e+01,5.690260410308837891e+00,9.857710003852844238e-01,-5.065570354461669922e+00,-6.041352450847625732e-02
2.172627210617065430e+00,1.684149551391601562e+01,1.198760032653808594e+01,1.365048408508300781e+01,1.019198131561279297e+01,1.085287761688232422e+01,8.017154693603515625e+00,3.280691385269165039e+00,1.015892410278320312e+01,7.220609784126281738e-01,7.436208724975585938e-01,1.051349401473999023e+00,1.073464870452880859e+01,2.461369514465332031e+00,6.269242286682128906e+00,9.497435688972473145e-01,1.348933982849121094e+01,6.184425354003906250e+00,2.366280794143676758e+00,-4.253934860229492188e+00,-6.504969298839569092e-02
1.019842028617858887e+00,1.684149551391601562e+01,1.136764907836914062e+01,1.362873172760009766e+01,9.515857696533203125e+00,1.136829662322998047e+01,8.209692001342773438e+00,3.457594156265258789e+00,1.052147483825683594e+01,2.691575050354003906e+00,7.357165813446044922e-01,1.899270653724670410e+00,1.252880573272705078e+01,4.176061153411865234e+00,7.384512424468994141e+00,2.369766235351562500e+00,1.293028926849365234e+01,7.141870498657226562e+00,4.466376304626464844e+00,-3.833641529083251953e+00,-6.812145560979843140e-02
-2.888653054833412170e-02,1.676816558837890625e+01,1.128602600097656250e+01,1.353265666961669922e+01,9.605874061584472656e+00,1.173585033416748047e+01,8.865388870239257812e+00,4.354307651519775391e+00,1.139057922363281250e+01,4.991248130798339844e+00,1.146737575531005859e+00,3.497534990310668945e+00,1.503873634338378906e+01,6.653009414672851562e+00,9.282669067382812500e+00,4.449735641479492188e+00,1.262610054016113281e+01,8.447477340698242188e+00,7.086606979370117188e+00,-3.921493768692016602e+00,-6.931920349597930908e-02
-8.715419769287109375e-01,1.646466255187988281e+01,1.156393527984619141e+01,1.326074695587158203e+01,1.024599075317382812e+01,1.178232288360595703e+01,9.810960769653320312e+00,5.696327686309814453e+00,1.249686717987060547e+01,7.315438270568847656e+00,1.862071990966796875e+00,5.608926296234130859e+00,1.787916946411132812e+01,9.558244705200195312e+00,1.163819599151611328e+01,6.952980518341064453e+00,1.240248012542724609e+01,9.866798400878906250e+00,9.910199165344238281e+00,-4.443615913391113281e+00,-6.875699758529663086e-02
-1.497922658920288086e+00,1.581080532073974609e+01,1.189237308502197266e+01,1.270061302185058594e+01,1.105013656616210938e+01,1.139787006378173828e+01,1.076401996612548828e+01,7.105448722839355469e+00,1.351844692230224609e+01,9.307834625244140625e+00,2.693994045257568359e+00,7.866684913635253906e+00,2.059306716918945312e+01,1.243100929260253906e+01,1.408574676513671875e+01,9.552942276000976562e+00,1.204567432403564453e+01,1.112467384338378906e+01,1.257735919952392578e+01,-5.173388957977294922e+00,-6.686667352914810181e-02
-1.948835134506225586e+00,1.475363445281982422e+01,1.194484519958496094e+01,1.178699588775634766e+01,1.160223674774169922e+01,1.054235839843750000e+01,1.143576145172119141e+01,8.218715667724609375e+00,1.419949913024902344e+01,1.067750549316406250e+01,3.468610525131225586e+00,9.905733108520507812e+00,2.280082321166992188e+01,1.483219623565673828e+01,1.635749244689941406e+01,1.195036792755126953e+01,1.138139152526855469e+01,1.200209712982177734e+01,1.479282379150390625e+01,-5.820301532745361328e+00,-6.430822610855102539e-02
-2.273247241973876953e+00,1.332574176788330078e+01,1.152506637573242188e+01,1.053439903259277344e+01,1.163624286651611328e+01,9.249584197998046875e+00,1.164862251281738281e+01,8.822624206542968750e+00,1.443837642669677734e+01,1.129696273803710938e+01,4.083165645599365234e+00,1.147539710998535156e+01,2.430791473388671875e+01,1.649122619628906250e+01,1.835728645324707031e+01,1.397344589233398438e+01,1.037181186676025391e+01,1.240360641479492188e+01,1.640015983581542969e+01,-6.158732414245605469e+00,-6.179866939783096313e-02
-2.485441446304321289e+00,1.164730548858642578e+01,1.064664077758789062e+01,9.064273834228515625e+00,1.111814880371093750e+01,7.629392623901367188e+00,1.139190578460693359e+01,8.920226097106933594e+00,1.428929042816162109e+01,1.124792861938476562e+01,4.517899513244628906e+00,1.250333404541015625e+01,2.513133811950683594e+01,1.739572906494140625e+01,2.012770843505859375e+01,1.560169219970703125e+01,9.122170448303222656e+00,1.239518356323242188e+01,1.739741134643554688e+01,-6.108816146850585938e+00,-6.003057211637496948e-02
-2.567054510116577148e+00,9.864986419677734375e+00,9.490306854248046875e+00,7.523452281951904297e+00,1.021798515319824219e+01,5.819086551666259766e+00,1.079504013061523438e+01,8.694522857666015625e+00,1.388946819305419922e+01,1.076413154602050781e+01,4.812332630157470703e+00,1.306356716156005859e+01,2.543351173400878906e+01,1.774979972839355469e+01,2.175254249572753906e+01,1.691134452819824219e+01,7.829777240753173828e+00,1.214388942718505859e+01,1.789017105102539062e+01,-5.749420642852783203e+00,-5.945206806063652039e-02
-2.509925365447998047e+00,8.103035926818847656e+00,8.304821014404296875e+00,6.037012577056884766e+00,9.223804473876953125e+00,3.960196018218994141e+00,1.005377197265625000e+01,8.352917671203613281e+00,1.336597156524658203e+01,1.012506008148193359e+01,4.986226081848144531e+00,1.326881790161132812e+01,2.539007377624511719e+01,1.785184669494628906e+01,2.322491836547851562e+01,1.799115371704101562e+01,6.682079792022705078e+00,1.182520866394042969e+01,1.800749397277832031e+01,-5.269227981567382812e+00,-6.015279144048690796e-02
-2.342618465423583984e+00,6.424599647521972656e+00,7.278695583343505859e+00,4.643022060394287109e+00,8.369649887084960938e+00,2.177351236343383789e+00,9.323199272155761719e+00,8.090613365173339844e+00,1.276454448699951172e+01,9.541561126708984375e+00,4.996106624603271484e+00,1.320152282714843750e+01,2.510301017761230469e+01,1.794306945800781250e+01,2.439924812316894531e+01,1.886273765563964844e+01,5.754714012145996094e+00,1.154724121093750000e+01,1.782955360412597656e+01,-4.851929664611816406e+00,-6.185570731759071350e-02
-2.150827646255493164e+00,4.817456245422363281e+00,6.485780715942382812e+00,3.319728136062622070e+00,7.783543109893798828e+00,5.677210092544555664e-01,8.672851562500000000e+00,7.999112129211425781e+00,1.205130290985107422e+01,9.101893424987792969e+00,4.751074790954589844e+00,1.290710544586181641e+01,2.456476211547851562e+01,1.812397193908691406e+01,2.503242492675781250e+01,1.945782852172851562e+01,5.001640319824218750e+00,1.132402420043945312e+01,1.735243797302246094e+01,-4.613330841064453125e+00,-6.407193839550018311e-02
-2.022286891937255859e+00,3.263273477554321289e+00,5.933849811553955078e+00,2.045377969741821289e+00,7.501492023468017578e+00,-7.905364632606506348e-01,8.120910644531250000e+00,8.139413833618164062e+00,1.118558597564697266e+01,8.819133758544921875e+00,4.176040649414062500e+00,1.246463871002197266e+01,2.371489906311035156e+01,1.835744094848632812e+01,2.490743827819824219e+01,1.967515563964843750e+01,4.330780029296875000e+00,1.112327003479003906e+01,1.653899192810058594e+01,-4.588372707366943359e+00,-6.623113900423049927e-02
-1.975359320640563965e+00,1.792605042457580566e+00,5.636506557464599609e+00,8.580389618873596191e-01,7.539498805999755859e+00,-1.829825162887573242e+00,7.666308879852294922e+00,8.581670761108398438e+00,1.019958400726318359e+01,8.678570747375488281e+00,3.278908491134643555e+00,1.206254959106445312e+01,2.252508926391601562e+01,1.855844116210937500e+01,2.395423889160156250e+01,1.944417381286621094e+01,3.705959081649780273e+00,1.093655395507812500e+01,1.539313030242919922e+01,-4.743112564086914062e+00,-6.785257905721664429e-02
-1.936593174934387207e+00,5.297042131423950195e-01,5.665657997131347656e+00,-9.727048128843307495e-02,7.939571380615234375e+00,-2.490998744964599609e+00,7.345413208007812500e+00,9.450933456420898438e+00,9.228829383850097656e+00,8.691646575927734375e+00,2.180217981338500977e+00,1.200871276855468750e+01,2.106332397460937500e+01,1.868832015991210938e+01,2.231704521179199219e+01,1.880015754699707031e+01,3.206102371215820312e+00,1.083126258850097656e+01,1.400479888916015625e+01,-5.013657569885253906e+00,-6.874069571495056152e-02
-1.748883008956909180e+00,-3.543263971805572510e-01,6.137908935546875000e+00,-6.374644041061401367e-01,8.771722793579101562e+00,-2.757158041000366211e+00,7.232029914855957031e+00,1.087225532531738281e+01,8.485092163085937500e+00,8.892683982849121094e+00,1.093383789062500000e+00,1.263624191284179688e+01,1.950901794433593750e+01,1.879500389099121094e+01,2.033922576904296875e+01,1.789785194396972656e+01,3.020300149917602539e+00,1.095340061187744141e+01,1.258713626861572266e+01,-5.335116863250732422e+00,-6.893625110387802124e-02
-1.271446228027343750e+00,-7.026426196098327637e-01,7.136826038360595703e+00,-6.229625940322875977e-01,1.007195949554443359e+01,-2.666325807571411133e+00,7.390338420867919922e+00,1.288833522796630859e+01,8.163201332092285156e+00,9.302931785583496094e+00,2.575095593929290771e-01,1.414197540283203125e+01,1.809635543823242188e+01,1.898208999633789062e+01,1.844106864929199219e+01,1.696141052246093750e+01,3.337643623352050781e+00,1.144616127014160156e+01,1.139825534820556641e+01,-5.664563179016113281e+00,-6.857774406671524048e-02
-4.695973694324493408e-01,-4.500624537467956543e-01,8.606051445007324219e+00,-3.563761338591575623e-02,1.175226402282714844e+01,-2.302997350692749023e+00,7.819269180297851562e+00,1.536192226409912109e+01,8.356335639953613281e+00,9.884796142578125000e+00,-1.871044039726257324e-01,1.645188713073730469e+01,1.700853157043457031e+01,1.931142234802246094e+01,1.696457290649414062e+01,1.619791984558105469e+01,4.235412597656250000e+00,1.235868263244628906e+01,1.063956165313720703e+01,-5.942096710205078125e+00,-6.777924299240112305e-02
5.505666136741638184e-01,3.076780736446380615e-01,1.031042957305908203e+01,9.849301576614379883e-01,1.354458999633789062e+01,-1.785465359687805176e+00,8.393671989440917969e+00,1.794531059265136719e+01,8.973011016845703125e+00,1.050588798522949219e+01,-2.938117682933807373e-01,1.916052436828613281e+01,1.627953720092773438e+01,1.970260047912597656e+01,1.600313186645507812e+01,1.566199779510498047e+01,5.591931819915771484e+00,1.357022953033447266e+01,1.032865428924560547e+01,-6.075871467590332031e+00,-6.661409139633178711e-02
1.570730566978454590e+00,1.364848375320434570e+00,1.189431571960449219e+01,2.215774774551391602e+00,1.506886672973632812e+01,-1.213011503219604492e+00,8.914592742919921875e+00,2.018404388427734375e+01,9.776042938232421875e+00,1.098478221893310547e+01,-2.819553911685943604e-01,2.165213584899902344e+01,1.578850460052490234e+01,1.993297767639160156e+01,1.541390705108642578e+01,1.524896240234375000e+01,7.116166114807128906e+00,1.481266212463378906e+01,1.027194786071777344e+01,-5.963061332702636719e+00,-6.515561044216156006e-02
2.354216575622558594e+00,2.468868255615234375e+00,1.301761245727539062e+01,3.433930158615112305e+00,1.596903038024902344e+01,-6.426701545715332031e-01,9.170239448547363281e+00,2.166331672668457031e+01,1.047403812408447266e+01,1.115639972686767578e+01,-4.518967270851135254e-01,2.332442474365234375e+01,1.531824684143066406e+01,1.969177818298339844e+01,1.486725997924804688e+01,1.472669506072998047e+01,8.475974082946777344e+00,1.576870346069335938e+01,1.010964965820312500e+01,-5.527792930603027344e+00,-6.361565738916397095e-02
2.741878747940063477e+00,3.426228523254394531e+00,1.349374961853027344e+01,4.503441810607910156e+00,1.605504608154296875e+01,-7.232876867055892944e-02,9.029045104980468750e+00,2.215132331848144531e+01,1.081287002563476562e+01,1.091123199462890625e+01,-1.062499880790710449e+00,2.379717445373535156e+01,1.463835525512695312e+01,1.872233581542968750e+01,1.401707267761230469e+01,1.382438850402832031e+01,9.418137550354003906e+00,1.618284797668457031e+01,9.446770668029785156e+00,-4.768070220947265625e+00,-6.236087530851364136e-02
2.735757827758789062e+00,4.169710636138916016e+00,1.335965442657470703e+01,5.400743961334228516e+00,1.539092540740966797e+01,5.318106412887573242e-01,8.496358871459960938e+00,2.166636657714843750e+01,1.065700721740722656e+01,1.021822452545166016e+01,-2.226400375366210938e+00,2.303841972351074219e+01,1.360341072082519531e+01,1.691951179504394531e+01,1.264358711242675781e+01,1.233950901031494141e+01,9.875244140625000000e+00,1.595401477813720703e+01,7.997821807861328125e+00,-3.791712045669555664e+00,-6.179052218794822693e-02
2.462353944778442383e+00,4.748200416564941406e+00,1.285436534881591797e+01,6.189281940460205078e+00,1.426672172546386719e+01,1.201433658599853516e+00,7.713373661041259766e+00,2.044024848937988281e+01,1.001153182983398438e+01,9.121507644653320312e+00,-3.842819213867187500e+00,2.134930610656738281e+01,1.221530055999755859e+01,1.438226318359375000e+01,1.077290058135986328e+01,1.022768020629882812e+01,9.959101676940917969e+00,1.515520858764648438e+01,5.729562282562255859e+00,-2.808365345001220703e+00,-6.210828945040702820e-02
2.111417531967163086e+00,5.269656181335449219e+00,1.228882980346679688e+01,6.950629234313964844e+00,1.307050418853759766e+01,1.938652753829956055e+00,6.885462760925292969e+00,1.882067298889160156e+01,8.991646766662597656e+00,7.714244365692138672e+00,-5.648940086364746094e+00,1.921267890930175781e+01,1.059300518035888672e+01,1.137962055206298828e+01,8.656359672546386719e+00,7.625443458557128906e+00,9.885108947753906250e+00,1.397033500671386719e+01,2.862951278686523438e+00,-2.053634166717529297e+00,-6.311863660812377930e-02
1.833932876586914062e+00,5.842035770416259766e+00,1.191763687133789062e+01,7.726478099822998047e+00,1.214033508300781250e+01,2.722344160079956055e+00,6.199816226959228516e+00,1.714314842224121094e+01,7.749825954437255859e+00,6.102675437927246094e+00,-7.328592777252197266e+00,1.712988853454589844e+01,8.906497955322265625e+00,8.251738548278808594e+00,6.637336254119873047e+00,4.795638561248779297e+00,9.844002723693847656e+00,1.261138057708740234e+01,-1.835559308528900146e-01,-1.700228452682495117e+00,-6.425934284925460815e-02
1.701311588287353516e+00,6.528483390808105469e+00,1.183795738220214844e+01,8.496889114379882812e+00,1.164424514770507812e+01,3.529271602630615234e+00,5.753771305084228516e+00,1.566082668304443359e+01,6.443626880645751953e+00,4.402845859527587891e+00,-8.599201202392578125e+00,1.546264648437500000e+01,7.316308498382568359e+00,5.310942649841308594e+00,5.031732082366943359e+00,2.057998418807983398e+00,9.924571990966796875e+00,1.124259948730468750e+01,-2.925021409988403320e+00,-1.791075706481933594e+00,-6.475636363029479980e-02
1.695190548896789551e+00,7.341221332550048828e+00,1.196622276306152344e+01,9.212918281555175781e+00,1.151622104644775391e+01,4.361547470092773438e+00,5.513099670410156250e+00,1.449570941925048828e+01,5.196723937988281250e+00,2.727533102035522461e+00,-9.346152305603027344e+00,1.439433288574218750e+01,5.907423496246337891e+00,2.776786088943481445e+00,3.963160514831542969e+00,-3.269114792346954346e-01,1.008077716827392578e+01,9.953839302062988281e+00,-4.958633422851562500e+00,-2.169439554214477539e+00,-6.408008933067321777e-02
1.719674468040466309e+00,8.221178054809570312e+00,1.208088397979736328e+01,9.803868293762207031e+00,1.152022266387939453e+01,5.202272891998291016e+00,5.341955184936523438e+00,1.366304683685302734e+01,4.085353851318359375e+00,1.174804091453552246e+00,-9.638609886169433594e+00,1.392663002014160156e+01,4.659068584442138672e+00,7.404933571815490723e-01,3.310754776000976562e+00,-2.244169712066650391e+00,1.015805721282958984e+01,8.759138107299804688e+00,-6.092763423919677734e+00,-2.545806884765625000e+00,-6.231198832392692566e-02
1.672746896743774414e+00,9.052248001098632812e+00,1.193318462371826172e+01,1.020991992950439453e+01,1.135019111633300781e+01,5.990189075469970703e+00,5.074542522430419922e+00,1.309268856048583984e+01,3.146788358688354492e+00,-1.883285194635391235e-01,-9.666274070739746094e+00,1.395691299438476562e+01,3.508919715881347656e+00,-8.118513226509094238e-01,2.784709930419921875e+00,-3.729049205780029297e+00,9.982121467590332031e+00,7.630420207977294922e+00,-6.376295566558837891e+00,-2.613692760467529297e+00,-6.016908586025238037e-02
1.493198037147521973e+00,9.689809799194335938e+00,1.133461093902587891e+01,1.040207004547119141e+01,1.074408149719238281e+01,6.604890346527099609e+00,4.588920593261718750e+00,1.267483234405517578e+01,2.399662971496582031e+00,-1.306293368339538574e+00,-9.636632919311523438e+00,1.433376693725585938e+01,2.419205665588378906e+00,-1.929725050926208496e+00,2.104834794998168945e+00,-4.908987998962402344e+00,9.419782638549804688e+00,6.552241802215576172e+00,-6.034101486206054688e+00,-2.148474931716918945e+00,-5.866172164678573608e-02
1.170826315879821777e+00,9.983128547668457031e+00,1.022297573089599609e+01,1.035856437683105469e+01,9.581870079040527344e+00,6.877386569976806641e+00,3.863696575164794922e+00,1.230577659606933594e+01,1.860919475555419922e+00,-2.141498088836669922e+00,-9.636632919311523438e+00,1.491755390167236328e+01,1.469246983528137207e+00,-2.639412641525268555e+00,1.201081395149230957e+00,-5.867048263549804688e+00,8.434866905212402344e+00,5.528814315795898438e+00,-5.328203201293945312e+00,-1.119205355644226074e+00,-5.861283466219902039e-02
7.423574328422546387e-01,9.807951927185058594e+00,8.677957534790039062e+00,1.004314899444580078e+01,7.953574180603027344e+00,6.653474807739257812e+00,2.998348236083984375e+00,1.191232013702392578e+01,1.557664632797241211e+00,-2.648178100585937500e+00,-9.585255622863769531e+00,1.562079048156738281e+01,8.686766624450683594e-01,-2.894528865814208984e+00,3.069424927234649658e-01,-6.559991836547851562e+00,7.093146324157714844e+00,4.584003925323486328e+00,-4.430676460266113281e+00,2.844347059726715088e-01,-6.025056540966033936e-02
2.669610083103179932e-01,9.127614974975585938e+00,6.911389350891113281e+00,9.426819801330566406e+00,6.123241424560546875e+00,5.888794898986816406e+00,2.178995132446289062e+00,1.149141407012939453e+01,1.542417168617248535e+00,-2.769127368927001953e+00,-9.265133857727050781e+00,1.640646362304687500e+01,9.140027165412902832e-01,-2.574473857879638672e+00,-1.174644678831100464e-01,-6.784146308898925781e+00,5.549180984497070312e+00,3.762735366821289062e+00,-3.353253126144409180e+00,1.726010918617248535e+00,-6.300456076860427856e-02
-1.921127587556838989e-01,8.043964385986328125e+00,5.212841033935546875e+00,8.511390686035156250e+00,4.474942207336425781e+00,4.693190574645996094e+00,1.620636820793151855e+00,1.109795856475830078e+01,1.886331915855407715e+00,-2.461850643157958984e+00,-8.431235313415527344e+00,1.725438499450683594e+01,1.871515750885009766e+00,-1.554008126258850098e+00,4.195683002471923828e-01,-6.265291690826416016e+00,4.010148048400878906e+00,3.112739562988281250e+00,-1.986431241035461426e+00,2.824164628982543945e+00,-6.575855612754821777e-02
-6.062993407249450684e-01,6.758657455444335938e+00,3.862164974212646484e+00,7.333115577697753906e+00,3.384743928909301758e+00,3.309584379196166992e+00,1.493348240852355957e+00,1.078380393981933594e+01,2.626680612564086914e+00,-1.777015328407287598e+00,-6.937332630157470703e+00,1.810735321044921875e+01,3.835644960403442383e+00,1.946988701820373535e-01,2.199605226516723633e+00,-4.822512149810791016e+00,2.665138959884643555e+00,2.671921730041503906e+00,-2.285300493240356445e-01,3.259432792663574219e+00,-6.735555082559585571e-02
-9.837599992752075195e-01,5.505940914154052734e+00,3.038155317306518555e+00,5.951814174652099609e+00,3.074687719345092773e+00,2.008361101150512695e+00,1.850611925125122070e+00,1.056725025177001953e+01,3.710944175720214844e+00,-8.927771449089050293e-01,-4.838754653930664062e+00,1.885096549987792969e+01,6.636417865753173828e+00,2.517031192779541016e+00,5.142984390258789062e+00,-2.510423898696899414e+00,1.632539987564086914e+00,2.448705196380615234e+00,1.873520851135253906e+00,2.888057231903076172e+00,-6.716814637184143066e-02
-1.342857718467712402e+00,4.467103004455566406e+00,2.742755651473999023e+00,4.479876041412353516e+00,3.502765417098999023e+00,9.669600129127502441e-01,2.592950344085693359e+00,1.035679721832275391e+01,4.957847118377685547e+00,-1.262193620204925537e-01,-2.384485483169555664e+00,1.930689239501953125e+01,9.837570190429687500e+00,5.052733898162841797e+00,8.799201965332031250e+00,3.296214640140533447e-01,9.041303396224975586e-01,2.399569272994995117e+00,4.047921657562255859e+00,1.785910248756408691e+00,-6.521265208721160889e-02
-1.699915051460266113e+00,3.688993453979492188e+00,2.799114704132080078e+00,3.007938385009765625e+00,4.370923042297363281e+00,1.938305497169494629e-01,3.493597030639648438e+00,9.975542068481445312e+00,6.070911407470703125e+00,1.614441126585006714e-01,5.990336090326309204e-02,1.927660942077636719e+01,1.283664512634277344e+01,7.297758102416992188e+00,1.250898647308349609e+01,3.145772218704223633e+00,3.713882565498352051e-01,2.422031402587890625e+00,5.858618259429931641e+00,2.105589061975479126e-01,-6.206755340099334717e-02
-2.083496809005737305e+00,3.061616659164428711e+00,2.898229122161865234e+00,1.603071570396423340e+00,5.201074123382568359e+00,-4.779048562049865723e-01,4.261607170104980469e+00,9.194729804992675781e+00,6.707916259765625000e+00,-3.370636105537414551e-01,2.128840446472167969e+00,1.861375045776367188e+01,1.504440212249755859e+01,8.744963645935058594e+00,1.562817096710205078e+01,5.347490310668945312e+00,-1.580652892589569092e-01,2.350433588027954102e+00,6.861736774444580078e+00,-1.486587643623352051e+00,-5.859653651714324951e-02
