Fp1,Fp2,F7,F3,Fz,F4,F8,T3,C3,Cz,C4,T4,T5,P3,Pz,P4,T6,O1,Oz,O2,A1
-1.433846354484558105e+00,1.989813232421875000e+01,1.724368095397949219e+01,5.547242641448974609e+00,2.224240303039550781e+00,9.380501747131347656e+00,-9.914070129394531250e+00,-3.669994354248046875e+00,6.490856647491455078e+00,4.176325321197509766e+00,-5.508194446563720703e+00,-6.395661830902099609e+00,-3.350688695907592773e+00,-3.437284946441650391e+00,-1.113269686698913574e+00,-2.726621866226196289e+00,7.438191890716552734e+00,4.248145580291748047e+00,-2.172214031219482422e+00,2.794532537460327148e+00,-6.068988237529993057e-03
-2.148988962173461914e+00,2.133064079284667969e+01,1.598756694793701172e+01,5.532701969146728516e+00,2.143178462982177734e+00,9.980642318725585938e+00,-1.051967239379882812e+01,-1.787124991416931152e+00,8.444556236267089844e+00,6.269330501556396484e+00,-5.726179122924804688e+00,-4.720893859863281250e+00,-2.535590171813964844e+00,-1.064385294914245605e+00,-2.263237386941909790e-01,-1.483924865722656250e+00,9.316344261169433594e+00,6.316099166870117188e+00,-4.757997989654541016e-01,3.350843429565429688e+00,-5.670077633112668991e-03
-2.471423149108886719e+00,2.258798789978027344e+01,1.426156139373779297e+01,5.844662666320800781e+00,1.902154803276062012e+00,1.007180309295654297e+01,-1.111506748199462891e+01,-6.621843576431274414e-01,1.010146236419677734e+01,8.404685974121093750e+00,-6.099866867065429688e+00,-3.288858652114868164e+00,-2.192579507827758789e+00,1.028061747550964355e+00,4.087733924388885498e-01,-2.320055365562438965e-01,1.075078678131103516e+01,8.124120712280273438e+00,9.695909619331359863e-01,3.698384284973144531e+00,-4.416638519614934921e-03
-2.417684078216552734e+00,2.362161445617675781e+01,1.212341308593750000e+01,6.344327926635742188e+00,1.660050272941589355e+00,9.709692955017089844e+00,-1.167644023895263672e+01,-1.815583929419517517e-02,1.138679122924804688e+01,1.045757007598876953e+01,-6.558903217315673828e+00,-2.095044851303100586e+00,-2.208116531372070312e+00,2.827545404434204102e+00,8.566263318061828613e-01,1.151330709457397461e+00,1.166734600067138672e+01,9.590551376342773438e+00,2.196052551269531250e+00,3.910838365554809570e+00,-2.400576137006282806e-03
-2.205483675003051758e+00,2.434307098388671875e+01,9.678128242492675781e+00,6.822843551635742188e+00,1.626544713973999023e+00,9.019658088684082031e+00,-1.212383651733398438e+01,5.597823858261108398e-01,1.234027099609375000e+01,1.228644180297851562e+01,-7.013326168060302734e+00,-1.140354871749877930e+00,-2.367072820663452148e+00,4.353874206542968750e+00,1.226734638214111328e+00,2.751389503479003906e+00,1.206204986572265625e+01,1.070733833312988281e+01,3.205877542495727539e+00,4.049609184265136719e+00,1.317235000897198915e-04
-2.092494010925292969e+00,2.462402343750000000e+01,7.030709743499755859e+00,7.042273521423339844e+00,1.918367147445678711e+00,8.116914749145507812e+00,-1.233477687835693359e+01,1.396456956863403320e+00,1.306472969055175781e+01,1.374196147918701172e+01,-7.368559837341308594e+00,-4.554685056209564209e-01,-2.429220914840698242e+00,5.631028175354003906e+00,1.652687788009643555e+00,4.600449085235595703e+00,1.198522853851318359e+01,1.149748516082763672e+01,4.003650665283203125e+00,4.096275329589843750e+00,2.838057465851306915e-03
-2.263356447219848633e+00,2.430318260192871094e+01,4.228410720825195312e+00,6.787153244018554688e+00,2.451213359832763672e+00,7.058439254760742188e+00,-1.223781204223632812e+01,2.556551933288574219e+00,1.361858940124511719e+01,1.468035888671875000e+01,-7.556557178497314453e+00,-1.188906431198120117e-01,-2.237995624542236328e+00,6.643368244171142578e+00,2.246175050735473633e+00,6.645481109619140625e+00,1.151105403900146484e+01,1.196099185943603516e+01,4.614589214324951172e+00,3.994346380233764648e+00,5.352757871150970459e-03
-2.800746917724609375e+00,2.326782226562500000e+01,1.243666529655456543e+00,5.910756111145019531e+00,2.953796386718750000e+00,5.855626106262207031e+00,-1.188737964630126953e+01,3.815079450607299805e+00,1.396913337707519531e+01,1.498238468170166016e+01,-7.576164245605468750e+00,-2.334895431995391846e-01,-1.775468826293945312e+00,7.321041584014892578e+00,3.040046453475952148e+00,8.745846748352050781e+00,1.070972728729248047e+01,1.204610252380371094e+01,5.092565536499023438e+00,3.709436655044555664e+00,7.366864942014217377e-03
-3.674350738525390625e+00,2.157170486450195312e+01,-1.949773430824279785e+00,4.389287948608398438e+00,3.097545862197875977e+00,4.556587696075439453e+00,-1.145699405670166016e+01,4.819088935852050781e+00,1.401119899749755859e+01,1.460457324981689453e+01,-7.493122577667236328e+00,-8.561134934425354004e-01,-1.155181288719177246e+00,7.587940692901611328e+00,3.997072219848632812e+00,1.072862815856933594e+01,9.673961639404296875e+00,1.167920780181884766e+01,5.536154747009277344e+00,3.247686386108398438e+00,8.655502460896968842e-03
-4.804248332977294922e+00,1.951832580566406250e+01,-5.265280723571777344e+00,2.356257438659667969e+00,2.664135456085205078e+00,3.332250595092773438e+00,-1.116269874572753906e+01,5.284533023834228516e+00,1.364896965026855469e+01,1.359484863281250000e+01,-7.418154239654541016e+00,-1.952473044395446777e+00,-5.671629309654235840e-01,7.392979145050048828e+00,5.016512393951416016e+00,1.240246582031250000e+01,8.541506767272949219e+00,1.082235240936279297e+01,6.040493965148925781e+00,2.664358139038085938e+00,9.046590887010097504e-03
-6.076072216033935547e+00,1.758114433288574219e+01,-8.445594787597656250e+00,6.546302139759063721e-02,1.656807780265808105e+00,2.468757390975952148e+00,-1.115079116821289062e+01,5.146728038787841797e+00,1.286024570465087891e+01,1.208137702941894531e+01,-7.456215381622314453e+00,-3.389922380447387695e+00,-1.978587061166763306e-01,6.733029365539550781e+00,5.950543403625488281e+00,1.358752346038818359e+01,7.483225345611572266e+00,9.516942024230957031e+00,6.633092880249023438e+00,2.051556587219238281e+00,8.458002470433712006e-03
-7.309314250946044922e+00,1.626829910278320312e+01,-1.107201194763183594e+01,-2.146019458770751953e+00,3.198286890983581543e-01,2.271242856979370117e+00,-1.141106414794921875e+01,4.585663795471191406e+00,1.174785137176513672e+01,1.026810741424560547e+01,-7.660359382629394531e+00,-4.969040870666503906e+00,-1.572232842445373535e-01,5.668560981750488281e+00,6.653530120849609375e+00,1.414085769653320312e+01,6.683222293853759766e+00,7.906744480133056641e+00,7.238299846649169922e+00,1.463316202163696289e+00,6.893647834658622742e-03
-8.222877502441406250e+00,1.594745922088623047e+01,-1.264707565307617188e+01,-3.938470125198364258e+00,-9.317653179168701172e-01,2.937221527099609375e+00,-1.176319789886474609e+01,3.886794328689575195e+00,1.051627254486083984e+01,8.399113655090332031e+00,-7.998293399810791016e+00,-6.473264217376708984e+00,-4.297195971012115479e-01,4.314256668090820312e+00,7.018163681030273438e+00,1.397485733032226562e+01,6.300439357757568359e+00,6.216036796569824219e+00,7.680743217468261719e+00,8.603389859199523926e-01,4.476719535887241364e-03
-8.480549812316894531e+00,1.668279075622558594e+01,-1.280851936340332031e+01,-5.077919006347656250e+00,-1.682937860488891602e+00,4.423645496368408203e+00,-1.194862079620361328e+01,3.279326438903808594e+00,9.378172874450683594e+00,6.711781501770019531e+00,-8.383514404296875000e+00,-7.751899242401123047e+00,-9.125639200210571289e-01,2.812949180603027344e+00,6.984218597412109375e+00,1.306877231597900391e+01,6.398453235626220703e+00,4.677148342132568359e+00,7.734615802764892578e+00,1.578890532255172729e-01,1.457514357753098011e-03
-7.839815139770507812e+00,1.826964950561523438e+01,-1.149859237670898438e+01,-5.485053539276123047e+00,-1.691584467887878418e+00,6.403855800628662109e+00,-1.176489830017089844e+01,2.826537847518920898e+00,8.481947898864746094e+00,5.386657238006591797e+00,-8.726061820983886719e+00,-8.758925437927246094e+00,-1.464727520942687988e+00,1.298088550567626953e+00,6.539650440216064453e+00,1.148254680633544922e+01,6.926931858062744141e+00,3.464899301528930664e+00,7.209644317626953125e+00,-7.619274258613586426e-01,-1.808076631277799606e-03
-6.281383037567138672e+00,2.027793693542480469e+01,-9.041493415832519531e+00,-5.228611469268798828e+00,-9.717558026313781738e-01,8.379001617431640625e+00,-1.114568805694580078e+01,2.459525823593139648e+00,7.879011631011962891e+00,4.525159358978271484e+00,-8.970573425292968750e+00,-9.527730941772460938e+00,-1.965499162673950195e+00,-1.156424805521965027e-01,5.700884342193603516e+00,9.340681076049804688e+00,7.730908393859863281e+00,2.660950660705566406e+00,6.045078754425048828e+00,-2.009635686874389648e+00,-4.919187631458044052e-03
-4.073948860168457031e+00,2.221338462829589844e+01,-6.075125694274902344e+00,-4.480435371398925781e+00,2.355244159698486328e-01,9.833772659301757812e+00,-1.016243553161621094e+01,2.082670688629150391e+00,7.543657779693603516e+00,4.125059127807617188e+00,-9.135503768920898438e+00,-1.012508964538574219e+01,-2.352730751037597656e+00,-1.359433889389038086e+00,4.490914821624755859e+00,6.829926013946533203e+00,8.614355087280273438e+00,2.259551525115966797e+00,4.345226287841796875e+00,-3.629446029663085938e+00,-7.519927341490983963e-03
-1.724588274955749512e+00,2.362508201599121094e+01,-3.326640844345092773e+00,-3.453345060348510742e+00,1.571422696113586426e+00,1.040859031677246094e+01,-8.954633712768554688e+00,1.686129212379455566e+00,7.412787914276123047e+00,4.087166309356689453e+00,-9.269292831420898438e+00,-1.059702014923095703e+01,-2.638373851776123047e+00,-2.416604518890380859e+00,2.932736873626708984e+00,4.164698123931884766e+00,9.399788856506347656e+00,2.180191755294799805e+00,2.355377912521362305e+00,-5.566095829010009766e+00,-9.367821738123893738e-03
2.058832645416259766e-01,2.420953178405761719e+01,-1.363062500953674316e+00,-2.348264932632446289e+00,2.687913656234741211e+00,1.000976276397705078e+01,-7.648166179656982422e+00,1.397863149642944336e+00,7.412787914276123047e+00,4.246538162231445312e+00,-9.421536445617675781e+00,-1.093720722198486328e+01,-2.875015258789062500e+00,-3.320516586303710938e+00,1.071245431900024414e+00,1.573248267173767090e+00,9.975949287414550781e+00,2.312458038330078125e+00,3.827233612537384033e-01,-7.651340484619140625e+00,-1.037878636270761490e-02
1.323379635810852051e+00,2.379504203796386719e+01,-4.337753951549530029e-01,-1.356865167617797852e+00,3.342892885208129883e+00,8.738579750061035156e+00,-6.283861160278320312e+00,1.390832304954528809e+00,7.458358764648437500e+00,4.390306949615478516e+00,-9.597999572753906250e+00,-1.112038516998291016e+01,-3.130779504776000977e+00,-4.157703876495361328e+00,-1.028955101966857910e+00,-7.715066671371459961e-01,1.028720855712890625e+01,2.511432409286499023e+00,-1.322860717773437500e+00,-9.648164749145507812e+00,-1.059975102543830872e-02
1.576917648315429688e+00,2.236773490905761719e+01,-4.429632723331451416e-01,-6.708165407180786133e-01,3.439086198806762695e+00,6.788755893707275391e+00,-4.853211402893066406e+00,1.792998552322387695e+00,7.444336891174316406e+00,4.318979740142822266e+00,-9.759469985961914062e+00,-1.113572502136230469e+01,-3.440325736999511719e+00,-5.040764331817626953e+00,-3.272599935531616211e+00,-2.775038719177246094e+00,1.030045413970947266e+01,2.629896879196166992e+00,-2.651336431503295898e+00,-1.130972957611083984e+01,-1.013044454157352448e-02
1.264128923416137695e+00,2.008023071289062500e+01,-1.092676639556884766e+00,-4.738584458827972412e-01,2.968927860260009766e+00,4.376799106597900391e+00,-3.334103345870971680e+00,2.601549625396728516e+00,7.256211280822753906e+00,3.895474910736083984e+00,-9.872499465942382812e+00,-1.102924728393554688e+01,-3.810825109481811523e+00,-6.058317184448242188e+00,-5.541429519653320312e+00,-4.435041904449462891e+00,9.958730697631835938e+00,2.525233983993530273e+00,-3.651991605758666992e+00,-1.246656131744384766e+01,-9.056906215846538544e-03
8.741764426231384277e-01,1.724122619628906250e+01,-2.037714481353759766e+00,-9.047868847846984863e-01,1.990782380104064941e+00,1.706553578376770020e+00,-1.758857727050781250e+00,3.682898759841918945e+00,6.789987564086914062e+00,3.077441930770874023e+00,-9.944006919860839844e+00,-1.090472221374511719e+01,-4.231521129608154297e+00,-7.240596771240234375e+00,-7.712804794311523438e+00,-5.804544925689697266e+00,9.179920196533203125e+00,2.089330434799194336e+00,-4.483005523681640625e+00,-1.305971336364746094e+01,-7.420199923217296600e-03
8.424841761589050293e-01,1.427215194702148438e+01,-3.010315656661987305e+00,-1.979464173316955566e+00,6.019237041473388672e-01,-9.763529300689697266e-01,-2.074280977249145508e-01,4.865492820739746094e+00,6.009442329406738281e+00,1.949581742286682129e+00,-1.003396892547607422e+01,-1.087404251098632812e+01,-4.691657543182373047e+00,-8.513580322265625000e+00,-9.653136253356933594e+00,-6.927352905273437500e+00,7.893822669982910156e+00,1.293432831764221191e+00,-5.301410675048828125e+00,-1.314936256408691406e+01,-5.222281441092491150e-03
1.324757575988769531e+00,1.161004352569580078e+01,-3.846411466598510742e+00,-3.544553995132446289e+00,-1.051736712455749512e+00,-3.374382734298706055e+00,1.240232706069946289e+00,6.012932300567626953e+00,4.977674007415771484e+00,6.846397519111633301e-01,-1.023465347290039062e+01,-1.100127410888671875e+01,-5.192429065704345703e+00,-9.727136611938476562e+00,-1.125511360168457031e+01,-7.801160335540771484e+00,6.083220005035400391e+00,1.984985023736953735e-01,-6.204636573791503906e+00,-1.290743446350097656e+01,-2.504214644432067871e-03
2.119819641113281250e+00,9.568805694580078125e+00,-4.447560787200927734e+00,-5.317176818847656250e+00,-2.765923261642456055e+00,-5.178602695465087891e+00,2.572216749191284180e+00,7.053502082824707031e+00,3.853595256805419922e+00,-5.256924033164978027e-01,-1.060949420928955078e+01,-1.128551578521728516e+01,-5.744592666625976562e+00,-1.071236991882324219e+01,-1.246508312225341797e+01,-8.395995140075683594e+00,3.832880735397338867e+00,-1.067806839942932129e+00,-7.197268009185791016e+00,-1.253042030334472656e+01,5.834309849888086319e-04
2.748152971267700195e+00,8.252492904663085938e+00,-4.735009670257568359e+00,-6.957612991333007812e+00,-4.290966033935546875e+00,-6.157312393188476562e+00,3.866775989532470703e+00,7.949235916137695312e+00,2.852207183837890625e+00,-1.533187985420227051e+00,-1.115618610382080078e+01,-1.166179752349853516e+01,-6.345757961273193359e+00,-1.135146808624267578e+01,-1.328523445129394531e+01,-8.665745735168457031e+00,1.333534002304077148e+00,-2.336412668228149414e+00,-8.200215339660644531e+00,-1.221603679656982422e+01,3.755160607397556305e-03
2.665477514266967773e+00,7.522363662719726562e+00,-4.616879940032958984e+00,-8.171086311340332031e+00,-5.379355430603027344e+00,-6.233279705047607422e+00,5.299126625061035156e+00,8.650918006896972656e+00,2.181499242782592773e+00,-2.269863367080688477e+00,-1.178937911987304688e+01,-1.204890727996826172e+01,-6.963654994964599609e+00,-1.161836719512939453e+01,-1.376922225952148438e+01,-8.612717628479003906e+00,-1.151243209838867188e+00,-3.463550806045532227e+00,-9.085102081298828125e+00,-1.212393283843994141e+01,6.641395390033721924e-03
1.512155175209045410e+00,7.139089584350585938e+00,-4.024918556213378906e+00,-8.796328544616699219e+00,-5.862483501434326172e+00,-5.534381866455078125e+00,7.046185970306396484e+00,9.084019660949707031e+00,1.982857465744018555e+00,-2.734604120254516602e+00,-1.237297821044921875e+01,-1.238638687133789062e+01,-7.518208980560302734e+00,-1.157562160491943359e+01,-1.398712635040283203e+01,-8.285327911376953125e+00,-3.349926710128784180e+00,-4.339958667755126953e+00,-9.722403526306152344e+00,-1.232779026031494141e+01,8.907754905521869659e-03
-7.255933880805969238e-01,6.911900043487548828e+00,-2.946000576019287109e+00,-8.824088096618652344e+00,-5.703602790832519531e+00,-4.327770233154296875e+00,9.204918861389160156e+00,9.185264587402343750e+00,2.307695150375366211e+00,-2.943013191223144531e+00,-1.276396656036376953e+01,-1.264446067810058594e+01,-7.888708114624023438e+00,-1.131184959411621094e+01,-1.398822116851806641e+01,-7.757354736328125000e+00,-5.029403209686279297e+00,-4.898927211761474609e+00,-1.001010608673095703e+01,-1.284848785400390625e+01,1.035869400948286057e-02
-3.708798885345458984e+00,6.806109428405761719e+00,-1.454941153526306152e+00,-8.364078521728515625e+00,-5.028087615966796875e+00,-2.951498746871948242e+00,1.173960113525390625e+01,8.950433731079101562e+00,3.123294830322265625e+00,-2.896204710006713867e+00,-1.286315536499023438e+01,-1.281680965423583984e+01,-7.938905239105224609e+00,-1.088960742950439453e+01,-1.377579212188720703e+01,-7.097964286804199219e+00,-6.043976306915283203e+00,-5.093300819396972656e+00,-9.878290176391601562e+00,-1.366269111633300781e+01,1.099225785583257675e-02
-6.862866878509521484e+00,6.939648151397705078e+00,3.143794536590576172e-01,-7.573602676391601562e+00,-4.051023006439208984e+00,-1.727161645889282227e+00,1.451074028015136719e+01,8.465302467346191406e+00,4.352536678314208984e+00,-2.561858892440795898e+00,-1.261056995391845703e+01,-1.289080238342285156e+01,-7.548088073730468750e+00,-1.030055236816406250e+01,-1.330165958404541016e+01,-6.307157039642333984e+00,-6.347288608551025391e+00,-4.879374504089355469e+00,-9.274229049682617188e+00,-1.472250652313232422e+01,1.099225785583257675e-02
-9.603557586669921875e+00,7.458195686340332031e+00,2.207079887390136719e+00,-6.613927364349365234e+00,-3.005866289138793945e+00,-9.105147123336791992e-01,1.731760215759277344e+01,7.829711437225341797e+00,5.906616210937500000e+00,-1.923258185386657715e+00,-1.199121665954589844e+01,-1.284658718109130859e+01,-6.680402278900146484e+00,-9.491515159606933594e+00,-1.250888347625732422e+01,-5.329599380493164062e+00,-6.000267505645751953e+00,-4.226094245910644531e+00,-8.187606811523437500e+00,-1.595179367065429688e+01,1.063050050288438797e-02
-1.156847763061523438e+01,8.415513992309570312e+00,4.036777973175048828e+00,-5.627815246582031250e+00,-2.103378295898437500e+00,-6.471619606018066406e-01,1.993904304504394531e+01,7.092875003814697266e+00,7.674527645111083984e+00,-1.049500942230224609e+00,-1.104084968566894531e+01,-1.267423820495605469e+01,-5.442217350006103516e+00,-8.423918724060058594e+00,-1.138651275634765625e+01,-4.107652664184570312e+00,-5.167151927947998047e+00,-3.167964696884155273e+00,-6.674589157104492188e+00,-1.721669387817382812e+01,1.017292682081460953e-02
-1.268872928619384766e+01,9.723155021667480469e+00,5.668280601501464844e+00,-4.709118366241455078e+00,-1.477581381797790527e+00,-9.396354556083679199e-01,2.219303894042968750e+01,6.221045970916748047e+00,9.518390655517578125e+00,-8.881374448537826538e-02,-9.826364517211914062e+00,-1.237465667724609375e+01,-4.071369647979736328e+00,-7.138424396514892578e+00,-1.000243949890136719e+01,-2.625177145004272461e+00,-4.089002132415771484e+00,-1.810798048973083496e+00,-4.862406253814697266e+00,-1.837843894958496094e+01,9.791615419089794159e-03
-1.312966537475585938e+01,1.119728660583496094e+01,7.050398349761962891e+00,-3.892204761505126953e+00,-1.154415011405944824e+00,-1.636000990867614746e+00,2.395200538635253906e+01,5.139697074890136719e+00,1.128980731964111328e+01,7.247612476348876953e-01,-8.445796012878417969e+00,-1.197671890258789062e+01,-2.878600835800170898e+00,-5.776822090148925781e+00,-8.508866310119628906e+00,-9.720904231071472168e-01,-3.002905607223510742e+00,-3.420678377151489258e-01,-2.940185308456420898e+00,-1.932158851623535156e+01,9.510030969977378845e-03
-1.311175251007080078e+01,1.264887332916259766e+01,8.197568893432617188e+00,-3.149315834045410156e+00,-1.078757405281066895e+00,-2.437454462051391602e+00,2.512238311767578125e+01,3.836171865463256836e+00,1.283453845977783203e+01,1.196188926696777344e+00,-7.041006565093994141e+00,-1.152193260192871094e+01,-2.150748968124389648e+00,-4.550754547119140625e+00,-7.095227718353271484e+00,6.717741489410400391e-01,-2.106213569641113281e+00,1.018549084663391113e+00,-1.121124982833862305e+00,-2.001175689697265625e+01,9.240180253982543945e-03
-1.274798011779785156e+01,1.396518611907958984e+01,9.200359344482421875e+00,-2.423611164093017578e+00,-1.173869848251342773e+00,-2.978087425231933594e+00,2.563782501220703125e+01,2.428590059280395508e+00,1.402405261993408203e+01,1.242997407913208008e+00,-5.789613723754882812e+00,-1.104549026489257812e+01,-2.046770095825195312e+00,-3.651012659072875977e+00,-5.921392917633056641e+00,2.103527069091796875e+00,-1.494290828704833984e+00,2.088180303573608398e+00,3.976242840290069580e-01,-2.048456001281738281e+01,8.862779475748538971e-03
-1.199701213836669922e+01,1.512368011474609375e+01,1.017164802551269531e+01,-1.687331676483154297e+00,-1.365175724029541016e+00,-2.929974794387817383e+00,2.546771240234375000e+01,1.148970007896423340e+00,1.477655410766601562e+01,9.275977611541748047e-01,-4.873847961425781250e+00,-1.057987499237060547e+01,-2.570249795913696289e+00,-3.176641225814819336e+00,-5.064012050628662109e+00,3.168695926666259766e+00,-1.192302942276000977e+00,2.756412506103515625e+00,1.473930358886718750e+00,-2.078666305541992188e+01,8.330898359417915344e-03
-1.075412464141845703e+01,1.615210342407226562e+01,1.118756294250488281e+01,-9.814550876617431641e-01,-1.584582924842834473e+00,-2.131053686141967773e+00,2.462735366821289062e+01,2.377681583166122437e-01,1.506400012969970703e+01,4.182775318622589111e-01,-4.409044742584228516e+00,-1.015396404266357422e+01,-3.570598125457763672e+00,-3.096363067626953125e+00,-4.493519306182861328e+00,3.821169614791870117e+00,-1.168461799621582031e+00,3.018644571304321289e+00,2.064236640930175781e+00,-2.095368003845214844e+01,7.722755894064903259e-03
-9.013806343078613281e+00,1.708167266845703125e+01,1.225729370117187500e+01,-4.209837913513183594e-01,-1.745625615119934082e+00,-6.686859726905822754e-01,2.322562408447265625e+01,-1.868969351053237915e-01,1.492027664184570312e+01,-8.547028899192810059e-02,-4.394051074981689453e+00,-9.811972618103027344e+00,-4.804002285003662109e+00,-3.270473003387451172e+00,-4.096036434173583984e+00,4.125503540039062500e+00,-1.375085115432739258e+00,2.966888189315795898e+00,2.221269607543945312e+00,-2.099297714233398438e+01,7.202607579529285431e-03
-7.000659465789794922e+00,1.788464164733886719e+01,1.327189636230468750e+01,-1.513230651617050171e-01,-1.748868107795715332e+00,1.133001565933227539e+00,2.144794464111328125e+01,-2.206451594829559326e-01,1.441081905364990234e+01,-4.632811546325683594e-01,-4.705457687377929688e+00,-9.628794670104980469e+00,-6.030235767364501953e+00,-3.542584896087646484e+00,-3.747827768325805664e+00,4.203892707824707031e+00,-1.769788503646850586e+00,2.728809118270874023e+00,2.086014986038208008e+00,-2.088982009887695312e+01,6.962088402360677719e-03
-5.179043769836425781e+00,1.852979087829589844e+01,1.402136421203613281e+01,-2.742566168308258057e-01,-1.498116970062255859e+00,2.844794750213623047e+00,1.950355339050292969e+01,-1.306499093770980835e-01,1.361274719238281250e+01,-6.973232626914978027e-01,-5.140273571014404297e+00,-9.695569038391113281e+00,-7.079585552215576172e+00,-3.800100803375244141e+00,-3.364579439163208008e+00,4.176226139068603516e+00,-2.315485954284667969e+00,2.425171852111816406e+00,1.861354708671569824e+00,-2.065157699584960938e+01,7.098969072103500366e-03
-4.109774589538574219e+00,1.902232360839843750e+01,1.425499820709228516e+01,-7.712783813476562500e-01,-9.641900658607482910e-01,4.115978240966796875e+00,1.754725456237792969e+01,-2.248636782169342041e-01,1.259500026702880859e+01,-8.667252063751220703e-01,-5.502427577972412109e+00,-1.008448314666748047e+01,-7.885122776031494141e+00,-4.012785911560058594e+00,-2.921106576919555664e+00,4.127809047698974609e+00,-2.961845874786376953e+00,2.124984979629516602e+00,1.784557580947875977e+00,-2.032122802734375000e+01,7.568275555968284607e-03
-4.235165596008300781e+00,1.940906715393066406e+01,1.372603988647460938e+01,-1.545892000198364258e+00,-2.497654855251312256e-01,4.792086124420166016e+00,1.560286521911621094e+01,-7.367116808891296387e-01,1.138094902038574219e+01,-1.097423791885375977e+00,-5.693884849548339844e+00,-1.082080364227294922e+01,-8.485093116760253906e+00,-4.239024639129638672e+00,-2.472158670425415039e+00,4.065558910369873047e+00,-3.665159702301025391e+00,1.814446806907653809e+00,2.061944246292114258e+00,-1.996632003784179688e+01,8.190106600522994995e-03
-5.684741973876953125e+00,1.973337554931640625e+01,1.226123142242431641e+01,-2.489704608917236328e+00,4.030521214008331299e-01,4.914899349212646484e+00,1.354790115356445312e+01,-1.744939684867858887e+00,9.943717002868652344e+00,-1.504211306571960449e+00,-5.748092651367187500e+00,-1.187204551696777344e+01,-8.983473777770996094e+00,-4.575776100158691406e+00,-2.119570255279541016e+00,3.934142112731933594e+00,-4.406884193420410156e+00,1.407296895980834961e+00,2.804698467254638672e+00,-1.962246322631835938e+01,8.776740171015262604e-03
-8.187051773071289062e+00,2.000912475585937500e+01,9.821196556091308594e+00,-3.553807020187377930e+00,6.819046735763549805e-01,4.680667400360107422e+00,1.121395206451416016e+01,-3.158146381378173828e+00,8.251756668090820312e+00,-2.126094818115234375e+00,-5.797687053680419922e+00,-1.313624286651611328e+01,-9.472293853759765625e+00,-5.075169563293457031e+00,-1.962985873222351074e+00,3.664391517639160156e+00,-5.188344001770019531e+00,8.138239979743957520e-01,3.984164953231811523e+00,-1.927983474731445312e+01,9.234313853085041046e-03
-1.117163562774658203e+01,2.019642639160156250e+01,6.524064540863037109e+00,-4.777855396270751953e+00,3.436067998409271240e-01,4.319823741912841797e+00,8.497248649597167969e+00,-4.794934749603271484e+00,6.315584182739257812e+00,-2.911807537078857422e+00,-5.981070995330810547e+00,-1.445909309387207031e+01,-1.000533485412597656e+01,-5.708012104034423828e+00,-2.047300577163696289e+00,3.230946063995361328e+00,-6.026757717132568359e+00,6.742274854332208633e-04,5.438725471496582031e+00,-1.886474990844726562e+01,9.609758853912353516e-03
-1.400602531433105469e+01,2.023631477355957031e+01,2.640222311019897461e+00,-6.243804931640625000e+00,-6.669634580612182617e-01,4.007091999053955078e+00,5.445423603057861328e+00,-6.437348365783691406e+00,4.232182979583740234e+00,-3.735412836074829102e+00,-6.367445945739746094e+00,-1.564929771423339844e+01,-1.057542610168457031e+01,-6.345025062561035156e+00,-2.340759277343750000e+00,2.684528350830078125e+00,-6.900932788848876953e+00,-9.665944576263427734e-01,6.921941757202148438e+00,-1.825563240051269531e+01,1.007515471428632736e-02
-1.623412895202636719e+01,2.007329368591308594e+01,-1.451003432273864746e+00,-7.980737209320068359e+00,-2.156338691711425781e+00,3.823504924774169922e+00,2.267714500427246094e+00,-7.892740249633789062e+00,2.187341690063476562e+00,-4.438653945922851562e+00,-6.910676956176757812e+00,-1.651826477050781250e+01,-1.112759017944335938e+01,-6.814183712005615234e+00,-2.754667282104492188e+00,2.147332668304443359e+00,-7.761863231658935547e+00,-1.928112506866455078e+00,8.191960334777832031e+00,-1.738371086120605469e+01,1.080844551324844360e-02
-1.772228622436523438e+01,1.969175338745117188e+01,-5.341408729553222656e+00,-9.908018112182617188e+00,-3.742988109588623047e+00,3.739940881729125977e+00,-7.500882744789123535e-01,-9.013462066650390625e+00,4.112507700920104980e-01,-4.903394699096679688e+00,-7.476975440979003906e+00,-1.691259193420410156e+01,-1.158892154693603516e+01,-6.975782871246337891e+00,-3.195950269699096680e+00,1.766915321350097656e+00,-8.528753280639648438e+00,-2.696406841278076172e+00,9.084870338439941406e+00,-1.626494789123535156e+01,1.187611836940050125e-02
-1.862069320678710938e+01,1.910383415222167969e+01,-8.700230598449707031e+00,-1.185512733459472656e+01,-5.032411098480224609e+00,3.644982099533081055e+00,-3.359620094299316406e+00,-9.710925102233886719e+00,-9.103010296821594238e-01,-5.102887630462646484e+00,-7.911791324615478516e+00,-1.674565696716308594e+01,-1.191400432586669922e+01,-6.790204524993896484e+00,-3.630663394927978516e+00,1.647026181221008301e+00,-9.124782562255859375e+00,-3.143811702728271484e+00,9.560553550720214844e+00,-1.501969623565673828e+01,1.318039931356906891e-02
-1.922973442077636719e+01,1.832861518859863281e+01,-1.134633541107177734e+01,-1.363435935974121094e+01,-5.770613670349121094e+00,3.384161472320556641e+00,-5.441802024841308594e+00,-9.957006454467773438e+00,-1.707204937934875488e+00,-5.107345581054687500e+00,-8.117089271545410156e+00,-1.601745796203613281e+01,-1.210762023925781250e+01,-6.332514286041259766e+00,-4.094941139221191406e+00,1.810720920562744141e+00,-9.515512466430664062e+00,-3.274927854537963867e+00,9.691223144531250000e+00,-1.382111072540283203e+01,1.446903683245182037e-02
-1.978228187561035156e+01,1.739210700988769531e+01,-1.325741195678710938e+01,-1.513996505737304688e+01,-5.956515312194824219e+00,2.829601287841796875e+00,-7.032357692718505859e+00,-9.785452842712402344e+00,-2.050738334655761719e+00,-5.053850173950195312e+00,-8.103248596191406250e+00,-1.480920600891113281e+01,-1.222355079650878906e+01,-5.747630119323730469e+00,-4.675288677215576172e+00,2.207277297973632812e+00,-9.716836929321289062e+00,-3.218570947647094727e+00,9.598379135131835938e+00,-1.278831291198730469e+01,1.543698087334632874e-02
-2.034034156799316406e+01,1.637582397460937500e+01,-1.453977584838867188e+01,-1.638780784606933594e+01,-5.838705539703369141e+00,1.939519524574279785e+00,-8.262273788452148438e+00,-9.282041549682617188e+00,-2.117341756820678711e+00,-5.086170196533203125e+00,-7.954465389251708984e+00,-1.325625610351562500e+01,-1.232991981506347656e+01,-5.187767505645751953e+00,-5.456019878387451172e+00,2.737556219100952148e+00,-9.777764320373535156e+00,-3.180616140365600586e+00,9.377157211303710938e+00,-1.193849563598632812e+01,1.585740223526954651e-02
-2.078265571594238281e+01,1.546706581115722656e+01,-1.533911991119384766e+01,-1.746909332275390625e+01,-5.774937152862548828e+00,8.152056932449340820e-01,-9.252330780029296875e+00,-8.522706985473632812e+00,-2.106825351715087891e+00,-5.280090808868408203e+00,-7.767621517181396484e+00,-1.150929927825927734e+01,-1.246258258819580078e+01,-4.747800827026367188e+00,-6.448085784912109375e+00,3.323168516159057617e+00,-9.748625755310058594e+00,-3.339335680007934570e+00,9.068822860717773438e+00,-1.122990512847900391e+01,1.564034633338451385e-02
-2.089564514160156250e+01,1.492770671844482422e+01,-1.577095031738281250e+01,-1.845784950256347656e+01,-6.024607181549072266e+00,-3.496239483356475830e-01,-1.005186176300048828e+01,-7.574944496154785156e+00,-2.148890733718872070e+00,-5.620009422302246094e+00,-7.585391044616699219e+00,-9.704592704772949219e+00,-1.258329391479492188e+01,-4.445454597473144531e+00,-7.562790393829345703e+00,3.938753128051757812e+00,-9.658558845520019531e+00,-3.779839754104614258e+00,8.659620285034179688e+00,-1.060236740112304688e+01,1.486794650554656982e-02
-2.053738403320312500e+01,1.497626686096191406e+01,-1.590089225769042969e+01,-1.936332893371582031e+01,-6.617979526519775391e+00,-1.339729189872741699e+00,-1.065065956115722656e+01,-6.490782737731933594e+00,-2.280929088592529297e+00,-6.047972202301025391e+00,-7.393933773040771484e+00,-7.975683212280273438e+00,-1.260002613067626953e+01,-4.268216609954833984e+00,-8.638075828552246094e+00,4.582004547119140625e+00,-9.543326377868652344e+00,-4.482575893402099609e+00,8.068167686462402344e+00,-1.001781082153320312e+01,1.371814589947462082e-02
-1.974507904052734375e+01,1.564222717285156250e+01,-1.578801345825195312e+01,-2.014190673828125000e+01,-7.392930030822753906e+00,-2.013304471969604492e+00,-1.105893039703369141e+01,-5.370060920715332031e+00,-2.474896907806396484e+00,-6.537231445312500000e+00,-7.175949573516845703e+00,-6.481385707855224609e+00,-1.241836166381835938e+01,-4.232769012451171875e+00,-9.518451690673828125e+00,5.225255966186523438e+00,-9.499617576599121094e+00,-5.406139373779296875e+00,7.162649154663085938e+00,-9.481148719787597656e+00,1.236693467944860458e-02
-1.873505973815917969e+01,1.666891670227050781e+01,-1.553075313568115234e+01,-2.074203491210937500e+01,-8.104112625122070312e+00,-2.398204803466796875e+00,-1.137193775177001953e+01,-4.377300739288330078e+00,-2.703919172286987305e+00,-7.140168666839599609e+00,-6.948738098144531250e+00,-5.388635158538818359e+00,-1.199886131286621094e+01,-4.412092208862304688e+00,-1.011084365844726562e+01,5.773979187011718750e+00,-9.683724403381347656e+00,-6.525226593017578125e+00,5.807810306549072266e+00,-9.026766777038574219e+00,1.092968322336673737e-02
-1.782149696350097656e+01,1.755859756469726562e+01,-1.527743053436279297e+01,-2.115181350708007812e+01,-8.579674720764160156e+00,-2.671686410903930664e+00,-1.178020858764648438e+01,-3.730459928512573242e+00,-2.976175069808959961e+00,-7.980491161346435547e+00,-6.783807754516601562e+00,-4.852637290954589844e+00,-1.139052486419677734e+01,-4.927124023437500000e+00,-1.042948722839355469e+01,6.062174320220947266e+00,-1.029962062835693359e+01,-7.876642704010009766e+00,3.907367706298828125e+00,-8.682909965515136719e+00,9.445501491427421570e-03
-1.726206016540527344e+01,1.777017974853515625e+01,-1.518817710876464844e+01,-2.140693283081054688e+01,-8.818536758422851562e+00,-3.052788257598876953e+00,-1.251509666442871094e+01,-3.639058589935302734e+00,-3.341909646987915039e+00,-9.190823554992675781e+00,-6.804568290710449219e+00,-4.966333866119384766e+00,-1.072362613677978516e+01,-5.896718025207519531e+00,-1.057293224334716797e+01,5.893868446350097656e+00,-1.151551914215087891e+01,-9.517893791198730469e+00,1.456736922264099121e+00,-8.453263282775878906e+00,7.920255884528160095e-03
-1.715044784545898438e+01,1.694813346862792969e+01,-1.539162254333496094e+01,-2.155894851684570312e+01,-9.005518913269042969e+00,-3.693444728851318359e+00,-1.374501323699951172e+01,-4.216996669769287109e+00,-3.860715150833129883e+00,-1.082577514648437500e+01,-7.134428501129150391e+00,-5.716189861297607422e+00,-1.017146205902099609e+01,-7.363620281219482422e+00,-1.067367172241210938e+01,5.123811244964599609e+00,-1.339367198944091797e+01,-1.148808574676513672e+01,-1.450091719627380371e+00,-8.289931297302246094e+00,6.381321232765913010e-03
-1.739296150207519531e+01,1.513235092163085938e+01,-1.593633174896240234e+01,-2.163693809509277344e+01,-9.400019645690917969e+00,-4.602518081665039062e+00,-1.549377346038818359e+01,-5.431932449340820312e+00,-4.557129859924316406e+00,-1.282404899597167969e+01,-7.840283393859863281e+00,-6.983094215393066406e+00,-9.891795158386230469e+00,-9.250679969787597656e+00,-1.082040119171142578e+01,3.731252670288085938e+00,-1.585063457489013672e+01,-1.375041294097900391e+01,-4.613675117492675781e+00,-8.099581718444824219e+00,4.914738703519105911e-03
-1.774295425415039062e+01,1.275119495391845703e+01,-1.675011444091796875e+01,-2.159463882446289062e+01,-1.013389968872070312e+01,-5.654663085937500000e+00,-1.757765579223632812e+01,-7.109500408172607422e+00,-5.376234531402587891e+00,-1.499061012268066406e+01,-8.862157821655273438e+00,-8.565822601318359375e+00,-9.956334114074707031e+00,-1.135772323608398438e+01,-1.101968955993652344e+01,1.856832146644592285e+00,-1.865726661682128906e+01,-1.615650939941406250e+01,-7.756626129150390625e+00,-7.828180789947509766e+00,3.641744842752814293e-03
-1.793586349487304688e+01,1.046368980407714844e+01,-1.767021369934082031e+01,-2.133555221557617188e+01,-1.113474273681640625e+01,-6.677687644958496094e+00,-1.967344665527343750e+01,-9.028930664062500000e+00,-6.203518867492675781e+00,-1.707915687561035156e+01,-1.003973579406738281e+01,-1.025863742828369141e+01,-1.033639430999755859e+01,-1.343557453155517578e+01,-1.121240901947021484e+01,-2.527555823326110840e-01,-2.150760841369628906e+01,-1.849819564819335938e+01,-1.059238910675048828e+01,-7.488008499145507812e+00,2.675755647942423820e-03
-1.777326965332031250e+01,8.861222267150878906e+00,-1.850237083435058594e+01,-2.078565597534179688e+01,-1.214747428894042969e+01,-7.558906555175781250e+00,-2.144091987609863281e+01,-1.103132438659667969e+01,-6.934988021850585938e+00,-1.887905311584472656e+01,-1.115503215789794922e+01,-1.192077255249023438e+01,-1.094473075866699219e+01,-1.527571868896484375e+01,-1.134052371978759766e+01,-2.341593265533447266e+00,-2.411556434631347656e+01,-2.056845092773437500e+01,-1.290088748931884766e+01,-7.157660484313964844e+00,2.069568261504173279e-03
-1.718489646911621094e+01,8.228212356567382812e+00,-1.908908271789550781e+01,-1.997006416320800781e+01,-1.287054538726806641e+01,-8.295787811279296875e+00,-2.266062927246093750e+01,-1.308996582031250000e+01,-7.532081604003906250e+00,-2.028107643127441406e+01,-1.203389072418212891e+01,-1.351703643798828125e+01,-1.169170475006103516e+01,-1.678432273864746094e+01,-1.140841293334960938e+01,-4.255208492279052734e+00,-2.626656723022460938e+01,-2.224995613098144531e+01,-1.457666969299316406e+01,-6.942749977111816406e+00,1.752786338329315186e-03
-1.620519256591796875e+01,8.488353729248046875e+00,-1.934371757507324219e+01,-1.901038932800292969e+01,-1.309211444854736328e+01,-8.930113792419433594e+00,-2.329515075683593750e+01,-1.526110172271728516e+01,-8.006484985351562500e+00,-2.127519798278808594e+01,-1.260134315490722656e+01,-1.507630348205566406e+01,-1.253429222106933594e+01,-1.798119926452636719e+01,-1.147849273681640625e+01,-5.942878723144531250e+00,-2.782153892517089844e+01,-2.352201271057128906e+01,-1.561744308471679688e+01,-6.937838077545166016e+00,1.531821209937334061e-03
-1.494163513183593750e+01,9.308664321899414062e+00,-1.927677726745605469e+01,-1.810094642639160156e+01,-1.277759456634521484e+01,-9.460617065429687500e+00,-2.349758529663085938e+01,-1.759816551208496094e+01,-8.381567001342773438e+00,-2.191825675964355469e+01,-1.290813541412353516e+01,-1.663827705383300781e+01,-1.349041938781738281e+01,-1.896017646789550781e+01,-1.165478706359863281e+01,-7.448409557342529297e+00,-2.870233726501464844e+01,-2.445017623901367188e+01,-1.610000419616699219e+01,-7.167485237121582031e+00,1.150509691797196865e-03
-1.356784534454345703e+01,1.028852844238281250e+01,-1.897488975524902344e+01,-1.743869018554687500e+01,-1.207289695739746094e+01,-9.794873237609863281e+00,-2.351799964904785156e+01,-2.006178474426269531e+01,-8.647980690002441406e+00,-2.229049491882324219e+01,-1.311343383789062500e+01,-1.821559143066406250e+01,-1.461506462097167969e+01,-1.984219551086425781e+01,-1.203146553039550781e+01,-8.847885131835937500e+00,-2.887982177734375000e+01,-2.513335990905761719e+01,-1.614012145996093750e+01,-7.570288658142089844e+00,3.507332003209739923e-04
-1.230842304229736328e+01,1.113485336303710938e+01,-1.856668663024902344e+01,-1.714127159118652344e+01,-1.120499610900878906e+01,-9.744228363037109375e+00,-2.360305595397949219e+01,-2.247478294372558594e+01,-8.728606224060058594e+00,-2.247438621520996094e+01,-1.340061950683593750e+01,-1.976673698425292969e+01,-1.593691062927246094e+01,-2.071795654296875000e+01,-1.264904212951660156e+01,-1.019202613830566406e+01,-2.836326217651367188e+01,-2.565437507629394531e+01,-1.585585784912109375e+01,-8.022213935852050781e+00,-1.039587194100022316e-03
-1.141828346252441406e+01,1.173317718505859375e+01,-1.818342208862304688e+01,-1.721133041381835938e+01,-1.036951923370361328e+01,-9.131426811218261719e+00,-2.389054679870605469e+01,-2.456154823303222656e+01,-8.504258155822753906e+00,-2.255351448059082031e+01,-1.391732406616210938e+01,-2.121411132812500000e+01,-1.742966461181640625e+01,-2.162187004089355469e+01,-1.347357368469238281e+01,-1.148083496093750000e+01,-2.722550964355468750e+01,-2.604542160034179688e+01,-1.536183452606201172e+01,-8.390631675720214844e+00,-3.073248546570539474e-03
-1.112754154205322266e+01,1.208870315551757812e+01,-1.792353630065917969e+01,-1.756162452697753906e+01,-9.671306610107421875e+00,-7.899492740631103516e+00,-2.442640113830566406e+01,-2.605912590026855469e+01,-7.891973972320556641e+00,-2.262038421630859375e+01,-1.472813415527343750e+01,-2.249094200134277344e+01,-1.900607872009277344e+01,-2.254141998291015625e+01,-1.442293453216552734e+01,-1.267742061614990234e+01,-2.561490821838378906e+01,-2.630190277099609375e+01,-1.476694393157958984e+01,-8.565016746520996094e+00,-5.677899811416864395e-03
-1.158501243591308594e+01,1.219796180725097656e+01,-1.783690643310546875e+01,-1.804674911499023438e+01,-9.130894660949707031e+00,-6.221884727478027344e+00,-2.518170356750488281e+01,-2.684095954895019531e+01,-6.910449981689453125e+00,-2.277083969116210938e+01,-1.580536937713623047e+01,-2.356744956970214844e+01,-2.054424858093261719e+01,-2.344429016113281250e+01,-1.540733528137207031e+01,-1.376564502716064453e+01,-2.376457023620605469e+01,-2.640771675109863281e+01,-1.417778301239013672e+01,-8.485192298889160156e+00,-8.646262809634208679e-03
-1.276451587677001953e+01,1.196730422973632812e+01,-1.793272399902343750e+01,-1.855302429199218750e+01,-8.735313415527343750e+00,-4.477172374725341797e+00,-2.610031318664550781e+01,-2.696892166137695312e+01,-5.709251880645751953e+00,-2.308178138732910156e+01,-1.705330276489257812e+01,-2.447160911560058594e+01,-2.192824363708496094e+01,-2.430545616149902344e+01,-1.636217117309570312e+01,-1.476395225524902344e+01,-2.196059036254882812e+01,-2.635596084594726562e+01,-1.368146800994873047e+01,-8.157300949096679688e+00,-1.166155748069286346e-02
-1.438219833374023438e+01,1.126492404937744141e+01,-1.818998336791992188e+01,-1.899056243896484375e+01,-8.472673416137695312e+00,-3.141416788101196289e+00,-2.713630104064941406e+01,-2.663143920898437500e+01,-4.520906925201416016e+00,-2.357438278198242188e+01,-1.835659599304199219e+01,-2.526297187805175781e+01,-2.308157157897949219e+01,-2.510511016845703125e+01,-1.726992225646972656e+01,-1.573459339141845703e+01,-2.047449302673339844e+01,-2.616503715515136719e+01,-1.331238269805908203e+01,-7.632919311523437500e+00,-1.432878244668245316e-02
-1.593374061584472656e+01,1.000410747528076172e+01,-1.858243751525878906e+01,-1.930384445190429688e+01,-8.338650703430175781e+00,-2.619775533676147461e+00,-2.824203491210937500e+01,-2.603240776062011719e+01,-3.570931911468505859e+00,-2.418177795410156250e+01,-1.959414863586425781e+01,-2.599929237365722656e+01,-2.397196578979492188e+01,-2.582135963439941406e+01,-1.813387298583984375e+01,-1.673981857299804688e+01,-1.949832916259765625e+01,-2.585564804077148438e+01,-1.302353382110595703e+01,-7.001697063446044922e+00,-1.624511741101741791e-02
-1.686108398437500000e+01,8.229947090148925781e+00,-1.904183006286621094e+01,-1.942148971557617188e+01,-8.312711715698242188e+00,-3.073046207427978516e+00,-2.934606742858886719e+01,-2.528854179382324219e+01,-2.997207641601562500e+00,-2.476911354064941406e+01,-2.066792488098144531e+01,-2.669681167602539062e+01,-2.459464454650878906e+01,-2.640520095825195312e+01,-1.893759918212890625e+01,-1.777732086181640625e+01,-1.907846069335937500e+01,-2.543469810485839844e+01,-1.270144462585449219e+01,-6.358193874359130859e+00,-1.713093370199203491e-02
-1.678392028808593750e+01,6.181771278381347656e+00,-1.947628593444824219e+01,-1.924568176269531250e+01,-8.348378181457519531e+00,-4.350560665130615234e+00,-3.032931900024414062e+01,-2.440968132019042969e+01,-2.792723655700683594e+00,-2.517144203186035156e+01,-2.149603462219238281e+01,-2.731402206420898438e+01,-2.493526458740234375e+01,-2.678469848632812500e+01,-1.962197113037109375e+01,-1.877332305908203125e+01,-1.909303092956542969e+01,-2.487572860717773438e+01,-1.220971393585205078e+01,-5.804338932037353516e+00,-1.696080900728702545e-02
-1.568433666229248047e+01,4.220309257507324219e+00,-1.973092079162597656e+01,-1.867066955566406250e+01,-8.376480102539062500e+00,-6.057289123535156250e+00,-3.105910301208496094e+01,-2.337051773071289062e+01,-2.827778100967407227e+00,-2.526060104370117188e+01,-2.200812530517578125e+01,-2.776880836486816406e+01,-2.496872901916503906e+01,-2.687644386291503906e+01,-2.008624839782714844e+01,-1.958257293701171875e+01,-1.928376007080078125e+01,-2.412698745727539062e+01,-1.144288825988769531e+01,-5.433465003967285156e+00,-1.601437479257583618e-02
-1.393161678314208984e+01,2.714960813522338867e+00,-1.962985420227050781e+01,-1.762903976440429688e+01,-8.333247184753417969e+00,-7.666526794433593750e+00,-3.145716857910156250e+01,-2.218932914733886719e+01,-2.928267478942871094e+00,-2.498309516906738281e+01,-2.217651557922363281e+01,-2.796010780334472656e+01,-2.466515922546386719e+01,-2.662414169311523438e+01,-2.022202873229980469e+01,-2.002754783630371094e+01,-1.934203720092773438e+01,-2.313786506652832031e+01,-1.036772918701171875e+01,-5.300834655761718750e+00,-1.479808893054723740e-02
-1.214307212829589844e+01,1.911992669105529785e+00,-1.904183006286621094e+01,-1.616969871520996094e+01,-8.210033416748046875e+00,-8.695881843566894531e+00,-3.156944274902343750e+01,-2.098564338684082031e+01,-2.976175069808959961e+00,-2.438461494445800781e+01,-2.204272651672363281e+01,-2.781933975219726562e+01,-2.404367637634277344e+01,-2.603195953369140625e+01,-1.997346496582031250e+01,-2.000218582153320312e+01,-1.901885795593261719e+01,-2.190376472473144531e+01,-9.048422813415527344e+00,-5.373290061950683594e+00,-1.386338658630847931e-02
-1.087262535095214844e+01,1.858230233192443848e+00,-1.790384674072265625e+01,-1.446713542938232422e+01,-8.033858299255371094e+00,-8.852880477905273438e+00,-3.156433868408203125e+01,-1.993804168701171875e+01,-2.949300050735473633e+00,-2.356769752502441406e+01,-2.171171379089355469e+01,-2.733116722106933594e+01,-2.319152641296386719e+01,-2.515723991394042969e+01,-1.935041236877441406e+01,-1.946729660034179688e+01,-1.817249679565429688e+01,-2.047873878479003906e+01,-7.612201690673828125e+00,-5.545218467712402344e+00,-1.363655552268028259e-02
-1.037657356262207031e+01,2.411463260650634766e+00,-1.626315689086914062e+01,-1.280422782897949219e+01,-7.842553138732910156e+00,-8.108402252197265625e+00,-3.164769363403320312e+01,-1.919839286804199219e+01,-2.918919563293457031e+00,-2.265716171264648438e+01,-2.131380462646484375e+01,-2.653709602355957031e+01,-2.224257087707519531e+01,-2.409172821044921875e+01,-1.843828201293945312e+01,-1.846898841857910156e+01,-1.681487655639648438e+01,-1.897090339660644531e+01,-6.221829891204833984e+00,-5.698726177215576172e+00,-1.430336199700832367e-02
-1.054330158233642578e+01,3.311550617218017578e+00,-1.427857780456542969e+01,-1.148897075653076172e+01,-7.670701980590820312e+00,-6.718203544616699219e+00,-3.196750640869140625e+01,-1.880044555664062500e+01,-2.998376131057739258e+00,-2.177003097534179688e+01,-2.094934463500976562e+01,-2.551021766662597656e+01,-2.133305358886718750e+01,-2.293134307861328125e+01,-1.736737632751464844e+01,-1.710409736633300781e+01,-1.509169101715087891e+01,-1.751597595214843750e+01,-5.049241065979003906e+00,-5.731883525848388672e+00,-1.577385514974594116e-02
-1.100628471374511719e+01,4.287945747375488281e+00,-1.214830493927001953e+01,-1.073418521881103516e+01,-7.524790763854980469e+00,-5.079844951629638672e+00,-3.249996185302734375e+01,-1.863170433044433594e+01,-3.269463777542114258e+00,-2.099100494384765625e+01,-2.064485740661621094e+01,-2.433535385131835938e+01,-2.054066467285156250e+01,-2.175323295593261719e+01,-1.627128601074218750e+01,-1.549942684173583984e+01,-1.321353912353515625e+01,-1.623011779785156250e+01,-4.238859176635742188e+00,-5.616446018218994141e+00,-1.777818426489830017e-02
-1.135352134704589844e+01,5.148145198822021484e+00,-1.005347156524658203e+01,-1.059010124206542969e+01,-7.392930030822753906e+00,-3.631404876708984375e+00,-3.305112457275390625e+01,-1.847280693054199219e+01,-3.743866920471191406e+00,-2.037803649902343750e+01,-2.034729194641113281e+01,-2.307837486267089844e+01,-1.984388542175292969e+01,-2.059806060791015625e+01,-1.525513076782226562e+01,-1.377486705780029297e+01,-1.139763832092285156e+01,-1.517428779602050781e+01,-3.874359369277954102e+00,-5.416272163391113281e+00,-1.998392492532730103e-02
-1.136041069030761719e+01,5.791560173034667969e+00,-8.131895065307617188e+00,-1.094436168670654297e+01,-7.289171218872070312e+00,-2.676750898361206055e+00,-3.334712219238281250e+01,-1.810298347473144531e+01,-4.374846458435058594e+00,-1.997124862670898438e+01,-1.996668434143066406e+01,-2.177898597717285156e+01,-1.915188980102539062e+01,-1.947937965393066406e+01,-1.437475490570068359e+01,-1.205261325836181641e+01,-9.833394050598144531e+00,-1.436458873748779297e+01,-3.956887722015380859e+00,-5.211186408996582031e+00,-2.209971472620964050e-02
-1.104073238372802734e+01,6.207785606384277344e+00,-6.446578025817871094e+00,-1.156299495697021484e+01,-7.235129833221435547e+00,-2.296915292739868164e+00,-3.315659713745117188e+01,-1.738583374023437500e+01,-5.084114551544189453e+00,-1.978178596496582031e+01,-1.940961265563964844e+01,-2.044981765747070312e+01,-1.834276580810546875e+01,-1.838884544372558594e+01,-1.364329814910888672e+01,-1.043180465698242188e+01,-8.658555030822753906e+00,-1.376421546936035156e+01,-4.360359191894531250e+00,-5.056450843811035156e+00,-2.387330308556556702e-02
-1.056121540069580078e+01,6.403758049011230469e+00,-5.008020401000976562e+00,-1.219616889953613281e+01,-7.227564334869384766e+00,-2.386809587478637695e+00,-3.240469741821289062e+01,-1.633963775634765625e+01,-5.792213916778564453e+00,-1.979293251037597656e+01,-1.863224792480468750e+01,-1.910531234741210938e+01,-1.733285713195800781e+01,-1.731916427612304688e+01,-1.305309581756591797e+01,-9.004662513732910156e+00,-7.975109100341796875e+00,-1.331795978546142578e+01,-4.849797725677490234e+00,-4.959434509277343750e+00,-2.507981099188327789e-02
-1.008996486663818359e+01,6.355198383331298828e+00,-3.826723337173461914e+00,-1.269186878204345703e+01,-7.253503799438476562e+00,-2.751451969146728516e+00,-3.121390724182128906e+01,-1.515141963958740234e+01,-6.478112220764160156e+00,-1.997459220886230469e+01,-1.766227531433105469e+01,-1.779419136047363281e+01,-1.613291740417480469e+01,-1.629952621459960938e+01,-1.262276268005371094e+01,-7.868021488189697266e+00,-7.865174770355224609e+00,-1.299477100372314453e+01,-5.163863658905029297e+00,-4.885750770568847656e+00,-2.550609782338142395e-02
-9.708279609680175781e+00,5.989266872406005859e+00,-2.947313308715820312e+00,-1.304480743408203125e+01,-7.285928726196289062e+00,-3.249036788940429688e+00,-2.987511825561523438e+01,-1.409959983825683594e+01,-7.161673545837402344e+00,-2.029222106933593750e+01,-1.659426689147949219e+01,-1.660940170288085938e+01,-1.486843776702880859e+01,-1.539874172210693359e+01,-1.241471385955810547e+01,-7.146380901336669922e+00,-8.377759933471679688e+00,-1.280384731292724609e+01,-5.105405807495117188e+00,-4.805926799774169922e+00,-2.500550448894500732e-02
-9.407892227172851562e+00,5.215781688690185547e+00,-2.448543310165405273e+00,-1.336866474151611328e+01,-7.311868190765380859e+00,-3.856774091720581055e+00,-2.874216651916503906e+01,-1.344572830200195312e+01,-7.874446868896484375e+00,-2.070792579650878906e+01,-1.556085777282714844e+01,-1.566914939880371094e+01,-1.373662281036376953e+01,-1.470438766479492188e+01,-1.251216793060302734e+01,-6.920436382293701172e+00,-9.515512466430664062e+00,-1.279349613189697266e+01,-4.627429962158203125e+00,-4.722418785095214844e+00,-2.356825396418571472e-02
-9.176401138305664062e+00,4.026070594787597656e+00,-2.407854080200195312e+00,-1.379959297180175781e+01,-7.322676658630371094e+00,-4.613913536071777344e+00,-2.811955261230468750e+01,-1.333745288848876953e+01,-8.594230651855468750e+00,-2.115817642211914062e+01,-1.468430614471435547e+01,-1.505645179748535156e+01,-1.292391395568847656e+01,-1.427693176269531250e+01,-1.297206592559814453e+01,-7.215548038482666016e+00,-1.117644500732421875e+01,-1.300167179107666016e+01,-3.851434946060180664e+00,-4.686805248260498047e+00,-2.137815579771995544e-02
-9.090970039367675781e+00,2.567547559738159180e+00,-2.858059644699096680e+00,-1.439707660675048828e+01,-7.322676658630371094e+00,-5.535647869110107422e+00,-2.816378211975097656e+01,-1.377196121215820312e+01,-9.201840400695800781e+00,-2.154601860046386719e+01,-1.405226612091064453e+01,-1.478574562072753906e+01,-1.252592658996582031e+01,-1.411429023742675781e+01,-1.376593780517578125e+01,-7.953327178955078125e+00,-1.314598846435546875e+01,-1.341457176208496094e+01,-2.998642921447753906e+00,-4.755576610565185547e+00,-1.878719404339790344e-02
-9.316949844360351562e+00,1.141975760459899902e+00,-3.755845546722412109e+00,-1.510030937194824219e+01,-7.305383682250976562e+00,-6.532083988189697266e+00,-2.884593582153320312e+01,-1.460160446166992188e+01,-9.496297836303710938e+00,-2.174105453491210938e+01,-1.368895912170410156e+01,-1.477581977844238281e+01,-1.249365711212158203e+01,-1.412054538726806641e+01,-1.475909805297851562e+01,-8.942412376403808594e+00,-1.510626125335693359e+01,-1.393443584442138672e+01,-2.270789384841918945e+00,-4.927504539489746094e+00,-1.621969603002071381e-02
-1.000866699218750000e+01,1.291607171297073364e-01,-4.997519969940185547e+00,-1.576256465911865234e+01,-7.248099803924560547e+00,-7.424697875976562500e+00,-2.996527862548828125e+01,-1.560842704772949219e+01,-9.264938354492187500e+00,-2.161177253723144531e+01,-1.354594230651855469e+01,-1.488049221038818359e+01,-1.265261268615722656e+01,-1.412784385681152344e+01,-1.572488307952880859e+01,-9.919970512390136719e+00,-1.671818733215332031e+01,-1.438759136199951172e+01,-1.756134033203125000e+00,-5.114169597625732422e+00,-1.401786692440509796e-02
-1.117852497100830078e+01,-1.032317802309989929e-01,-6.453140735626220703e+00,-1.622389602661132812e+01,-7.131371021270751953e+00,-8.023571968078613281e+00,-3.120540046691894531e+01,-1.657025146484375000e+01,-8.380398750305175781e+00,-2.106678962707519531e+01,-1.350672817230224609e+01,-1.494365692138671875e+01,-1.276973819732666016e+01,-1.393183994293212891e+01,-1.640159034729003906e+01,-1.060011100769042969e+01,-1.771554183959960938e+01,-1.458196544647216797e+01,-1.397365331649780273e+00,-5.187853336334228516e+00,-1.234400738030672073e-02
-1.263085651397705078e+01,6.702536940574645996e-01,-8.011139869689941406e+00,-1.639177322387695312e+01,-6.981136322021484375e+00,-8.247674942016601562e+00,-3.220566558837890625e+01,-1.733802223205566406e+01,-6.853194236755371094e+00,-2.008715629577636719e+01,-1.339254570007324219e+01,-1.486064052581787109e+01,-1.262870979309082031e+01,-1.335216808319091797e+01,-1.655926895141601562e+01,-1.075919437408447266e+01,-1.797779464721679688e+01,-1.436113834381103516e+01,-1.019110798835754395e+00,-5.065047264099121094e+00,-1.113554276525974274e-02
-1.402256011962890625e+01,2.456554174423217773e+00,-9.621642112731933594e+00,-1.627148246765136719e+01,-6.909801959991455078e+00,-8.184369087219238281e+00,-3.263434982299804688e+01,-1.785408973693847656e+01,-4.839901924133300781e+00,-1.872636795043945312e+01,-1.299117755889892578e+01,-1.461700534820556641e+01,-1.208252239227294922e+01,-1.228769969940185547e+01,-1.605557250976562500e+01,-1.028424835205078125e+01,-1.754335594177246094e+01,-1.364114952087402344e+01,-4.161960482597351074e-01,-4.788733959197998047e+00,-1.016759779304265976e-02
-1.499537467956542969e+01,5.045823097229003906e+00,-1.125708198547363281e+01,-1.593044185638427734e+01,-7.056794166564941406e+00,-8.036233901977539062e+00,-3.223628616333007812e+01,-1.808610916137695312e+01,-2.576554775238037109e+00,-1.707246971130371094e+01,-1.210539913177490234e+01,-1.427862262725830078e+01,-1.107619762420654297e+01,-1.072279548645019531e+01,-1.485764789581298828e+01,-9.196023941040039062e+00,-1.657116699218750000e+01,-1.240819835662841797e+01,5.684119462966918945e-01,-4.532069683074951172e+00,-9.142945520579814911e-03
-1.530540752410888672e+01,8.009694099426269531e+00,-1.289120960235595703e+01,-1.544002914428710938e+01,-7.491285324096679688e+00,-8.018507957458496094e+00,-3.088558959960937500e+01,-1.798627090454101562e+01,-2.863322794437408447e-01,-1.520236206054687500e+01,-1.061410808563232422e+01,-1.395557975769042969e+01,-9.627664566040039062e+00,-8.729393005371093750e+00,-1.303338527679443359e+01,-7.614409923553466797e+00,-1.527844715118408203e+01,-1.070138931274414062e+01,2.004632949829101562e+00,-4.522244930267333984e+00,-7.776090409606695175e-03
-1.493336772918701172e+01,1.080881023406982422e+01,-1.445577239990234375e+01,-1.482800483703613281e+01,-8.144103050231933594e+00,-8.243877410888671875e+00,-2.860607528686523438e+01,-1.745332908630371094e+01,1.871851801872253418e+00,-1.316285228729248047e+01,-8.533451080322265625e+00,-1.375074577331542969e+01,-7.825365066528320312e+00,-6.436771869659423828e+00,-1.072185134887695312e+01,-5.737683773040771484e+00,-1.385724925994873047e+01,-8.590880393981933594e+00,3.875273466110229492e+00,-4.938557147979736328e+00,-5.898864939808845520e-03
-1.406940937042236328e+01,1.290207672119140625e+01,-1.582870197296142578e+01,-1.406793212890625000e+01,-8.778546333312988281e+00,-8.643970489501953125e+00,-2.556615829467773438e+01,-1.636776161193847656e+01,3.819709300994873047e+00,-1.098180294036865234e+01,-6.024898529052734375e+00,-1.371916294097900391e+01,-5.797179698944091797e+00,-4.013828754425048828e+00,-8.112478256225585938e+00,-3.777957439422607422e+00,-1.244929790496826172e+01,-6.175583839416503906e+00,6.108121395111083984e+00,-5.808023452758789062e+00,-3.487802809104323387e-03
-1.299600696563720703e+01,1.388194084167480469e+01,-1.684593009948730469e+01,-1.313205051422119141e+01,-9.056318283081054688e+00,-9.041532516479492188e+00,-2.204652214050292969e+01,-1.467753791809082031e+01,5.535038948059082031e+00,-8.717166900634765625e+00,-3.361796379089355469e+00,-1.385902786254882812e+01,-3.709236621856689453e+00,-1.658652782440185547e+00,-5.430835247039794922e+00,-1.940425753593444824e+00,-1.114465713500976562e+01,-3.592366695404052734e+00,8.590847015380859375e+00,-7.001697063446044922e+00,-6.641420768573880196e-04
-1.197772121429443359e+01,1.356803703308105469e+01,-1.736963844299316406e+01,-1.205340766906738281e+01,-8.697484970092773438e+00,-9.266901016235351562e+00,-1.842311668395996094e+01,-1.251202774047851562e+01,6.979281425476074219e+00,-6.514941692352294922e+00,-8.774643540382385254e-01,-1.414236736297607422e+01,-1.770688295364379883e+00,4.119002223014831543e-01,-2.937531471252441406e+00,-4.279781579971313477e-01,-1.003207015991210938e+01,-1.048254489898681641e+00,1.117214679718017578e+01,-8.296072006225585938e+00,2.337463898584246635e-03
-1.120057201385498047e+01,1.207309436798095703e+01,-1.734995079040527344e+01,-1.097212123870849609e+01,-7.639358043670654297e+00,-9.251708030700683594e+00,-1.511101913452148438e+01,-1.019464969635009766e+01,8.070642471313476562e+00,-4.611399173736572266e+00,1.112077236175537109e+00,-1.455023097991943359e+01,-2.384941130876541138e-01,1.956995606422424316e+00,-9.282155632972717285e-01,5.634127855300903320e-01,-9.221470832824707031e+00,1.189920186996459961e+00,1.365143394470214844e+01,-9.457816123962402344e+00,5.245208740234375000e-03
-1.072656536102294922e+01,9.799463272094726562e+00,-1.683936691284179688e+01,-1.008911418914794922e+01,-6.070001602172851562e+00,-9.031403541564941406e+00,-1.249638366699218750e+01,-8.166944503784179688e+00,8.713307380676269531e+00,-3.272901058197021484e+00,2.381923675537109375e+00,-1.507720565795898438e+01,6.399478912353515625e-01,2.775416612625122070e+00,3.299337327480316162e-01,8.723579049110412598e-01,-8.820145606994628906e+00,2.840372800827026367e+00,1.578799819946289062e+01,-1.029658031463623047e+01,7.791196461766958237e-03
-1.050334167480468750e+01,7.383622169494628906e+00,-1.595864486694335938e+01,-9.572264671325683594e+00,-4.376350879669189453e+00,-8.660429954528808594e+00,-1.083948421478271484e+01,-6.838108539581298828e+00,8.830155372619628906e+00,-2.690024852752685547e+00,2.837499856948852539e+00,-1.571156024932861328e+01,6.901445984840393066e-01,2.756650209426879883e+00,6.573372483253479004e-01,4.227736294269561768e-01,-8.869152069091796875e+00,3.694927692413330078e+00,1.733081817626953125e+01,-1.071412086486816406e+01,9.754462167620658875e-03
-1.043169021606445312e+01,5.515810489654541016e+00,-1.488628959655761719e+01,-9.499561309814453125e+00,-3.011270284652709961e+00,-8.146386146545410156e+00,-1.024579048156738281e+01,-6.459846973419189453e+00,8.397816658020019531e+00,-2.928524732589721680e+00,2.488032579421997070e+00,-1.642351722717285156e+01,-1.381007432937622070e-01,1.904866933822631836e+00,3.402304137125611305e-04,-7.553677558898925781e-01,-9.327431678771972656e+00,3.658123016357421875e+00,1.804147911071777344e+01,-1.066499805450439453e+01,1.100399065762758255e-02
-1.037106132507324219e+01,4.738856792449951172e+00,-1.382312202453613281e+01,-9.806234359741210938e+00,-2.338997840881347656e+00,-7.467745780944824219e+00,-1.061493587493896484e+01,-7.058877944946289062e+00,7.479391098022460938e+00,-3.899242401123046875e+00,1.413103580474853516e+00,-1.714720535278320312e+01,-1.739614129066467285e+00,3.389199972152709961e-01,-1.549077749252319336e+00,-2.532954692840576172e+00,-1.006518268585205078e+01,2.775964736938476562e+00,1.774345970153808594e+01,-1.014552879333496094e+01,1.150458399206399918e-02
-1.017401790618896484e+01,5.276481151580810547e+00,-1.296077537536621094e+01,-1.034159088134765625e+01,-2.521657228469848633e+00,-6.640970230102539062e+00,-1.167984199523925781e+01,-8.458023071289062500e+00,6.171861171722412109e+00,-5.409371376037597656e+00,-2.638781964778900146e-01,-1.779148483276367188e+01,-3.887315273284912109e+00,-1.756654739379882812e+00,-3.775202751159667969e+00,-4.711709499359130859e+00,-1.089697360992431641e+01,1.204872012138366699e+00,1.634277153015136719e+01,-9.174134254455566406e+00,1.131686102598905563e-02
-9.728948593139648438e+00,6.955256938934326172e+00,-1.249088191986083984e+01,-1.096286773681640625e+01,-3.525742530822753906e+00,-5.799000740051269531e+00,-1.306966495513916016e+01,-1.038870239257812500e+01,4.576884746551513672e+00,-7.256075382232666016e+00,-2.417196512222290039e+00,-1.828868103027343750e+01,-6.326635360717773438e+00,-4.200449466705322266e+00,-6.413045883178710938e+00,-7.093353271484375000e+00,-1.166253948211669922e+01,-8.584812283515930176e-01,1.383368396759033203e+01,-7.813444137573242188e+00,1.056792587041854858e-02
-8.998648643493652344e+00,9.299992561340332031e+00,-1.257357215881347656e+01,-1.157753562927246094e+01,-5.169675350189208984e+00,-5.134288311004638672e+00,-1.440334987640380859e+01,-1.258796119689941406e+01,2.782098293304443359e+00,-9.285554885864257812e+00,-4.891148090362548828e+00,-1.861352920532226562e+01,-8.840055465698242188e+00,-6.851716518402099609e+00,-9.203093528747558594e+00,-9.537247657775878906e+00,-1.227711105346679688e+01,-3.222021341323852539e+00,1.032164764404296875e+01,-6.210826873779296875e+00,9.429858066141605377e-03
-8.082329750061035156e+00,1.170196056365966797e+01,-1.329678821563720703e+01,-1.217766284942626953e+01,-7.207028388977050781e+00,-4.824089050292968750e+00,-1.535087871551513672e+01,-1.485612297058105469e+01,8.891594409942626953e-01,-1.141088008880615234e+01,-7.473515510559082031e+00,-1.879760932922363281e+01,-1.128415584564208984e+01,-9.604112625122070312e+00,-1.192306041717529297e+01,-1.196269702911376953e+01,-1.275128555297851562e+01,-5.715527057647705078e+00,6.048517704010009766e+00,-4.611893653869628906e+00,8.094290271401405334e-03
-7.230772495269775391e+00,1.356456851959228516e+01,-1.465265560150146484e+01,-1.282669925689697266e+01,-9.398939132690429688e+00,-4.950701236724853516e+00,-1.570471382141113281e+01,-1.709334754943847656e+01,-9.675565958023071289e-01,-1.359861660003662109e+01,-9.904792785644531250e+00,-1.892484092712402344e+01,-1.358961772918701172e+01,-1.237631893157958984e+01,-1.441636466979980469e+01,-1.434434032440185547e+01,-1.316983032226562500e+01,-8.205582618713378906e+00,1.373062491416931152e+00,-3.308922529220581055e+00,6.711791269481182098e-03
-6.827040672302246094e+00,1.444384479522705078e+01,-1.652697944641113281e+01,-1.361056613922119141e+01,-1.154113197326660156e+01,-5.449552059173583984e+00,-1.540361404418945312e+01,-1.926870155334472656e+01,-2.591744899749755859e+00,-1.582313156127929688e+01,-1.191048145294189453e+01,-1.909087371826171875e+01,-1.572297668457031250e+01,-1.507241630554199219e+01,-1.657678985595703125e+01,-1.665220642089843750e+01,-1.363870620727539062e+01,-1.058177471160888672e+01,-3.247373819351196289e+00,-2.546297550201416016e+00,5.374268162995576859e-03
-7.287267684936523438e+00,1.410045909881591797e+01,-1.873075485229492188e+01,-1.461518478393554688e+01,-1.346283721923828125e+01,-6.178836822509765625e+00,-1.453944015502929688e+01,-2.136249732971191406e+01,-3.767236709594726562e+00,-1.803873062133789062e+01,-1.327375030517578125e+01,-1.936609268188476562e+01,-1.766750144958496094e+01,-1.756104087829589844e+01,-1.834411239624023438e+01,-1.880329513549804688e+01,-1.425062847137451172e+01,-1.277279376983642578e+01,-7.327937602996826172e+00,-2.391562223434448242e+00,4.105185158550739288e-03
-8.881525993347167969e+00,1.249452304840087891e+01,-2.104347229003906250e+01,-1.589871692657470703e+01,-1.503003120422363281e+01,-7.027136325836181641e+00,-1.331462669372558594e+01,-2.333536338806152344e+01,-4.333950042724609375e+00,-2.016517066955566406e+01,-1.390463638305664062e+01,-1.978117370605468750e+01,-1.941601943969726562e+01,-1.970874595642089844e+01,-1.969643020629882812e+01,-2.067771530151367188e+01,-1.505063152313232422e+01,-1.475563621520996094e+01,-1.046515750885009766e+01,-2.720682144165039062e+00,2.883032662793993950e-03
-1.159052371978759766e+01,9.811603546142578125e+00,-2.327087402343750000e+01,-1.745058822631835938e+01,-1.614328002929687500e+01,-7.955201625823974609e+00,-1.196903419494628906e+01,-2.507198905944824219e+01,-4.242808341979980469e+00,-2.207316970825195312e+01,-1.385619544982910156e+01,-2.030724716186523438e+01,-2.096972656250000000e+01,-2.139667320251464844e+01,-2.064579200744628906e+01,-2.211407852172851562e+01,-1.600295257568359375e+01,-1.653490447998046875e+01,-1.239425563812255859e+01,-3.274536848068237305e+00,1.698033884167671204e-03
-1.505049133300781250e+01,6.438443660736083984e+00,-2.527907943725585938e+01,-1.918223190307617188e+01,-1.675394630432128906e+01,-8.979492187500000000e+00,-1.069488811492919922e+01,-2.640645027160644531e+01,-3.591964483261108398e+00,-2.360336112976074219e+01,-1.330719757080078125e+01,-2.087392425537109375e+01,-2.233459854125976562e+01,-2.255601692199707031e+01,-2.123270797729492188e+01,-2.300172042846679688e+01,-1.700030708312988281e+01,-1.812094879150390625e+01,-1.303499603271484375e+01,-3.775585174560546875e+00,5.873418995179235935e-04
-1.867856597900390625e+01,2.886653900146484375e+00,-2.699852371215820312e+01,-2.093767166137695312e+01,-1.688796806335449219e+01,-1.012153148651123047e+01,-9.597660064697265625e+00,-2.718828392028808594e+01,-2.609272241592407227e+00,-2.459636688232421875e+01,-1.250561428070068359e+01,-2.140360641479492188e+01,-2.352617073059082031e+01,-2.319198608398437500e+01,-2.151959800720214844e+01,-2.331527519226074219e+01,-1.789170074462890625e+01,-1.951032066345214844e+01,-1.251460933685302734e+01,-4.038389682769775391e+00,-3.317166410852223635e-04
-2.187534904479980469e+01,-2.940017282962799072e-01,-2.840820503234863281e+01,-2.253580665588378906e+01,-1.664478302001953125e+01,-1.130155467987060547e+01,-8.713072776794433594e+00,-2.737108802795410156e+01,-1.591525316238403320e+00,-2.494631576538085938e+01,-1.172479152679443359e+01,-2.184846687316894531e+01,-2.456834983825683594e+01,-2.337339401245117188e+01,-2.157325172424316406e+01,-2.314466476440429688e+01,-1.853806114196777344e+01,-2.067541313171386719e+01,-1.111965274810791016e+01,-3.996635675430297852e+00,-8.987953187897801399e-04
-2.423435401916503906e+01,-2.626598119735717773e+00,-2.948712158203125000e+01,-2.379951095581054688e+01,-1.618543243408203125e+01,-1.231445026397705078e+01,-8.041127204895019531e+00,-2.705751037597656250e+01,-7.934529185295104980e-01,-2.461308479309082031e+01,-1.120001316070556641e+01,-2.218143463134765625e+01,-2.544440269470214844e+01,-2.320241165161132812e+01,-2.143637847900390625e+01,-2.264896965026855469e+01,-1.884004974365234375e+01,-2.155872154235839844e+01,-9.213479042053222656e+00,-3.694533109664916992e+00,-9.750575991347432137e-04
-2.565637207031250000e+01,-3.798966169357299805e+00,-3.019458770751953125e+01,-2.460320663452148438e+01,-1.567312145233154297e+01,-1.286267948150634766e+01,-7.614143848419189453e+00,-2.647957229614257812e+01,-3.517672121524810791e-01,-2.364125251770019531e+01,-1.110774517059326172e+01,-2.238897705078125000e+01,-2.607066535949707031e+01,-2.277078628540039062e+01,-2.111335372924804688e+01,-2.199649620056152344e+01,-1.875130653381347656e+01,-2.208548545837402344e+01,-7.128494739532470703e+00,-3.198397159576416016e+00,-5.037956871092319489e-04
-2.633155441284179688e+01,-3.745203733444213867e+00,-3.046497344970703125e+01,-2.490194892883300781e+01,-1.525592327117919922e+01,-1.266516494750976562e+01,-7.505271434783935547e+00,-2.589741516113281250e+01,-2.571202516555786133e-01,-2.212666511535644531e+01,-1.153102684020996094e+01,-2.243228912353515625e+01,-2.630491638183593750e+01,-2.213481521606445312e+01,-2.057680702209472656e+01,-2.129329872131347656e+01,-1.828110694885253906e+01,-2.217864799499511719e+01,-5.099674701690673828e+00,-2.546297550201416016e+00,4.758815921377390623e-04
-2.659060478210449219e+01,-2.645675182342529297e+00,-3.024708938598632812e+01,-2.471953010559082031e+01,-1.503975868225097656e+01,-1.156617355346679688e+01,-7.780854701995849609e+00,-2.545446968078613281e+01,-3.926640152931213379e-01,-2.019414710998535156e+01,-1.245601940155029297e+01,-2.223286819458007812e+01,-2.598819923400878906e+01,-2.129658699035644531e+01,-1.978731536865234375e+01,-2.055090904235839844e+01,-1.747978019714355469e+01,-2.177724838256835938e+01,-3.223303079605102539e+00,-1.739462614059448242e+00,1.879890100099146366e-03
-2.671323966979980469e+01,-8.853886127471923828e-01,-2.955143737792968750e+01,-2.414451789855957031e+01,-1.507110309600830078e+01,-9.608753204345703125e+00,-8.437490463256835938e+00,-2.508464622497558594e+01,-6.193493008613586426e-01,-1.798300552368164062e+01,-1.376738739013671875e+01,-2.167972564697265625e+01,-2.503326797485351562e+01,-2.022273445129394531e+01,-1.872954940795898438e+01,-1.969093513488769531e+01,-1.642547035217285156e+01,-2.086748695373535156e+01,-1.482186079025268555e+00,-7.373661994934082031e-01,3.610457759350538254e-03
-2.679453849792480469e+01,1.036185145378112793e+00,-2.848170661926269531e+01,-2.330513381958007812e+01,-1.532293510437011719e+01,-7.025870323181152344e+00,-9.339088439941406250e+00,-2.452639389038085938e+01,-8.507084846496582031e-01,-1.564592838287353516e+01,-1.525983142852783203e+01,-2.068172264099121094e+01,-2.348075485229492188e+01,-1.888511085510253906e+01,-1.742760086059570312e+01,-1.860501670837402344e+01,-1.524268531799316406e+01,-1.951032066345214844e+01,1.993272304534912109e-01,4.992895424365997314e-01,5.614787340164184570e-03
-2.671875190734863281e+01,2.633450031280517578e+00,-2.721509361267089844e+01,-2.235206794738769531e+01,-1.566663646697998047e+01,-4.159376621246337891e+00,-1.023558330535888672e+01,-2.344645118713378906e+01,-1.083236217498779297e+00,-1.337906265258789062e+01,-1.666000747680664062e+01,-1.920005798339843750e+01,-2.151113319396972656e+01,-1.730144119262695312e+01,-1.594388294219970703e+01,-1.723320770263671875e+01,-1.407976722717285156e+01,-1.786331748962402344e+01,1.891156554222106934e+00,1.959452152252197266e+00,7.818572223186492920e-03
-2.623372268676757812e+01,3.549145936965942383e+00,-2.594848060607910156e+01,-2.144130134582519531e+01,-1.588820552825927734e+01,-1.395438432693481445e+00,-1.085649585723876953e+01,-2.162545204162597656e+01,-1.392883658409118652e+00,-1.142536830902099609e+01,-1.771187019348144531e+01,-1.729338645935058594e+01,-1.939689636230468750e+01,-1.556138420104980469e+01,-1.437694454193115234e+01,-1.560778808593750000e+01,-1.312082290649414062e+01,-1.618181228637695312e+01,3.603617906570434570e+00,3.531368017196655273e+00,1.004973333328962326e-02
-2.512311553955078125e+01,3.604642629623413086e+00,-2.485381317138671875e+01,-2.073542594909667969e+01,-1.575958728790283203e+01,9.291564226150512695e-01,-1.104191875457763672e+01,-1.912527275085449219e+01,-1.847422599792480469e+00,-1.006680965423583984e+01,-1.827124786376953125e+01,-1.512954235076904297e+01,-1.743564033508300781e+01,-1.383175277709960938e+01,-1.283519172668457031e+01,-1.388092327117919922e+01,-1.256188106536865234e+01,-1.476943874359130859e+01,5.272522926330566406e+00,5.054161548614501953e+00,1.200908794999122620e-02
-2.328496551513671875e+01,2.815548658370971680e+00,-2.401115417480468750e+01,-2.034547424316406250e+01,-1.509704208374023438e+01,2.568780660629272461e+00,-1.080205917358398438e+01,-1.628901672363281250e+01,-2.455032587051391602e+00,-9.529626846313476562e+00,-1.831622886657714844e+01,-1.292689704895019531e+01,-1.585444450378417969e+01,-1.228978538513183594e+01,-1.139965343475341797e+01,-1.224628067016601562e+01,-1.254333782196044922e+01,-1.389188098907470703e+01,6.807319164276123047e+00,6.379237651824951172e+00,1.334465667605400085e-02
-2.075785255432128906e+01,1.384773969650268555e+00,-2.337587928771972656e+01,-2.028731346130371094e+01,-1.382383155822753906e+01,3.442403078079223633e+00,-1.025259494781494141e+01,-1.361728191375732422e+01,-3.102370977401733398e+00,-9.886262893676757812e+00,-1.790793991088867188e+01,-1.088667583465576172e+01,-1.472740936279296875e+01,-1.105433368682861328e+01,-1.009989356994628906e+01,-1.086294460296630859e+01,-1.308506107330322266e+01,-1.365840244293212891e+01,8.142672538757324219e+00,7.394842624664306641e+00,1.378854177892208099e-02
-1.772090721130371094e+01,-3.789810836315155029e-01,-2.281279373168945312e+01,-2.046840858459472656e+01,-1.202642154693603516e+01,3.612062931060791016e+00,-9.524511337280273438e+00,-1.158676433563232422e+01,-3.597806930541992188e+00,-1.100074958801269531e+01,-1.712827110290527344e+01,-9.152352333068847656e+00,-1.398402023315429688e+01,-1.014520931243896484e+01,-8.935914039611816406e+00,-9.809303283691406250e+00,-1.407446861267089844e+01,-1.398159122467041016e+01,9.272850990295410156e+00,8.024837493896484375e+00,1.330163609236478806e-02
-1.443180370330810547e+01,-2.144470453262329102e+00,-2.215126609802246094e+01,-2.069180488586425781e+01,-9.886390686035156250e+00,3.252485036849975586e+00,-8.639925003051757812e+00,-1.049979019165039062e+01,-3.743866920471191406e+00,-1.255322837829589844e+01,-1.601643371582031250e+01,-7.792505264282226562e+00,-1.345217418670654297e+01,-9.486302375793457031e+00,-7.896763801574707031e+00,-9.059996604919433594e+00,-1.529036712646484375e+01,-1.459691715240478516e+01,1.023911952972412109e+01,8.232378959655761719e+00,1.213423628360033035e-02
-1.119781589508056641e+01,-3.648084402084350586e+00,-2.126529502868652344e+01,-2.073146057128906250e+01,-7.644762039184570312e+00,2.570046901702880859e+00,-7.498466968536376953e+00,-1.040417003631591797e+01,-3.434219598770141602e+00,-1.415363121032714844e+01,-1.457358360290527344e+01,-6.815256118774414062e+00,-1.294303703308105469e+01,-8.961887359619140625e+00,-6.999963283538818359e+00,-8.534328460693359375e+00,-1.649434471130371094e+01,-1.518578910827636719e+01,1.106554794311523438e+01,8.003960609436035156e+00,1.074000541120767593e-02
-8.338623046875000000e+00,-4.752816200256347656e+00,-2.014437484741210938e+01,-2.043800544738769531e+01,-5.571742057800292969e+00,1.742004990577697754e+00,-6.003174781799316406e+00,-1.114381885528564453e+01,-2.740141868591308594e+00,-1.549435806274414062e+01,-1.282394027709960938e+01,-6.235043048858642578e+00,-1.234784698486328125e+01,-8.510452270507812500e+00,-6.299166202545166016e+00,-8.153910636901855469e+00,-1.754203224182128906e+01,-1.553083133697509766e+01,1.168336391448974609e+01,7.349404811859130859e+00,9.578472003340721130e-03
-6.162881374359130859e+00,-5.456930637359619141e+00,-1.890007400512695312e+01,-1.980615425109863281e+01,-3.910515785217285156e+00,8.683826923370361328e-01,-4.174460887908935547e+00,-1.245718669891357422e+01,-1.898835778236389160e+00,-1.646284675598144531e+01,-1.088745403289794922e+01,-6.087959289550781250e+00,-1.166302108764648438e+01,-8.166402816772460938e+00,-5.884162902832031250e+00,-7.900299549102783203e+00,-1.843210029602050781e+01,-1.561249160766601562e+01,1.191490173339843750e+01,6.296957969665527344e+00,8.927308954298496246e-03
-4.904836654663085938e+00,-5.852344512939453125e+00,-1.774109077453613281e+01,-1.898924064636230469e+01,-2.834015369415283203e+00,-3.056190721690654755e-02,-2.221564769744873047e+00,-1.406866455078125000e+01,-1.215274572372436523e+00,-1.714937019348144531e+01,-8.974033355712890625e+00,-6.423635005950927734e+00,-1.095668220520019531e+01,-8.045464515686035156e+00,-5.821748256683349609e+00,-7.817299365997314453e+00,-1.929965400695800781e+01,-1.559408950805664062e+01,1.152403831481933594e+01,4.917847156524658203e+00,8.796294219791889191e-03
-4.677479267120361328e+00,-6.089940071105957031e+00,-1.685118103027343750e+01,-1.821859169006347656e+01,-2.417898178100585938e+00,-9.763529300689697266e-01,-4.711031019687652588e-01,-1.573076438903808594e+01,-9.231542944908142090e-01,-1.774562072753906250e+01,-7.336266040802001953e+00,-7.251995563507080078e+00,-1.031249141693115234e+01,-8.269618034362792969e+00,-6.122871875762939453e+00,-7.974077224731445312e+00,-2.032482337951660156e+01,-1.571485424041748047e+01,1.033769512176513672e+01,3.323826074600219727e+00,8.999660611152648926e-03
-5.413290977478027344e+00,-6.273772716522216797e+00,-1.636422348022460938e+01,-1.770570755004882812e+01,-2.618931293487548828e+00,-1.984183788299560547e+00,7.809278368949890137e-01,-1.722552871704101562e+01,-1.078562259674072266e+00,-1.840539550781250000e+01,-6.143694400787353516e+00,-8.506266593933105469e+00,-9.779450416564941406e+00,-8.892034530639648438e+00,-6.722929477691650391e+00,-8.421356201171875000e+00,-2.161489295959472656e+01,-1.614615821838378906e+01,8.354723930358886719e+00,1.654893398284912109e+00,9.306665509939193726e-03
-6.851843357086181641e+00,-6.384766101837158203e+00,-1.627890777587890625e+01,-1.754047393798828125e+01,-3.273910522460937500e+00,-3.038861036300659180e+00,1.420552372932434082e+00,-1.836734390258789062e+01,-1.513237118721008301e+00,-1.915544509887695312e+01,-5.412466049194335938e+00,-1.001139259338378906e+01,-9.345607757568359375e+00,-9.826181411743164062e+00,-7.485045909881591797e+00,-9.122246742248535156e+00,-2.311556053161621094e+01,-1.687419700622558594e+01,5.803225517272949219e+00,7.560908049345016479e-02,9.580426849424839020e-03
-8.600429534912109375e+00,-6.292850017547607422e+00,-1.649416542053222656e+01,-1.767001724243164062e+01,-4.135327339172363281e+00,-4.109997749328613281e+00,1.573653936386108398e+00,-1.901699638366699219e+01,-1.907015204429626465e+00,-1.988877677917480469e+01,-4.984570026397705078e+00,-1.152644443511962891e+01,-8.965546607971191406e+00,-1.088335227966308594e+01,-8.249352455139160156e+00,-9.954553604125976562e+00,-2.462417602539062500e+01,-1.772300148010253906e+01,3.074061632156372070e+00,-1.245782732963562012e+00,9.840501472353935242e-03
-1.020846652984619141e+01,-5.821127891540527344e+00,-1.685118103027343750e+01,-1.795289611816406250e+01,-4.925409317016601562e+00,-5.191263675689697266e+00,1.515815615653991699e+00,-1.912808418273925781e+01,-1.921036958694458008e+00,-2.045605087280273438e+01,-4.610882282257080078e+00,-1.281229782104492188e+01,-8.595046997070312500e+00,-1.185711669921875000e+01,-8.880069732666015625e+00,-1.077994441986083984e+01,-2.587583732604980469e+01,-1.842918777465820312e+01,6.119685173034667969e-01,-2.159458875656127930e+00,1.019834727048873901e-02
-1.126809024810791016e+01,-4.846466541290283203e+00,-1.717669296264648438e+01,-1.824370765686035156e+01,-5.404214382171630859e+00,-6.311779022216796875e+00,1.529424667358398438e+00,-1.876810455322265625e+01,-1.334459543228149414e+00,-2.077479362487792969e+01,-4.068804264068603516e+00,-1.370562839508056641e+01,-8.211400985717773438e+00,-1.261402606964111328e+01,-9.304927825927734375e+00,-1.146930694580078125e+01,-2.664669990539550781e+01,-1.880183410644531250e+01,-1.248355984687805176e+00,-2.575771093368530273e+00,1.072045136243104935e-02
-1.151473808288574219e+01,-3.403552055358886719e+00,-1.734601211547851562e+01,-1.847371292114257812e+01,-5.436638832092285156e+00,-7.504463195800781250e+00,1.781191706657409668e+00,-1.812266921997070312e+01,-1.297558397054672241e-01,-2.088512802124023438e+01,-3.276447772979736328e+00,-1.416582870483398438e+01,-7.819388866424560547e+00,-1.315199375152587891e+01,-9.518451690673828125e+00,-1.196039104461669922e+01,-2.683875465393066406e+01,-1.880183410644531250e+01,-2.393435716629028320e+00,-2.514368057250976562e+00,1.131490617990493774e-02
-1.086022472381591797e+01,-1.717839360237121582e+00,-1.727513504028320312e+01,-1.865745162963867188e+01,-5.041057586669921875e+00,-8.750324249267578125e+00,2.291530370712280273e+00,-1.742661285400390625e+01,1.516633629798889160e+00,-2.092302131652832031e+01,-2.321467876434326172e+00,-1.427230644226074219e+01,-7.454865455627441406e+00,-1.356693840026855469e+01,-9.564441680908203125e+00,-1.226241970062255859e+01,-2.649703025817871094e+01,-1.854535102844238281e+01,-2.931015491485595703e+00,-2.088231563568115234e+00,1.175879128277301788e-02
-9.392735481262207031e+00,-1.448543220758438110e-01,-1.694699668884277344e+01,-1.886762809753417969e+01,-4.360138416290283203e+00,-9.951871871948242188e+00,2.987292289733886719e+00,-1.687679672241210938e+01,3.320767879486083984e+00,-2.100883674621582031e+01,-1.429922580718994141e+00,-1.417034053802490234e+01,-7.152490139007568359e+00,-1.397979831695556641e+01,-9.506406784057617188e+00,-1.242380905151367188e+01,-2.574471092224121094e+01,-1.820030975341796875e+01,-3.088048458099365234e+00,-1.493850827217102051e+00,1.181745436042547226e-02
-7.332738876342773438e+00,9.945626258850097656e-01,-1.636553573608398438e+01,-1.912142753601074219e+01,-3.572217941284179688e+00,-1.092045307159423828e+01,3.791926145553588867e+00,-1.657165718078613281e+01,5.010391235351562500e+00,-2.115260505676269531e+01,-8.405569195747375488e-01,-1.400160026550292969e+01,-6.932580947875976562e+00,-1.444374370574951172e+01,-9.398002624511718750e+00,-1.248836421966552734e+01,-2.468377876281738281e+01,-1.787251853942871094e+01,-3.065124034881591797e+00,-9.645571708679199219e-01,1.136574707925319672e-02
-4.954442024230957031e+00,1.568606734275817871e+00,-1.554125308990478516e+01,-1.936993789672851562e+01,-2.806994676589965820e+00,-1.144336032867431641e+01,4.644191741943359375e+00,-1.649853515625000000e+01,6.405557155609130859e+00,-2.121167182922363281e+01,-7.125342488288879395e-01,-1.384729766845703125e+01,-6.790357112884521484e+00,-1.491081714630126953e+01,-9.273172378540039062e+00,-1.246300315856933594e+01,-2.333940315246582031e+01,-1.754357910156250000e+01,-2.952793836593627930e+00,-6.612265110015869141e-01,1.046624314039945602e-02
-2.512760877609252930e+00,1.721222758293151855e+00,-1.442427158355712891e+01,-1.948229598999023438e+01,-2.113105773925781250e+00,-1.132940959930419922e+01,5.481147289276123047e+00,-1.655618858337402344e+01,7.436157226562500000e+00,-2.094085311889648438e+01,-1.062001585960388184e+00,-1.369840908050537109e+01,-6.692353725433349609e+00,-1.524027061462402344e+01,-9.133013725280761719e+00,-1.230391979217529297e+01,-2.163608551025390625e+01,-1.705131912231445312e+01,-2.702916622161865234e+00,-6.317530870437622070e-01,9.324263781309127808e-03
-1.647782921791076660e-01,1.809670686721801758e+00,-1.295027446746826172e+01,-1.930384445190429688e+01,-1.458126544952392578e+00,-1.046844863891601562e+01,6.175208091735839844e+00,-1.659134292602539062e+01,8.096348762512207031e+00,-2.010498809814453125e+01,-1.773623108863830566e+00,-1.347282123565673828e+01,-6.587180137634277344e+00,-1.525590896606445312e+01,-8.939199447631835938e+00,-1.190966892242431641e+01,-1.947051429748535156e+01,-1.620481491088867188e+01,-2.205454587936401367e+00,-7.717518806457519531e-01,8.164686150848865509e-03
2.021987199783325195e+00,2.196413278579711914e+00,-1.108251285552978516e+01,-1.876716613769531250e+01,-8.236829638481140137e-01,-8.884532928466796875e+00,6.518836021423339844e+00,-1.646619415283203125e+01,8.361594200134277344e+00,-1.862940788269042969e+01,-2.676702022552490234e+00,-1.307668781280517578e+01,-6.430613994598388672e+00,-1.484305000305175781e+01,-8.639170646667480469e+00,-1.119033432006835938e+01,-1.682414817810058594e+01,-1.490170478820800781e+01,-1.393926739692687988e+00,-8.515757322311401367e-01,7.143944501876831055e-03
4.002063751220703125e+00,3.046206951141357422e+00,-8.893175125122070312e+00,-1.795950698852539062e+01,-2.821902036666870117e-01,-6.737195014953613281e+00,6.284080028533935547e+00,-1.606683921813964844e+01,8.145424842834472656e+00,-1.665342330932617188e+01,-3.590161085128784180e+00,-1.245496559143066406e+01,-6.205924034118652344e+00,-1.399856472015380859e+01,-8.185842514038085938e+00,-1.009519290924072266e+01,-1.385460090637207031e+01,-1.321444797515869141e+01,-3.199130892753601074e-01,-6.391214728355407715e-01,6.307014729827642441e-03
5.695532321929931641e+00,4.220309257507324219e+00,-6.589645862579345703e+00,-1.710954666137695312e+01,4.228115547448396683e-03,-4.310044765472412109e+00,5.317839145660400391e+00,-1.530891132354736328e+01,7.332162857055664062e+00,-1.450023651123046875e+01,-4.389437675476074219e+00,-1.162209415435791016e+01,-5.932232856750488281e+00,-1.283817958831787109e+01,-7.560600757598876953e+00,-8.658828735351562500e+00,-1.088770294189453125e+01,-1.139032363891601562e+01,8.756004571914672852e-01,-2.754790708422660828e-02,5.618698429316282272e-03
6.957710742950439453e+00,5.314635276794433594e+00,-4.517125606536865234e+00,-1.649884414672851562e+01,-1.524913460016250610e-01,-1.961393594741821289e+00,3.621813297271728516e+00,-1.415022277832031250e+01,5.837675571441650391e+00,-1.255880069732666016e+01,-5.051465034484863281e+00,-1.066018486022949219e+01,-5.688420295715332031e+00,-1.156311035156250000e+01,-6.795198917388916016e+00,-6.996519565582275391e+00,-8.353918075561523438e+00,-9.765173912048339844e+00,2.002340555191040039e+00,9.119175076484680176e-01,5.035976413637399673e-03
7.620492458343505859e+00,5.867867946624755859e+00,-3.056255102157592773e+00,-1.632171440124511719e+01,-8.528651595115661621e-01,-2.296519279479980469e-02,1.354208350181579590e+00,-1.258655452728271484e+01,3.732073307037353516e+00,-1.113894557952880859e+01,-5.618916988372802734e+00,-9.666693687438964844e+00,-5.586831569671630859e+00,-1.037666034698486328e+01,-5.959717750549316406e+00,-5.301932811737060547e+00,-6.636031150817871094e+00,-8.629984855651855469e+00,2.905566453933715820e+00,1.982785224914550781e+00,4.570580553263425827e-03
7.594311714172363281e+00,5.616398334503173828e+00,-2.476106882095336914e+00,-1.656493759155273438e+01,-2.009346723556518555e+00,1.317855000495910645e+00,-1.224703311920166016e+00,-1.066853141784667969e+01,1.295790791511535645e+00,-1.034543132781982422e+01,-6.151767730712890625e+00,-8.681323051452636719e+00,-5.705152511596679688e+00,-9.392470359802246094e+00,-5.119856357574462891e+00,-3.736457347869873047e+00,-5.914174556732177734e+00,-8.095169067382812500e+00,3.545160531997680664e+00,2.925934791564941406e+00,4.277264233678579330e-03
6.928774356842041016e+00,4.591443538665771484e+00,-2.846246719360351562e+00,-1.701833724975585938e+01,-3.378750562667846680e+00,2.037010669708251953e+00,-3.861453294754028320e+00,-8.543799400329589844e+00,-1.035328507423400879e+00,-1.007572555541992188e+01,-6.692692756652832031e+00,-7.681515693664550781e+00,-6.057724475860595703e+00,-8.611581802368164062e+00,-4.317224979400634766e+00,-2.424593448638916016e+00,-6.127420425415039062e+00,-8.062965393066406250e+00,3.966971635818481445e+00,3.537508487701416016e+00,4.214690066874027252e-03
5.814033985137939453e+00,3.084360837936401367e+00,-4.023606300354003906e+00,-1.738449478149414062e+01,-4.645475864410400391e+00,2.234525203704833984e+00,-6.392733097076416016e+00,-6.486564636230468750e+00,-2.806745290756225586e+00,-1.011250400543212891e+01,-7.231310367584228516e+00,-6.620347976684570312e+00,-6.581203937530517578e+00,-7.950589656829833984e+00,-3.582483530044555664e+00,-1.423980236053466797e+00,-7.036032676696777344e+00,-8.298744201660156250e+00,4.258112907409667969e+00,3.738910198211669922e+00,4.404367879033088684e-03
4.535320281982421875e+00,1.488830208778381348e+00,-5.710236072540283203e+00,-1.740828895568847656e+01,-5.533913135528564453e+00,2.077526569366455078e+00,-8.741991996765136719e+00,-4.806184291839599609e+00,-3.702970266342163086e+00,-1.023063945770263672e+01,-7.681119918823242188e+00,-5.473456382751464844e+00,-7.156075954437255859e+00,-7.294810295104980469e+00,-2.934246540069580078e+00,-7.369232773780822754e-01,-8.322130203247070312e+00,-8.544874191284179688e+00,4.519452571868896484e+00,3.579262495040893555e+00,4.813055507838726044e-03
3.339282512664794922e+00,8.580390363931655884e-02,-7.593748569488525391e+00,-1.703948783874511719e+01,-5.961919307708740234e+00,1.696424603462219238e+00,-1.090412712097167969e+01,-3.767020463943481445e+00,-3.691285371780395508e+00,-1.030976772308349609e+01,-7.932551860809326172e+00,-4.307615756988525391e+00,-7.690311908721923828e+00,-6.578561782836914062e+00,-2.416313886642456055e+00,-3.380613029003143311e-01,-9.738029479980468750e+00,-8.650687217712402344e+00,4.801424026489257812e+00,3.199792146682739258e+00,5.362535361200571060e-03
2.409183740615844727e+00,-1.018927574157714844e+00,-9.468073844909667969e+00,-1.644861221313476562e+01,-6.066759586334228516e+00,1.144396662712097168e+00,-1.289444828033447266e+01,-3.467504978179931641e+00,-3.024082899093627930e+00,-1.036214828491210938e+01,-7.897951126098632812e+00,-3.275323390960693359e+00,-8.170765876770019531e+00,-5.826865673065185547e+00,-2.107525110244750977e+00,-1.858943253755569458e-01,-1.117247200012207031e+01,-8.641486167907714844e+00,5.107466220855712891e+00,2.761374950408935547e+00,5.980455316603183746e-03
1.873171329498291016e+00,-1.827098488807678223e+00,-1.125314426422119141e+01,-1.591590118408203125e+01,-6.101345539093017578e+00,4.315716028213500977e-01,-1.468573760986328125e+01,-3.778269767761230469e+00,-2.127857923507690430e+00,-1.047916984558105469e+01,-7.549637317657470703e+00,-2.556147575378417969e+00,-8.664366722106933594e+00,-5.145021915435791016e+00,-2.100955247879028320e+00,-2.596722543239593506e-01,-1.261353683471679688e+01,-8.684041976928710938e+00,5.418093681335449219e+00,2.353659152984619141e+00,6.637484766542911530e-03
1.819432258605957031e+00,-2.369925737380981445e+00,-1.295421218872070312e+01,-1.571497726440429688e+01,-6.308864116668701172e+00,-4.496473670005798340e-01,-1.623716735839843750e+01,-4.401205539703369141e+00,-1.425601005554199219e+00,-1.075333309173583984e+01,-6.951044559478759766e+00,-2.286343812942504883e+00,-9.285849571228027344e+00,-4.688374042510986328e+00,-2.467778682708740234e+00,-5.478672981262207031e-01,-1.410360813140869141e+01,-8.978477478027343750e+00,5.704649925231933594e+00,1.970504641532897949e+00,7.327756378799676895e-03
2.344421386718750000e+00,-2.569367170333862305e+00,-1.456602668762207031e+01,-1.597009754180908203e+01,-6.785507202148437500e+00,-1.482800602912902832e+00,-1.751131248474121094e+01,-4.991799354553222656e+00,-1.169703722000122070e+00,-1.120358562469482422e+01,-6.220969200134277344e+00,-2.490275859832763672e+00,-1.011409473419189453e+01,-4.585159301757812500e+00,-3.203615188598632812e+00,-1.048173904418945312e+00,-1.563473987579345703e+01,-9.658210754394531250e+00,5.955673217773437500e+00,1.539455890655517578e+00,8.063003420829772949e-03
3.519790410995483398e+00,-2.262400865554809570e+00,-1.597964572906494141e+01,-1.661120223999023438e+01,-7.448052406311035156e+00,-2.603316068649291992e+00,-1.848265647888183594e+01,-5.315219879150390625e+00,-1.358997702598571777e+00,-1.173853874206542969e+01,-5.450526714324951172e+00,-3.070489168167114258e+00,-1.110727214813232422e+01,-4.857271194458007812e+00,-4.185825824737548828e+00,-1.700647473335266113e+00,-1.709434700012207031e+01,-1.068528747558593750e+01,6.200965881347656250e+00,9.696362614631652832e-01,8.817804045975208282e-03
5.260108470916748047e+00,-1.291208386421203613e+00,-1.699818611145019531e+01,-1.743604660034179688e+01,-8.107355117797851562e+00,-3.711170434951782227e+00,-1.914099311828613281e+01,-5.353186607360839844e+00,-1.762123584747314453e+00,-1.218656253814697266e+01,-4.639716148376464844e+00,-3.843806028366088867e+00,-1.208371734619140625e+01,-5.391069412231445312e+00,-5.185556411743164062e+00,-2.385398864746093750e+00,-1.830362319946289062e+01,-1.183772850036621094e+01,6.505861759185791016e+00,1.824502497911453247e-01,9.556962177157402039e-03
7.225028038024902344e+00,2.921823263168334961e-01,-1.743132781982421875e+01,-1.823048973083496094e+01,-8.608857154846191406e+00,-4.749388217926025391e+00,-1.948632240295410156e+01,-5.294127464294433594e+00,-2.048401355743408203e+00,-1.239497184753417969e+01,-3.698576688766479492e+00,-4.619830131530761719e+00,-1.278766632080078125e+01,-5.981166839599609375e+00,-5.944387912750244141e+00,-2.924900054931640625e+00,-1.911819648742675781e+01,-1.280384731292724609e+01,6.952889919281005859e+00,-8.712247014045715332e-01,1.025701034814119339e-02
8.799995422363281250e+00,2.142650842666625977e+00,-1.719113159179687500e+01,-1.888613510131835938e+01,-8.920134544372558594e+00,-5.753420352935791016e+00,-1.951524162292480469e+01,-5.422089576721191406e+00,-1.937395691871643066e+00,-1.230358409881591797e+01,-2.494471549987792969e+00,-5.265915393829345703e+00,-1.299801445007324219e+01,-6.402366638183593750e+00,-6.268506526947021484e+00,-3.146233797073364258e+00,-1.953806495666503906e+01,-1.331450939178466797e+01,7.615408420562744141e+00,-2.198756933212280273e+00,1.094337180256843567e-02
9.275379180908203125e+00,3.651467800140380859e+00,-1.636422348022460938e+01,-1.944131851196289062e+01,-9.129814147949218750e+00,-6.843549251556396484e+00,-1.924476242065429688e+01,-5.943780422210693359e+00,-1.298236608505249023e+00,-1.199709987640380859e+01,-9.455124735832214355e-01,-5.736041545867919922e+00,-1.263468551635742188e+01,-6.504539012908935547e+00,-6.116302013397216797e+00,-2.943344593048095703e+00,-1.972614479064941406e+01,-1.325700283050537109e+01,8.512903213500976562e+00,-3.771900892257690430e+00,1.165710855275392532e-02
8.119300842285156250e+00,4.145735740661621094e+00,-1.520917797088623047e+01,-2.003615760803222656e+01,-9.361110687255859375e+00,-8.176773071289062500e+00,-1.875823974609375000e+01,-6.876075267791748047e+00,-2.033701390027999878e-01,-1.169841766357421875e+01,8.733322620391845703e-01,-6.078033447265625000e+00,-1.183870983123779297e+01,-6.282470703125000000e+00,-5.629029273986816406e+00,-2.350815534591674805e+00,-1.998707389831542969e+01,-1.275554084777832031e+01,9.553676605224609375e+00,-5.486271858215332031e+00,1.238648872822523117e-02
5.250463008880615234e+00,3.124249219894409180e+00,-1.405150604248046875e+01,-2.082002449035644531e+01,-9.674549102783203125e+00,-9.867041587829589844e+00,-1.822238349914550781e+01,-8.064293861389160156e+00,1.102991461753845215e+00,-1.169618892669677734e+01,2.699097156524658203e+00,-6.411904335021972656e+00,-1.093994998931884766e+01,-5.894632816314697266e+00,-5.106716632843017578e+00,-1.560008287429809570e+00,-2.066389656066894531e+01,-1.213906574249267578e+01,1.053255271911621094e+01,-7.171169281005859375e+00,1.305133942514657974e-02
1.133226156234741211e+00,4.638752937316894531e-01,-1.317340850830078125e+01,-2.184843635559082031e+01,-9.990149497985839844e+00,-1.191815471649169922e+01,-1.786174583435058594e+01,-9.286260604858398438e+00,2.287831068038940430e+00,-1.224785900115966797e+01,4.139640331268310547e+00,-6.888347148895263672e+00,-1.033878517150878906e+01,-5.607924938201904297e+00,-4.899762630462646484e+00,-8.867846727371215820e-01,-2.200297546386718750e+01,-1.180552482604980469e+01,1.116985511779785156e+01,-8.630104064941406250e+00,1.351086888462305069e-02
-3.401521682739257812e+00,-3.524951219558715820e+00,-1.272976589202880859e+01,-2.303282928466796875e+01,-1.012201023101806641e+01,-1.419970130920410156e+01,-1.788045692443847656e+01,-1.039854526519775391e+01,3.025142431259155273e+00,-1.346933650970458984e+01,4.821274757385253906e+00,-7.644519329071044922e+00,-1.035193157196044922e+01,-5.696543693542480469e+00,-5.288486003875732422e+00,-6.654508709907531738e-01,-2.406126022338867188e+01,-1.207580757141113281e+01,1.120653343200683594e+01,-9.694830894470214844e+00,1.363601721823215485e-02
-7.473287105560302734e+00,-8.223094940185546875e+00,-1.272057819366455078e+01,-2.417492103576660156e+01,-9.895037651062011719e+00,-1.652049827575683594e+01,-1.838569259643554688e+01,-1.142927265167236328e+01,3.077723979949951172e+00,-1.528260517120361328e+01,4.538702011108398438e+00,-8.760730743408203125e+00,-1.110249137878417969e+01,-6.328343868255615234e+00,-6.371436119079589844e+00,-1.112729549407958984e+00,-2.669703102111816406e+01,-1.306032848358154297e+01,1.050848197937011719e+01,-1.024745750427246094e+01,1.343265082687139511e-02
-1.045649242401123047e+01,-1.289869308471679688e+01,-1.301590251922607422e+01,-2.502355957031250000e+01,-9.234654426574707031e+00,-1.865137672424316406e+01,-1.932811737060546875e+01,-1.253593254089355469e+01,2.364950656890869141e+00,-1.740793037414550781e+01,3.371504545211791992e+00,-1.023066425323486328e+01,-1.246855831146240234e+01,-7.474133491516113281e+00,-8.007358551025390625e+00,-2.224009752273559570e+00,-2.960035324096679688e+01,-1.460381793975830078e+01,9.161666870117187500e+00,-1.027447509765625000e+01,1.307089440524578094e-02
-1.217889785766601562e+01,-1.691353416442871094e+01,-1.345298194885253906e+01,-2.537385368347167969e+01,-8.238134384155273438e+00,-2.039862060546875000e+01,-2.052741432189941406e+01,-1.388445568084716797e+01,9.662791490554809570e-01,-1.945635604858398438e+01,1.643774986267089844e+00,-1.195145320892333984e+01,-1.415851402282714844e+01,-8.928524971008300781e+00,-9.883085250854492188e+00,-3.766429662704467773e+00,-3.240830993652343750e+01,-1.636813545227050781e+01,7.442328453063964844e+00,-9.844654083251953125e+00,1.287143863737583160e-02
-1.288852882385253906e+01,-1.985312461853027344e+01,-1.390581321716308594e+01,-2.513988494873046875e+01,-7.161633968353271484e+00,-2.161662673950195312e+01,-2.175052642822265625e+01,-1.553108692169189453e+01,-9.126380085945129395e-01,-2.106010246276855469e+01,-1.958301067352294922e-01,-1.375525760650634766e+01,-1.583771228790283203e+01,-1.039125633239746094e+01,-1.162412738800048828e+01,-5.368793964385986328e+00,-3.481494140625000000e+01,-1.797488212585449219e+01,5.708088397979736328e+00,-9.074661254882812500e+00,1.315106730908155441e-02
-1.303734397888183594e+01,-2.154924392700195312e+01,-1.430745410919189453e+01,-2.436262702941894531e+01,-6.307783126831054688e+00,-2.220917129516601562e+01,-2.281203079223632812e+01,-1.736474037170410156e+01,-2.980849027633666992e+00,-2.198066902160644531e+01,-1.744789123535156250e+00,-1.544807243347167969e+01,-1.723724365234375000e+01,-1.159543037414550781e+01,-1.292060089111328125e+01,-6.657602310180664062e+00,-3.663084411621093750e+01,-1.915837669372558594e+01,4.275306224822998047e+00,-8.136424064636230469e+00,1.405643764883279800e-02
-1.306903648376464844e+01,-2.204351234436035156e+01,-1.465265560150146484e+01,-2.317559051513671875e+01,-5.915443897247314453e+00,-2.218004989624023438e+01,-2.363537597656250000e+01,-1.914214706420898438e+01,-4.924032688140869141e+00,-2.216790199279785156e+01,-2.782810926437377930e+00,-1.686927986145019531e+01,-1.823042106628417969e+01,-1.239508533477783203e+01,-1.362030315399169922e+01,-7.397687435150146484e+00,-3.778978729248046875e+01,-1.983235931396484375e+01,3.299868106842041016e+00,-7.236256122589111328e+00,1.543502509593963623e-02
-1.326194572448730469e+01,-2.147813796997070312e+01,-1.493485450744628906e+01,-2.174136543273925781e+01,-6.071082592010498047e+00,-2.162042617797851562e+01,-2.427500152587890625e+01,-2.058628845214843750e+01,-6.461753368377685547e+00,-2.173325157165527344e+01,-3.302975177764892578e+00,-1.790157127380371094e+01,-1.881007385253906250e+01,-1.278292274475097656e+01,-1.372542285919189453e+01,-7.517576217651367188e+00,-3.830501937866210938e+01,-2.008078956604003906e+01,2.753118276596069336e+00,-6.584156990051269531e+00,1.683903485536575317e-02
-1.370977115631103516e+01,-2.006297302246093750e+01,-1.510154819488525391e+01,-2.017892074584960938e+01,-6.666616439819335938e+00,-2.071135330200195312e+01,-2.481766128540039062e+01,-2.148764801025390625e+01,-7.370831489562988281e+00,-2.083386230468750000e+01,-3.419464111328125000e+00,-1.847366333007812500e+01,-1.900488471984863281e+01,-1.281628513336181641e+01,-1.332246398925781250e+01,-7.079519748687744141e+00,-3.818316650390625000e+01,-2.003593444824218750e+01,2.500948667526245117e+00,-6.383983135223388672e+00,1.767987571656703949e-02
-1.439184379577636719e+01,-1.809110450744628906e+01,-1.505298423767089844e+01,-1.853980636596679688e+01,-7.471830368041992188e+00,-1.970098876953125000e+01,-2.531269073486328125e+01,-2.174919700622558594e+01,-7.504038333892822266e+00,-1.959120941162109375e+01,-3.261454105377197266e+00,-1.855848503112792969e+01,-1.880409812927246094e+01,-1.254938602447509766e+01,-1.251654815673828125e+01,-6.198795795440673828e+00,-3.741097640991210938e+01,-1.978060340881347656e+01,2.402373313903808594e+00,-6.778190135955810547e+00,1.743740029633045197e-02
-1.527095890045166016e+01,-1.593887329101562500e+01,-1.469728183746337891e+01,-1.685046005249023438e+01,-8.240296363830566406e+00,-1.883876228332519531e+01,-2.572606468200683594e+01,-2.141874504089355469e+01,-6.823982238769531250e+00,-1.805656242370605469e+01,-2.900453329086303711e+00,-1.818220329284667969e+01,-1.816468811035156250e+01,-1.199056625366210938e+01,-1.140841293334960938e+01,-5.006821155548095703e+00,-3.596063995361328125e+01,-1.930674552917480469e+01,2.361109256744384766e+00,-7.796251296997070312e+00,1.587695628404617310e-02
-1.633333778381347656e+01,-1.403464221954345703e+01,-1.400687980651855469e+01,-1.517565536499023438e+01,-8.780708312988281250e+00,-1.829053306579589844e+01,-2.594210815429687500e+01,-2.062285041809082031e+01,-5.426479339599609375e+00,-1.624886512756347656e+01,-2.357221841812133789e+00,-1.743325042724609375e+01,-1.705199432373046875e+01,-1.113044166564941406e+01,-1.011412906646728516e+01,-3.648845911026000977e+00,-3.385997009277343750e+01,-1.855570220947265625e+01,2.333599805831909180e+00,-9.276062965393066406e+00,1.312760170549154282e-02
-1.756795883178710938e+01,-1.276688861846923828e+01,-1.305921649932861328e+01,-1.366344070434570312e+01,-9.002277374267578125e+00,-1.813100242614746094e+01,-2.584004020690917969e+01,-1.954009437561035156e+01,-3.547562122344970703e+00,-1.425282001495361328e+01,-1.682507872581481934e+00,-1.646863555908203125e+01,-1.553533744812011719e+01,-1.000446128845214844e+01,-8.804514884948730469e+00,-2.302398681640625000e+00,-3.124274253845214844e+01,-1.752747726440429688e+01,2.276288509368896484e+00,-1.084797859191894531e+01,9.617581032216548920e-03
-1.891419029235839844e+01,-1.237667751312255859e+01,-1.204986381530761719e+01,-1.256232643127441406e+01,-8.932023048400878906e+00,-1.834370994567871094e+01,-2.539434432983398438e+01,-1.836874961853027344e+01,-1.552965521812438965e+00,-1.229020977020263672e+01,-1.036627650260925293e+00,-1.550582313537597656e+01,-1.384777259826660156e+01,-8.774223327636718750e+00,-7.751129627227783203e+00,-1.228007674217224121e+00,-2.839769935607910156e+01,-1.633592987060546875e+01,2.049335718154907227e+00,-1.202937221527099609e+01,5.925702862441539764e-03
-2.022321891784667969e+01,-1.283625984191894531e+01,-1.123345661163330078e+01,-1.212346649169921875e+01,-8.668302536010742188e+00,-1.881850433349609375e+01,-2.470198440551757812e+01,-1.729724311828613281e+01,1.343208253383636475e-01,-1.070763969421386719e+01,-7.021540403366088867e-01,-1.476408863067626953e+01,-1.235501861572265625e+01,-7.721223354339599609e+00,-7.274806976318359375e+00,-7.461454868316650391e-01,-2.570762443542480469e+01,-1.522604465484619141e+01,1.432666182518005371e+00,-1.241498279571533203e+01,2.601448912173509598e-03
-2.129662132263183594e+01,-1.386468315124511719e+01,-1.083575344085693359e+01,-1.249094486236572266e+01,-8.318115234375000000e+00,-1.938952445983886719e+01,-2.395518875122070312e+01,-1.647603797912597656e+01,1.138045787811279297e+00,-9.866202354431152344e+00,-9.951068162918090820e-01,-1.439773368835449219e+01,-1.144072151184082031e+01,-7.184297561645507812e+00,-7.655865192413330078e+00,-1.138090729713439941e+00,-2.355529785156250000e+01,-1.447845268249511719e+01,1.821338385343551636e-01,-1.184884738922119141e+01,3.395132443984039128e-05
-2.193322181701660156e+01,-1.502491092681884766e+01,-1.096963310241699219e+01,-1.361717510223388672e+01,-7.959281921386718750e+00,-1.989723777770996094e+01,-2.334788703918457031e+01,-1.601059341430664062e+01,1.229187369346618652e+00,-1.000105476379394531e+01,-2.109250068664550781e+00,-1.444285106658935547e+01,-1.136423110961914062e+01,-7.432430267333984375e+00,-9.005993843078613281e+00,-2.544482707977294922e+00,-2.220959854125976562e+01,-1.430018043518066406e+01,-1.867317914962768555e+00,-1.048815727233886719e+01,-1.591022359207272530e-03
-2.199522781372070312e+01,-1.586776733398437500e+01,-1.159703350067138672e+01,-1.524174880981445312e+01,-7.662055492401123047e+00,-2.020110702514648438e+01,-2.297874069213867188e+01,-1.592481613159179688e+01,4.007344543933868408e-01,-1.109213733673095703e+01,-3.991529464721679688e+00,-1.479567146301269531e+01,-1.213391399383544922e+01,-8.524005889892578125e+00,-1.116422939300537109e+01,-4.831598281860351562e+00,-2.172880172729492188e+01,-1.471998214721679688e+01,-4.664108753204345703e+00,-8.738172531127929688e+00,-2.267605857923626900e-03
-2.147988510131835938e+01,-1.613137626647949219e+01,-1.253157043457031250e+01,-1.697339439392089844e+01,-7.498850822448730469e+00,-2.021376800537109375e+01,-2.278311157226562500e+01,-1.616386604309082031e+01,-1.135817766189575195e+00,-1.283742237091064453e+01,-6.262490272521972656e+00,-1.523692226409912109e+01,-1.346054077148437500e+01,-1.025050926208496094e+01,-1.370023727416992188e+01,-7.575215339660644531e+00,-2.193807411193847656e+01,-1.556648635864257812e+01,-7.904489517211914062e+00,-7.088889122009277344e+00,-2.146368380635976791e-03
-2.052222824096679688e+01,-1.581400489807128906e+01,-1.351204681396484375e+01,-1.842876815795898438e+01,-7.546407222747802734e+00,-1.990483474731445312e+01,-2.257047080993652344e+01,-1.659134292602539062e+01,-3.024082899093627930e+00,-1.475991153717041016e+01,-8.373134613037109375e+00,-1.550853061676025391e+01,-1.485648632049560547e+01,-1.218657016754150391e+01,-1.604571723937988281e+01,-1.017819309234619141e+01,-2.250363922119140625e+01,-1.654525566101074219e+01,-1.109902095794677734e+01,-5.903811931610107422e+00,-1.454141340218484402e-03
-1.935374832153320312e+01,-1.509601688385009766e+01,-1.428382778167724609e+01,-1.936332893371582031e+01,-7.850118637084960938e+00,-1.930342864990234375e+01,-2.209585571289062500e+01,-1.703147697448730469e+01,-4.891314983367919922e+00,-1.638706207275390625e+01,-9.787150382995605469e+00,-1.540024757385253906e+01,-1.580305290222167969e+01,-1.385260391235351562e+01,-1.768383026123046875e+01,-1.205261325836181641e+01,-2.306125640869140625e+01,-1.736415672302246094e+01,-1.369751453399658203e+01,-5.294694423675537109e+00,-4.646868037525564432e-04
-1.821282768249511719e+01,-1.420113182067871094e+01,-1.465659332275390625e+01,-1.974138259887695312e+01,-8.375398635864257812e+00,-1.848171615600585938e+01,-2.117384338378906250e+01,-1.730708694458007812e+01,-6.474606513977050781e+00,-1.741461753845214844e+01,-1.018621253967285156e+01,-1.480649948120117188e+01,-1.592495918273925781e+01,-1.486807155609130859e+01,-1.832440185546875000e+01,-1.282728195190429688e+01,-2.331556129455566406e+01,-1.785526657104492188e+01,-1.524262714385986328e+01,-5.119081974029541016e+00,5.228122463449835777e-04
-1.725792503356933594e+01,-1.325595378875732422e+01,-1.454765129089355469e+01,-1.972023200988769531e+01,-8.980660438537597656e+00,-1.752706336975097656e+01,-1.976530838012695312e+01,-1.729302597045898438e+01,-7.698006153106689453e+00,-1.779242897033691406e+01,-9.600306510925292969e+00,-1.376247596740722656e+01,-1.513495826721191406e+01,-1.509014034271240234e+01,-1.799371337890625000e+01,-1.246530914306640625e+01,-2.312085914611816406e+01,-1.801628684997558594e+01,-1.551199054718017578e+01,-5.081012248992919922e+00,1.211128430441021919e-03
-1.649593353271484375e+01,-1.224487304687500000e+01,-1.397931575775146484e+01,-1.956028556823730469e+01,-9.446495056152343750e+00,-1.652936172485351562e+01,-1.800804138183593750e+01,-1.697382354736328125e+01,-8.660834312438964844e+00,-1.770215606689453125e+01,-8.361600875854492188e+00,-1.244413757324218750e+01,-1.365176582336425781e+01,-1.464808845520019531e+01,-1.700821685791015625e+01,-1.126180648803710938e+01,-2.247979736328125000e+01,-1.801283645629882812e+01,-1.455718421936035156e+01,-4.909083843231201172e+00,1.342143164947628975e-03
-1.580421543121337891e+01,-1.109851837158203125e+01,-1.304215335845947266e+01,-1.949948120117187500e+01,-9.552415847778320312e+00,-1.556837654113769531e+01,-1.614020156860351562e+01,-1.644650840759277344e+01,-9.547711372375488281e+00,-1.743467903137207031e+01,-6.941817760467529297e+00,-1.110684967041015625e+01,-1.187217426300048828e+01,-1.386302947998046875e+01,-1.582233810424804688e+01,-9.696331024169921875e+00,-2.148509216308593750e+01,-1.803468894958496094e+01,-1.265903377532958984e+01,-4.516104698181152344e+00,7.535545737482607365e-04
-1.495954799652099609e+01,-9.851576805114746094e+00,-1.184773063659667969e+01,-1.965546035766601562e+01,-9.161157608032226562e+00,-1.470994758605957031e+01,-1.439994716644287109e+01,-1.590231704711914062e+01,-1.050002288818359375e+01,-1.723407173156738281e+01,-5.751553058624267578e+00,-1.003214645385742188e+01,-1.021209812164306641e+01,-1.310924816131591797e+01,-1.485107707977294922e+01,-8.262272834777832031e+00,-2.024402809143066406e+01,-1.821411132812500000e+01,-1.022788906097412109e+01,-4.034705638885498047e+00,-5.917906528338789940e-04
-1.376902198791503906e+01,-8.724299430847167969e+00,-1.050498962402343750e+01,-2.001765251159667969e+01,-8.279205322265625000e+00,-1.402624320983886719e+01,-1.293187332153320312e+01,-1.556342887878417969e+01,-1.154113960266113281e+01,-1.718057632446289062e+01,-4.998410701751708984e+00,-9.438398361206054688e+00,-8.947619438171386719e+00,-1.266302680969238281e+01,-1.432000446319580078e+01,-7.273187160491943359e+00,-1.883475112915039062e+01,-1.854650115966796875e+01,-7.675244331359863281e+00,-3.710497856140136719e+00,-2.541367895901203156e-03
-1.215409469604492188e+01,-8.072213172912597656e+00,-9.100558280944824219e+00,-2.045386886596679688e+01,-7.042743206024169922e+00,-1.357044029235839844e+01,-1.175128936767578125e+01,-1.558311557769775391e+01,-1.254252719879150391e+01,-1.718726348876953125e+01,-4.663936614990234375e+00,-9.410425186157226562e+00,-8.138496398925781250e+00,-1.259838676452636719e+01,-1.420941066741943359e+01,-6.802852630615234375e+00,-1.727977943420410156e+01,-1.885243988037109375e+01,-5.296825408935546875e+00,-3.736287117004394531e+00,-4.776440095156431198e-03
-1.020846652984619141e+01,-8.205752372741699219e+00,-7.718441009521484375e+00,-2.080548477172851562e+01,-5.674420356750488281e+00,-1.337545776367187500e+01,-1.079525470733642578e+01,-1.596840763092041016e+01,-1.329853439331054688e+01,-1.706912803649902344e+01,-4.606268882751464844e+00,-9.893184661865234375e+00,-7.696287631988525391e+00,-1.279647636413574219e+01,-1.432657527923583984e+01,-6.733685970306396484e+00,-1.558308410644531250e+01,-1.888809394836425781e+01,-3.249666213989257812e+00,-4.140318870544433594e+00,-6.896140985190868378e-03
-8.178784370422363281e+00,-9.170007705688476562e+00,-6.464953422546386719e+00,-2.094692420959472656e+01,-4.392563343048095703e+00,-1.340711116790771484e+01,-1.000763225555419922e+01,-1.657728195190429688e+01,-1.363271999359130859e+01,-1.666122436523437500e+01,-4.692770957946777344e+00,-1.071973991394042969e+01,-7.485939502716064453e+00,-1.303626823425292969e+01,-1.444702434539794922e+01,-6.869713783264160156e+00,-1.377248096466064453e+01,-1.843723869323730469e+01,-1.573884129524230957e+00,-4.772769451141357422e+00,-8.521114476025104523e-03
-6.340633869171142578e+00,-1.063026523590087891e+01,-5.463476181030273438e+00,-2.080151939392089844e+01,-3.333355903625488281e+00,-1.351726341247558594e+01,-9.386720657348632812e+00,-1.715662574768066406e+01,-1.346796417236328125e+01,-1.591340446472167969e+01,-4.880767822265625000e+00,-1.167352771759033203e+01,-7.435742855072021484e+00,-1.311758899688720703e+01,-1.442293453216552734e+01,-7.072603225708007812e+00,-1.191154766082763672e+01,-1.739636039733886719e+01,-2.557244300842285156e-01,-5.408904075622558594e+00,-9.416707791388034821e-03
-4.866254806518554688e+00,-1.195698356628417969e+01,-4.855764389038085938e+00,-2.035076332092285156e+01,-2.581102609634399414e+00,-1.345269107818603516e+01,-9.017575263977050781e+00,-1.741817474365234375e+01,-1.286970233917236328e+01,-1.490925216674804688e+01,-5.237155437469482422e+00,-1.255512714385986328e+01,-7.579162120819091797e+00,-1.295181941986083984e+01,-1.423897552490234375e+01,-7.319298267364501953e+00,-1.008902454376220703e+01,-1.581836700439453125e+01,7.093977332115173340e-01,-5.879250526428222656e+00,-9.549678303301334381e-03
-3.784584760665893555e+00,-1.246339130401611328e+01,-4.775698661804199219e+00,-1.961051750183105469e+01,-2.195248365402221680e+00,-1.294877624511718750e+01,-9.027782440185546875e+00,-1.712850189208984375e+01,-1.200502586364746094e+01,-1.382374286651611328e+01,-5.873808860778808594e+00,-1.323279476165771484e+01,-8.008224487304687500e+00,-1.258796119689941406e+01,-1.396851158142089844e+01,-7.658215522766113281e+00,-8.384382247924804688e+00,-1.388037967681884766e+01,1.277925729751586914e+00,-6.145739555358886719e+00,-9.086238220334053040e-03
-2.924760103225708008e+00,-1.168643665313720703e+01,-5.274468421936035156e+00,-1.859532356262207031e+01,-2.175793647766113281e+00,-1.182699394226074219e+01,-9.492190361022949219e+00,-1.616808509826660156e+01,-1.106089401245117188e+01,-1.282404899597167969e+01,-6.842628955841064453e+00,-1.363704967498779297e+01,-8.767149925231933594e+00,-1.214173889160156250e+01,-1.368052768707275391e+01,-8.128549575805664062e+00,-6.834707736968994141e+00,-1.180207443237304688e+01,1.387963414192199707e+00,-6.296791076660156250e+00,-8.315793238580226898e-03
-2.034621238708496094e+00,-9.586233139038085938e+00,-6.303509712219238281e+00,-1.733690643310546875e+01,-2.452484369277954102e+00,-1.009874153137207031e+01,-1.035806465148925781e+01,-1.456363773345947266e+01,-1.016934299468994141e+01,-1.199487113952636719e+01,-8.076721191406250000e+00,-1.376157379150390625e+01,-9.780645370483398438e+00,-1.172053909301757812e+01,-1.337502384185791016e+01,-8.688800811767578125e+00,-5.426755428314208984e+00,-9.770924568176269531e+00,1.021171092987060547e+00,-6.441701889038085938e+00,-7.508195005357265472e-03
-9.460611939430236816e-01,-6.521773815155029297e+00,-7.719753742218017578e+00,-1.588549804687500000e+01,-2.866440057754516602e+00,-7.950137138366699219e+00,-1.143658065795898438e+01,-1.247265434265136719e+01,-9.379449844360351562e+00,-1.130723285675048828e+01,-9.397315979003906250e+00,-1.363975620269775391e+01,-1.085150814056396484e+01,-1.134834003448486328e+01,-1.297206592559814453e+01,-9.196023941040039062e+00,-4.112843513488769531e+00,-7.897345066070556641e+00,2.692469954490661621e-01,-6.627139091491699219e+00,-6.829655729234218597e-03
3.409198224544525146e-01,-3.054963350296020508e+00,-9.319754600524902344e+00,-1.432701778411865234e+01,-3.180959701538085938e+00,-5.674921035766601562e+00,-1.247426986694335938e+01,-1.015246486663818359e+01,-8.684204101562500000e+00,-1.064411354064941406e+01,-1.059219455718994141e+01,-1.332573699951171875e+01,-1.173234081268310547e+01,-1.096780014038085938e+01,-1.235558414459228516e+01,-9.472691535949707031e+00,-2.861183166503906250e+00,-6.226190090179443359e+00,-6.420025229454040527e-01,-6.774506092071533203e+00,-6.289953365921974182e-03
1.603098273277282715e+00,3.060564994812011719e-01,-1.091713142395019531e+01,-1.278968715667724609e+01,-3.163666486740112305e+00,-3.576961755752563477e+00,-1.326699542999267578e+01,-7.903989791870117188e+00,-8.087110519409179688e+00,-9.881804466247558594e+00,-1.150449943542480469e+01,-1.289531421661376953e+01,-1.225103950500488281e+01,-1.047674751281738281e+01,-1.145878314971923828e+01,-9.398913383483886719e+00,-1.698265075683593750e+00,-4.789663791656494141e+00,-1.421436071395874023e+00,-6.697138309478759766e+00,-5.756117403507232666e-03
2.516661882400512695e+00,3.264725208282470703e+00,-1.239769077301025391e+01,-1.142552089691162109e+01,-2.706478118896484375e+00,-1.874031424522399902e+00,-1.375181770324707031e+01,-6.007058620452880859e+00,-7.624391555786132812e+00,-8.953437805175781250e+00,-1.210193920135498047e+01,-1.243511390686035156e+01,-1.237892150878906250e+01,-9.807415008544921875e+00,-1.031122779846191406e+01,-8.963162422180175781e+00,-7.432947158813476562e-01,-3.640672683715820312e+00,-1.796251893043518066e+00,-6.228019714355468750e+00,-5.036514252424240112e-03
2.790868759155273438e+00,5.756874561309814453e+00,-1.373255634307861328e+01,-1.037199306488037109e+01,-1.893698573112487793e+00,-6.623553633689880371e-01,-1.402059555053710938e+01,-4.650098800659179688e+00,-7.356809616088867188e+00,-7.879073143005371094e+00,-1.246640014648437500e+01,-1.202905559539794922e+01,-1.222355079650878906e+01,-8.961887359619140625e+00,-9.041033744812011719e+00,-8.269188880920410156e+00,-1.750807464122772217e-01,-2.849375486373901367e+00,-1.610563397407531738e+00,-5.324167728424072266e+00,-3.921911120414733887e-03
2.315485000610351562e+00,7.839735507965087891e+00,-1.492435359954833984e+01,-9.707095146179199219e+00,-9.490585327148437500e-01,6.692926585674285889e-02,-1.423834037780761719e+01,-3.876702308654785156e+00,-7.300722599029541016e+00,-6.751213073730468750e+00,-1.272936534881591797e+01,-1.172135257720947266e+01,-1.194388389587402344e+01,-8.014186859130859375e+00,-7.817924499511718750e+00,-7.476076126098632812e+00,-1.856768131256103516e-01,-2.473279476165771484e+00,-8.712477087974548340e-01,-4.094880580902099609e+00,-2.269561402499675751e-03
1.265506863594055176e+00,9.586148262023925781e+00,-1.594026947021484375e+01,-9.383237838745117188e+00,-9.088438004255294800e-02,4.075153172016143799e-01,-1.451902675628662109e+01,-3.554687976837158203e+00,-7.361483573913574219e+00,-5.662359714508056641e+00,-1.296349716186523438e+01,-1.149486160278320312e+01,-1.163672733306884766e+01,-7.050848007202148438e+00,-6.770014286041259766e+00,-6.712935924530029297e+00,-8.744210600852966309e-01,-2.495131969451904297e+00,2.761243581771850586e-01,-2.793137550354003906e+00,-5.013275222154334188e-05
6.120124831795692444e-02,1.103079700469970703e+01,-1.666479873657226562e+01,-9.241797447204589844e+00,5.932770967483520508e-01,5.075387358665466309e-01,-1.485925197601318359e+01,-3.415476560592651367e+00,-7.342787742614746094e+00,-4.652635097503662109e+00,-1.314457416534423828e+01,-1.126385974884033203e+01,-1.128176498413085938e+01,-6.117743968963623047e+00,-5.920298099517822266e+00,-6.002823352813720703e+00,-2.201578140258789062e+00,-2.813721179962158203e+00,1.617208600044250488e+00,-1.692796349525451660e+00,2.634691307321190834e-03
-7.972453832626342773e-01,1.215460491180419922e+01,-1.692599678039550781e+01,-9.054092407226562500e+00,1.194215178489685059e+00,5.151354670524597168e-01,-1.512292766571044922e+01,-3.137053728103637695e+00,-7.015613079071044922e+00,-3.688604593276977539e+00,-1.315956783294677734e+01,-1.088667583465576172e+01,-1.074035835266113281e+01,-5.183597087860107422e+00,-5.181176185607910156e+00,-5.276571750640869141e+00,-3.975094556808471680e+00,-3.258825778961181641e+00,2.943391799926757812e+00,-9.670132994651794434e-01,5.558079574257135391e-03
-8.978338837623596191e-01,1.294369888305664062e+01,-1.653223037719726562e+01,-8.576898574829101562e+00,1.928094506263732910e+00,5.784414410591125488e-01,-1.511101913452148438e+01,-2.422716379165649414e+00,-6.208192825317382812e+00,-2.674422025680541992e+00,-1.285854148864746094e+01,-1.019637489318847656e+01,-9.822476387023925781e+00,-4.147278308868408203e+00,-4.400444984436035156e+00,-4.423514366149902344e+00,-5.892982482910156250e+00,-3.632621765136718750e+00,4.106811046600341797e+00,-6.342092156410217285e-01,8.418893441557884216e-03
