Fp1,Fp2,F7,F3,Fz,F4,F8,T3,C3,Cz,C4,T4,T5,P3,Pz,P4,T6,O1,Oz,O2,A1
2.605193555355072021e-01,-4.899931550025939941e-01,1.021893620491027832e+00,-3.730049431324005127e-01,9.844608902931213379e-01,3.355042263865470886e-02,4.989143908023834229e-01,4.607981145381927490e-01,4.804407954216003418e-01,2.009564191102981567e-01,1.828156411647796631e-01,3.012027125805616379e-03,2.241845577955245972e-01,-3.659109352156519890e-03,-9.805885553359985352e-01,1.329851746559143066e-01,1.144501566886901855e-01,1.340492367744445801e-01,3.341723680496215820e-01,-1.412186175584793091e-01,-6.606330871582031250e-01
5.390993952751159668e-01,-1.945461779832839966e-01,8.686203956604003906e-01,-5.526261925697326660e-01,9.062300324440002441e-01,-6.778866052627563477e-02,2.549839317798614502e-01,4.237138926982879639e-01,4.916423559188842773e-01,4.184302389621734619e-01,-3.306489903479814529e-03,8.176832646131515503e-02,2.767127454280853271e-01,-2.522459924221038818e-01,-1.136560797691345215e+00,-2.786352112889289856e-02,2.647063434123992920e-01,1.663526743650436401e-01,7.768993973731994629e-01,7.198202610015869141e-02,-3.595888614654541016e-01
5.959042906761169434e-01,-1.429876834154129028e-01,8.946890830993652344e-01,-4.723162055015563965e-01,9.537488818168640137e-01,-1.666843891143798828e-01,1.785232126712799072e-01,5.185813903808593750e-01,6.141352057456970215e-01,1.111991852521896362e-01,2.480291128158569336e-01,-1.945624798536300659e-01,3.626365959644317627e-01,-4.314804673194885254e-01,-9.141178131103515625e-01,2.460956573486328125e-01,1.981207281351089478e-01,8.507743477821350098e-02,7.065828442573547363e-01,1.424027532339096069e-01,-3.036184608936309814e-01
4.464204311370849609e-01,-3.300034403800964355e-01,8.530626893043518066e-01,-7.404838800430297852e-01,9.575662016868591309e-01,-8.969197422266006470e-02,6.771086901426315308e-02,5.392271280288696289e-01,6.899304986000061035e-01,1.507280468940734863e-01,2.400927245616912842e-01,-2.916375696659088135e-01,2.214358448982238770e-01,-6.387068629264831543e-01,-1.195087313652038574e+00,5.103075876832008362e-02,2.041181027889251709e-01,2.901987433433532715e-01,6.214582324028015137e-01,2.303956747055053711e-01,-2.938483655452728271e-01
5.950366258621215820e-01,-1.963594555854797363e-01,1.172696948051452637e+00,-5.471897721290588379e-01,8.857306838035583496e-01,9.288626909255981445e-02,-2.201582863926887512e-02,6.270266175270080566e-01,7.572308778762817383e-01,5.860137194395065308e-02,3.297479748725891113e-01,-1.947764605283737183e-01,3.347575068473815918e-01,-7.745273709297180176e-01,-8.689673542976379395e-01,1.032834500074386597e-01,3.237337172031402588e-01,1.309229880571365356e-01,8.269964456558227539e-01,2.727875411510467529e-01,-3.351176381111145020e-01
6.245606541633605957e-01,-1.368038952350616455e-01,9.557972550392150879e-01,-8.673835992813110352e-01,6.944652795791625977e-01,3.453445807099342346e-02,-2.949977479875087738e-02,6.509444713592529297e-01,7.041717767715454102e-01,5.859406292438507080e-02,3.491126000881195068e-01,-3.529243171215057373e-01,3.480045497417449951e-01,-8.021021485328674316e-01,-7.514228224754333496e-01,8.219970017671585083e-02,5.145301818847656250e-01,6.054855138063430786e-02,6.323973536491394043e-01,3.065842688083648682e-01,-1.885667741298675537e-01
6.469947695732116699e-01,9.225159883499145508e-02,1.149896860122680664e+00,-7.395220994949340820e-01,5.592499971389770508e-01,-8.065160363912582397e-02,1.185764521360397339e-01,7.493309378623962402e-01,9.240590333938598633e-01,7.821542769670486450e-02,5.069916844367980957e-01,-4.331783354282379150e-01,9.744022041559219360e-02,-8.759445548057556152e-01,-8.804560899734497070e-01,2.674891613423824310e-03,4.050168097019195557e-01,-8.687868714332580566e-02,6.410246491432189941e-01,3.881368935108184814e-01,-1.146305203437805176e-01
6.048756837844848633e-01,-2.472842782735824585e-01,8.791135549545288086e-01,-7.791000604629516602e-01,4.836896061897277832e-01,7.779552135616540909e-03,3.219097480177879333e-02,6.031116843223571777e-01,7.935772538185119629e-01,5.372833460569381714e-02,4.439070522785186768e-01,-5.796763896942138672e-01,1.379207372665405273e-01,-1.088399887084960938e+00,-7.997274994850158691e-01,1.207828149199485779e-01,4.028284251689910889e-01,-1.573185622692108154e-01,7.267971038818359375e-01,2.341398447751998901e-01,1.673647761344909668e-02
7.370704412460327148e-01,-1.931448131799697876e-01,8.682875037193298340e-01,-6.645086407661437988e-01,3.833755254745483398e-01,8.497099578380584717e-02,-1.247394084930419922e-01,4.488028585910797119e-01,7.597986459732055664e-01,-2.075830847024917603e-01,4.025187790393829346e-01,-5.938820242881774902e-01,-3.710502013564109802e-02,-1.000924468040466309e+00,-8.987070918083190918e-01,-7.342211157083511353e-02,6.834036111831665039e-01,-2.380739450454711914e-01,6.307198405265808105e-01,5.538958907127380371e-01,1.029629707336425781e-01
7.140305042266845703e-01,-2.844705991446971893e-02,8.603532314300537109e-01,-7.595145106315612793e-01,2.754150032997131348e-01,-1.985105723142623901e-01,-7.507955655455589294e-03,2.006593793630599976e-01,6.334199309349060059e-01,-4.225455224514007568e-02,3.832186758518218994e-01,-4.103349447250366211e-01,-1.085274145007133484e-01,-9.034166336059570312e-01,-8.822556734085083008e-01,2.176205068826675415e-01,6.047821044921875000e-01,-1.166297495365142822e-01,4.820324182510375977e-01,4.087036550045013428e-01,2.301692068576812744e-01
6.762651205062866211e-01,-1.485841870307922363e-01,9.189438223838806152e-01,-5.437393188476562500e-01,2.016001790761947632e-01,-1.349981427192687988e-01,-1.515396982431411743e-01,2.285974025726318359e-01,5.770919919013977051e-01,-1.395203173160552979e-01,3.296710848808288574e-01,-3.866686522960662842e-01,-2.357077300548553467e-01,-8.026969432830810547e-01,-3.249989748001098633e-01,1.661550551652908325e-01,7.137954235076904297e-01,-8.940266817808151245e-02,2.554883658885955811e-01,1.605848968029022217e-01,9.904614090919494629e-02
8.888758420944213867e-01,-1.863410621881484985e-01,9.256297349929809570e-01,-2.716757655143737793e-01,6.075224280357360840e-02,4.862365126609802246e-02,-2.174814790487289429e-01,1.171011403203010559e-01,6.805730462074279785e-01,-1.547756195068359375e-01,1.488748341798782349e-01,-2.760725915431976318e-01,-2.848128676414489746e-01,-7.214235663414001465e-01,-5.110093951225280762e-01,1.005458012223243713e-01,6.004754304885864258e-01,-9.010884165763854980e-02,3.488067388534545898e-01,9.515824913978576660e-02,4.571184813976287842e-01
5.100435018539428711e-01,1.609126850962638855e-02,1.014452576637268066e+00,-3.328830003738403320e-01,1.976969540119171143e-01,-1.255628913640975952e-01,-2.106233835220336914e-01,5.261162668466567993e-02,4.140279591083526611e-01,-7.754501700401306152e-02,2.240663021802902222e-01,-3.679248392581939697e-01,-4.247111380100250244e-01,-7.808856368064880371e-01,-2.828424274921417236e-01,2.948863804340362549e-01,7.771104574203491211e-01,-1.220979467034339905e-01,1.188060194253921509e-01,3.533604443073272705e-01,3.812266588211059570e-01
4.449167549610137939e-01,1.642642542719841003e-02,6.757839322090148926e-01,-9.119226038455963135e-02,1.479686144739389420e-02,9.747546166181564331e-02,-3.008263707160949707e-01,2.586542665958404541e-01,6.167686581611633301e-01,-8.158671855926513672e-02,2.376687675714492798e-01,-3.924879133701324463e-01,-3.929803073406219482e-01,-7.691323757171630859e-01,-6.137703359127044678e-02,2.479270994663238525e-01,7.545191645622253418e-01,-2.438819110393524170e-01,1.649187207221984863e-01,3.667637109756469727e-01,3.217812776565551758e-01
4.300965070724487305e-01,1.796966344118118286e-01,7.319714426994323730e-01,1.823605410754680634e-02,1.092189624905586243e-01,-7.632237672805786133e-02,-2.098644226789474487e-01,5.759784579277038574e-02,4.646650254726409912e-01,-5.785749107599258423e-02,1.665442436933517456e-01,-3.091492652893066406e-01,-4.384285211563110352e-01,-6.754662394523620605e-01,-2.622084915637969971e-01,5.618259683251380920e-02,8.197911977767944336e-01,-2.395488321781158447e-01,3.109249472618103027e-02,4.371110498905181885e-01,3.460661172866821289e-01
6.010259389877319336e-01,-4.097309708595275879e-02,5.551777482032775879e-01,-3.183817118406295776e-02,-2.789739370346069336e-01,-2.183454111218452454e-03,-1.230436712503433228e-01,1.257449854165315628e-03,3.302001357078552246e-01,-8.260059356689453125e-02,2.230248898267745972e-01,-2.407833635807037354e-01,-6.043878197669982910e-01,-7.649316191673278809e-01,-6.526509672403335571e-02,3.376604318618774414e-01,8.196450471878051758e-01,-9.312245249748229980e-02,2.373189292848110199e-02,3.989935219287872314e-01,5.793505311012268066e-01
4.516795277595520020e-01,2.897406518459320068e-01,5.341422557830810547e-01,7.929009944200515747e-02,-3.048808276653289795e-01,2.234551869332790375e-02,-4.816317856311798096e-01,3.558926656842231750e-02,4.448191523551940918e-01,-1.578640639781951904e-01,6.106109172105789185e-02,-7.071821391582489014e-02,-5.062668919563293457e-01,-6.654334664344787598e-01,9.227935224771499634e-02,3.305550515651702881e-01,8.088279962539672852e-01,7.537132501602172852e-02,1.090141162276268005e-01,2.704995274543762207e-01,4.838026463985443115e-01
3.362467586994171143e-01,2.228470742702484131e-01,2.704046368598937988e-01,2.129900306463241577e-01,-3.808740973472595215e-01,-2.013572454452514648e-01,-2.519878447055816650e-01,2.246791837023920380e-06,4.659154117107391357e-01,-4.605766385793685913e-02,-1.865874081850051880e-01,-4.211106896400451660e-02,-5.986514687538146973e-01,-5.214673280715942383e-01,-5.170413479208946228e-02,2.749738693237304688e-01,6.050119996070861816e-01,8.505290001630783081e-02,1.473778206855058670e-02,2.445779740810394287e-01,5.937087535858154297e-01
4.514860808849334717e-01,3.539282977581024170e-01,-3.561866178642958403e-04,7.297997176647186279e-02,-3.466451764106750488e-01,-1.156995594501495361e-01,-4.495466649532318115e-01,-2.063404954969882965e-02,4.245457053184509277e-01,9.179837070405483246e-03,-6.907639652490615845e-02,-5.133934319019317627e-02,-4.045999348163604736e-01,-5.720419287681579590e-01,2.772417664527893066e-01,2.963894009590148926e-01,7.469111084938049316e-01,1.728875935077667236e-01,-6.095737591385841370e-02,3.214368820190429688e-01,4.531016349792480469e-01
4.092615246772766113e-01,3.683311045169830322e-01,6.719522643834352493e-03,2.118045091629028320e-01,-2.372388690710067749e-01,-6.566368043422698975e-02,-3.187526166439056396e-01,-1.127808541059494019e-01,3.685850799083709717e-01,-2.262120395898818970e-01,-2.666580975055694580e-01,1.494016591459512711e-02,-5.194814801216125488e-01,-5.217413902282714844e-01,1.555649470537900925e-02,1.531341075897216797e-01,6.923539638519287109e-01,3.826292753219604492e-01,-1.921038478612899780e-01,3.546966910362243652e-01,6.531479358673095703e-01
4.368859529495239258e-01,5.766605734825134277e-01,2.203289866447448730e-01,1.433139145374298096e-01,-6.142651438713073730e-01,-1.961012482643127441e-01,-4.867614209651947021e-01,-2.514873147010803223e-01,4.921292960643768311e-01,-2.190820574760437012e-01,-1.031912639737129211e-01,-1.728218644857406616e-01,-6.727775931358337402e-01,-5.274991989135742188e-01,6.116496399044990540e-02,2.708773314952850342e-01,6.987304091453552246e-01,2.460505962371826172e-01,-2.259330749511718750e-01,4.924175441265106201e-01,5.888924598693847656e-01
4.454340934753417969e-01,5.608150959014892578e-01,-1.954877972602844238e-01,2.522859275341033936e-01,-5.655330419540405273e-01,-3.350923657417297363e-01,-1.231664270162582397e-01,-2.350937724113464355e-01,3.240011930465698242e-01,-1.565443575382232666e-01,-2.696498632431030273e-01,-2.647264003753662109e-01,-3.880293369293212891e-01,-2.933345437049865723e-01,2.053650319576263428e-01,1.341972202062606812e-01,5.315331220626831055e-01,3.260841667652130127e-01,-2.373332828283309937e-01,5.369244813919067383e-01,8.065161108970642090e-01
5.044625401496887207e-01,6.548603177070617676e-01,-2.981653511524200439e-01,4.154975414276123047e-01,-3.299424946308135986e-01,-4.601321518421173096e-01,6.051058322191238403e-02,-1.575473248958587646e-01,4.235885143280029297e-01,-3.931830823421478271e-01,-3.794632852077484131e-01,-4.262643307447433472e-02,-3.508752882480621338e-01,-2.851958274841308594e-01,-2.136333584785461426e-01,5.910878628492355347e-02,2.942572832107543945e-01,5.175136327743530273e-01,-3.809840977191925049e-01,4.554983079433441162e-01,7.812698483467102051e-01
2.690723836421966553e-01,9.179821610450744629e-01,-1.700680255889892578e-01,4.274377226829528809e-01,-5.738351345062255859e-01,-4.327151477336883545e-01,-7.681382447481155396e-02,-2.175470143556594849e-01,1.452106833457946777e-01,-2.192977070808410645e-01,-2.945995926856994629e-01,5.463218688964843750e-02,-3.394597470760345459e-01,-5.988061428070068359e-01,8.793269097805023193e-02,-2.028293609619140625e-01,2.693889737129211426e-01,5.738850831985473633e-01,-4.632679224014282227e-01,5.946852564811706543e-01,6.693213582038879395e-01
3.991957306861877441e-01,8.297126889228820801e-01,-2.474836558103561401e-01,5.814683437347412109e-01,-2.750139534473419189e-01,-4.178341925144195557e-01,-7.069084793329238892e-02,-2.096316516399383545e-01,5.990561470389366150e-02,-3.256189525127410889e-01,-4.616563022136688232e-01,3.910154104232788086e-03,-2.951342165470123291e-01,-4.688079059123992920e-01,9.676257520914077759e-02,-2.452092319726943970e-01,4.456806480884552002e-01,6.968027353286743164e-01,-3.518881201744079590e-01,3.243882358074188232e-01,6.168889999389648438e-01
4.447442591190338135e-01,7.975653409957885742e-01,-2.890727818012237549e-01,5.001257061958312988e-01,-2.509785294532775879e-01,-3.593122661113739014e-01,1.304774135351181030e-01,-2.133226543664932251e-01,3.038472533226013184e-01,-4.975839257240295410e-01,-4.136593341827392578e-01,1.136148050427436829e-01,-3.624314069747924805e-01,-2.515613138675689697e-01,2.369341701269149780e-01,-3.546755015850067139e-01,3.471914827823638916e-01,5.566862821578979492e-01,-4.181599020957946777e-01,6.634778380393981934e-01,5.596733689308166504e-01
2.609743773937225342e-01,1.186324357986450195e+00,-5.647116303443908691e-01,5.485621094703674316e-01,-7.925214618444442749e-02,-3.331918716430664062e-01,-4.143751040101051331e-02,-1.640493720769882202e-01,2.818253338336944580e-01,-3.422874212265014648e-01,-6.444719433784484863e-01,1.469320058822631836e-01,-3.153470456600189209e-01,-3.401333987712860107e-01,6.213687360286712646e-02,-3.300972878932952881e-01,1.301007568836212158e-01,7.626692652702331543e-01,-3.132098913192749023e-01,6.102658510208129883e-01,7.210853695869445801e-01
1.654344648122787476e-01,1.044531941413879395e+00,-2.937006652355194092e-01,3.821313083171844482e-01,-1.400116235017776489e-01,-3.944948017597198486e-01,1.910445839166641235e-02,-1.238025277853012085e-01,-2.813290059566497803e-02,-3.357371389865875244e-01,-5.449382662773132324e-01,1.461616009473800659e-01,-4.442797601222991943e-01,-1.454928666353225708e-01,7.268880307674407959e-02,-4.478333890438079834e-01,6.891828030347824097e-02,2.946687042713165283e-01,-4.672771394252777100e-01,4.866457879543304443e-01,7.003910541534423828e-01
1.799533814191818237e-01,1.137760281562805176e+00,-4.283836781978607178e-01,4.620529413223266602e-01,-2.970650792121887207e-01,-1.046065986156463623e-01,1.711848527193069458e-01,-1.518185585737228394e-01,2.403744161128997803e-01,-3.058623075485229492e-01,-2.493616938591003418e-01,3.163949549198150635e-01,-4.927359819412231445e-01,-3.266212046146392822e-01,-2.612609267234802246e-01,-5.048896670341491699e-01,-1.189002580940723419e-02,4.586620330810546875e-01,-2.503957450389862061e-01,4.642165303230285645e-01,8.245995044708251953e-01
1.956858485937118530e-02,1.121478915214538574e+00,-3.221685588359832764e-01,4.327429234981536865e-01,-1.501218974590301514e-01,-1.542283892631530762e-01,1.090223044157028198e-01,-2.706882655620574951e-01,1.761166453361511230e-01,-4.222982823848724365e-01,-4.012122452259063721e-01,2.909831404685974121e-01,-2.496897131204605103e-01,-2.580492794513702393e-01,2.510140649974346161e-02,-5.525008440017700195e-01,-5.391706526279449463e-02,5.180547833442687988e-01,-2.922257483005523682e-01,3.553455471992492676e-01,6.626054048538208008e-01
1.853033527731895447e-02,1.142888307571411133e+00,-3.261757791042327881e-01,3.066048324108123779e-01,-2.060191929340362549e-01,-9.526302665472030640e-02,2.962952945381402969e-03,-1.171890571713447571e-01,4.220998659729957581e-02,-3.686124682426452637e-01,-3.015927672386169434e-01,3.052581846714019775e-01,-4.115703999996185303e-01,-1.920035779476165771e-01,-3.744085505604743958e-02,-6.320433616638183594e-01,-7.631113380193710327e-02,6.538800001144409180e-01,-1.659833639860153198e-01,5.001658797264099121e-01,6.388483643531799316e-01
-9.628774970769882202e-02,1.281476974487304688e+00,-2.160465121269226074e-01,3.850883841514587402e-01,-1.791688650846481323e-01,2.825215831398963928e-02,8.373746275901794434e-02,-2.645892836153507233e-02,-5.425626412034034729e-02,-2.996610999107360840e-01,-2.724418938159942627e-01,3.199236392974853516e-01,-4.280186593532562256e-01,-2.873993515968322754e-01,2.025838941335678101e-01,-6.753445863723754883e-01,-1.270086020231246948e-01,4.823571145534515381e-01,-1.494772881269454956e-01,3.822844028472900391e-01,7.128403186798095703e-01
-1.684226393699645996e-01,1.005095243453979492e+00,-3.094249665737152100e-01,4.200402200222015381e-01,-6.225734949111938477e-02,6.275889277458190918e-02,1.724013537168502808e-01,-2.151960134506225586e-01,-5.971015617251396179e-02,-1.789599210023880005e-01,-2.364314794540405273e-01,7.613313794136047363e-01,-1.726346909999847412e-01,-3.175414800643920898e-01,1.096348911523818970e-01,-6.382614374160766602e-01,-1.021421849727630615e-01,4.972356855869293213e-01,-1.436953097581863403e-01,2.625642120838165283e-01,7.117429375648498535e-01
-3.110409677028656006e-01,9.488456249237060547e-01,-1.360941976308822632e-01,4.448335766792297363e-01,-1.055869832634925842e-01,9.726655483245849609e-02,3.509151339530944824e-01,-1.146468818187713623e-01,-1.039229482412338257e-01,-2.011515498161315918e-01,-3.066538274288177490e-01,3.967658281326293945e-01,-1.576414108276367188e-01,-4.377847611904144287e-01,1.040057018399238586e-01,-5.808443427085876465e-01,-3.414757549762725830e-01,4.258376359939575195e-01,-2.478388994932174683e-01,2.728890478610992432e-01,6.349954605102539062e-01
-2.359407693147659302e-01,7.349982261657714844e-01,-2.104629725217819214e-01,6.591608375310897827e-02,-1.477286964654922485e-01,2.177892029285430908e-01,2.003858685493469238e-01,-1.721657067537307739e-01,-4.410739243030548096e-01,-2.025812864303588867e-01,-4.122215807437896729e-01,5.049911141395568848e-01,-4.763859510421752930e-01,-1.703086793422698975e-01,-4.541518166661262512e-03,-5.633760094642639160e-01,-3.342275917530059814e-01,3.755296170711517334e-01,-7.429584115743637085e-02,1.347161382436752319e-01,6.172616481781005859e-01
-3.274337649345397949e-01,8.207476139068603516e-01,-2.887387871742248535e-01,2.601012885570526123e-01,-2.732977867126464844e-01,2.179873138666152954e-01,1.717898249626159668e-01,-1.732256263494491577e-01,-1.990003883838653564e-01,-1.521456092596054077e-01,-3.910829722881317139e-01,5.990986227989196777e-01,-2.241377979516983032e-01,-1.709094941616058350e-01,2.599570527672767639e-02,-4.832253456115722656e-01,-5.810619518160820007e-02,2.696323692798614502e-01,-2.267978787422180176e-01,-4.714456573128700256e-02,6.308330297470092773e-01
-2.556981742382049561e-01,7.946555018424987793e-01,-7.518130540847778320e-02,2.088913768529891968e-01,-3.540972173213958740e-01,3.545241653919219971e-01,3.308664858341217041e-01,-3.610634505748748779e-01,-3.638633489608764648e-01,-1.904769688844680786e-01,-3.154284060001373291e-01,6.211780309677124023e-01,-1.541840434074401855e-01,-3.773114979267120361e-01,7.105178385972976685e-02,-3.954604268074035645e-01,-1.376433670520782471e-01,4.251424968242645264e-01,-2.322941273450851440e-02,-1.096047647297382355e-02,5.499821901321411133e-01
-3.547140657901763916e-01,7.043041586875915527e-01,-1.576135903596878052e-01,3.610915541648864746e-01,-1.276226341724395752e-01,4.970444440841674805e-01,3.578125536441802979e-01,-2.590620815753936768e-01,-4.481049180030822754e-01,2.439794689416885376e-01,-3.622568547725677490e-01,5.664839148521423340e-01,-2.006495893001556396e-01,-4.350960999727249146e-02,2.436609938740730286e-03,-5.417343378067016602e-01,3.414753358811140060e-03,5.271478369832038879e-02,-1.559825390577316284e-01,-1.572922766208648682e-01,4.683617949485778809e-01
-4.456814527511596680e-01,6.010829210281372070e-01,-1.307201981544494629e-01,4.959746599197387695e-01,3.838493674993515015e-02,4.180975556373596191e-01,2.866030633449554443e-01,-2.788435816764831543e-01,-4.767779111862182617e-01,3.272208943963050842e-02,-4.686705172061920166e-01,7.210147976875305176e-01,-2.118440717458724976e-01,-8.271867781877517700e-02,-1.002215072512626648e-01,-7.232254147529602051e-01,-8.115557581186294556e-02,-7.632815092802047729e-02,-1.479160338640213013e-01,-2.095107138156890869e-01,4.844126701354980469e-01
-5.515007376670837402e-01,5.832554697990417480e-01,-1.515819579362869263e-01,3.959029018878936768e-01,-1.946354657411575317e-01,5.270841121673583984e-01,7.008612751960754395e-01,-1.781515479087829590e-01,-3.211378455162048340e-01,9.009549021720886230e-02,-3.072099387645721436e-01,9.740093946456909180e-01,-2.990043163299560547e-01,-2.385057881474494934e-02,-8.212795853614807129e-02,-5.798032879829406738e-01,-1.115872412919998169e-01,6.163287907838821411e-02,-3.547677025198936462e-02,-2.390424758195877075e-01,4.866332411766052246e-01
-4.624814391136169434e-01,6.366043090820312500e-01,-1.579668521881103516e-01,2.287429720163345337e-01,3.200968028977513313e-03,7.442209124565124512e-01,4.226431548595428467e-01,-2.762683033943176270e-01,-5.641811490058898926e-01,4.258990585803985596e-01,-3.891693353652954102e-01,7.867627739906311035e-01,-1.119128465652465820e-01,-1.086291950196027756e-02,-2.108209766447544098e-02,-6.531274914741516113e-01,-2.244074195623397827e-01,-1.694907248020172119e-01,1.904035806655883789e-01,-4.503747820854187012e-01,2.524478435516357422e-01
-4.699155390262603760e-01,4.317605495452880859e-01,-1.099441871047019958e-01,3.598828613758087158e-01,-2.604170143604278564e-02,7.550172209739685059e-01,7.657151222229003906e-01,-2.232238948345184326e-01,-5.071913003921508789e-01,4.756450057029724121e-01,-4.885856211185455322e-01,6.910887360572814941e-01,-3.742530569434165955e-02,6.477355211973190308e-02,-4.301122948527336121e-02,-3.877021670341491699e-01,-1.160839498043060303e-01,4.353726655244827271e-02,-7.056326605379581451e-03,-3.523583412170410156e-01,4.907562434673309326e-01
-4.234379827976226807e-01,4.489973783493041992e-01,-1.089309230446815491e-01,3.329380452632904053e-01,-1.193444803357124329e-01,6.033310294151306152e-01,6.415885090827941895e-01,-1.168771758675575256e-01,-3.078140318393707275e-01,3.369406759738922119e-01,-3.423044383525848389e-01,1.011483907699584961e+00,2.773163281381130219e-02,4.442165419459342957e-02,-1.111211851239204407e-01,-3.146529197692871094e-01,-1.791951805353164673e-01,-1.720772385597229004e-01,1.040441333316266537e-03,-4.748644232749938965e-01,1.330018192529678345e-01
-4.717978537082672119e-01,4.078420400619506836e-01,1.467406600713729858e-01,3.823343217372894287e-01,1.034512221813201904e-01,8.629110455513000488e-01,6.094425916671752930e-01,1.706579178571701050e-01,-4.882467687129974365e-01,3.428635597229003906e-01,-4.156588017940521240e-01,7.627965807914733887e-01,3.035033047199249268e-01,1.579702496528625488e-01,-3.860765397548675537e-01,-2.451560050249099731e-01,-1.576057523488998413e-01,-2.073352187871932983e-01,1.600347459316253662e-01,-5.983343124389648438e-01,1.134483292698860168e-01
-3.992461264133453369e-01,3.228347897529602051e-01,7.478233426809310913e-02,5.632352828979492188e-01,1.229258701205253601e-01,7.724837660789489746e-01,7.732692360877990723e-01,1.137290596961975098e-01,-4.893316328525543213e-01,5.019376873970031738e-01,-3.889873325824737549e-01,5.648509860038757324e-01,4.176480472087860107e-01,-7.786536961793899536e-02,-2.499688267707824707e-01,-2.356060892343521118e-01,-3.987585008144378662e-01,2.001342177391052246e-02,3.115985095500946045e-01,-3.883587419986724854e-01,-2.815086245536804199e-01
-4.403709471225738525e-01,3.584710359573364258e-01,-3.401866927742958069e-02,4.421463906764984131e-01,7.523121684789657593e-02,9.002966284751892090e-01,1.005117893218994141e+00,1.755681037902832031e-01,-1.902744770050048828e-01,5.729446411132812500e-01,-4.507733285427093506e-01,5.941992402076721191e-01,3.288128077983856201e-01,1.705101579427719116e-01,-5.425648689270019531e-01,-1.368562430143356323e-01,4.553653672337532043e-02,-2.541578747332096100e-02,2.763930857181549072e-01,-4.136698544025421143e-01,-1.131347790360450745e-01
-1.866306215524673462e-01,2.662151455879211426e-01,1.515583097934722900e-01,2.423130869865417480e-01,1.421242952346801758e-02,6.888114809989929199e-01,7.586240172386169434e-01,3.344230055809020996e-01,-7.637046277523040771e-02,4.459892511367797852e-01,-4.425735771656036377e-02,6.475611925125122070e-01,3.643057048320770264e-01,-4.383236635476350784e-03,-3.100719153881072998e-01,-1.760015636682510376e-01,-1.797419339418411255e-01,-3.278175890445709229e-01,5.390363931655883789e-01,-3.356606364250183105e-01,-2.866750657558441162e-01
-6.351450085639953613e-02,6.867028027772903442e-02,1.393486857414245605e-01,6.275573372840881348e-02,1.463494300842285156e-01,6.986197233200073242e-01,7.631549835205078125e-01,4.934511482715606689e-01,2.067698389291763306e-01,5.806160569190979004e-01,-1.833245456218719482e-01,4.755557477474212646e-01,3.809860646724700928e-01,2.582362666726112366e-02,-3.531534969806671143e-01,-2.455668449401855469e-01,-2.230159193277359009e-01,1.680549532175064087e-01,4.638242423534393311e-01,-1.680179089307785034e-01,-3.815264999866485596e-01
1.122665852308273315e-01,2.215815186500549316e-01,2.415820956230163574e-02,1.259990781545639038e-01,2.686529457569122314e-01,8.887589573860168457e-01,6.373359560966491699e-01,5.327720642089843750e-01,3.976825252175331116e-02,1.623195558786392212e-01,-1.141572669148445129e-01,3.950696289539337158e-01,5.222573280334472656e-01,-1.159443259239196777e-01,-4.321117699146270752e-01,4.925914108753204346e-02,-4.416128620505332947e-02,5.732817575335502625e-02,4.119445681571960449e-01,-2.130451202392578125e-01,-2.945482730865478516e-01
1.337745338678359985e-01,2.868897914886474609e-01,1.326923668384552002e-01,2.920551896095275879e-01,2.307377755641937256e-01,5.214945673942565918e-01,7.387222051620483398e-01,6.721293330192565918e-01,3.292034566402435303e-01,3.308575749397277832e-01,-1.518439501523971558e-01,1.591980904340744019e-01,6.475394964218139648e-01,-1.509828418493270874e-01,-5.638385415077209473e-01,1.707564294338226318e-02,-2.320109903812408447e-01,1.442138999700546265e-01,7.917999029159545898e-01,9.999011456966400146e-02,-3.427985012531280518e-01
2.226553410291671753e-01,1.114572733640670776e-01,-1.472928375005722046e-01,3.497287034988403320e-01,1.342892199754714966e-01,6.035237312316894531e-01,7.697041034698486328e-01,8.311247825622558594e-01,2.627923488616943359e-01,2.783569395542144775e-01,-1.398154944181442261e-01,1.188353076577186584e-01,4.831355214118957520e-01,-2.762953042984008789e-01,-4.699335396289825439e-01,1.270276773720979691e-02,-2.034314423799514771e-01,-3.025044128298759460e-02,7.461597919464111328e-01,1.492089498788118362e-02,-2.475381195545196533e-01
4.007295966148376465e-01,1.334005873650312424e-02,-3.029630705714225769e-02,-3.533022478222846985e-02,4.174712896347045898e-01,7.422867417335510254e-01,6.958165764808654785e-01,7.634294033050537109e-01,3.725500106811523438e-01,3.011045232415199280e-02,-2.031804025173187256e-01,1.097837612032890320e-01,3.184876739978790283e-01,-3.572801947593688965e-01,-7.388951778411865234e-01,-3.070766665041446686e-02,-8.385819941759109497e-02,-7.525844871997833252e-02,5.396071672439575195e-01,1.689603477716445923e-01,-4.308744668960571289e-01
3.844290077686309814e-01,1.999554634094238281e-01,8.743162453174591064e-02,-4.161613527685403824e-03,3.036965131759643555e-01,7.414700388908386230e-01,6.797565817832946777e-01,9.834886193275451660e-01,3.991707265377044678e-01,-9.275399893522262573e-02,-5.624008551239967346e-02,-1.339892745018005371e-01,3.278210461139678955e-01,-2.633080780506134033e-01,-6.570168733596801758e-01,-2.035944908857345581e-02,-1.504281163215637207e-01,-2.244024910032749176e-02,7.025951743125915527e-01,1.887300014495849609e-01,-2.671678066253662109e-01
5.588250756263732910e-01,1.106936633586883545e-01,3.070714473724365234e-01,6.923905014991760254e-02,9.837093204259872437e-02,5.156588554382324219e-01,4.441093802452087402e-01,9.569302797317504883e-01,3.908293545246124268e-01,3.327751532196998596e-03,6.769204139709472656e-02,-7.666163146495819092e-02,3.756407797336578369e-01,-5.361694097518920898e-01,-5.969676971435546875e-01,-5.912689492106437683e-02,1.564552308991551399e-03,-1.546078920364379883e-01,8.104421496391296387e-01,4.200951382517814636e-02,-3.362969160079956055e-01
6.486533284187316895e-01,3.553726971149444580e-01,1.533999294042587280e-01,1.251207292079925537e-01,5.250374078750610352e-01,7.231851816177368164e-01,5.448862910270690918e-01,8.811612129211425781e-01,6.360563635826110840e-01,9.153548628091812134e-03,-2.806010246276855469e-01,-2.296534329652786255e-01,4.361298978328704834e-01,-3.252662420272827148e-01,-6.211336255073547363e-01,-3.341935947537422180e-02,-8.710385859012603760e-02,-1.574822366237640381e-01,8.547363281250000000e-01,5.889517068862915039e-02,-3.010728359222412109e-01
4.777278900146484375e-01,-6.787813734263181686e-03,3.598512113094329834e-01,5.874303355813026428e-02,2.957772612571716309e-01,6.002699136734008789e-01,3.263747692108154297e-01,1.015969157218933105e+00,3.946024179458618164e-01,-2.717614546418190002e-02,1.357464864850044250e-02,-3.094144165515899658e-01,2.805987298488616943e-01,-4.051312804222106934e-01,-5.081812143325805664e-01,-1.548058986663818359e-01,7.180751767009496689e-03,8.440244127996265888e-04,6.964029669761657715e-01,1.248310655355453491e-01,-1.663432866334915161e-01
6.437071561813354492e-01,1.186132133007049561e-01,1.643224060535430908e-01,1.468884479254484177e-02,3.209174871444702148e-01,5.177371501922607422e-01,2.018173635005950928e-01,9.567567110061645508e-01,6.123395562171936035e-01,-3.621188923716545105e-02,3.460866585373878479e-02,-3.236330449581146240e-01,-4.280087351799011230e-02,-3.736807107925415039e-01,-5.693239569664001465e-01,-9.916361421346664429e-02,-3.185100853443145752e-02,-8.329264819622039795e-02,7.317037582397460938e-01,3.536636233329772949e-01,-1.864975839853286743e-01
6.293673515319824219e-01,-1.447397619485855103e-01,5.123756527900695801e-01,2.029915340244770050e-02,1.716741174459457397e-01,5.176329612731933594e-01,1.420469768345355988e-02,9.096610546112060547e-01,5.366806983947753906e-01,-1.668292135000228882e-01,-9.520761668682098389e-02,-3.321254253387451172e-01,1.551491487771272659e-02,-3.317276835441589355e-01,-4.133659005165100098e-01,-2.867600508034229279e-02,-4.890911653637886047e-02,-2.727789431810379028e-02,1.023406028747558594e+00,4.831095039844512939e-01,-2.705728411674499512e-01
4.879868626594543457e-01,1.302058994770050049e-01,3.715529143810272217e-01,1.354948729276657104e-01,3.039559125900268555e-01,6.814138889312744141e-01,1.040738746523857117e-01,6.868392229080200195e-01,8.815004229545593262e-01,5.355462059378623962e-02,-4.174598678946495056e-02,-2.388523817062377930e-01,2.694455385208129883e-01,-4.368150830268859863e-01,-2.749714851379394531e-01,-1.302983909845352173e-01,-8.800162374973297119e-02,-1.298844218254089355e-01,6.238959431648254395e-01,4.334453642368316650e-01,-3.917454928159713745e-02
6.761385798454284668e-01,-2.345341444015502930e-01,4.713262319564819336e-01,8.710607141256332397e-02,3.168083727359771729e-02,8.104400634765625000e-01,-9.592380374670028687e-02,8.621143698692321777e-01,6.628239154815673828e-01,-1.050480902194976807e-01,-7.909848541021347046e-02,-3.401226699352264404e-01,7.235527038574218750e-03,-4.596050977706909180e-01,-1.853484511375427246e-01,1.103742048144340515e-01,-5.144568905234336853e-02,-5.921402201056480408e-02,6.566725969314575195e-01,5.420326590538024902e-01,-2.012271881103515625e-01
5.367108583450317383e-01,-6.808543950319290161e-02,3.817663490772247314e-01,1.742412149906158447e-01,3.972972184419631958e-02,4.523099958896636963e-01,-3.051049709320068359e-01,8.956920504570007324e-01,5.924804210662841797e-01,-2.359852790832519531e-01,4.568303935229778290e-03,-3.958232402801513672e-01,-1.461448818445205688e-01,-5.325993895530700684e-01,-2.409098893404006958e-01,7.062104344367980957e-02,6.199836358428001404e-02,-2.462491951882839203e-02,7.505052089691162109e-01,6.083281636238098145e-01,-1.826245486736297607e-01
5.394442081451416016e-01,-1.503104865550994873e-01,5.740414261817932129e-01,4.750584438443183899e-02,-2.072740197181701660e-01,6.210938692092895508e-01,-3.651146292686462402e-01,6.896268725395202637e-01,6.989446878433227539e-01,-3.273193240165710449e-01,-6.971252709627151489e-02,-3.907892107963562012e-01,-1.831512302160263062e-01,-4.520128965377807617e-01,-2.979139387607574463e-01,8.293463289737701416e-02,6.645677238702774048e-02,5.394331738352775574e-02,6.599189639091491699e-01,6.544787287712097168e-01,-2.411251813173294067e-01
6.892031431198120117e-01,-1.623791158199310303e-01,3.865810334682464600e-01,1.614163815975189209e-01,-1.476120948791503906e-01,5.897163748741149902e-01,-4.619360566139221191e-01,8.534544110298156738e-01,5.644631385803222656e-01,-1.016648188233375549e-01,-1.386204212903976440e-01,-5.318270325660705566e-01,-1.351115405559539795e-01,-2.269967943429946899e-01,-1.387011408805847168e-01,1.634150892496109009e-01,1.047937292605638504e-02,1.132314428687095642e-01,5.977114439010620117e-01,7.813649773597717285e-01,-9.808384627103805542e-02
7.317107915878295898e-01,-7.371557410806417465e-03,3.243472874164581299e-01,4.763133227825164795e-01,-2.288080900907516479e-01,4.955727756023406982e-01,-5.653551220893859863e-01,6.241258978843688965e-01,7.176249623298645020e-01,-2.958702743053436279e-01,-2.064235210418701172e-01,-3.512561321258544922e-01,-4.257349669933319092e-01,-3.840195834636688232e-01,1.422607600688934326e-01,-7.654546201229095459e-02,-1.097242534160614014e-02,1.840337216854095459e-01,3.627870678901672363e-01,6.949152946472167969e-01,-1.346384584903717041e-01
6.515033841133117676e-01,-7.401309162378311157e-02,1.300557106733322144e-01,3.964946568012237549e-01,-4.805049300193786621e-01,4.826836287975311279e-01,-5.432671308517456055e-01,7.840065360069274902e-01,7.872383594512939453e-01,-1.672230362892150879e-01,-3.947746455669403076e-01,-4.944511651992797852e-01,-5.775524377822875977e-01,-4.599832370877265930e-02,1.481588631868362427e-01,5.957804620265960693e-02,-6.450900807976722717e-03,1.327053755521774292e-01,3.606894910335540771e-01,4.971305429935455322e-01,-1.671347022056579590e-02
7.605388164520263672e-01,7.155029475688934326e-02,8.348764479160308838e-02,4.160730242729187012e-01,-5.566710829734802246e-01,3.492938876152038574e-01,-4.694646894931793213e-01,4.567514061927795410e-01,6.732473969459533691e-01,-1.312777101993560791e-01,-5.184755921363830566e-01,-5.193334817886352539e-01,-5.811449885368347168e-01,-1.745049953460693359e-01,-9.623950719833374023e-02,4.287665709853172302e-02,-4.878939315676689148e-02,3.423299193382263184e-01,7.322241365909576416e-02,6.239349842071533203e-01,-5.719612166285514832e-02
7.690762877464294434e-01,-3.111965656280517578e-01,1.062041521072387695e-01,6.672312021255493164e-01,-4.745331108570098877e-01,2.092290520668029785e-01,-6.216771602630615234e-01,5.054316520690917969e-01,6.369478106498718262e-01,-5.235307291150093079e-02,-5.088423490524291992e-01,-3.136640489101409912e-01,-5.778149962425231934e-01,7.116220891475677490e-02,1.034159436821937561e-01,-1.676948219537734985e-01,-8.146892488002777100e-02,1.620210260152816772e-01,1.113359332084655762e-01,5.089310407638549805e-01,3.743484616279602051e-02
6.725659370422363281e-01,-2.670767717063426971e-02,-4.038345534354448318e-03,7.488909363746643066e-01,-3.702833056449890137e-01,2.203053832054138184e-01,-3.858054578304290771e-01,2.170672863721847534e-01,6.493548750877380371e-01,-2.468819022178649902e-01,-8.384715914726257324e-01,-4.178466200828552246e-01,-8.501082658767700195e-01,2.624759972095489502e-01,-1.205352842807769775e-01,6.381960958242416382e-02,-1.080008447170257568e-01,3.298611938953399658e-01,1.400556764565408230e-03,7.679893374443054199e-01,-2.287220656871795654e-01
5.966103076934814453e-01,4.752792790532112122e-02,6.129802763462066650e-02,7.163910865783691406e-01,-3.601346015930175781e-01,-4.596037045121192932e-02,-5.967068076133728027e-01,2.515127360820770264e-01,5.750749111175537109e-01,-2.343309372663497925e-01,-5.557131171226501465e-01,-4.219104051589965820e-01,-8.775274157524108887e-01,1.465691924095153809e-01,8.042450249195098877e-02,-1.294575631618499756e-01,-4.225322976708412170e-02,4.509161412715911865e-01,-1.217916756868362427e-01,7.537319064140319824e-01,-6.823048740625381470e-02
5.598298311233520508e-01,9.943994879722595215e-02,-2.223102599382400513e-01,9.503120779991149902e-01,-3.912654221057891846e-01,-9.277483075857162476e-02,-7.105954885482788086e-01,2.716639935970306396e-01,5.943484306335449219e-01,-1.138365864753723145e-01,-7.854849100112915039e-01,-4.011388123035430908e-01,-6.454757452011108398e-01,2.179696857929229736e-01,4.086275398731231689e-02,1.232578083872795105e-01,-9.445378184318542480e-02,4.387106001377105713e-01,-5.984682124108076096e-03,7.345784902572631836e-01,1.698999106884002686e-01
6.745841503143310547e-01,3.036664128303527832e-01,-1.658956259489059448e-01,7.083986997604370117e-01,-5.910956263542175293e-01,-1.060538738965988159e-01,-6.590563058853149414e-01,3.755921721458435059e-01,6.226576566696166992e-01,-2.318310439586639404e-01,-5.763651728630065918e-01,-3.034186065196990967e-01,-7.689940929412841797e-01,3.978571593761444092e-01,2.587796747684478760e-02,6.024728342890739441e-02,-1.850405931472778320e-01,5.328707695007324219e-01,-4.100433737039566040e-02,7.211061120033264160e-01,-9.951059520244598389e-02
5.855301022529602051e-01,1.838646084070205688e-01,-2.462041974067687988e-01,7.302048206329345703e-01,-3.678612411022186279e-01,-2.620336115360260010e-01,-5.359850525856018066e-01,3.500896990299224854e-01,5.846740603446960449e-01,-1.737015992403030396e-01,-9.047194123268127441e-01,-4.742003381252288818e-01,-6.896694898605346680e-01,4.226590692996978760e-01,2.671052515506744385e-02,6.563556939363479614e-02,-1.353820711374282837e-01,5.867462158203125000e-01,-2.745305597782135010e-01,8.281584382057189941e-01,9.205094724893569946e-02
6.143248081207275391e-01,1.928434669971466064e-01,-3.348428010940551758e-01,8.394888639450073242e-01,-3.588054776191711426e-01,-3.601677417755126953e-01,-7.502850890159606934e-01,2.540608346462249756e-01,7.015050649642944336e-01,-1.252704411745071411e-01,-9.470372796058654785e-01,-1.260501891374588013e-01,-7.551910281181335449e-01,5.362142920494079590e-01,5.742477625608444214e-02,-1.911979168653488159e-01,-3.521250560879707336e-02,6.669529080390930176e-01,-5.495456978678703308e-02,1.029971003532409668e+00,-2.540377676486968994e-01
5.340864658355712891e-01,3.256515264511108398e-01,-4.042377173900604248e-01,1.030865192413330078e+00,-2.154549658298492432e-01,-3.185423612594604492e-01,-4.235408008098602295e-01,3.051089048385620117e-01,6.740480661392211914e-01,-3.484330475330352783e-01,-8.135889172554016113e-01,-2.300167381763458252e-01,-6.133840680122375488e-01,4.691251814365386963e-01,1.749748922884464264e-02,-1.330179870128631592e-01,-4.164882898330688477e-01,5.944828987121582031e-01,-1.941067576408386230e-01,8.455115556716918945e-01,-6.912159174680709839e-02
7.262311577796936035e-01,5.095141530036926270e-01,-3.341859281063079834e-01,7.258158326148986816e-01,-3.208974301815032959e-01,-4.176609218120574951e-01,-7.997936010360717773e-01,8.841598778963088989e-02,6.897879838943481445e-01,-1.521851867437362671e-01,-8.717904090881347656e-01,-3.218502104282379150e-01,-6.959373950958251953e-01,6.693060398101806641e-01,-1.315962076187133789e-01,-2.568624317646026611e-01,-5.027371644973754883e-01,8.442795872688293457e-01,-3.615107536315917969e-01,9.987387657165527344e-01,-1.558965146541595459e-01
5.639848113059997559e-01,3.641072511672973633e-01,-5.056004524230957031e-01,6.021335124969482422e-01,-2.945680320262908936e-01,-3.992837369441986084e-01,-6.996181607246398926e-01,1.329532265663146973e-01,7.234303355216979980e-01,-3.515293300151824951e-01,-7.600277662277221680e-01,-3.474192917346954346e-01,-6.971656084060668945e-01,4.132375419139862061e-01,2.998067624866962433e-02,-8.284880220890045166e-02,-4.392703771591186523e-01,6.635098457336425781e-01,-2.467925101518630981e-01,1.076537489891052246e+00,-1.900798827409744263e-01
7.060582041740417480e-01,4.015959799289703369e-01,-3.820392787456512451e-01,5.524854660034179688e-01,-1.055614352226257324e-01,-4.454339146614074707e-01,-5.778972506523132324e-01,2.404550462961196899e-01,4.856384098529815674e-01,-2.079698741436004639e-01,-9.695569872856140137e-01,-3.260462284088134766e-01,-3.940065205097198486e-01,4.791543483734130859e-01,-1.137290894985198975e-01,-1.799026429653167725e-01,-6.985551118850708008e-01,6.425502300262451172e-01,-1.819753497838973999e-01,1.092559456825256348e+00,-1.620524227619171143e-01
5.659876465797424316e-01,4.792076647281646729e-01,-4.164392948150634766e-01,5.367242693901062012e-01,-1.120388731360435486e-01,-4.587457478046417236e-01,-6.616157293319702148e-01,1.501386910676956177e-01,4.855248928070068359e-01,-4.913945496082305908e-01,-7.574743032455444336e-01,-3.854122161865234375e-01,-5.209577679634094238e-01,3.338388204574584961e-01,-7.580275833606719971e-02,-3.489547371864318848e-01,-6.624393463134765625e-01,8.473054766654968262e-01,-2.626514732837677002e-01,1.078750729560852051e+00,-2.440964430570602417e-01
5.347315669059753418e-01,4.747664034366607666e-01,-3.473936021327972412e-01,7.226870656013488770e-01,-6.078029051423072815e-02,-7.201507687568664551e-01,-5.538426637649536133e-01,1.011081412434577942e-01,6.137945055961608887e-01,-1.668066084384918213e-01,-1.042989015579223633e+00,-4.589523375034332275e-01,-8.421379327774047852e-01,6.733988523483276367e-01,-3.120832443237304688e-01,-2.723534107208251953e-01,-5.861927270889282227e-01,7.174137234687805176e-01,-3.056345880031585693e-01,9.618597030639648438e-01,-8.894580602645874023e-02
3.924801647663116455e-01,6.509238481521606445e-01,-2.924037873744964600e-01,3.620857298374176025e-01,-2.374655306339263916e-01,-5.597485303878784180e-01,-8.208078742027282715e-01,8.821779489517211914e-02,5.444006919860839844e-01,-2.511670887470245361e-01,-8.989260792732238770e-01,-3.879057466983795166e-01,-7.409043312072753906e-01,7.043058872222900391e-01,-2.809300720691680908e-01,-2.191204279661178589e-01,-8.130636811256408691e-01,7.234070897102355957e-01,-3.321853280067443848e-01,8.578948378562927246e-01,-5.329192802309989929e-02
3.965353369712829590e-01,4.212577641010284424e-01,-4.008578658103942871e-01,4.100202322006225586e-01,2.073038369417190552e-02,-4.818170964717864990e-01,-6.251961588859558105e-01,8.374247699975967407e-02,2.259072959423065186e-01,-1.272487491369247437e-01,-8.376501202583312988e-01,-3.727140426635742188e-01,-8.333906531333923340e-01,4.936695992946624756e-01,-2.942616641521453857e-01,-3.429605364799499512e-01,-8.207062482833862305e-01,6.833072900772094727e-01,-3.614256680011749268e-01,7.557541728019714355e-01,1.017749086022377014e-01
2.908127307891845703e-01,4.759507775306701660e-01,-3.620818257331848145e-01,3.251768052577972412e-01,-2.780979312956333160e-02,-3.819949626922607422e-01,-5.955870747566223145e-01,-1.540900319814682007e-01,2.485976517200469971e-01,-9.554485231637954712e-02,-7.021950483322143555e-01,-3.989777863025665283e-01,-7.217309474945068359e-01,3.887575864791870117e-01,-1.080917716026306152e-01,-2.458021044731140137e-01,-8.966304063796997070e-01,7.453201413154602051e-01,-5.084616541862487793e-01,9.321491718292236328e-01,-2.060354920104146004e-03
4.385188817977905273e-01,3.470499515533447266e-01,-2.500182390213012695e-01,3.223887383937835693e-01,1.689829677343368530e-01,-4.510266780853271484e-01,-4.232651293277740479e-01,-2.589850425720214844e-01,1.346289664506912231e-01,-1.118955463171005249e-01,-7.671930193901062012e-01,-2.188866287469863892e-01,-9.404399991035461426e-01,4.442182183265686035e-01,-1.967780739068984985e-01,-2.849996685981750488e-01,-9.308884739875793457e-01,2.139326781034469604e-01,-4.273281395435333252e-01,8.910607695579528809e-01,9.752262383699417114e-02
3.405721187591552734e-01,2.838650345802307129e-01,-3.699634224176406860e-02,1.930827647447586060e-01,1.942957490682601929e-01,-2.667599022388458252e-01,-5.713076591491699219e-01,-2.426460534334182739e-01,2.093436568975448608e-01,4.887084290385246277e-02,-6.694306731224060059e-01,-2.080519497394561768e-01,-9.062075614929199219e-01,5.959444642066955566e-01,-1.774480789899826050e-01,-3.705684244632720947e-01,-7.456892728805541992e-01,3.859469592571258545e-01,-4.537057280540466309e-01,5.681837201118469238e-01,-3.629371523857116699e-02
1.515918970108032227e-01,4.258601069450378418e-01,-1.153036355972290039e-01,1.676266491413116455e-01,4.203554242849349976e-03,-5.344624072313308716e-02,-4.466446638107299805e-01,-3.637232482433319092e-01,-1.299865990877151489e-01,1.311834305524826050e-01,-5.488269329071044922e-01,-2.779955565929412842e-01,-8.213467001914978027e-01,4.623906910419464111e-01,-1.685195416212081909e-01,-2.621554136276245117e-01,-6.212908029556274414e-01,1.094655394554138184e-01,-4.912724792957305908e-01,5.317518711090087891e-01,-1.090170815587043762e-02
6.834191083908081055e-02,2.844373583793640137e-01,6.477641314268112183e-02,2.397148758172988892e-01,5.008356273174285889e-02,6.230453029274940491e-03,-6.280693411827087402e-01,-3.049907982349395752e-01,-9.658777713775634766e-02,1.290155500173568726e-01,-7.376351952552795410e-01,-5.023563280701637268e-02,-9.248342514038085938e-01,4.738923311233520508e-01,-1.249508336186408997e-01,-1.672924458980560303e-01,-6.786231994628906250e-01,2.668763138353824615e-02,-7.344421148300170898e-01,5.386911630630493164e-01,-9.660665877163410187e-03
-8.828131109476089478e-02,3.637900948524475098e-02,1.230793818831443787e-01,-2.002648636698722839e-02,1.054869592189788818e-01,-6.533361971378326416e-02,-4.611827433109283447e-01,-4.823748171329498291e-01,-6.668668985366821289e-02,4.759128093719482422e-01,-4.658821523189544678e-01,-1.159729436039924622e-01,-8.620724081993103027e-01,5.185207724571228027e-01,-8.896420896053314209e-02,-3.497634828090667725e-01,-6.307976245880126953e-01,-5.480914935469627380e-02,-5.313729643821716309e-01,2.839399278163909912e-01,-3.015793561935424805e-01
-9.592071920633316040e-02,2.187151461839675903e-01,5.564618483185768127e-02,1.569948345422744751e-01,1.205185949802398682e-01,1.587647385895252228e-02,-3.676055073738098145e-01,-3.427238464355468750e-01,-2.259713262319564819e-01,5.305923819541931152e-01,-4.303575158119201660e-01,-8.512132614850997925e-02,-8.122579455375671387e-01,5.550889968872070312e-01,-1.967200040817260742e-01,-1.767068207263946533e-01,-5.584878325462341309e-01,-1.158563420176506042e-01,-3.795954883098602295e-01,2.350555658340454102e-01,-1.674490571022033691e-01
1.467423290014266968e-01,-1.580289751291275024e-01,1.584230810403823853e-01,-6.932993978261947632e-02,8.064050972461700439e-02,1.665506362915039062e-01,-3.393577337265014648e-01,-2.615922987461090088e-01,-1.971103250980377197e-01,7.951756119728088379e-01,-5.070686340332031250e-01,1.557390205562114716e-02,-7.266550064086914062e-01,5.124263763427734375e-01,-4.623242095112800598e-02,-1.753921508789062500e-01,-6.980010867118835449e-01,-1.116238087415695190e-01,-6.014463305473327637e-01,8.939342945814132690e-02,-2.359792739152908325e-01
-1.049986556172370911e-01,-2.288464605808258057e-01,9.092824161052703857e-02,6.481947749853134155e-02,-9.767903946340084076e-03,2.370796799659729004e-01,-3.696925640106201172e-01,-3.463131487369537354e-01,-5.274598598480224609e-01,6.573898792266845703e-01,-4.002247154712677002e-01,1.142696887254714966e-01,-6.547666192054748535e-01,6.332547068595886230e-01,-2.418647259473800659e-01,1.120776403695344925e-02,-7.749581336975097656e-01,-3.776775002479553223e-01,-5.024312138557434082e-01,-2.157384995371103287e-03,-4.202532768249511719e-01
-2.411739081144332886e-01,-1.187464147806167603e-01,2.709062695503234863e-01,1.050270348787307739e-02,-7.583530247211456299e-02,1.983431428670883179e-01,-4.108801782131195068e-01,-3.441202640533447266e-01,-1.875764578580856323e-01,8.651740550994873047e-01,-2.866013050079345703e-01,4.191596992313861847e-03,-5.275398492813110352e-01,6.051899790763854980e-01,-3.776864409446716309e-01,1.558045893907546997e-01,-4.528662264347076416e-01,-1.695235073566436768e-01,-5.247470736503601074e-01,1.997737139463424683e-01,-3.062196671962738037e-01
-3.905678987503051758e-01,-8.528925478458404541e-02,-1.178753189742565155e-02,5.300112068653106689e-02,-2.074272930622100830e-01,3.457807004451751709e-01,-1.347979307174682617e-01,-4.398484230041503906e-01,-2.180214226245880127e-01,6.597197651863098145e-01,-3.897605240345001221e-01,-1.533125340938568115e-02,-4.006406068801879883e-01,4.524403512477874756e-01,-2.169938385486602783e-01,4.254315495491027832e-01,-4.017855226993560791e-01,-3.158486187458038330e-01,-4.704060554504394531e-01,-1.154670938849449158e-01,-6.587032675743103027e-01
-2.131817489862442017e-01,-1.130888387560844421e-01,1.664824932813644409e-01,-1.268894523382186890e-01,3.184680640697479248e-02,1.941950619220733643e-01,-1.883933246135711670e-01,-3.941346108913421631e-01,-1.475888788700103760e-01,8.852226138114929199e-01,-2.978418767452239990e-01,-7.680501043796539307e-02,-4.778794646263122559e-01,5.898280143737792969e-01,-1.893811523914337158e-01,4.045232236385345459e-01,-4.419306218624114990e-01,-4.002359211444854736e-01,-5.354909896850585938e-01,-2.264876477420330048e-02,-5.666094422340393066e-01
-2.609017491340637207e-01,-6.293240189552307129e-02,4.178569465875625610e-02,-1.350055485963821411e-01,5.957932211458683014e-03,2.642014324665069580e-01,-1.305607110261917114e-01,-1.241146773099899292e-01,-3.729428350925445557e-01,7.895367145538330078e-01,-3.828390836715698242e-01,-1.886672377586364746e-01,-1.616582423448562622e-01,5.618807673454284668e-01,-3.308982253074645996e-01,6.225597262382507324e-01,-1.657827198505401611e-01,-4.101056754589080811e-01,-5.738242268562316895e-01,8.870673179626464844e-02,-6.605088114738464355e-01
-1.713342815637588501e-01,-2.230748683214187622e-01,4.356973618268966675e-02,-2.966014444828033447e-01,-7.454753667116165161e-02,2.748956084251403809e-01,-1.381620764732360840e-01,-3.410665392875671387e-01,-1.764428913593292236e-01,9.100699424743652344e-01,-1.198358610272407532e-01,-1.429610997438430786e-01,-3.380673527717590332e-01,5.803746581077575684e-01,-4.726969599723815918e-01,3.932566940784454346e-01,-4.517942965030670166e-01,-3.964982032775878906e-01,-2.678805589675903320e-01,-2.658788263797760010e-01,-6.091462969779968262e-01
-8.265142142772674561e-02,-2.681654989719390869e-01,1.993905454874038696e-01,-1.435366272926330566e-01,1.153214424848556519e-01,3.185953199863433838e-01,9.831541776657104492e-02,-1.890539675951004028e-01,-6.585159897804260254e-02,1.121270060539245605e+00,-2.019059509038925171e-01,-2.727009057998657227e-01,-1.646928787231445312e-01,2.724917531013488770e-01,-4.649169743061065674e-01,6.207767724990844727e-01,-1.590874195098876953e-01,-4.648671746253967285e-01,-5.286974310874938965e-01,-2.612527012825012207e-01,-6.449279785156250000e-01
-3.552835434675216675e-02,-1.442665308713912964e-01,-1.111605390906333923e-01,-7.150191068649291992e-02,1.794272661209106445e-01,4.176535904407501221e-01,1.342015862464904785e-01,-2.964169979095458984e-01,-1.832649111747741699e-01,8.891599178314208984e-01,-1.061598137021064758e-01,-4.053641557693481445e-01,-7.905928045511245728e-02,3.128361105918884277e-01,-5.522837042808532715e-01,4.298745095729827881e-01,-1.192879155278205872e-01,-3.876037597656250000e-01,-1.417286843061447144e-01,-2.943705320358276367e-01,-6.319333910942077637e-01
-1.609476357698440552e-01,-1.794021576642990112e-01,-1.275590658187866211e-01,-1.361316740512847900e-01,1.382039636373519897e-01,7.267012447118759155e-02,4.250819608569145203e-02,-3.591640666127204895e-02,-2.289229780435562134e-01,1.114505529403686523e+00,5.298100784420967102e-02,-4.300830066204071045e-01,-1.054313257336616516e-01,1.813951283693313599e-01,-8.278421163558959961e-01,6.812590956687927246e-01,-2.983909845352172852e-01,-5.244487524032592773e-01,-2.309163063764572144e-01,-1.791399717330932617e-01,-7.177177071571350098e-01
4.643054679036140442e-02,-1.596243530511856079e-01,2.143191546201705933e-01,-2.608855962753295898e-01,2.572966217994689941e-01,2.241613864898681641e-01,9.467680007219314575e-02,-2.311170101165771484e-01,-7.480929791927337646e-02,1.076908588409423828e+00,-2.502449974417686462e-02,-4.121357798576354980e-01,-1.037826016545295715e-01,1.951828151941299438e-01,-5.664483308792114258e-01,6.667291522026062012e-01,-2.009806036949157715e-01,-5.438085794448852539e-01,-1.421379595994949341e-01,-2.700153887271881104e-01,-7.160492539405822754e-01
-5.152780935168266296e-02,5.292570590972900391e-02,6.091143190860748291e-02,-2.907335460186004639e-01,2.779799103736877441e-01,1.735085248947143555e-01,-1.438839081674814224e-02,9.339939802885055542e-02,4.072984680533409119e-02,9.600383639335632324e-01,1.834029518067836761e-02,-4.082758426666259766e-01,4.557802900671958923e-02,1.297617107629776001e-01,-4.755830764770507812e-01,6.425170898437500000e-01,-1.166526228189468384e-02,-5.807777047157287598e-01,-2.339828908443450928e-01,-9.851975739002227783e-02,-5.988014936447143555e-01
3.240861892700195312e-01,-2.192647308111190796e-01,1.637666821479797363e-01,-3.120642900466918945e-01,2.303882390260696411e-01,2.877447009086608887e-01,3.533838316798210144e-02,1.681599318981170654e-01,1.315887719392776489e-01,9.979003667831420898e-01,1.846934854984283447e-01,-5.901629924774169922e-01,4.581255465745925903e-02,-7.447595894336700439e-02,-5.098761916160583496e-01,6.574746966361999512e-01,-1.318026632070541382e-01,-5.579285025596618652e-01,-3.316236287355422974e-02,-3.614558577537536621e-01,-5.639849901199340820e-01
1.892280131578445435e-01,-2.071216702461242676e-01,1.237509474158287048e-01,-4.344480633735656738e-01,1.860930770635604858e-01,3.519328832626342773e-01,-7.009989023208618164e-02,3.013024032115936279e-01,4.806631058454513550e-02,1.056199312210083008e+00,4.292956888675689697e-01,-4.201064705848693848e-01,1.036396920680999756e-01,-3.679389879107475281e-02,-5.529478192329406738e-01,9.763844609260559082e-01,-1.937049180269241333e-01,-7.460664510726928711e-01,-1.083286628127098083e-01,-8.563499152660369873e-02,-7.010911703109741211e-01
-3.801747784018516541e-02,-9.120775759220123291e-02,2.191043049097061157e-01,-3.977852761745452881e-01,1.263954490423202515e-01,2.077204287052154541e-01,1.072342395782470703e-01,3.057045936584472656e-01,1.817648410797119141e-01,9.236835837364196777e-01,4.369110465049743652e-01,-4.672186076641082764e-01,2.953618466854095459e-01,-1.427304297685623169e-01,-5.693871378898620605e-01,7.560895085334777832e-01,-1.889738291501998901e-01,-6.535564661026000977e-01,-4.231928661465644836e-02,-6.722828000783920288e-02,-6.055187582969665527e-01
1.510009020566940308e-01,-1.180233880877494812e-01,6.492853164672851562e-02,-6.296436190605163574e-01,4.143142700195312500e-02,2.189711928367614746e-01,-1.656413227319717407e-01,1.054947376251220703e-01,1.498623192310333252e-01,8.653661012649536133e-01,4.341142773628234863e-01,-6.641564369201660156e-01,2.872467935085296631e-01,-1.728421747684478760e-01,-3.823279142379760742e-01,5.997818708419799805e-01,-1.290554404258728027e-01,-6.267095208168029785e-01,1.505125612020492554e-01,-6.272537168115377426e-03,-6.148521900177001953e-01
1.449452936649322510e-01,1.130343694239854813e-02,7.688486576080322266e-02,-5.251942873001098633e-01,3.764719516038894653e-02,2.477145195007324219e-01,1.967405714094638824e-02,4.369365572929382324e-01,2.482344359159469604e-01,7.216914892196655273e-01,3.426391184329986572e-01,-8.970042467117309570e-01,2.904933989048004150e-01,-3.313674032688140869e-01,-2.958647608757019043e-01,7.532142400741577148e-01,5.201796814799308777e-02,-6.266723871231079102e-01,-2.783111296594142914e-02,4.493695497512817383e-02,-6.440559029579162598e-01
1.568409949541091919e-01,-1.529484093189239502e-01,1.364349275827407837e-01,-5.544009804725646973e-01,-1.893980205059051514e-01,5.355938673019409180e-01,-2.843471169471740723e-01,2.626812160015106201e-01,2.485833764076232910e-01,8.104839920997619629e-01,6.111807227134704590e-01,-8.172143697738647461e-01,2.489058971405029297e-01,-4.623041152954101562e-01,-4.150190353393554688e-01,7.052853107452392578e-01,-3.933826461434364319e-02,-6.931411623954772949e-01,1.806599050760269165e-01,-2.647754736244678497e-02,-5.789223909378051758e-01
2.932053208351135254e-01,-9.041932970285415649e-02,2.853575721383094788e-02,-6.697031855583190918e-01,-9.803196042776107788e-02,2.877399921417236328e-01,-1.436330974102020264e-01,3.334189057350158691e-01,2.187590599060058594e-01,6.887122988700866699e-01,4.994368851184844971e-01,-8.943521380424499512e-01,1.338842511177062988e-01,-4.909439682960510254e-01,-2.535777091979980469e-01,6.536103487014770508e-01,7.696590572595596313e-02,-5.532246232032775879e-01,-2.633817680180072784e-02,-2.828268706798553467e-02,-3.966916799545288086e-01
2.661458849906921387e-01,-1.526339799165725708e-01,1.051724702119827271e-01,-5.533686280250549316e-01,-3.474202752113342285e-01,2.606790363788604736e-01,-2.845735251903533936e-01,5.454381182789802551e-02,1.915168464183807373e-01,6.456897854804992676e-01,5.267113447189331055e-01,-6.493549346923828125e-01,2.982949279248714447e-02,-4.888201057910919189e-01,-9.899807721376419067e-02,6.787497997283935547e-01,2.160403132438659668e-02,-7.756947875022888184e-01,1.239181980490684509e-01,1.577689945697784424e-01,-2.668367326259613037e-01
8.728125691413879395e-02,-2.712904512882232666e-01,-4.469764884561300278e-03,-4.943870007991790771e-01,-3.298226296901702881e-01,2.831537723541259766e-01,-2.724356651306152344e-01,8.823448419570922852e-02,-1.091812364757061005e-02,3.517072796821594238e-01,5.782149434089660645e-01,-8.518801331520080566e-01,-7.771888375282287598e-02,-5.181999802589416504e-01,-1.812984198331832886e-01,5.393791794776916504e-01,1.670753806829452515e-01,-7.703717947006225586e-01,1.192433945834636688e-02,3.085046410560607910e-01,-1.178222447633743286e-01
3.278366327285766602e-01,-3.029214739799499512e-01,1.702577024698257446e-01,-3.145373463630676270e-01,-5.858290791511535645e-01,4.549448490142822266e-01,-4.074891209602355957e-01,1.487165838479995728e-01,4.905755445361137390e-02,6.586243510246276855e-01,6.302498579025268555e-01,-7.943838834762573242e-01,-2.184632569551467896e-01,-5.118497610092163086e-01,9.233539551496505737e-02,8.498139381408691406e-01,3.410105705261230469e-01,-7.619579434394836426e-01,-2.652929723262786865e-01,-8.941363543272018433e-02,-3.973615821450948715e-03
1.534303426742553711e-01,-1.287021189928054810e-01,-9.578470885753631592e-02,-3.495830297470092773e-01,-3.795922100543975830e-01,2.596576511859893799e-01,-3.518160283565521240e-01,-1.172368451952934265e-01,9.629119187593460083e-02,4.958599507808685303e-01,5.008623600006103516e-01,-7.659209966659545898e-01,-1.270387917757034302e-01,-5.631210803985595703e-01,5.084065720438957214e-02,5.426018834114074707e-01,2.778371274471282959e-01,-7.829405069351196289e-01,-3.306955397129058838e-01,1.733014732599258423e-01,-2.324190922081470490e-02
-1.301702018827199936e-02,-6.368827074766159058e-02,-7.983107119798660278e-02,-1.177851930260658264e-01,-7.233322262763977051e-01,2.030045390129089355e-01,-3.463894724845886230e-01,-2.927379310131072998e-01,1.513567846268415451e-02,6.406936645507812500e-01,5.770914554595947266e-01,-7.266537547111511230e-01,-1.641344577074050903e-01,-6.374670863151550293e-01,2.383470088243484497e-01,6.093212366104125977e-01,3.157883882522583008e-01,-8.430205583572387695e-01,-4.503164887428283691e-01,-1.513425558805465698e-01,2.929533459246158600e-02
1.431494653224945068e-01,-6.572984158992767334e-02,-1.917148679494857788e-01,-1.650282740592956543e-01,-6.793401837348937988e-01,2.109607905149459839e-01,-4.734815955162048340e-01,-1.611427068710327148e-01,1.742206141352653503e-02,5.573680996894836426e-01,4.607630074024200439e-01,-6.714587211608886719e-01,-1.784524619579315186e-01,-3.652725219726562500e-01,4.440373778343200684e-01,4.797709882259368896e-01,3.691243529319763184e-01,-8.916847705841064453e-01,-2.034209072589874268e-01,1.028724387288093567e-01,5.821738019585609436e-02
-6.705009937286376953e-02,-9.790007025003433228e-02,-6.439418345689773560e-02,3.072583302855491638e-02,-7.383732795715332031e-01,1.997680068016052246e-01,-5.714223980903625488e-01,-2.070075720548629761e-01,-9.448654949665069580e-02,3.898356258869171143e-01,3.611614108085632324e-01,-5.847743153572082520e-01,-5.262364745140075684e-01,-1.817075163125991821e-01,3.124825656414031982e-01,6.104674339294433594e-01,2.815380990505218506e-01,-7.249405384063720703e-01,-5.977473258972167969e-01,1.295327441766858101e-03,-1.455409335903823376e-03
-8.277390897274017334e-02,5.527749285101890564e-02,-1.306611746549606323e-01,7.602777332067489624e-02,-9.077569842338562012e-01,1.425509452819824219e-01,-7.456680536270141602e-01,-1.067528426647186279e-01,-1.670103669166564941e-01,5.005372762680053711e-01,4.820470809936523438e-01,-3.767613768577575684e-01,-3.859639763832092285e-01,-4.197330176830291748e-01,5.107811093330383301e-01,3.917735517024993896e-01,4.317415952682495117e-01,-6.218524575233459473e-01,-4.144900739192962646e-01,-4.870673269033432007e-02,1.059139706194400787e-02
-1.382589340209960938e-01,7.881425321102142334e-02,-1.275243461132049561e-01,2.363995462656021118e-01,-1.019618630409240723e+00,6.872533261775970459e-02,-4.746834933757781982e-01,-4.124482870101928711e-01,9.361045807600021362e-02,2.980943322181701660e-01,2.171519398689270020e-01,-5.349881649017333984e-01,-2.522507905960083008e-01,-2.676249146461486816e-01,5.753551721572875977e-01,6.112099885940551758e-01,2.345211654901504517e-01,-7.177099585533142090e-01,-3.881510794162750244e-01,-2.645210735499858856e-02,2.232136437669396400e-03
-4.918896406888961792e-02,7.346424460411071777e-02,-2.789271473884582520e-01,3.720058500766754150e-01,-9.525517821311950684e-01,-3.359690681099891663e-02,-5.900757312774658203e-01,-2.663229703903198242e-01,-4.647114872932434082e-02,4.485045969486236572e-01,2.024115175008773804e-01,-4.627743959426879883e-01,-2.837305068969726562e-01,-8.488377928733825684e-02,7.641802430152893066e-01,7.972701787948608398e-01,2.582830190658569336e-01,-6.058841943740844727e-01,-6.063751578330993652e-01,-4.325860366225242615e-02,7.654113322496414185e-02
-5.887555703520774841e-02,1.975363045930862427e-01,-2.788486778736114502e-01,4.384319782257080078e-01,-9.740981459617614746e-01,2.056116759777069092e-01,-7.377878427505493164e-01,-3.229586184024810791e-01,-1.609033532440662384e-02,5.913835763931274414e-01,1.745907664299011230e-01,-4.336385130882263184e-01,-1.623612791299819946e-01,1.432968582957983017e-02,8.764314055442810059e-01,6.808595061302185059e-01,3.197981715202331543e-01,-4.654925465583801270e-01,-3.972831964492797852e-01,-2.500065416097640991e-02,3.825651109218597412e-02
-3.347653150558471680e-02,-6.470506638288497925e-02,-3.571906685829162598e-01,4.854218661785125732e-01,-1.188072919845581055e+00,1.275667250156402588e-01,-5.893200635910034180e-01,-1.831803172826766968e-01,-4.965085908770561218e-02,4.364034235477447510e-01,4.409930482506752014e-02,-3.674846291542053223e-01,-2.183901071548461914e-01,3.684198250994086266e-03,7.163053154945373535e-01,4.438911676406860352e-01,9.630147367715835571e-02,-5.975421071052551270e-01,-6.059580445289611816e-01,2.704964764416217804e-02,1.961425840854644775e-01
-1.126333475112915039e-01,2.155820131301879883e-01,-6.527159214019775391e-01,5.859642028808593750e-01,-1.162404417991638184e+00,-2.726776758208870888e-03,-6.480479836463928223e-01,-2.003795951604843140e-01,-4.929926246404647827e-02,6.311272829771041870e-02,-1.164076179265975952e-01,-1.864048987627029419e-01,-3.187691271305084229e-01,1.873094774782657623e-02,8.761225938796997070e-01,5.849838256835937500e-01,1.209674850106239319e-01,-3.210345804691314697e-01,-4.903583228588104248e-01,8.113932609558105469e-02,8.049332350492477417e-02
-1.368461996316909790e-01,2.265767455101013184e-01,-6.832593679428100586e-01,3.278744816780090332e-01,-1.013255953788757324e+00,-6.456519663333892822e-02,-7.142966389656066895e-01,-3.896580934524536133e-01,-1.676029413938522339e-01,1.069601848721504211e-01,-2.095312178134918213e-01,-1.896597892045974731e-01,-2.845575511455535889e-01,-8.434913307428359985e-02,7.520614862442016602e-01,5.841749310493469238e-01,1.030552908778190613e-01,-1.185062825679779053e-01,-6.549537777900695801e-01,2.255389690399169922e-01,1.734485179185867310e-01
-1.075292006134986877e-01,3.331763446331024170e-01,-9.217305779457092285e-01,5.479575395584106445e-01,-1.240242958068847656e+00,-4.007420837879180908e-01,-5.118284225463867188e-01,-4.310908019542694092e-01,-9.249467402696609497e-02,1.410463154315948486e-01,-2.239258736371994019e-01,-3.696385025978088379e-01,-1.340132653713226318e-01,2.275555282831192017e-01,7.966017127037048340e-01,3.713165223598480225e-01,-9.562665969133377075e-02,-2.122859843075275421e-02,-7.881068587303161621e-01,1.973592042922973633e-01,9.492366015911102295e-02
-1.090836748480796814e-01,3.512039482593536377e-01,-9.467698931694030762e-01,6.126757860183715820e-01,-9.050431251525878906e-01,-3.567971885204315186e-01,-4.760653078556060791e-01,-4.683331251144409180e-01,-4.837116226553916931e-02,1.392699778079986572e-01,-7.645059376955032349e-02,-4.804876744747161865e-01,-3.399772644042968750e-01,3.053740859031677246e-01,6.979857683181762695e-01,4.632446169853210449e-01,-2.168900072574615479e-01,1.576225310564041138e-01,-7.423325181007385254e-01,2.265045344829559326e-01,-8.409857749938964844e-02
-1.938590593636035919e-02,3.375310301780700684e-01,-8.926609158515930176e-01,6.519294381141662598e-01,-9.036268591880798340e-01,-3.781282603740692139e-01,-3.112681210041046143e-01,-2.179968208074569702e-01,-2.341566532850265503e-01,-9.759324043989181519e-02,-3.125561475753784180e-01,-2.620515227317810059e-01,-3.458389937877655029e-01,1.666058897972106934e-01,7.588950395584106445e-01,2.319681644439697266e-01,-3.125691115856170654e-01,1.901654750108718872e-01,-6.054179072380065918e-01,2.736087739467620850e-01,-3.906508162617683411e-02
-2.901806533336639404e-01,5.697540640830993652e-01,-1.139024972915649414e+00,7.976486086845397949e-01,-9.102148413658142090e-01,-4.875471591949462891e-01,-4.482636451721191406e-01,-3.015881180763244629e-01,-1.497777849435806274e-01,-4.784669354557991028e-02,-4.042069017887115479e-01,-1.541905403137207031e-01,-1.404019445180892944e-01,2.242396473884582520e-01,6.820686459541320801e-01,1.472624540328979492e-01,-5.317633748054504395e-01,2.950707972049713135e-01,-7.105305194854736328e-01,1.996862292289733887e-01,2.352896332740783691e-01
-8.365385979413986206e-02,5.485972166061401367e-01,-9.462954998016357422e-01,4.957028925418853760e-01,-7.782686948776245117e-01,-4.152255058288574219e-01,-4.229113459587097168e-01,-5.323879122734069824e-01,-2.144114673137664795e-01,-1.515170037746429443e-01,-3.762801587581634521e-01,-2.251867502927780151e-01,-1.391343921422958374e-01,4.797848761081695557e-01,8.612736463546752930e-01,6.728109717369079590e-02,-1.441427171230316162e-01,1.297879219055175781e-01,-6.788167953491210938e-01,1.438312679529190063e-01,5.900775641202926636e-02
-1.666992008686065674e-01,5.870915055274963379e-01,-9.727802276611328125e-01,6.108114719390869141e-01,-6.042935848236083984e-01,-4.566100835800170898e-01,-2.188288718461990356e-01,-5.310062170028686523e-01,-2.325072735548019409e-01,-2.105395197868347168e-01,-4.304767847061157227e-01,-1.723464280366897583e-01,2.277795784175395966e-02,4.554720818996429443e-01,7.359116673469543457e-01,-1.238555535674095154e-01,-4.338400959968566895e-01,2.372807115316390991e-01,-7.200115323066711426e-01,1.212830189615488052e-02,4.540454223752021790e-02
-2.854401767253875732e-01,6.762059926986694336e-01,-8.590770363807678223e-01,6.328219771385192871e-01,-8.318853378295898438e-01,-3.912129402160644531e-01,-3.453763127326965332e-01,-5.030006170272827148e-01,-2.110694646835327148e-01,-2.211032956838607788e-01,-4.390087723731994629e-01,-1.261942386627197266e-01,-1.239307690411806107e-02,5.058559179306030273e-01,6.264941096305847168e-01,-7.654622197151184082e-02,-6.187041401863098145e-01,2.090148478746414185e-01,-7.650475502014160156e-01,1.412510424852371216e-01,1.816024780273437500e-01
-2.699913084506988525e-01,6.053304076194763184e-01,-7.241556644439697266e-01,5.694820284843444824e-01,-5.523492693901062012e-01,-3.556586205959320068e-01,-2.549147009849548340e-01,-3.245682716369628906e-01,-2.114771753549575806e-01,-1.938722282648086548e-02,-4.595353305339813232e-01,-1.917069591581821442e-02,-5.714830383658409119e-02,7.752183079719543457e-01,6.501872539520263672e-01,-1.857782155275344849e-01,-9.295138120651245117e-01,2.384537756443023682e-01,-6.671889424324035645e-01,3.306159377098083496e-01,-1.127125322818756104e-01
-2.512427270412445068e-01,6.508814096450805664e-01,-1.028803348541259766e+00,4.784075021743774414e-01,-5.753130316734313965e-01,-4.306164979934692383e-01,-4.899411201477050781e-01,-3.703460693359375000e-01,-3.519571423530578613e-01,-2.603804767131805420e-01,-2.685120403766632080e-01,-1.020328626036643982e-01,-2.082979083061218262e-01,5.455527305603027344e-01,7.037296891212463379e-01,-3.317449092864990234e-01,-7.879797220230102539e-01,1.552971601486206055e-01,-6.156196594238281250e-01,2.448190152645111084e-01,-2.440584823489189148e-02
-3.536232113838195801e-01,1.898253113031387329e-01,-8.739666342735290527e-01,2.314931899309158325e-01,-5.443214774131774902e-01,-2.047155350446701050e-01,-3.299792408943176270e-01,-5.374015569686889648e-01,-4.923653006553649902e-01,-8.278268575668334961e-02,-2.065306156873703003e-01,-6.153820455074310303e-02,3.395332023501396179e-02,5.425626635551452637e-01,6.414714455604553223e-01,-4.294591248035430908e-01,-9.238090515136718750e-01,-6.949428934603929520e-03,-4.809550940990447998e-01,1.640178561210632324e-01,4.692535731010138988e-04
-5.376758575439453125e-01,5.506608486175537109e-01,-7.067412137985229492e-01,4.505418241024017334e-01,-5.070243477821350098e-01,-1.384412199258804321e-01,-2.665892839431762695e-01,-5.524692535400390625e-01,-4.618441760540008545e-01,-6.490927934646606445e-02,-2.224586457014083862e-01,3.486911207437515259e-02,-1.362649053335189819e-01,7.543211579322814941e-01,8.087397217750549316e-01,-4.793290793895721436e-01,-9.593371748924255371e-01,1.500135064125061035e-01,-2.879914641380310059e-01,7.879642397165298462e-02,7.397525757551193237e-02
-5.972799062728881836e-01,1.874107122421264648e-01,-7.805941700935363770e-01,1.771925389766693115e-01,-5.408015251159667969e-01,-1.455633342266082764e-01,-1.046821326017379761e-01,-4.921230971813201904e-01,-4.381144046783447266e-01,-1.878315024077892303e-02,-2.562320530414581299e-01,-5.497155711054801941e-02,-3.664032369852066040e-02,5.914999842643737793e-01,6.312427520751953125e-01,-4.301928579807281494e-01,-9.416350126266479492e-01,1.288443505764007568e-01,-4.056969583034515381e-01,-7.483854144811630249e-02,-4.468743130564689636e-02
-4.901694953441619873e-01,4.224018454551696777e-01,-6.281390786170959473e-01,3.270759582519531250e-01,-4.779148995876312256e-01,-1.670019626617431641e-01,-5.281821489334106445e-01,-3.238477408885955811e-01,-5.188343524932861328e-01,9.299422055482864380e-02,-8.176615089178085327e-02,8.605427294969558716e-02,3.724950179457664490e-02,5.298938751220703125e-01,6.603767871856689453e-01,-5.101236104965209961e-01,-9.523004889488220215e-01,1.662268340587615967e-01,-1.887995153665542603e-01,-7.117648422718048096e-02,-1.691870540380477905e-01
-6.743860244750976562e-01,2.353133857250213623e-01,-6.320723891258239746e-01,1.368319690227508545e-01,-3.636474013328552246e-01,-1.137263104319572449e-01,-3.629099130630493164e-01,-2.884781360626220703e-01,-6.277335286140441895e-01,-2.104135751724243164e-01,-2.823572158813476562e-01,2.317516952753067017e-01,-9.170820564031600952e-02,5.777813792228698730e-01,5.555606484413146973e-01,-3.018209040164947510e-01,-8.606149554252624512e-01,3.926198929548263550e-02,-5.100857615470886230e-01,3.931947425007820129e-02,-5.079534649848937988e-02
-6.570551395416259766e-01,-2.376663312315940857e-02,-5.791085958480834961e-01,1.113050356507301331e-01,-3.482508063316345215e-01,5.436205863952636719e-02,-4.702365696430206299e-01,-4.211412072181701660e-01,-5.844478011131286621e-01,-9.659373760223388672e-02,-3.568482995033264160e-01,-3.742371452972292900e-03,-7.183001935482025146e-02,4.906777441501617432e-01,6.928185224533081055e-01,-3.097493946552276611e-01,-9.875644445419311523e-01,-2.001880295574665070e-02,-5.041506290435791016e-01,4.159073159098625183e-02,-2.274533957242965698e-01
-4.672541916370391846e-01,9.712058305740356445e-02,-5.792227387428283691e-01,2.185594476759433746e-02,-2.876701653003692627e-01,5.094075575470924377e-02,-2.268452495336532593e-01,-4.894219040870666504e-01,-7.162256836891174316e-01,1.297258287668228149e-01,-4.146794080734252930e-01,1.745749711990356445e-01,-4.826804623007774353e-02,6.469963192939758301e-01,3.641089200973510742e-01,-5.582547187805175781e-01,-8.013996481895446777e-01,9.811868518590927124e-02,-3.641108572483062744e-01,-2.009966373443603516e-01,-1.804301440715789795e-01
-8.215583562850952148e-01,-5.198580026626586914e-02,-3.715286552906036377e-01,1.642757207155227661e-01,-2.547324001789093018e-01,1.596596837043762207e-01,-1.247341036796569824e-01,-4.882371425628662109e-01,-6.435162425041198730e-01,2.001703083515167236e-01,-1.114450097084045410e-01,3.820945695042610168e-02,-1.172838211059570312e-01,6.409917473793029785e-01,3.796595633029937744e-01,-4.977965354919433594e-01,-8.936697244644165039e-01,-1.947144716978073120e-01,-3.964954316616058350e-01,-3.674603104591369629e-01,-8.051447570323944092e-03
-7.024144530296325684e-01,-1.309728920459747314e-01,-3.801761567592620850e-01,1.692453175783157349e-01,-2.731841206550598145e-01,1.691060215234756470e-01,-1.954062581062316895e-01,-6.410155892372131348e-01,-9.029389619827270508e-01,1.035273149609565735e-01,-3.846295177936553955e-01,2.601462006568908691e-01,1.334743797779083252e-01,6.168180704116821289e-01,2.379765510559082031e-01,-2.762257456779479980e-01,-7.358905076980590820e-01,-7.213495671749114990e-02,-5.039954185485839844e-01,-4.994842410087585449e-01,-2.639304697513580322e-01
-6.666195392608642578e-01,-2.312046587467193604e-01,-3.012964129447937012e-01,2.056550085544586182e-01,-1.283955425024032593e-01,4.920183867216110229e-02,-9.852220863103866577e-02,-5.845531821250915527e-01,-7.847434282302856445e-01,2.722637355327606201e-01,-3.494352102279663086e-01,5.046574473381042480e-01,1.031038984656333923e-01,7.021317481994628906e-01,3.519396185874938965e-01,-3.362368643283843994e-01,-6.705216765403747559e-01,-3.196255266666412354e-01,-4.906138181686401367e-01,-3.719279766082763672e-01,-3.257389068603515625e-01
-9.114668369293212891e-01,-3.867958784103393555e-01,-3.891700804233551025e-01,3.785109817981719971e-01,-1.452843248844146729e-01,-9.840332902967929840e-03,-9.091304987668991089e-02,-3.824451565742492676e-01,-1.039965391159057617e+00,2.832086682319641113e-01,-1.910121142864227295e-01,3.433825373649597168e-01,1.449622213840484619e-01,8.421333432197570801e-01,3.059719502925872803e-01,-2.805474698543548584e-01,-7.547830343246459961e-01,-1.796501725912094116e-01,-3.058344423770904541e-01,-4.598187804222106934e-01,-3.216824531555175781e-01
-8.428950309753417969e-01,-3.324949741363525391e-01,-1.450087279081344604e-01,1.639944612979888916e-01,-9.772635065019130707e-03,4.487476944923400879e-01,-1.686719059944152832e-01,-4.822156727313995361e-01,-9.672761559486389160e-01,5.258938670158386230e-01,-9.809980168938636780e-03,3.847783803939819336e-01,3.222199678421020508e-01,9.604706764221191406e-01,1.895761191844940186e-01,-2.582263648509979248e-01,-6.882054209709167480e-01,-3.109082281589508057e-01,-3.135725557804107666e-01,-4.528160989284515381e-01,-7.635627985000610352e-01
-8.664628267288208008e-01,-3.533215820789337158e-01,8.916518650949001312e-03,2.286707609891891479e-02,-7.814289629459381104e-02,6.694195419549942017e-02,-7.233329117298126221e-02,-2.432027608156204224e-01,-8.086847662925720215e-01,6.242194175720214844e-01,-3.232632279396057129e-01,3.172259926795959473e-01,3.439115285873413086e-01,9.110432267189025879e-01,7.850369065999984741e-02,-1.089738607406616211e-01,-6.498888731002807617e-01,-2.562904059886932373e-01,-2.750703692436218262e-01,-3.078905642032623291e-01,-6.126655936241149902e-01
-7.320244908332824707e-01,-5.246672630310058594e-01,-2.875408157706260681e-02,7.393777370452880859e-02,1.653176099061965942e-01,1.981759220361709595e-01,-1.114139556884765625e-01,-9.174515306949615479e-02,-5.415644049644470215e-01,5.151103138923645020e-01,-1.963392198085784912e-01,4.123249053955078125e-01,4.553735554218292236e-01,9.781641960144042969e-01,1.289049983024597168e-01,9.097635746002197266e-02,-6.543643474578857422e-01,-4.587627053260803223e-01,-1.034104377031326294e-01,-4.459711015224456787e-01,-5.944653153419494629e-01
-6.652005910873413086e-01,-6.063169240951538086e-01,-1.484024524688720703e-01,3.769180551171302795e-02,1.213003024458885193e-01,2.339856177568435669e-01,-7.044973224401473999e-02,-7.757529616355895996e-02,-5.329967737197875977e-01,5.155586004257202148e-01,-2.118792533874511719e-01,4.818486049771308899e-02,5.631587505340576172e-01,9.499611854553222656e-01,2.003537565469741821e-01,1.618747971951961517e-02,-7.434759736061096191e-01,-2.552426457405090332e-01,-7.606641203165054321e-02,-6.309719681739807129e-01,-9.689878225326538086e-01
-4.988073706626892090e-01,-6.740626096725463867e-01,-9.200843423604965210e-02,-1.064814105629920959e-01,2.105889767408370972e-01,4.123453497886657715e-01,1.499550491571426392e-01,-2.255925089120864868e-01,-4.333665370941162109e-01,6.707535982131958008e-01,9.063483774662017822e-02,1.385018527507781982e-01,3.917237222194671631e-01,8.145046830177307129e-01,4.501152783632278442e-02,2.424414902925491333e-01,-5.055892467498779297e-01,-1.699971556663513184e-01,-4.533768445253372192e-02,-4.953811764717102051e-01,-9.187885522842407227e-01
-5.086683630943298340e-01,-6.958473324775695801e-01,2.226864695549011230e-01,-8.724344521760940552e-02,1.351313591003417969e-01,1.991900503635406494e-01,2.535505918785929680e-03,2.629273198544979095e-02,-3.487058877944946289e-01,6.615939736366271973e-01,3.063590638339519501e-02,3.418013826012611389e-02,5.860732793807983398e-01,7.872202396392822266e-01,6.181952357292175293e-02,1.696280539035797119e-01,-5.702654719352722168e-01,-1.525750309228897095e-01,-1.286358535289764404e-01,-5.495797395706176758e-01,-1.340746879577636719e+00
-4.078204035758972168e-01,-4.858759939670562744e-01,1.383060216903686523e-01,-2.508701980113983154e-01,1.286512911319732666e-01,2.073271274566650391e-01,9.520076960325241089e-02,2.148761749267578125e-01,-2.450774759054183960e-01,5.107881426811218262e-01,-3.774375468492507935e-02,-8.469059318304061890e-02,5.745058059692382812e-01,6.932226419448852539e-01,-7.157891243696212769e-02,2.997067272663116455e-01,-7.699256539344787598e-01,-2.668763101100921631e-01,8.145435154438018799e-02,-4.230029284954071045e-01,-1.116470932960510254e+00
-1.081572398543357849e-01,-7.022085189819335938e-01,1.419026851654052734e-01,-5.145835280418395996e-01,2.906037867069244385e-01,7.844660431146621704e-02,1.675630733370780945e-02,1.126872971653938293e-01,-1.076383665204048157e-01,4.055887460708618164e-01,1.826061159372329712e-01,-1.783897280693054199e-01,7.160435914993286133e-01,5.279706716537475586e-01,-1.628043949604034424e-01,2.941896319389343262e-01,-6.018815040588378906e-01,-2.473051100969314575e-01,2.174319326877593994e-02,-2.008653283119201660e-01,-1.087098002433776855e+00
-8.015174418687820435e-02,-8.198511004447937012e-01,1.336562186479568481e-01,-4.066996574401855469e-01,2.364194393157958984e-01,-9.980502724647521973e-02,7.239754498004913330e-02,2.279407531023025513e-01,-1.812260597944259644e-01,4.504429399967193604e-01,-2.099431864917278290e-02,-2.444594353437423706e-01,8.473559021949768066e-01,5.465604066848754883e-01,-2.908717393875122070e-01,3.265898227691650391e-01,-5.049900412559509277e-01,-3.239198029041290283e-01,5.066533684730529785e-01,-4.740087091922760010e-01,-1.102069377899169922e+00
-1.568131893873214722e-01,-6.019799113273620605e-01,2.035795301198959351e-01,-5.428447723388671875e-01,3.788657188415527344e-01,-1.017257496714591980e-01,-4.720139130949974060e-02,1.062663719058036804e-01,5.813344568014144897e-02,4.319420754909515381e-01,1.437158286571502686e-01,-4.292229115962982178e-01,5.873339772224426270e-01,3.140190243721008301e-01,-4.196008145809173584e-01,3.827620744705200195e-01,-4.420151412487030029e-01,-2.102833837270736694e-01,4.239250123500823975e-01,-2.698231339454650879e-01,-1.064128875732421875e+00
2.917907536029815674e-01,-7.269973754882812500e-01,6.393095850944519043e-02,-5.303246974945068359e-01,3.711625039577484131e-01,-4.613297805190086365e-02,1.105802599340677261e-02,1.929586976766586304e-01,1.342158019542694092e-01,3.123684823513031006e-01,2.252506613731384277e-01,-5.381031036376953125e-01,4.709120392799377441e-01,6.517049670219421387e-01,-3.894605934619903564e-01,2.411068826913833618e-01,-4.241004884243011475e-01,-2.399613112211227417e-01,2.836813628673553467e-01,-8.368120342493057251e-02,-1.165001511573791504e+00
-6.893700361251831055e-02,-6.126024723052978516e-01,1.692115366458892822e-01,-5.683960318565368652e-01,5.308879613876342773e-01,-1.872053444385528564e-01,-2.463774532079696655e-01,3.481308817863464355e-01,1.582662165164947510e-01,3.267834484577178955e-01,1.846409291028976440e-01,-6.357637643814086914e-01,6.882875561714172363e-01,4.457252025604248047e-01,-4.290364384651184082e-01,3.457587361335754395e-01,-5.912774205207824707e-01,-2.478169947862625122e-01,4.637759327888488770e-01,-2.130282670259475708e-01,-9.090493321418762207e-01
2.399573177099227905e-01,-7.619802951812744141e-01,2.600919306278228760e-01,-4.873689413070678711e-01,4.591010510921478271e-01,-1.834235489368438721e-01,-1.161277964711189270e-01,3.632598519325256348e-01,8.068142831325531006e-02,6.662490218877792358e-02,3.334999978542327881e-01,-6.571910381317138672e-01,5.848891139030456543e-01,2.519046664237976074e-01,-5.314273238182067871e-01,3.590296208858489990e-01,-3.977543413639068604e-01,-3.964542448520660400e-01,4.941919445991516113e-01,-1.588168442249298096e-01,-1.063266158103942871e+00
1.806247383356094360e-01,-6.142649054527282715e-01,3.306898772716522217e-01,-6.259549856185913086e-01,3.217482566833496094e-01,-2.277719601988792419e-02,-2.393320649862289429e-01,3.168123364448547363e-01,5.549661815166473389e-02,1.545678973197937012e-01,1.461375355720520020e-01,-6.155124306678771973e-01,5.011694431304931641e-01,1.228419840335845947e-01,-2.672950923442840576e-01,3.133534193038940430e-01,-1.843622028827667236e-01,-4.687585830688476562e-01,3.837119638919830322e-01,-2.036680579185485840e-01,-8.597972989082336426e-01
1.915004253387451172e-01,-6.790089607238769531e-01,4.795930087566375732e-01,-6.857327818870544434e-01,4.927639663219451904e-01,-2.230760306119918823e-01,-3.789476156234741211e-01,1.780477166175842285e-01,2.135196477174758911e-01,1.228050366044044495e-01,4.584029018878936768e-01,-6.536344289779663086e-01,5.012829899787902832e-01,1.621545702219009399e-01,-1.909511834383010864e-01,3.269705176353454590e-01,-1.414641737937927246e-01,-1.103660985827445984e-01,2.081484049558639526e-01,-1.095635369420051575e-01,-8.777493238449096680e-01
3.176363110542297363e-01,-6.109030842781066895e-01,6.156947612762451172e-01,-9.557591080665588379e-01,4.013357460498809814e-01,-1.653668582439422607e-01,-3.431314826011657715e-01,2.521145045757293701e-01,1.827828139066696167e-01,1.387734413146972656e-01,5.261602997779846191e-01,-6.604583263397216797e-01,4.692358970642089844e-01,6.563648581504821777e-02,-3.092465102672576904e-01,3.249826133251190186e-01,-3.687799274921417236e-01,-3.885020017623901367e-01,4.822861254215240479e-01,3.544015809893608093e-02,-7.846775650978088379e-01
3.049319386482238770e-01,-5.696300864219665527e-01,3.279955983161926270e-01,-6.774005293846130371e-01,2.344418466091156006e-01,-2.199415713548660278e-01,-5.102348923683166504e-01,2.863018214702606201e-01,4.659137502312660217e-02,3.054210543632507324e-01,5.906130671501159668e-01,-8.380624055862426758e-01,3.847505748271942139e-01,-5.115454643964767456e-02,-2.847020924091339111e-01,3.921544253826141357e-01,-1.555921584367752075e-01,-4.267452061176300049e-01,4.293451011180877686e-01,-5.097912251949310303e-02,-7.771742343902587891e-01
1.963900178670883179e-01,-7.465865612030029297e-01,4.580750465393066406e-01,-6.820501685142517090e-01,3.617600724101066589e-02,6.162948161363601685e-02,-6.832457780838012695e-01,3.345809578895568848e-01,1.726096570491790771e-01,1.749792844057083130e-01,6.429665088653564453e-01,-8.431724905967712402e-01,1.104198098182678223e-01,-1.342606246471405029e-01,-1.629766672849655151e-01,3.535186350345611572e-01,-2.036928385496139526e-01,-3.638662993907928467e-01,2.668023407459259033e-01,1.264459043741226196e-01,-7.842785120010375977e-01
3.402724564075469971e-01,-8.228672146797180176e-01,6.054627299308776855e-01,-6.127379536628723145e-01,2.212399393320083618e-01,-2.293231040239334106e-01,-7.525186538696289062e-01,2.434484064579010010e-01,3.253396153450012207e-01,1.877450942993164062e-01,4.633628427982330322e-01,-9.937887191772460938e-01,1.043906137347221375e-01,6.103555113077163696e-02,-5.643409118056297302e-02,4.502950310707092285e-01,-6.847831606864929199e-02,-3.304007053375244141e-01,1.145236566662788391e-01,1.382620781660079956e-01,-5.796940326690673828e-01
3.848714232444763184e-01,-9.623231887817382812e-01,5.362903475761413574e-01,-4.976724386215209961e-01,1.178912445902824402e-01,-9.396653622388839722e-02,-7.805505394935607910e-01,2.404357343912124634e-01,5.231582522392272949e-01,5.110533908009529114e-02,3.831292390823364258e-01,-7.583910822868347168e-01,4.145089164376258850e-02,-3.926047310233116150e-02,3.159575462341308594e-01,2.934569716453552246e-01,-4.307929798960685730e-02,-3.016682863235473633e-01,1.578235477209091187e-01,4.449173808097839355e-01,-4.489595592021942139e-01
1.997963786125183105e-01,-8.937013745307922363e-01,6.642155051231384277e-01,-5.155254602432250977e-01,7.635252922773361206e-02,-2.966038286685943604e-01,-8.698655962944030762e-01,1.199858412146568298e-01,2.333662062883377075e-01,2.573952376842498779e-01,3.489158451557159424e-01,-6.757908463478088379e-01,1.686828024685382843e-02,-8.792540431022644043e-02,-2.379645220935344696e-02,4.303517341613769531e-01,1.971772313117980957e-02,-3.380067646503448486e-01,1.017613038420677185e-01,2.727442383766174316e-01,-6.783418655395507812e-01
1.018726900219917297e-01,-8.807419538497924805e-01,6.079912185668945312e-01,-5.473350882530212402e-01,1.577027491293847561e-03,-1.099622398614883423e-01,-1.024508476257324219e+00,4.257067665457725525e-02,2.478065788745880127e-01,-3.913767635822296143e-02,4.036572277545928955e-01,-7.460953593254089355e-01,-8.519502729177474976e-02,5.495816096663475037e-02,2.219969034194946289e-01,5.817563533782958984e-01,1.034797728061676025e-01,-2.960100769996643066e-01,1.798876374959945679e-01,3.435954153537750244e-01,-4.782952368259429932e-01
3.784852921962738037e-01,-7.001598477363586426e-01,5.140231847763061523e-01,-4.900278151035308838e-01,-1.492218375205993652e-01,-5.255922675132751465e-01,-1.056919932365417480e+00,3.523010388016700745e-02,2.911007702350616455e-01,-5.438101012259721756e-03,4.050645530223846436e-01,-7.211084961891174316e-01,-1.342871934175491333e-01,-5.287010595202445984e-02,1.357060223817825317e-01,4.675195515155792236e-01,3.752171695232391357e-01,-2.394119799137115479e-01,-5.423558875918388367e-02,3.071148991584777832e-01,-4.250596761703491211e-01
1.902615576982498169e-01,-8.656090497970581055e-01,3.369307816028594971e-01,-6.469077467918395996e-01,-3.160451352596282959e-01,-3.299155235290527344e-01,-1.119684338569641113e+00,-3.530552238225936890e-02,2.088785022497177124e-01,-5.365663394331932068e-02,3.325036466121673584e-01,-8.788755536079406738e-01,-2.012303620576858521e-01,-7.326534390449523926e-02,2.590930461883544922e-01,6.690026521682739258e-01,2.603564560413360596e-01,-3.216811716556549072e-01,-1.581529974937438965e-01,1.175213679671287537e-01,-3.457395434379577637e-01
3.181263208389282227e-01,-5.863411426544189453e-01,2.749679386615753174e-01,-4.617045819759368896e-01,-3.180126547813415527e-01,-6.999036073684692383e-01,-9.098862409591674805e-01,-3.845981061458587646e-01,2.509106695652008057e-01,-7.933286018669605255e-03,3.289872407913208008e-01,-9.407215714454650879e-01,-2.150471210479736328e-01,-2.669683657586574554e-02,6.026135683059692383e-01,4.988852143287658691e-01,3.520210087299346924e-01,-5.354193598031997681e-02,-1.628749519586563110e-01,-4.172240197658538818e-02,-4.218425452709197998e-01
1.496357917785644531e-01,-6.678338050842285156e-01,4.000732898712158203e-01,-4.080909490585327148e-01,-2.916038632392883301e-01,-7.424535155296325684e-01,-1.057499647140502930e+00,-8.778047561645507812e-02,4.754937719553709030e-03,2.115964889526367188e-03,4.003758728504180908e-02,-7.575543522834777832e-01,-1.835092157125473022e-01,5.812379345297813416e-02,3.997366130352020264e-01,5.521672964096069336e-01,4.182695448398590088e-01,-1.002443805336952209e-01,-1.839713156223297119e-01,3.281259834766387939e-01,-2.206388413906097412e-01
8.366187661886215210e-02,-4.269334375858306885e-01,7.259805500507354736e-02,-1.713338792324066162e-01,-2.334337234497070312e-01,-6.702220439910888672e-01,-9.042248129844665527e-01,-3.540349006652832031e-01,1.247159913182258606e-01,2.490103617310523987e-02,2.309176176786422729e-01,-8.330578804016113281e-01,-3.536190092563629150e-01,8.411006629467010498e-02,3.535808920860290527e-01,5.025683641433715820e-01,4.062055349349975586e-01,-1.509375274181365967e-01,-4.169190824031829834e-01,1.450110375881195068e-01,-2.081160992383956909e-01
2.385087609291076660e-01,-3.466454744338989258e-01,1.147248968482017517e-01,-2.481553852558135986e-01,-2.526927590370178223e-01,-7.110972404479980469e-01,-1.008769392967224121e+00,-3.726047277450561523e-01,3.958379849791526794e-02,-4.898088797926902771e-02,1.438806056976318359e-01,-6.587733030319213867e-01,-3.604777157306671143e-01,2.714052200317382812e-01,3.175861239433288574e-01,4.677608311176300049e-01,1.951744556427001953e-01,3.551219776272773743e-02,-7.410726547241210938e-01,3.537573516368865967e-01,-2.737958133220672607e-01
4.511443153023719788e-02,-3.481130301952362061e-01,1.300114989280700684e-01,-8.734399825334548950e-02,-3.843444585800170898e-01,-1.006858587265014648e+00,-7.285193204879760742e-01,-6.336433887481689453e-01,2.825100719928741455e-02,-5.439183861017227173e-02,-1.623651757836341858e-02,-6.905562281608581543e-01,-5.242875814437866211e-01,4.335733354091644287e-01,2.908556461334228516e-01,4.974454641342163086e-01,-4.437709972262382507e-02,1.699905097484588623e-01,-6.118403077125549316e-01,1.999368965625762939e-01,-3.682774901390075684e-01
1.248886063694953918e-01,-1.597883403301239014e-01,1.340316236019134521e-01,5.987983196973800659e-02,-2.227720171213150024e-01,-8.982951045036315918e-01,-9.616388082504272461e-01,-4.847907423973083496e-01,-1.003648340702056885e-01,-6.339217722415924072e-02,-1.020933091640472412e-01,-5.577121376991271973e-01,-3.554150760173797607e-01,3.357559442520141602e-01,4.531868994235992432e-01,2.483695894479751587e-01,2.957669496536254883e-01,8.848193287849426270e-02,-6.684196591377258301e-01,9.906902909278869629e-02,-1.579664200544357300e-01
2.636153697967529297e-01,-3.303881585597991943e-01,-9.991429746150970459e-02,-1.874615252017974854e-01,-1.598387360572814941e-01,-9.649235606193542480e-01,-8.245797157287597656e-01,-5.651809573173522949e-01,-8.036015182733535767e-02,-7.420527935028076172e-02,3.612203523516654968e-02,-6.031369566917419434e-01,-3.625663220882415771e-01,3.202591836452484131e-01,5.674702525138854980e-01,3.674376010894775391e-01,1.439411938190460205e-01,4.611338376998901367e-01,-6.154599189758300781e-01,2.820219397544860840e-01,-3.228971660137176514e-01
1.315111666917800903e-01,-2.931797504425048828e-01,-3.417199477553367615e-02,6.733889132738113403e-02,-1.265369802713394165e-01,-9.808144569396972656e-01,-9.673973321914672852e-01,-6.511117219924926758e-01,5.293041467666625977e-03,-6.899847835302352905e-02,-1.356532573699951172e-01,-1.807745844125747681e-01,-3.336433172225952148e-01,4.291155934333801270e-01,1.985011249780654907e-01,4.034536182880401611e-01,-1.492762193083763123e-02,1.495345234870910645e-01,-6.918784976005554199e-01,3.314339220523834229e-01,-1.908439099788665771e-01
1.395201981067657471e-01,-3.362644463777542114e-02,9.642142802476882935e-02,-9.679587930440902710e-02,-2.878424525260925293e-01,-1.013646125793457031e+00,-8.974267244338989258e-01,-4.930819272994995117e-01,1.811936795711517334e-01,-4.221234843134880066e-02,-2.091964930295944214e-01,-2.086503803730010986e-01,-3.770615756511688232e-01,3.028239607810974121e-01,2.053535282611846924e-01,2.476494610309600830e-01,-3.815528005361557007e-02,1.550915539264678955e-01,-8.270207643508911133e-01,3.052234351634979248e-01,-1.294877678155899048e-01
5.372469499707221985e-02,7.228267937898635864e-02,-4.819061234593391418e-02,-1.036733314394950867e-01,-1.651153862476348877e-01,-9.858233332633972168e-01,-6.649477481842041016e-01,-5.019075274467468262e-01,1.410789787769317627e-01,8.705208450555801392e-02,-2.426087558269500732e-01,-4.580721855163574219e-01,-2.022998332977294922e-01,3.200227618217468262e-01,4.875719845294952393e-01,1.607902646064758301e-01,-5.907624214887619019e-02,1.635262370109558105e-01,-6.497727632522583008e-01,4.603620171546936035e-01,-1.395712941884994507e-01
-1.462672799825668335e-01,7.381211966276168823e-02,-2.476209402084350586e-01,-1.888808906078338623e-01,8.044101297855377197e-02,-1.097639679908752441e+00,-8.991110324859619141e-01,-5.207926630973815918e-01,-1.799341887235641479e-01,-7.898501306772232056e-02,6.996572762727737427e-02,-5.302929282188415527e-01,-2.256887257099151611e-01,2.601491510868072510e-01,5.653895139694213867e-01,2.188584953546524048e-01,-1.065209284424781799e-01,3.009389042854309082e-01,-6.855790019035339355e-01,3.831209242343902588e-01,-9.268772602081298828e-02
-1.439604163169860840e-01,1.995908170938491821e-01,-2.715306878089904785e-01,7.038092613220214844e-02,-6.944334506988525391e-02,-1.065002083778381348e+00,-7.980114817619323730e-01,-6.287937164306640625e-01,-6.348836421966552734e-02,-1.252167224884033203e-01,1.451504533179104328e-03,-3.728013932704925537e-01,-1.601787656545639038e-01,7.947038114070892334e-02,4.338394701480865479e-01,1.868601739406585693e-01,-1.150998473167419434e-01,4.766993820667266846e-01,-4.249917864799499512e-01,2.953302860260009766e-01,-1.110460460186004639e-01
-1.351722180843353271e-01,1.112707555294036865e-01,-3.527888059616088867e-01,-3.073577582836151123e-01,-3.387009799480438232e-01,-1.076573252677917480e+00,-7.089557647705078125e-01,-7.918999791145324707e-01,-6.221995130181312561e-02,-1.274130642414093018e-01,9.878364950418472290e-02,-3.618613481521606445e-01,-2.753521800041198730e-01,2.928485870361328125e-01,2.785394489765167236e-01,-1.106976494193077087e-01,-1.497561484575271606e-01,2.955730855464935303e-01,-6.504932641983032227e-01,3.967967331409454346e-01,5.057488568127155304e-03
-1.029323413968086243e-01,3.201583027839660645e-01,-2.278702259063720703e-01,-3.862029314041137695e-01,-1.220973283052444458e-01,-9.798070788383483887e-01,-5.659863948822021484e-01,-7.691206336021423340e-01,-7.608876377344131470e-02,-2.880033478140830994e-02,-3.491603210568428040e-02,-1.754887700080871582e-01,-1.620748341083526611e-01,1.242796108126640320e-01,3.947961032390594482e-01,1.209625303745269775e-01,-1.246136873960494995e-01,3.425580859184265137e-01,-5.471396446228027344e-01,2.844507992267608643e-01,8.153102546930313110e-02
-5.161900073289871216e-02,2.567463219165802002e-01,-2.367457896471023560e-01,-4.831027686595916748e-01,-9.950001537799835205e-02,-1.041205167770385742e+00,-6.819425821304321289e-01,-8.243788480758666992e-01,-1.236626654863357544e-01,-9.654727578163146973e-02,-1.962990686297416687e-02,-3.014127910137176514e-01,-2.937338054180145264e-01,2.230944335460662842e-01,3.877219557762145996e-01,3.949804976582527161e-02,-2.162333428859710693e-01,3.540271818637847900e-01,-5.868637561798095703e-01,2.658493518829345703e-01,1.649861037731170654e-01
-1.471741050481796265e-01,1.920405626296997070e-01,-4.672636389732360840e-01,-4.380014240741729736e-01,-1.621273458003997803e-01,-9.222965836524963379e-01,-4.032615721225738525e-01,-8.626697063446044922e-01,-3.942850828170776367e-01,-1.229992061853408813e-01,5.782111361622810364e-02,-3.780840635299682617e-01,-1.516865640878677368e-01,-1.546043436974287033e-02,3.282229006290435791e-01,-1.588596850633621216e-01,-1.173104122281074524e-01,2.819028496742248535e-01,-6.876432895660400391e-01,2.729667723178863525e-01,2.480312436819076538e-01
-3.634140193462371826e-01,2.762610614299774170e-01,-2.357798218727111816e-01,-2.959927022457122803e-01,6.084847846068441868e-04,-8.436650037765502930e-01,-6.944716572761535645e-01,-8.776783347129821777e-01,-3.315217196941375732e-01,-1.001573204994201660e-01,1.323769520968198776e-02,-3.014703691005706787e-01,-1.512790620326995850e-01,1.884488910436630249e-01,1.554462611675262451e-01,-5.155438780784606934e-01,-3.036635220050811768e-01,1.136511787772178650e-01,-7.530351281166076660e-01,-1.734353974461555481e-02,-4.322581738233566284e-02
-3.392144739627838135e-01,2.018185704946517944e-01,-3.908832073211669922e-01,-5.254956483840942383e-01,1.820973902940750122e-01,-1.107478857040405273e+00,-5.551991462707519531e-01,-8.428671956062316895e-01,-6.989656090736389160e-01,-2.063555270433425903e-01,1.826274245977401733e-01,1.409158408641815186e-01,-1.991657912731170654e-01,1.992702782154083252e-01,3.969472050666809082e-01,-2.711801826953887939e-01,-1.879460960626602173e-01,1.646539717912673950e-01,-6.312433481216430664e-01,5.922371521592140198e-03,1.773120909929275513e-01
-4.330719709396362305e-01,1.937811076641082764e-01,-2.680806517601013184e-01,-3.936862349510192871e-01,1.557349860668182373e-01,-7.307716608047485352e-01,-2.654040455818176270e-01,-9.379783272743225098e-01,-6.371989846229553223e-01,9.624391794204711914e-02,1.892171204090118408e-01,-5.252780765295028687e-02,-2.902666330337524414e-01,1.946440488100051880e-01,2.138563543558120728e-01,-3.092042505741119385e-01,-2.181593030691146851e-01,-3.759072348475456238e-02,-8.317533731460571289e-01,-2.774317562580108643e-01,2.365892194211483002e-02
-5.686423778533935547e-01,2.964126504957675934e-02,2.500408096238970757e-03,-2.002447843551635742e-01,1.514783203601837158e-01,-7.267418503761291504e-01,-3.191531896591186523e-01,-9.942189455032348633e-01,-8.441937565803527832e-01,4.414886608719825745e-02,2.540555000305175781e-01,6.640413403511047363e-02,-1.628142148256301880e-01,2.427350729703903198e-01,1.494648903608322144e-01,-2.513158321380615234e-01,-2.448123693466186523e-01,-1.046775877475738525e-01,-5.282022953033447266e-01,-1.454808413982391357e-01,2.360569685697555542e-01
-7.099245190620422363e-01,9.654335677623748779e-02,-1.191371772438287735e-02,-3.135070502758026123e-01,1.070102229714393616e-01,-4.746114313602447510e-01,-3.257546424865722656e-01,-8.546178340911865234e-01,-6.763535737991333008e-01,1.556428670883178711e-01,9.315922111272811890e-02,-5.454594269394874573e-03,-1.546483039855957031e-01,3.239733576774597168e-01,4.042426943778991699e-01,-2.619608044624328613e-01,-2.270736396312713623e-01,-1.144513338804244995e-01,-5.823584794998168945e-01,-4.142270684242248535e-01,1.576756685972213745e-01
-8.079915046691894531e-01,1.068896278738975525e-01,1.249336972832679749e-01,-4.341631829738616943e-01,1.518623232841491699e-01,-4.963239431381225586e-01,-2.820400893688201904e-01,-8.617199063301086426e-01,-7.748563289642333984e-01,2.314080595970153809e-01,3.052648901939392090e-01,2.118340283632278442e-01,4.155640676617622375e-02,2.735197842121124268e-01,3.017401993274688721e-01,-3.156355023384094238e-01,-3.531636595726013184e-01,-3.964670300483703613e-01,-7.606554627418518066e-01,-4.300507009029388428e-01,-4.766911268234252930e-02
-6.752310991287231445e-01,-5.338367819786071777e-02,2.776532061398029327e-02,-4.956998229026794434e-01,1.236554235219955444e-01,-7.476554811000823975e-02,-1.569785028696060181e-01,-9.317477345466613770e-01,-8.890220522880554199e-01,3.816845715045928955e-01,4.510178565979003906e-01,2.609591782093048096e-01,1.269237399101257324e-01,2.227814942598342896e-01,4.130398631095886230e-01,-1.280073076486587524e-01,-6.137628480792045593e-02,-2.955692708492279053e-01,-6.582797169685363770e-01,-6.542568206787109375e-01,3.316029310226440430e-01
-8.962125778198242188e-01,1.549046337604522705e-01,1.823571026325225830e-01,-3.686462342739105225e-01,1.385089904069900513e-01,-1.550937257707118988e-02,-2.318382412195205688e-01,-8.704675436019897461e-01,-8.615062832832336426e-01,4.728381037712097168e-01,3.400010168552398682e-01,3.744969069957733154e-01,2.072400748729705811e-01,4.287597239017486572e-01,4.065445363521575928e-01,-9.006197750568389893e-02,-1.582852303981781006e-01,-3.630507886409759521e-01,-6.400620341300964355e-01,-6.141751408576965332e-01,-3.560700220987200737e-03
-1.147081971168518066e+00,-5.735035613179206848e-02,1.366563737392425537e-01,-4.104711413383483887e-01,9.202912449836730957e-02,-1.191149428486824036e-01,-1.599983572959899902e-01,-1.074379682540893555e+00,-9.116657376289367676e-01,5.507349967956542969e-01,3.285397589206695557e-01,4.033830165863037109e-01,2.242127358913421631e-01,-1.952446997165679932e-02,2.156857401132583618e-01,3.368278732523322105e-03,-9.119861759245395660e-03,-3.923051953315734863e-01,-4.719742536544799805e-01,-7.404348850250244141e-01,-1.148076057434082031e-01
-8.991507291793823242e-01,-1.400626748800277710e-01,3.244200944900512695e-01,-4.648498892784118652e-01,4.775502160191535950e-02,-4.936219751834869385e-02,-4.874524474143981934e-02,-9.402263164520263672e-01,-9.922544360160827637e-01,5.527169704437255859e-01,4.556201398372650146e-01,4.620846509933471680e-01,2.444115132093429565e-01,1.632867008447647095e-01,2.719678580760955811e-01,1.382760256528854370e-01,6.059761345386505127e-02,-2.860635221004486084e-01,-4.834122061729431152e-01,-7.811369299888610840e-01,9.619749151170253754e-03
-1.110801696777343750e+00,-3.457560241222381592e-01,2.935186922550201416e-01,-4.958403110504150391e-01,-4.756028950214385986e-02,-1.669670939445495605e-01,-1.783395186066627502e-02,-8.951683640480041504e-01,-9.271122217178344727e-01,4.745792746543884277e-01,4.058039784431457520e-01,5.441277027130126953e-01,3.299686312675476074e-01,1.900700479745864868e-01,2.096544951200485229e-01,-1.703125238418579102e-02,1.352317258715629578e-02,-2.839480340480804443e-01,-4.614222943782806396e-01,-8.218938112258911133e-01,-2.873775660991668701e-01
-7.381907701492309570e-01,-3.222006261348724365e-01,3.065983057022094727e-01,-4.373115897178649902e-01,-6.308297067880630493e-02,1.318945735692977905e-02,2.660311460494995117e-01,-7.881128191947937012e-01,-7.564281821250915527e-01,6.296247243881225586e-01,4.751273989677429199e-01,5.072014927864074707e-01,2.094284296035766602e-01,2.607834637165069580e-01,2.056885510683059692e-01,2.758909463882446289e-01,2.099423259496688843e-01,-5.778843760490417480e-01,-3.408391773700714111e-01,-8.282737731933593750e-01,-2.989804446697235107e-01
-8.374608755111694336e-01,-2.113959342241287231e-01,1.156177893280982971e-01,-5.149328708648681641e-01,3.682243078947067261e-02,-9.368788450956344604e-02,5.357354506850242615e-02,-7.440435886383056641e-01,-7.549790143966674805e-01,6.302029490470886230e-01,4.871788322925567627e-01,2.457976341247558594e-01,5.323458313941955566e-01,-1.946026808582246304e-03,3.437263369560241699e-01,2.323442250490188599e-01,2.538420557975769043e-01,-2.809197306632995605e-01,-3.646091222763061523e-01,-9.346210956573486328e-01,-7.046899944543838501e-02
-8.839690685272216797e-01,-1.947991847991943359e-01,8.673849701881408691e-02,-6.145493388175964355e-01,2.421334534883499146e-01,7.497424632310867310e-02,3.332536816596984863e-01,-7.971069216728210449e-01,-9.113679528236389160e-01,6.144259572029113770e-01,3.913015127182006836e-01,5.199170708656311035e-01,6.965386867523193359e-01,1.247139498591423035e-01,1.434249132871627808e-01,2.376441359519958496e-01,4.055080711841583252e-01,-4.948069155216217041e-01,-4.151692092418670654e-01,-1.033636212348937988e+00,-2.572481036186218262e-01
-7.513384819030761719e-01,-4.536850750446319580e-01,2.194828093051910400e-01,-4.557071924209594727e-01,3.173115849494934082e-01,4.810446128249168396e-02,4.709378778934478760e-01,-8.228591680526733398e-01,-7.674571275711059570e-01,5.353724360466003418e-01,2.729653716087341309e-01,3.875248730182647705e-01,6.882570981979370117e-01,1.537984460592269897e-01,-4.279106389731168747e-03,1.226837709546089172e-01,3.532795011997222900e-01,-6.035386919975280762e-01,-2.128948718309402466e-01,-1.023810982704162598e+00,-2.955369353294372559e-01
-8.534362912178039551e-01,-3.344557285308837891e-01,2.259744256734848022e-01,-4.703490138053894043e-01,2.989890277385711670e-01,8.715180307626724243e-02,4.944815635681152344e-01,-7.511144876480102539e-01,-7.696954607963562012e-01,5.621655583381652832e-01,4.100019037723541260e-01,3.395385742187500000e-01,7.656813263893127441e-01,9.144943952560424805e-02,-3.426973894238471985e-02,1.820197105407714844e-01,2.474305331707000732e-01,-2.780164778232574463e-01,-1.754951775074005127e-01,-1.079641699790954590e+00,-3.812533318996429443e-01
-8.078274130821228027e-01,-3.202385306358337402e-01,9.365607053041458130e-02,-6.273217201232910156e-01,3.083263039588928223e-01,-7.674953341484069824e-02,5.270222425460815430e-01,-6.983292102813720703e-01,-7.221760749816894531e-01,5.678358674049377441e-01,4.555153846740722656e-01,4.436076581478118896e-01,8.502507805824279785e-01,-5.465443432331085205e-02,-7.572761178016662598e-02,2.340567708015441895e-01,2.716412246227264404e-01,-6.452190876007080078e-01,-2.590519003570079803e-02,-9.595343470573425293e-01,-3.267303407192230225e-01
-4.903266727924346924e-01,-2.687968872487545013e-02,1.134977862238883972e-01,-5.786399245262145996e-01,4.911436736583709717e-01,8.594567328691482544e-02,8.867211341857910156e-01,-2.631174027919769287e-01,-4.149494469165802002e-01,5.885059833526611328e-01,5.753295421600341797e-01,3.881335854530334473e-01,8.246387243270874023e-01,-2.077717334032058716e-01,-1.654361188411712646e-01,2.011124193668365479e-01,2.509332001209259033e-01,-6.305571198463439941e-01,1.600415110588073730e-01,-8.961204290390014648e-01,-3.679727613925933838e-01
-4.526625573635101318e-01,-2.485042363405227661e-01,3.823538720607757568e-01,-8.112375736236572266e-01,5.482288002967834473e-01,1.458975821733474731e-01,7.336466312408447266e-01,-1.509386003017425537e-01,-5.474221706390380859e-01,5.429888367652893066e-01,5.159609317779541016e-01,1.885561496019363403e-01,9.709392786026000977e-01,1.087053492665290833e-02,-2.244691401720046997e-01,2.360763847827911377e-01,4.930572807788848877e-01,-4.716574251651763916e-01,1.353862285614013672e-01,-8.265076875686645508e-01,-3.798570930957794189e-01
-4.942305386066436768e-01,-2.230894118547439575e-01,3.359535038471221924e-01,-3.526197671890258789e-01,4.174236357212066650e-01,2.383100800216197968e-02,6.084792017936706543e-01,-3.013216145336627960e-02,-4.111477136611938477e-01,5.915502905845642090e-01,6.986247301101684570e-01,1.450760513544082642e-01,7.626985907554626465e-01,-2.466188818216323853e-01,-4.715413451194763184e-01,1.901373416185379028e-01,1.554041653871536255e-01,-3.188387751579284668e-01,5.109848082065582275e-02,-8.448482751846313477e-01,-2.068532407283782959e-01
-2.248743772506713867e-01,-2.088684141635894775e-01,2.381078004837036133e-01,-6.541895270347595215e-01,4.969807565212249756e-01,1.547287553548812866e-01,7.361704707145690918e-01,3.773326426744461060e-02,-3.353471159934997559e-01,3.411102890968322754e-01,8.450919389724731445e-01,1.083842739462852478e-01,9.012538194656372070e-01,-2.964163720607757568e-01,-1.247891634702682495e-01,2.999735474586486816e-01,2.882396280765533447e-01,-5.258076190948486328e-01,1.537003219127655029e-01,-4.947304427623748779e-01,-3.589968383312225342e-01
-3.091817498207092285e-01,-2.453923374414443970e-01,2.253372669219970703e-01,-5.859009623527526855e-01,2.601994872093200684e-01,1.996550709009170532e-01,4.136600792407989502e-01,2.481261454522609711e-02,-1.651363074779510498e-01,3.764638006687164307e-01,7.228350043296813965e-01,2.623023092746734619e-01,1.011903882026672363e+00,-4.866733253002166748e-01,-4.553465917706489563e-02,3.393501639366149902e-01,1.856739819049835205e-01,-5.257627964019775391e-01,2.964783310890197754e-01,-5.117180943489074707e-01,-2.881545424461364746e-01
-1.783195585012435913e-01,-1.977517455816268921e-01,4.269371628761291504e-01,-7.084393501281738281e-01,4.211411476135253906e-01,1.269674301147460938e-01,3.346844315528869629e-01,8.946590870618820190e-02,-3.469504415988922119e-01,2.649406194686889648e-01,8.281851410865783691e-01,-2.290844172239303589e-01,1.042115449905395508e+00,-4.753029644489288330e-01,-2.152370288968086243e-02,1.759862452745437622e-01,2.297336012125015259e-01,-3.168507814407348633e-01,5.909060239791870117e-01,-4.131353497505187988e-01,-4.880817234516143799e-01
-3.236786425113677979e-01,-1.400200277566909790e-01,2.436439543962478638e-01,-4.454932212829589844e-01,2.128492295742034912e-01,2.443005442619323730e-01,4.457768797874450684e-01,1.049216650426387787e-02,-1.287389546632766724e-01,1.609845608472824097e-01,7.615073919296264648e-01,-5.036217719316482544e-02,1.013739705085754395e+00,-6.849027276039123535e-01,-7.792007178068161011e-02,1.819008588790893555e-01,2.882431149482727051e-01,-5.141432285308837891e-01,5.226998925209045410e-01,-7.050319314002990723e-01,-1.176167279481887817e-01
5.110555328428745270e-03,-5.521417036652565002e-02,2.771085798740386963e-01,-7.096036672592163086e-01,3.229705393314361572e-01,1.866760402917861938e-01,3.703937232494354248e-01,3.176524341106414795e-01,-6.660421192646026611e-02,1.122241169214248657e-01,8.465238809585571289e-01,-7.643115520477294922e-02,9.415990114212036133e-01,-6.183863282203674316e-01,4.981384053826332092e-02,2.157643437385559082e-01,3.384646177291870117e-01,-3.701865971088409424e-01,5.677840113639831543e-01,-4.315781295299530029e-01,-8.205344527959823608e-02
5.035565700381994247e-03,-2.047192305326461792e-01,3.161880373954772949e-01,-6.847525238990783691e-01,7.176275551319122314e-02,1.257182806730270386e-01,7.374402880668640137e-02,1.498679220676422119e-01,1.149176508188247681e-01,-1.720598340034484863e-01,1.085813045501708984e+00,-1.327551454305648804e-01,1.017850637435913086e+00,-8.774124979972839355e-01,6.556641310453414917e-02,2.210166119039058685e-02,2.491586655378341675e-01,-1.416443288326263428e-01,5.104308128356933594e-01,-4.448713958263397217e-01,-5.948255211114883423e-02
-1.843474060297012329e-01,-2.136666625738143921e-01,3.323346674442291260e-01,-6.810396909713745117e-01,1.333496272563934326e-01,-1.444051507860422134e-02,3.479061275720596313e-02,3.004782497882843018e-01,-5.830790847539901733e-02,-2.357103824615478516e-01,5.994775891304016113e-01,-2.316340357065200806e-01,6.853797435760498047e-01,-7.794602513313293457e-01,2.173556573688983917e-02,-9.025066345930099487e-02,4.465384483337402344e-01,-4.758296608924865723e-01,5.760738849639892578e-01,-2.764421701431274414e-01,-1.094054430723190308e-01
-1.684210598468780518e-01,-1.936409324407577515e-01,3.550746440887451172e-01,-6.635557413101196289e-01,1.554210633039474487e-01,1.534370481967926025e-01,2.544491887092590332e-01,2.430279850959777832e-01,-1.594570875167846680e-01,-1.279648542404174805e-01,1.005593895912170410e+00,4.570919554680585861e-03,7.137036323547363281e-01,-6.047835946083068848e-01,1.911905556917190552e-01,1.840408742427825928e-01,5.514524579048156738e-01,-3.007880747318267822e-01,4.626961052417755127e-01,-2.754899859428405762e-01,1.910614073276519775e-01
4.256857186555862427e-02,-1.256597638130187988e-01,3.131324350833892822e-01,-5.122554302215576172e-01,-1.233986020088195801e-02,1.764086782932281494e-01,5.700711905956268311e-02,1.734356433153152466e-01,-5.706314370036125183e-02,-3.129130601882934570e-01,7.140163779258728027e-01,4.696357250213623047e-02,7.993159294128417969e-01,-6.420534253120422363e-01,1.001605615019798279e-01,-7.133673876523971558e-02,6.207929849624633789e-01,-2.730115354061126709e-01,3.834975063800811768e-01,-1.346819549798965454e-01,1.943475306034088135e-01
-1.090890467166900635e-01,-2.148174345493316650e-01,2.551957368850708008e-01,-3.529089391231536865e-01,-8.075420558452606201e-02,1.508031338453292847e-01,-3.428735304623842239e-03,1.376115083694458008e-01,-4.565196856856346130e-02,-3.389255106449127197e-01,7.811754941940307617e-01,6.505528837442398071e-02,5.203701853752136230e-01,-7.468324899673461914e-01,2.254815697669982910e-01,-2.539293467998504639e-02,4.763420820236206055e-01,-2.745946943759918213e-01,4.628843069076538086e-01,-3.459903299808502197e-01,2.281817346811294556e-01
-2.193562090396881104e-01,-1.974783539772033691e-01,4.486917257308959961e-01,-3.334222435951232910e-01,-6.734983623027801514e-02,6.078708544373512268e-02,6.287188269197940826e-03,1.184100508689880371e-01,-7.783561199903488159e-02,-3.472706377506256104e-01,6.957604885101318359e-01,-1.242324709892272949e-01,3.582986891269683838e-01,-6.092628836631774902e-01,4.281488060951232910e-01,-1.337711066007614136e-01,6.107612848281860352e-01,-3.323331475257873535e-01,3.242121934890747070e-01,-1.735346764326095581e-01,2.061156928539276123e-01
2.632902748882770538e-02,-8.354964107275009155e-02,4.017587304115295410e-01,-2.637421488761901855e-01,-1.390897482633590698e-01,5.498803406953811646e-02,-5.580066889524459839e-02,8.956786245107650757e-02,-2.180414944887161255e-01,-3.759448528289794922e-01,3.880638778209686279e-01,-4.665850475430488586e-02,3.599991500377655029e-01,-6.680122017860412598e-01,2.335499227046966553e-01,-1.960747539997100830e-01,4.467181861400604248e-01,-5.233279988169670105e-02,2.440183758735656738e-01,1.470555644482374191e-02,3.667870163917541504e-01
-6.943943910300731659e-03,-3.730753436684608459e-02,4.577011168003082275e-01,-3.532358258962631226e-02,-2.613455057144165039e-01,2.842186391353607178e-02,-2.037192285060882568e-01,-7.979203015565872192e-03,5.877416208386421204e-02,-4.873375296592712402e-01,4.621075689792633057e-01,-1.547424793243408203e-01,5.144292116165161133e-01,-3.580122590065002441e-01,4.314885139465332031e-01,-3.014347702264785767e-02,7.333507537841796875e-01,-3.737483918666839600e-02,3.347717523574829102e-01,-2.169281393289566040e-01,4.981524348258972168e-01
-1.911432668566703796e-02,-3.649850487709045410e-01,3.055534064769744873e-01,1.604158431291580200e-01,-2.294704467058181763e-01,9.567732363939285278e-02,-1.332828551530838013e-01,-5.502984672784805298e-02,-9.447105228900909424e-02,-5.468269586563110352e-01,3.178030550479888916e-01,1.212300062179565430e-01,1.967618018388748169e-01,-4.606373012065887451e-01,7.400496602058410645e-01,2.890227362513542175e-02,6.030110716819763184e-01,-4.301829636096954346e-02,1.372340172529220581e-01,8.151383139193058014e-03,3.292134702205657959e-01
-1.094678640365600586e-01,-1.159509643912315369e-01,1.559955626726150513e-01,2.458986192941665649e-01,-4.266408085823059082e-01,1.703786849975585938e-02,-2.460587918758392334e-01,-4.184318706393241882e-02,2.460935339331626892e-02,-2.976251542568206787e-01,2.285522520542144775e-01,1.041330471634864807e-01,3.578059971332550049e-01,-4.579767286777496338e-01,5.913743376731872559e-01,-1.116244047880172729e-01,5.498156547546386719e-01,-1.282683312892913818e-01,5.970268696546554565e-02,-8.510459214448928833e-02,4.396019876003265381e-01
-1.260077804327011108e-01,3.123090602457523346e-03,1.993402391672134399e-01,3.234334290027618408e-01,-4.440535008907318115e-01,-9.242027997970581055e-02,-2.391155362129211426e-01,1.283359378576278687e-01,6.569770723581314087e-02,-4.634751081466674805e-01,1.566272974014282227e-01,1.694983094930648804e-01,4.164067804813385010e-01,-3.697434663772583008e-01,4.836037456989288330e-01,-4.603930935263633728e-02,6.007354259490966797e-01,1.350561343133449554e-02,-6.637354940176010132e-02,6.012715864926576614e-03,1.045197471976280212e-01
-6.808516383171081543e-02,-3.903345018625259399e-02,1.492158919572830200e-01,3.455865383148193359e-01,-3.660639822483062744e-01,-1.940652132034301758e-01,-2.735909521579742432e-01,4.198199138045310974e-02,1.176791451871395111e-02,-4.235966801643371582e-01,2.018577456474304199e-01,2.067620605230331421e-01,2.935788035392761230e-01,-4.887003824114799500e-02,3.564637601375579834e-01,-1.128330081701278687e-01,4.804643094539642334e-01,1.907460391521453857e-01,2.257250249385833740e-01,-1.022550975903868675e-03,1.047830656170845032e-01
-5.313543602824211121e-02,8.324769884347915649e-02,3.625343441963195801e-01,3.433932960033416748e-01,-4.437501430511474609e-01,-2.319396883249282837e-01,-1.269107758998870850e-01,-1.145197227597236633e-01,-5.005305167287588120e-03,-4.869167506694793701e-01,1.924973130226135254e-01,1.564083844423294067e-01,1.399877518415451050e-01,-2.538564056158065796e-02,5.764538645744323730e-01,-1.319048702716827393e-01,2.134891599416732788e-01,4.002638161182403564e-01,-1.850351132452487946e-02,-7.865875959396362305e-02,1.795523613691329956e-01
5.422124522738158703e-04,1.502170860767364502e-01,-2.523971199989318848e-01,2.918795645236968994e-01,-3.694457411766052246e-01,-4.224385619163513184e-01,-6.904679536819458008e-02,-3.980962559580802917e-02,1.537707913666963577e-02,-6.927681565284729004e-01,-1.506139636039733887e-01,1.860502064228057861e-01,2.045815736055374146e-01,-1.625916957855224609e-01,5.792740583419799805e-01,-3.427358567714691162e-01,4.594237208366394043e-01,4.465685784816741943e-01,1.271003484725952148e-01,5.849883425980806351e-03,2.610783874988555908e-01
-7.061884552240371704e-02,8.810116350650787354e-02,8.251139521598815918e-02,2.780724465847015381e-01,-2.124559730291366577e-01,-3.501498401165008545e-01,-2.061701007187366486e-02,4.002307355403900146e-02,1.658588796854019165e-01,-6.024199128150939941e-01,-1.865613311529159546e-01,3.583478629589080811e-01,2.440318018198013306e-01,-1.374727785587310791e-01,6.686300635337829590e-01,-2.255538105964660645e-01,4.429351389408111572e-01,6.546791791915893555e-01,5.625404417514801025e-02,2.323239892721176147e-01,9.074898064136505127e-02
5.421561375260353088e-02,2.370775938034057617e-01,-1.763173379004001617e-02,3.568351566791534424e-01,-1.966063380241394043e-01,-6.911716461181640625e-01,-2.877005338668823242e-01,8.651848137378692627e-02,1.618285626173019409e-01,-7.512024044990539551e-01,-4.200263321399688721e-01,2.268406152725219727e-01,1.660403311252593994e-01,-4.405885003507137299e-03,3.306874036788940430e-01,-3.801074326038360596e-01,2.727783620357513428e-01,6.711364388465881348e-01,3.278163820505142212e-02,2.488553076982498169e-01,1.724159866571426392e-01
-8.561439067125320435e-02,3.558517992496490479e-01,-1.538122445344924927e-01,5.148981809616088867e-01,-2.178017199039459229e-01,-6.938779950141906738e-01,-1.532322168350219727e-01,-7.280080765485763550e-02,1.340269297361373901e-01,-8.227659463882446289e-01,-4.166562855243682861e-01,2.261563390493392944e-01,7.695969939231872559e-02,-4.305989295244216919e-02,4.106241166591644287e-01,-4.625512063503265381e-01,3.145839646458625793e-02,6.851657629013061523e-01,9.789101779460906982e-02,3.274581134319305420e-01,2.534877359867095947e-01
