Fp1,Fp2,F7,F3,Fz,F4,F8,T3,C3,Cz,C4,T4,T5,P3,Pz,P4,T6,O1,Oz,O2,A1
7.117330074310302734e+00,3.798893213272094727e+00,1.767971873283386230e+00,7.816645145416259766e+00,4.939725875854492188e+00,-2.455122768878936768e-01,3.140271663665771484e+00,1.212584853172302246e+00,4.311780929565429688e+00,6.552915096282958984e+00,-1.212401771545410156e+01,-4.727430820465087891e+00,-1.174116420745849609e+01,-1.372253894805908203e+00,-2.062457656860351562e+01,3.519402980804443359e+00,1.160204029083251953e+01,1.017498111724853516e+01,-8.318337798118591309e-02,-2.230553887784481049e-02,-5.113303661346435547e-02
7.255927562713623047e+00,3.972994804382324219e+00,2.006547212600708008e+00,8.302133560180664062e+00,4.901873111724853516e+00,-5.721952319145202637e-01,3.428570747375488281e+00,1.028198003768920898e+00,4.965782642364501953e+00,6.958522319793701172e+00,-1.240282154083251953e+01,-5.109137535095214844e+00,-1.229789447784423828e+01,-1.878429770469665527e+00,-2.279541587829589844e+01,9.963409900665283203e-01,1.210934734344482422e+01,1.044647312164306641e+01,-9.059807658195495605e-01,1.645643711090087891e-01,-4.728080332279205322e-02
7.272559165954589844e+00,3.898161649703979492e+00,1.984319567680358887e+00,8.570147514343261719e+00,4.839270591735839844e+00,-7.889802455902099609e-01,3.626776218414306641e+00,9.410073161125183105e-01,5.472870826721191406e+00,7.247064113616943359e+00,-1.246943855285644531e+01,-5.238746643066406250e+00,-1.254842376708984375e+01,-2.159380674362182617e+00,-2.440203857421875000e+01,-1.195241093635559082e+00,1.219671726226806641e+01,1.061766815185546875e+01,-1.544671535491943359e+00,3.166677951812744141e-01,-4.464081302285194397e-02
7.276255130767822266e+00,3.783621072769165039e+00,1.805017709732055664e+00,8.707983970642089844e+00,4.824712276458740234e+00,-7.724202871322631836e-01,3.744898796081542969e+00,9.610183238983154297e-01,5.826726913452148438e+00,7.405350208282470703e+00,-1.232756900787353516e+01,-5.153289794921875000e+00,-1.256466102600097656e+01,-2.284763574600219727e+00,-2.551528930664062500e+01,-3.110192775726318359e+00,1.193601799011230469e+01,1.069202518463134766e+01,-2.074262142181396484e+00,4.166214466094970703e-01,-4.324000328779220581e-02
7.370501995086669922e+00,3.844709396362304688e+00,1.581260800361633301e+00,8.815189361572265625e+00,4.925167083740234375e+00,-4.291773438453674316e-01,3.806962966918945312e+00,1.076796054840087891e+00,6.017872333526611328e+00,7.415242671966552734e+00,-1.200312042236328125e+01,-4.901192665100097656e+00,-1.242547893524169922e+01,-2.354420900344848633e+00,-2.621360015869140625e+01,-4.827210426330566406e+00,1.143998336791992188e+01,1.067300415039062500e+01,-2.590215206146240234e+00,4.593552649021148682e-01,-4.275510832667350769e-02
7.627369880676269531e+00,4.217348098754882812e+00,1.416777253150939941e+00,8.963746070861816406e+00,5.172665596008300781e+00,2.573085129261016846e-01,3.824981689453125000e+00,1.251177430152893066e+00,6.036828994750976562e+00,7.265201091766357422e+00,-1.154790401458740234e+01,-4.553668498992919922e+00,-1.223062324523925781e+01,-2.498378992080688477e+00,-2.659311866760253906e+01,-6.448837757110595703e+00,1.083685111999511719e+01,1.055714416503906250e+01,-3.197084903717041016e+00,4.434206187725067139e-01,-4.276857525110244751e-02
8.035771369934082031e+00,4.904591560363769531e+00,1.370840311050415039e+00,9.159779548645019531e+00,5.561384201049804688e+00,1.202731966972351074e+00,3.806962966918945312e+00,1.424129366874694824e+00,5.859900951385498047e+00,6.937088012695312500e+00,-1.102483654022216797e+01,-4.203296184539794922e+00,-1.209376049041748047e+01,-2.853631019592285156e+00,-2.673986434936523438e+01,-8.068080902099609375e+00,1.022808265686035156e+01,1.032369613647460938e+01,-4.001698970794677734e+00,3.637474179267883301e-01,-4.295714572072029114e-02
8.508852005004882812e+00,5.768990993499755859e+00,1.449377536773681641e+00,9.346623420715332031e+00,6.037454605102539062e+00,2.227944374084472656e+00,3.736890316009521484e+00,1.518466830253601074e+00,5.469711780548095703e+00,6.412766456604003906e+00,-1.049313449859619141e+01,-3.948350429534912109e+00,-1.211231803894042969e+01,-3.540915489196777344e+00,-2.672468376159667969e+01,-9.749327659606933594e+00,9.670043945312500000e+00,9.941533088684082031e+00,-5.079063415527343750e+00,2.087467908859252930e-01,-4.315918684005737305e-02
8.906165122985839844e+00,6.575356483459472656e+00,1.615342974662780762e+00,9.423198699951171875e+00,6.522260665893554688e+00,3.110138893127441406e+00,3.594743013381958008e+00,1.464151382446289062e+00,4.853622913360595703e+00,5.667504310607910156e+00,-9.991039276123046875e+00,-3.882833480834960938e+00,-1.235820674896240234e+01,-4.639177799224853516e+00,-2.659058761596679688e+01,-1.150450038909912109e+01,9.168373107910156250e+00,9.372611999511718750e+00,-6.465545177459716797e+00,-3.534297272562980652e-02,-4.342857375741004944e-02
9.078026771545410156e+00,7.083916664123535156e+00,1.807981371879577637e+00,9.280768394470214844e+00,6.934272766113281250e+00,3.649090528488159180e+00,3.362502098083496094e+00,1.206867456436157227e+00,4.035330772399902344e+00,4.689759731292724609e+00,-9.523487091064453125e+00,-4.066565513610839844e+00,-1.284302711486816406e+01,-6.166993141174316406e+00,-2.634516716003417969e+01,-1.328829097747802734e+01,8.704751014709472656e+00,8.584076881408691406e+00,-8.140687942504882812e+00,-3.822836279869079590e-01,-4.385959357023239136e-02
8.928340911865234375e+00,7.131259918212890625e+00,1.968019485473632812e+00,8.842757225036621094e+00,7.207976818084716797e+00,3.721352338790893555e+00,3.046174049377441406e+00,7.194572687149047852e-01,3.057487726211547852e+00,3.476235628128051758e+00,-9.054700851440429688e+00,-4.520910263061523438e+00,-1.351806259155273438e+01,-8.084888458251953125e+00,-2.597577095031738281e+01,-1.500292396545410156e+01,8.258038520812988281e+00,7.563822269439697266e+00,-1.002266597747802734e+01,-8.371452689170837402e-01,-4.449265077710151672e-02
8.451564788818359375e+00,6.679206848144531250e+00,2.062856912612915039e+00,8.089253425598144531e+00,7.306976318359375000e+00,3.310364007949829102e+00,2.673787832260131836e+00,4.779717419296503067e-03,2.000658750534057617e+00,2.048366069793701172e+00,-8.520530700683593750e+00,-5.227352619171142578e+00,-1.427892780303955078e+01,-1.030230998992919922e+01,-2.546215629577636719e+01,-1.654585456848144531e+01,7.821190357208251953e+00,6.322225093841552734e+00,-1.200010776519775391e+01,-1.396306395530700684e+00,-4.526040330529212952e-02
7.732704162597656250e+00,5.816334247589111328e+00,2.089529752731323242e+00,7.057015895843505859e+00,7.238550186157226562e+00,2.497420310974121094e+00,2.303403854370117188e+00,-9.157249927520751953e-01,9.548879861831665039e-01,4.589130580425262451e-01,-7.842024326324462891e+00,-6.137466430664062500e+00,-1.498875904083251953e+01,-1.270084095001220703e+01,-2.477902603149414062e+01,-1.783361816406250000e+01,7.402661323547363281e+00,4.904244422912597656e+00,-1.393436336517333984e+01,-2.046005249023437500e+00,-4.600121825933456421e-02
6.926989078521728516e+00,4.710636138916015625e+00,2.053965806961059570e+00,5.822618484497070312e+00,7.030360221862792969e+00,1.418011546134948730e+00,1.995084047317504883e+00,-2.013469696044921875e+00,5.479635670781135559e-03,-1.244307756423950195e+00,-6.945161819458007812e+00,-7.190008163452148438e+00,-1.551765251159667969e+01,-1.515974044799804688e+01,-2.391878700256347656e+01,-1.883521270751953125e+01,7.016544342041015625e+00,3.377321958541870117e+00,-1.570724105834960938e+01,-2.770307302474975586e+00,-4.660733789205551147e-02
6.209976196289062500e+00,3.533159017562866211e+00,1.973946809768676758e+00,4.462637424468994141e+00,6.723171234130859375e+00,2.151558548212051392e-01,1.796878457069396973e+00,-3.268443584442138672e+00,-8.017544150352478027e-01,-2.998641729354858398e+00,-5.784298896789550781e+00,-8.337976455688476562e+00,-1.577514076232910156e+01,-1.757452392578125000e+01,-2.288902854919433594e+01,-1.956732940673828125e+01,6.652973651885986328e+00,1.812355756759643555e+00,-1.723464393615722656e+01,-3.555450677871704102e+00,-4.711917415261268616e-02
5.718416213989257812e+00,2.406079769134521484e+00,1.845027208328247070e+00,3.036801576614379883e+00,6.359202861785888672e+00,-1.002754330635070801e+00,1.726805806159973145e+00,-4.682075977325439453e+00,-1.465234398841857910e+00,-4.764517307281494141e+00,-4.359435081481933594e+00,-9.550037384033203125e+00,-1.573338603973388672e+01,-1.989410972595214844e+01,-2.169987487792968750e+01,-2.008958816528320312e+01,6.273902416229248047e+00,2.646819949150085449e-01,-1.848475074768066406e+01,-4.391294956207275391e+00,-4.771182313561439514e-02
5.507747173309326172e+00,1.356888175010681152e+00,1.630161285400390625e+00,1.566551923751831055e+00,5.963205337524414062e+00,-2.181522846221923828e+00,1.752832770347595215e+00,-6.267230510711669922e+00,-2.043409824371337891e+00,-6.530393123626708984e+00,-2.721150398254394531e+00,-1.081622123718261719e+01,-1.542950344085693359e+01,-2.208366966247558594e+01,-2.036144447326660156e+01,-2.046160888671875000e+01,5.797596931457519531e+00,-1.251865267753601074e+00,-1.947801780700683594e+01,-5.272770404815673828e+00,-4.870855435729026794e-02
5.524379253387451172e+00,3.275502920150756836e-01,1.256739139556884766e+00,2.278959751129150391e-02,5.542457580566406250e+00,-3.319644212722778320e+00,1.792874336242675781e+00,-8.046777725219726562e+00,-2.648440361022949219e+00,-8.325946807861328125e+00,-9.496313929557800293e-01,-1.213225460052490234e+01,-1.495396327972412109e+01,-2.415713310241699219e+01,-1.888385772705078125e+01,-2.070962333679199219e+01,5.111322879791259766e+00,-2.775329589843750000e+00,-2.027581214904785156e+01,-6.189736843109130859e+00,-5.033834278583526611e-02
5.611233711242675781e+00,-8.056377768516540527e-01,6.254778504371643066e-01,-1.648087978363037109e+00,5.070754528045654297e+00,-4.442710876464843750e+00,1.734814047813415527e+00,-1.003929901123046875e+01,-3.427239656448364258e+00,-1.020723915100097656e+01,8.440932035446166992e-01,-1.348816776275634766e+01,-1.442274951934814453e+01,-2.614700698852539062e+01,-1.725699234008789062e+01,-2.081455230712890625e+01,4.089661598205566406e+00,-4.400819301605224609e+00,-2.095314216613769531e+01,-7.119016170501708984e+00,-5.261466279625892639e-02
5.535467147827148438e+00,-2.177070140838623047e+00,-3.836510777473449707e-01,-3.513467311859130859e+00,4.491316795349121094e+00,-5.588359355926513672e+00,1.444513082504272461e+00,-1.223621749877929688e+01,-4.545677185058593750e+00,-1.224681758880615234e+01,2.545294284820556641e+00,-1.484977817535400391e+01,-1.395648765563964844e+01,-2.808812141418457031e+01,-1.547073173522949219e+01,-2.071200752258300781e+01,2.617060899734497070e+00,-6.263215541839599609e+00,-2.158046913146972656e+01,-8.014253616333007812e+00,-5.530852824449539185e-02
5.034667015075683594e+00,-3.896705865859985352e+00,-1.884748935699462891e+00,-5.628482818603515625e+00,3.703689336776733398e+00,-6.779171466827392578e+00,7.898340821266174316e-01,-1.459608364105224609e+01,-6.156986236572265625e+00,-1.451063346862792969e+01,4.055279731750488281e+00,-1.616011428833007812e+01,-1.364564609527587891e+01,-3.000137329101562500e+01,-1.351748275756835938e+01,-2.030421638488769531e+01,6.174238920211791992e-01,-8.492211341857910156e+00,-2.220097732543945312e+01,-8.805191040039062500e+00,-5.793505162000656128e-02
3.888925075531005859e+00,-6.002725124359130859e+00,-3.968207597732543945e+00,-8.013044357299804688e+00,2.595769643783569336e+00,-8.010630607604980469e+00,-3.353327810764312744e-01,-1.704028129577636719e+01,-8.363846778869628906e+00,-1.702012252807617188e+01,5.295096397399902344e+00,-1.733656883239746094e+01,-1.355053806304931641e+01,-3.187283134460449219e+01,-1.138712596893310547e+01,-1.950771141052246094e+01,-1.921931862831115723e+00,-1.118464469909667969e+01,-2.281693840026855469e+01,-9.399843215942382812e+00,-5.998238921165466309e-02
1.972579360008239746e+00,-8.449312210083007812e+00,-6.669590950012207031e+00,-1.063345813751220703e+01,1.051087975502014160e+00,-9.260155677795410156e+00,-1.995054006576538086e+00,-1.945160293579101562e+01,-1.118521690368652344e+01,-1.975055313110351562e+01,6.224033355712890625e+00,-1.829653167724609375e+01,-1.367812252044677734e+01,-3.365141296386718750e+01,-9.087250709533691406e+00,-1.825571823120117188e+01,-4.953094005584716797e+00,-1.435089111328125000e+01,-2.338971328735351562e+01,-9.706222534179687500e+00,-6.104646623134613037e-02
-6.903463602066040039e-01,-1.110818004608154297e+01,-9.937034606933593750e+00,-1.339323997497558594e+01,-1.001693725585937500e+00,-1.047354888916015625e+01,-4.189329624176025391e+00,-2.169140243530273438e+01,-1.452789211273193359e+01,-2.259804725646972656e+01,6.842091083526611328e+00,-1.895454788208007812e+01,-1.398200416564941406e+01,-3.523495483398437500e+01,-6.625449180603027344e+00,-1.653154754638671875e+01,-8.343599319458007812e+00,-1.788719558715820312e+01,-2.383065986633300781e+01,-9.652625083923339844e+00,-6.100605800747871399e-02
-3.933534860610961914e+00,-1.378690242767333984e+01,-1.362235546112060547e+01,-1.613770675659179688e+01,-3.555295944213867188e+00,-1.159360504150390625e+01,-6.846085071563720703e+00,-2.360673713684082031e+01,-1.817545318603515625e+01,-2.539772605895996094e+01,7.185045242309570312e+00,-1.924225234985351562e+01,-1.436243724822998047e+01,-3.647949600219726562e+01,-4.024490356445312500e+00,-1.434950351715087891e+01,-1.189475154876708984e+01,-2.157567405700683594e+01,-2.402158546447753906e+01,-9.212248802185058594e+00,-6.002279743552207947e-02
-7.461310863494873047e+00,-1.626403236389160156e+01,-1.747957038879394531e+01,-1.867541885375976562e+01,-6.503439903259277344e+00,-1.256763267517089844e+01,-9.817166328430175781e+00,-2.505467414855957031e+01,-2.179773712158203125e+01,-2.793359756469726562e+01,7.326914787292480469e+00,-1.910552215576171875e+01,-1.467791748046875000e+01,-3.721321868896484375e+01,-1.309676885604858398e+00,-1.174059104919433594e+01,-1.536417102813720703e+01,-2.509641647338867188e+01,-2.382611465454101562e+01,-8.414792060852050781e+00,-5.843341723084449768e-02
-1.091701602935791016e+01,-1.834561729431152344e+01,-2.120934677124023438e+01,-2.080881118774414062e+01,-9.646670341491699219e+00,-1.336100482940673828e+01,-1.289435768127441406e+01,-2.591371726989746094e+01,-2.500771713256835938e+01,-2.996657943725585938e+01,7.357756137847900391e+00,-1.849450683593750000e+01,-1.474982833862304688e+01,-3.724572372436523438e+01,1.473449826240539551e+00,-8.738194465637207031e+00,-1.850102233886718750e+01,-2.808973884582519531e+01,-2.311469078063964844e+01,-7.343549728393554688e+00,-5.661505460739135742e-02
-1.396986389160156250e+01,-1.990184211730957031e+01,-2.449605369567871094e+01,-2.237248420715332031e+01,-1.272438716888427734e+01,-1.395716381072998047e+01,-1.583340549468994141e+01,-2.610096359252929688e+01,-2.743257904052734375e+01,-3.127903175354003906e+01,7.365158081054687500e+00,-1.736790275573730469e+01,-1.441115093231201172e+01,-3.641680526733398438e+01,4.274287223815917969e+00,-5.368547916412353516e+00,-2.109251785278320312e+01,-3.021324920654296875e+01,-2.178275871276855469e+01,-6.115133762359619141e+00,-5.478322505950927734e-02
-1.637407302856445312e+01,-2.089758110046386719e+01,-2.708629989624023438e+01,-2.326994895935058594e+01,-1.547744369506835938e+01,-1.436965751647949219e+01,-1.839806556701660156e+01,-2.558067703247070312e+01,-2.879429244995117188e+01,-3.170937156677246094e+01,7.405868530273437500e+00,-1.569295024871826172e+01,-1.353662014007568359e+01,-3.462197113037109375e+01,7.021992683410644531e+00,-1.645958185195922852e+00,-2.299351119995117188e+01,-3.121967124938964844e+01,-1.978486251831054688e+01,-4.851226806640625000e+00,-5.295139551162719727e-02
-1.801322364807128906e+01,-2.140308570861816406e+01,-2.882152748107910156e+01,-2.350273895263671875e+01,-1.770056343078613281e+01,-1.462708950042724609e+01,-2.040214347839355469e+01,-2.437858963012695312e+01,-2.897595977783203125e+01,-3.118505096435546875e+01,7.490990161895751953e+00,-1.345825767517089844e+01,-1.206592369079589844e+01,-3.183568000793457031e+01,9.640661239624023438e+00,2.396187305450439453e+00,-2.415609169006347656e+01,-3.099313926696777344e+01,-1.713918113708496094e+01,-3.646712541580200195e+00,-5.094446614384651184e-02
-1.891133689880371094e+01,-2.156802558898925781e+01,-2.967802619934082031e+01,-2.315661621093750000e+01,-1.928600883483886719e+01,-1.477010822296142578e+01,-2.175354576110839844e+01,-2.258046150207519531e+01,-2.804866790771484375e+01,-2.973739433288574219e+01,7.573644638061523438e+00,-1.069373321533203125e+01,-1.004081630706787109e+01,-2.812991714477539062e+01,1.205945205688476562e+01,6.695885658264160156e+00,-2.462957763671875000e+01,-2.958553504943847656e+01,-1.393890953063964844e+01,-2.556638240814208984e+00,-4.862773790955543518e-02
-1.918853378295898438e+01,-2.157871627807617188e+01,-2.974322700500488281e+01,-2.238932991027832031e+01,-2.023087120056152344e+01,-1.483935832977294922e+01,-2.245227050781250000e+01,-2.031922149658203125e+01,-2.624463462829589844e+01,-2.749831008911132812e+01,7.566242694854736328e+00,-7.486258029937744141e+00,-7.579603672027587891e+00,-2.366720962524414062e+01,1.422523021697998047e+01,1.115297698974609375e+01,-2.453375434875488281e+01,-2.718188476562500000e+01,-1.032951068878173828e+01,-1.591143608093261719e+00,-4.596081003546714783e-02
-1.901297569274902344e+01,-2.159398841857910156e+01,-2.918457603454589844e+01,-2.137700271606445312e+01,-2.061085319519042969e+01,-1.486043453216552734e+01,-2.258640861511230469e+01,-1.774924087524414062e+01,-2.389717864990234375e+01,-2.465905952453613281e+01,7.361456871032714844e+00,-3.973987340927124023e+00,-4.860902786254882812e+00,-1.867278671264648438e+01,1.612534713745117188e+01,1.563630008697509766e+01,-2.402503776550292969e+01,-2.406232833862304688e+01,-6.474637031555175781e+00,-7.306728959083557129e-01,-4.318612441420555115e-02
-1.854359054565429688e+01,-2.169478416442871094e+01,-2.819322967529296875e+01,-2.026359367370605469e+01,-2.054097175598144531e+01,-1.482580947875976562e+01,-2.228609657287597656e+01,-1.501917266845703125e+01,-2.134593963623046875e+01,-2.142904090881347656e+01,6.872932434082031250e+00,-3.363801538944244385e-01,-2.072610616683959961e+00,-1.339509105682373047e+01,1.778004264831542969e+01,1.999800300598144531e+01,-2.324434661865234375e+01,-2.052948188781738281e+01,-2.528846263885498047e+00,5.519477277994155884e-02,-4.073470830917358398e-02
-1.788941001892089844e+01,-2.185208511352539062e+01,-2.692922592163085938e+01,-1.912721443176269531e+01,-2.011585617065429688e+01,-1.469182395935058594e+01,-2.168147087097167969e+01,-1.223621749877929688e+01,-1.885314941406250000e+01,-1.798632621765136719e+01,6.057490825653076172e+00,3.241407394409179688e+00,6.414507031440734863e-01,-8.059348106384277344e+00,1.925510025024414062e+01,2.411407470703125000e+01,-2.228469085693359375e+01,-1.684100341796875000e+01,1.407852768898010254e+00,7.932584881782531738e-01,-3.909144923090934753e-02
-1.708554267883300781e+01,-2.192386436462402344e+01,-2.549481010437011719e+01,-1.794641876220703125e+01,-1.939519882202148438e+01,-1.436664676666259766e+01,-2.085861778259277344e+01,-9.443258285522460938e+00,-1.654834747314453125e+01,-1.443149089813232422e+01,4.939805507659912109e+00,6.601280212402343750e+00,3.207050561904907227e+00,-2.828089952468872070e+00,2.062895202636718750e+01,2.788674354553222656e+01,-2.116720581054687500e+01,-1.316635894775390625e+01,5.299093246459960938e+00,1.495107054710388184e+00,-3.857961297035217285e-02
-1.610796546936035156e+01,-2.168256568908691406e+01,-2.391221046447753906e+01,-1.661400604248046875e+01,-1.838628005981445312e+01,-1.372833538055419922e+01,-1.983955955505371094e+01,-6.623140335083007812e+00,-1.441415309906005859e+01,-1.078102588653564453e+01,3.607465267181396484e+00,9.639266014099121094e+00,5.628828525543212891e+00,2.210449457168579102e+00,2.197244262695312500e+01,3.125400543212890625e+01,-1.985384178161621094e+01,-9.560884475708007812e+00,9.176695823669433594e+00,2.159291982650756836e+00,-3.914532437920570374e-02
-1.488276100158691406e+01,-2.088078117370605469e+01,-2.213993835449218750e+01,-1.497222709655761719e+01,-1.706143379211425781e+01,-1.264591598510742188e+01,-1.858225631713867188e+01,-3.718690395355224609e+00,-1.229417610168457031e+01,-6.972274303436279297e+00,2.182601690292358398e+00,1.231548595428466797e+01,7.994933128356933594e+00,7.040017127990722656e+00,2.332099533081054688e+01,3.418009185791015625e+01,-1.824736785888671875e+01,-5.972702503204345703e+00,1.311112213134765625e+01,2.780018806457519531e+00,-4.034409672021865845e-02
-1.333046627044677734e+01,-1.931539344787597656e+01,-2.009204292297363281e+01,-1.285108470916748047e+01,-1.538863563537597656e+01,-1.101701736450195312e+01,-1.702263832092285156e+01,-6.627291440963745117e-01,-9.973575592041015625e+00,-2.899713039398193359e+00,8.033828139305114746e-01,1.462851428985595703e+01,1.041671085357666016e+01,1.169079780578613281e+01,2.466954612731933594e+01,3.662922668457031250e+01,-1.624491310119628906e+01,-2.277307271957397461e+00,1.717737770080566406e+01,3.346422910690307617e+00,-4.136776551604270935e-02
-1.137531280517578125e+01,-1.688560676574707031e+01,-1.767369079589843750e+01,-1.013724899291992188e+01,-1.335332489013671875e+01,-8.807014465332031250e+00,-1.509263706207275391e+01,2.580477714538574219e+00,-7.223293304443359375e+00,1.538883686065673828e+00,-4.117607176303863525e-01,1.660113906860351562e+01,1.300782775878906250e+01,1.619297599792480469e+01,2.595484542846679688e+01,3.853940582275390625e+01,-1.376897048950195312e+01,1.680933117866516113e+00,2.140955734252929688e+01,3.847640037536621094e+00,-4.131388664245605469e-02
-8.982191085815429688e+00,-1.364792633056640625e+01,-1.481671428680419922e+01,-6.800088405609130859e+00,-1.097297096252441406e+01,-6.077630996704101562e+00,-1.276222038269042969e+01,5.986630916595458984e+00,-3.879037857055664062e+00,6.397926807403564453e+00,-1.383875608444213867e+00,1.824760627746582031e+01,1.583555507659912109e+01,2.053958702087402344e+01,2.707062530517578125e+01,3.982239913940429688e+01,-1.078431224822998047e+01,6.031712055206298828e+00,2.577129173278808594e+01,4.265562057495117188e+00,-3.950899839401245117e-02
-6.165883541107177734e+00,-9.794781684875488281e+00,-1.150037002563476562e+01,-2.923835992813110352e+00,-8.299987792968750000e+00,-2.979412078857421875e+00,-1.005941772460937500e+01,9.458534240722656250e+00,1.271176338195800781e-01,1.163619709014892578e+01,-2.080886840820312500e+00,1.954797172546386719e+01,1.888597488403320312e+01,2.467258262634277344e+01,2.788279151916503906e+01,4.037566375732421875e+01,-7.333211898803710938e+00,1.084074020385742188e+01,3.013529968261718750e+01,4.569768905639648438e+00,-3.572411462664604187e-02
-3.000309705734252930e+00,-5.640777111053466797e+00,-7.775039196014404297e+00,1.301600575447082520e+00,-5.423181533813476562e+00,2.482757866382598877e-01,-7.066313266754150391e+00,1.284181880950927734e+01,4.733564853668212891e+00,1.711684226989746094e+01,-2.520065546035766602e+00,2.046520614624023438e+01,2.206629753112792969e+01,2.845496940612792969e+01,2.825471878051757812e+01,4.011095428466796875e+01,-3.525587320327758789e+00,1.606824684143066406e+01,3.429247283935546875e+01,4.720423698425292969e+00,-3.022862412035465240e-02
3.851725757122039795e-01,-1.573823213577270508e+00,-3.765196323394775391e+00,5.608207225799560547e+00,-2.447376012802124023e+00,3.335956573486328125e+00,-3.905034780502319336e+00,1.594494819641113281e+01,9.757056236267089844e+00,2.260078430175781250e+01,-2.745823383331298828e+00,2.094518852233886719e+01,2.519790649414062500e+01,3.170564079284667969e+01,2.808014106750488281e+01,3.898535537719726562e+01,4.624132812023162842e-01,2.155859756469726562e+01,3.798596954345703125e+01,4.675517082214355469e+00,-2.380375005304813385e-02
3.811310291290283203e+00,2.048713207244873047e+00,3.365202248096466064e-01,9.691213607788085938e+00,4.949442446231842041e-01,6.021682262420654297e+00,-7.337459921836853027e-01,1.857925033569335938e+01,1.491166400909423828e+01,2.778134536743164062e+01,-2.828477621078491211e+00,2.095943260192871094e+01,2.805115127563476562e+01,3.421330261230468750e+01,2.729074478149414062e+01,3.703940200805664062e+01,4.413774967193603516e+00,2.704894828796386719e+01,4.093849182128906250e+01,4.408249855041503906e+00,-1.739234663546085358e-02
7.072978496551513672e+00,4.938189983367919922e+00,4.295980453491210938e+00,1.326882076263427734e+01,3.259648084640502930e+00,8.111248970031738281e+00,2.283382892608642578e+00,2.058463478088378906e+01,1.985143089294433594e+01,3.232876205444335938e+01,-2.839580535888671875e+00,2.051220893859863281e+01,3.037086105346679688e+01,3.578523254394531250e+01,2.587388038635253906e+01,3.438517761230468750e+01,8.103027343750000000e+00,3.220728302001953125e+01,4.291138839721679688e+01,3.925140142440795898e+00,-1.185644883662462234e-02
9.976140975952148438e+00,6.946467876434326172e+00,7.865718841552734375e+00,1.611896133422851562e+01,5.693868637084960938e+00,9.505296707153320312e+00,4.988188266754150391e+00,2.186104965209960938e+01,2.421302223205566406e+01,3.593471145629882812e+01,-2.851917028427124023e+00,1.965621757507324219e+01,3.192274665832519531e+01,3.627283096313476562e+01,2.387762069702148438e+01,3.121585083007812500e+01,1.132302093505859375e+01,3.667392349243164062e+01,4.373645782470703125e+01,3.271819829940795898e+00,-7.680953945964574814e-03
1.236926269531250000e+01,8.088819503784179688e+00,1.083235073089599609e+01,1.811911392211914062e+01,7.657841682434082031e+00,1.021135330200195312e+01,7.240523815155029297e+00,2.237418746948242188e+01,2.767417716979980469e+01,3.836011123657226562e+01,-2.927169561386108398e+00,1.848261070251464844e+01,3.251891326904296875e+01,3.560412216186523438e+01,2.139810752868652344e+01,2.774604415893554688e+01,1.392156314849853516e+01,4.011857604980468750e+01,4.334551620483398438e+01,2.530858993530273438e+00,-4.906270653009414673e-03
1.417657756805419922e+01,8.521018981933593750e+00,1.304621028900146484e+01,1.925090026855468750e+01,9.051113128662109375e+00,1.033630561828613281e+01,8.930275917053222656e+00,2.215406799316406250e+01,2.999635696411132812e+01,3.946976089477539062e+01,-3.112216711044311523e+00,1.708824348449707031e+01,3.205496978759765625e+01,3.380232238769531250e+01,1.856943893432617188e+01,2.418561744689941406e+01,1.581551074981689453e+01,4.230434036254882812e+01,4.177719879150390625e+01,1.805108308792114258e+00,-3.155256621539592743e-03
1.540178203582763672e+01,8.488947868347167969e+00,1.444654369354248047e+01,1.959702110290527344e+01,9.844563484191894531e+00,1.004424858093261719e+01,9.993378639221191406e+00,2.128215980529785156e+01,3.105634498596191406e+01,3.923398208618164062e+01,-3.431731700897216797e+00,1.556141662597656250e+01,3.052628135681152344e+01,3.096030807495117188e+01,1.552571010589599609e+01,2.070388793945312500e+01,1.698936462402343750e+01,4.310152435302734375e+01,3.916334152221679688e+01,1.183657288551330566e+00,-1.794853596948087215e-03
1.612064361572265625e+01,8.264448165893554688e+00,1.505557727813720703e+01,1.929990768432617188e+01,1.007313632965087891e+01,9.514328956604003906e+00,1.041581726074218750e+01,1.987710380554199219e+01,3.086046028137207031e+01,3.775004959106445312e+01,-3.889415264129638672e+00,1.395625400543212891e+01,2.802795410156250000e+01,2.723596954345703125e+01,1.241113758087158203e+01,1.739624404907226562e+01,1.750230789184570312e+01,4.251358032226562500e+01,3.570168304443359375e+01,7.244498133659362793e-01,-2.324105444131419063e-04
1.643664550781250000e+01,8.058275222778320312e+00,1.496370315551757812e+01,1.854027938842773438e+01,9.847476005554199219e+00,8.886555671691894531e+00,1.023362827301025391e+01,1.806754112243652344e+01,2.953192138671875000e+01,3.518450164794921875e+01,-4.465528964996337891e+00,1.228984832763671875e+01,2.474324226379394531e+01,2.282898902893066406e+01,9.329457283020019531e+00,1.429368782043457031e+01,1.744312286376953125e+01,4.066328811645507812e+01,3.163770103454589844e+01,4.369019269943237305e-01,1.976560801267623901e-03
1.644034194946289062e+01,7.962060928344726562e+00,1.429984188079833984e+01,1.747434806823730469e+01,9.311714172363281250e+00,8.243728637695312500e+00,9.524892807006835938e+00,1.598639965057373047e+01,2.728872680664062500e+01,3.177146530151367188e+01,-5.114428043365478516e+00,1.055935001373291016e+01,2.091804122924804688e+01,1.795066070556640625e+01,6.359102249145507812e+00,1.136044979095458984e+01,1.692595100402832031e+01,3.777545166015625000e+01,2.720550537109375000e+01,2.876957058906555176e-01,5.007161758840084076e-03
1.616499519348144531e+01,7.949843406677246094e+00,1.318698406219482422e+01,1.622463607788085938e+01,8.608527183532714844e+00,7.596384048461914062e+00,8.389716148376464844e+00,1.375088787078857422e+01,2.439311027526855469e+01,2.777310180664062500e+01,-5.784298896789550781e+00,8.760486602783203125e+00,1.683071136474609375e+01,1.280995750427246094e+01,3.540554046630859375e+00,8.532140731811523438e+00,1.604802703857421875e+01,3.411809921264648438e+01,2.262784194946289062e+01,2.225085347890853882e-01,8.765107020735740662e-03
1.558103561401367188e+01,7.890282154083251953e+00,1.172441482543945312e+01,1.486006069183349609e+01,7.828178882598876953e+00,6.912909507751464844e+00,6.938210487365722656e+00,1.146534919738769531e+01,2.110256385803222656e+01,2.344002914428710938e+01,-6.415926933288574219e+00,6.901803016662597656e+00,1.274338054656982422e+01,7.597274780273437500e+00,8.889932036399841309e-01,5.732447624206542969e+00,1.488826560974121094e+01,2.996791267395019531e+01,1.807290840148925781e+01,1.899149417877197266e-01,1.298100873827934265e-02
1.460530757904052734e+01,7.618439197540283203e+00,9.975850105285644531e+00,1.340512561798095703e+01,6.988140106201171875e+00,6.149645328521728516e+00,5.262472629547119141e+00,9.209826469421386719e+00,1.762403297424316406e+01,1.899153900146484375e+01,-6.966134071350097656e+00,5.016058444976806641e+00,8.869463920593261719e+00,2.465859174728393555e+00,-1.600640177726745605e+00,2.892214536666870117e+00,1.350021553039550781e+01,2.557736206054687500e+01,1.364753150939941406e+01,1.645643711090087891e-01,1.730466634035110474e-02
1.316573810577392578e+01,7.004501819610595703e+00,7.957592487335205078e+00,1.185676860809326172e+01,6.053469181060791016e+00,5.290032863616943359e+00,3.436578989028930664e+00,7.051500797271728516e+00,1.409337234497070312e+01,1.459910869598388672e+01,-7.413948535919189453e+00,3.137434959411621094e+00,5.329585552215576172e+00,-2.468194246292114258e+00,-3.946056842803955078e+00,-4.340851306915283203e-02,1.191628932952880859e+01,2.114184951782226562e+01,9.401715278625488281e+00,1.551484465599060059e-01,2.133199758827686310e-02
1.123830413818359375e+01,6.004180908203125000e+00,5.684459209442138672e+00,1.020733261108398438e+01,4.954284667968750000e+00,4.361169338226318359e+00,1.514585733413696289e+00,5.030392646789550781e+00,1.056902980804443359e+01,1.036496448516845703e+01,-7.764304637908935547e+00,1.294418692588806152e+00,2.158541440963745117e+00,-7.142194271087646484e+00,-6.180148601531982422e+00,-3.110192775726318359e+00,1.016889667510986328e+01,1.678588294982910156e+01,5.317276477813720703e+00,1.928121447563171387e-01,2.463198639452457428e-02
8.898773193359375000e+00,4.680091857910156250e+00,3.187568902969360352e+00,8.462942123413085938e+00,3.641086816787719727e+00,3.426283836364746094e+00,-4.634656608104705811e-01,3.167942762374877930e+00,7.057324409484863281e+00,6.338569641113281250e+00,-8.041874885559082031e+00,-5.129906535148620605e-01,-7.132602334022521973e-01,-1.152827739715576172e+01,-8.333276748657226562e+00,-6.322446346282958984e+00,8.304541587829589844e+00,1.256998538970947266e+01,1.339665055274963379e+00,3.152191936969757080e-01,2.673320285975933075e-02
6.328246116638183594e+00,3.189537286758422852e+00,5.247131586074829102e-01,6.655760288238525391e+00,2.112419605255126953e+00,2.566670894622802734e+00,-2.449525356292724609e+00,1.465580701828002930e+00,3.544039726257324219e+00,2.533116102218627930e+00,-8.288604736328125000e+00,-2.318975687026977539e+00,-3.408763885498046875e+00,-1.564501953125000000e+01,-1.044339275360107422e+01,-9.675399780273437500e+00,6.386637210845947266e+00,8.506260871887207031e+00,-2.597033977508544922e+00,5.375798940658569336e-01,2.727197483181953430e-02
3.781742811203002930e+00,1.727999687194824219e+00,-2.188524961471557617e+00,4.848577976226806641e+00,4.279740750789642334e-01,1.853087067604064941e+00,-4.379527091979980469e+00,-9.241643548011779785e-02,4.181306436657905579e-02,-1.061289906501770020e+00,-8.535334587097167969e+00,-4.174810409545898438e+00,-6.069471836090087891e+00,-1.952957153320312500e+01,-1.253579807281494141e+01,-1.314043712615966797e+01,4.501144409179687500e+00,4.586063861846923828e+00,-6.556462287902832031e+00,8.504783511161804199e-01,2.601932734251022339e-02
1.538306236267089844e+00,4.787438213825225830e-01,-4.800998210906982422e+00,3.116440057754516602e+00,-1.278309702873229980e+00,1.329189896583557129e+00,-6.169383049011230469e+00,-1.527489066123962402e+00,-3.398804903030395508e+00,-4.446297168731689453e+00,-8.794401168823242188e+00,-6.124648094177246094e+00,-8.802090644836425781e+00,-2.321676063537597656e+01,-1.461302280426025391e+01,-1.665793800354003906e+01,2.757979631423950195e+00,8.024770021438598633e-01,-1.055680274963378906e+01,1.206110596656799316e+00,2.310995012521743774e-02
-1.636747270822525024e-01,-4.268902838230133057e-01,-7.136368751525878906e+00,1.548173785209655762e+00,-2.855020761489868164e+00,1.002506971359252930e+00,-7.726998329162597656e+00,-2.861077308654785156e+00,-6.675132274627685547e+00,-7.605417251586914062e+00,-9.060869216918945312e+00,-8.182730674743652344e+00,-1.165301513671875000e+01,-2.672980690002441406e+01,-1.665735626220703125e+01,-2.014205360412597656e+01,1.250149011611938477e+00,-2.825477600097656250e+00,-1.457305431365966797e+01,1.540738105773925781e+00,1.905567944049835205e-02
-1.178210616111755371e+00,-9.446136355400085449e-01,-9.040525436401367188e+00,2.081023305654525757e-01,-4.147836208343505859e+00,8.594890832901000977e-01,-8.966283798217773438e+00,-4.113192558288574219e+00,-9.665531158447265625e+00,-1.049413204193115234e+01,-9.300196647644042969e+00,-1.031629943847656250e+01,-1.459672737121582031e+01,-3.005942153930664062e+01,-1.863337516784667969e+01,-2.349023818969726562e+01,5.797647684812545776e-02,-6.249381542205810547e+00,-1.852566337585449219e+01,1.788449406623840332e+00,1.471855398267507553e-02
-1.468342065811157227e+00,-1.104970455169677734e+00,-1.039343929290771484e+01,-8.608917593955993652e-01,-5.050477981567382812e+00,8.775544762611389160e-01,-9.831180572509765625e+00,-5.295269012451171875e+00,-1.225626277923583984e+01,-1.305803203582763672e+01,-9.477842330932617188e+00,-1.244844436645507812e+01,-1.753580093383789062e+01,-3.318006515502929688e+01,-2.048794937133789062e+01,-2.660948562622070312e+01,-7.903543710708618164e-01,-9.405252456665039062e+00,-2.230553054809570312e+01,1.899267554283142090e+00,1.104142423719167709e-02
-1.104291796684265137e+00,-1.007229208946228027e+00,-1.115213871002197266e+01,-1.658808588981628418e+00,-5.509078025817871094e+00,1.022077798843383789e+00,-1.031368064880371094e+01,-6.420171737670898438e+00,-1.438729763031005859e+01,-1.524270534515380859e+01,-9.567897796630859375e+00,-1.448658657073974609e+01,-2.035192871093750000e+01,-3.604529953002929688e+01,-2.217553710937500000e+01,-2.942587089538574219e+01,-1.315981268882751465e+00,-1.222392082214355469e+01,-2.578991889953613281e+01,1.847842216491699219e+00,8.738167583942413330e-03
-2.265057265758514404e-01,-7.888384461402893066e-01,-1.133588600158691406e+01,-2.222404241561889648e+00,-5.539651393890380859e+00,1.256928205490112305e+00,-1.044781970977783203e+01,-7.500764369964599609e+00,-1.604125785827636719e+01,-1.700693321228027344e+01,-9.569131851196289062e+00,-1.634669494628906250e+01,-2.291521072387695312e+01,-3.860868453979492188e+01,-2.365565490722656250e+01,-3.189408493041992188e+01,-1.585136055946350098e+00,-1.464313411712646484e+01,-2.887199974060058594e+01,1.629827260971069336e+00,7.930007763206958771e-03
9.839150905609130859e-01,-5.826654434204101562e-01,-1.103062820434570312e+01,-2.608344793319702148e+00,-5.207712173461914062e+00,1.523393154144287109e+00,-1.031568336486816406e+01,-8.549910545349121094e+00,-1.725605964660644531e+01,-1.832927894592285156e+01,-9.502514839172363281e+00,-1.798746299743652344e+01,-2.512589454650878906e+01,-4.082378387451171875e+01,-2.490300178527832031e+01,-3.400458526611328125e+01,-1.689415931701660156e+00,-1.660928535461425781e+01,-3.145631027221679688e+01,1.258260369300842285e+00,8.010823279619216919e-03
2.349565505981445312e+00,-5.078322887420654297e-01,-1.036083889007568359e+01,-2.885548353195190430e+00,-4.615171909332275391e+00,1.747705459594726562e+00,-1.000335884094238281e+01,-9.579046249389648438e+00,-1.808382987976074219e+01,-1.920479583740234375e+01,-9.412458419799804688e+00,-1.940746879577636719e+01,-2.690047264099121094e+01,-4.264648056030273438e+01,-2.589733695983886719e+01,-3.575975799560546875e+01,-1.719008922576904297e+00,-1.807741355895996094e+01,-3.347693634033203125e+01,7.519732713699340820e-01,7.768375799059867859e-03
3.713367700576782227e+00,-6.330633163452148438e-01,-9.458402633666992188e+00,-3.099959611892700195e+00,-3.871220350265502930e+00,1.851581573486328125e+00,-9.588929176330566406e+00,-1.058817100524902344e+01,-1.855932426452636719e+01,-1.963018989562988281e+01,-9.332271575927734375e+00,-2.064516639709472656e+01,-2.818095207214355469e+01,-4.402801895141601562e+01,-2.660070800781250000e+01,-3.715245056152343750e+01,-1.738737583160400391e+00,-1.900082969665527344e+01,-3.487023925781250000e+01,1.319707781076431274e-01,5.721036344766616821e-03
4.953356266021728516e+00,-9.736306071281433105e-01,-8.446310043334960938e+00,-3.268425703048706055e+00,-3.085048675537109375e+00,1.771792650222778320e+00,-9.110433578491210938e+00,-1.155012702941894531e+01,-1.867306327819824219e+01,-1.959556388854980469e+01,-9.266887664794921875e+00,-2.173758888244628906e+01,-2.890470314025878906e+01,-4.490337753295898438e+01,-2.694480323791503906e+01,-3.814450454711914062e+01,-1.776785612106323242e+00,-1.932592773437500000e+01,-3.557484436035156250e+01,-5.756722688674926758e-01,6.565657095052301884e-04
5.982676029205322266e+00,-1.489826798439025879e+00,-7.416435241699218750e+00,-3.372568368911743164e+00,-2.348376750946044922e+00,1.485756874084472656e+00,-8.563866615295410156e+00,-1.241059875488281250e+01,-1.836975860595703125e+01,-1.908773040771484375e+01,-9.189167976379394531e+00,-2.269897651672363281e+01,-2.899285125732421875e+01,-4.519593811035156250e+01,-2.682841873168945312e+01,-3.865484237670898438e+01,-1.826107144355773926e+00,-1.899564170837402344e+01,-3.552256393432617188e+01,-1.338362216949462891e+00,-7.909932173788547516e-03
6.751431465148925781e+00,-2.100709915161132812e+00,-6.429533958435058594e+00,-3.372568368911743164e+00,-1.728174567222595215e+00,1.014550566673278809e+00,-7.903181076049804688e+00,-1.308954238891601562e+01,-1.756410408020019531e+01,-1.809020042419433594e+01,-9.027560234069824219e+00,-2.349657249450683594e+01,-2.835956954956054688e+01,-4.481746673583984375e+01,-2.613010787963867188e+01,-3.856422042846679688e+01,-1.852881669998168945e+00,-1.797192955017089844e+01,-3.463385391235351562e+01,-2.113365411758422852e+00,-1.949356310069561005e-02
7.239295959472656250e+00,-2.711592912673950195e+00,-5.515242099761962891e+00,-3.228606462478637695e+00,-1.262295126914978027e+00,4.168863594532012939e-01,-7.072319507598876953e+00,-1.349833869934082031e+01,-1.617711448669433594e+01,-1.660956954956054688e+01,-8.687073707580566406e+00,-2.404634475708007812e+01,-2.690975189208984375e+01,-4.368901824951171875e+01,-2.472589302062988281e+01,-3.773909759521484375e+01,-1.831743955612182617e+00,-1.626343536376953125e+01,-3.284960937500000000e+01,-2.852153301239013672e+00,-3.273392096161842346e-02
7.453660488128662109e+00,-3.241533756256103516e+00,-4.686896800994873047e+00,-2.931493520736694336e+00,-9.609292745590209961e-01,-2.394904792308807373e-01,-6.027235507965087891e+00,-1.356122970581054688e+01,-1.418193531036376953e+01,-1.470189571380615234e+01,-8.072716712951660156e+00,-2.423862075805664062e+01,-2.456452369689941406e+01,-4.175951385498046875e+01,-2.251204299926757812e+01,-3.606500625610351562e+01,-1.751420259475708008e+00,-1.395489406585693359e+01,-3.013347053527832031e+01,-3.507646560668945312e+00,-4.566448554396629333e-02
7.416701316833496094e+00,-3.644716739654541016e+00,-3.954870939254760742e+00,-2.514922857284545898e+00,-8.051508069038391113e-01,-9.064054489135742188e-01,-4.749910831451416016e+00,-1.323533725738525391e+01,-1.161647891998291016e+01,-1.246610927581787109e+01,-7.106770038604736328e+00,-2.395519065856933594e+01,-2.128213310241699219e+01,-3.902198410034179688e+01,-1.944301223754882812e+01,-3.347517013549804688e+01,-1.638685226440429688e+00,-1.120193767547607422e+01,-2.650134277343750000e+01,-4.046527385711669922e+00,-5.633220076560974121e-02
7.156136989593505859e+00,-3.924195766448974609e+00,-3.333982467651367188e+00,-2.064658880233764648e+00,-7.629304528236389160e-01,-1.568804144859313965e+00,-3.268374443054199219e+00,-1.252494716644287109e+01,-8.600804328918457031e+00,-1.005554866790771484e+01,-5.741121292114257812e+00,-2.310062217712402344e+01,-1.707649803161621094e+01,-3.552519226074218750e+01,-1.552639389038085938e+01,-2.997674751281738281e+01,-1.551315546035766602e+00,-8.232825279235839844e+00,-2.202368927001953125e+01,-4.455758094787597656e+00,-6.328237801790237427e-02
6.694144725799560547e+00,-4.127314090728759766e+00,-2.865722894668579102e+00,-1.698627829551696777e+00,-8.036949038505554199e-01,-2.244751691818237305e+00,-1.644690632820129395e+00,-1.147723007202148438e+01,-5.327636241912841797e+00,-7.653232574462890625e+00,-3.964667797088623047e+00,-2.162507057189941406e+01,-1.202880859375000000e+01,-3.136665534973144531e+01,-1.082797050476074219e+01,-2.563174057006835938e+01,-1.569635033607482910e+00,-5.315589427947998047e+00,-1.681869888305664062e+01,-4.737511634826660156e+00,-6.592236459255218506e-02
6.036266803741455078e+00,-4.319742202758789062e+00,-2.603438377380371094e+00,-1.545476794242858887e+00,-9.128854274749755859e-01,-2.961346626281738281e+00,2.904510311782360077e-02,-1.017222881317138672e+01,-2.021293878555297852e+00,-5.432285308837890625e+00,-1.798381447792053223e+00,-1.951144218444824219e+01,-6.280565738677978516e+00,-2.667175865173339844e+01,-5.469186305999755859e+00,-2.056176757812500000e+01,-1.781013131141662598e+00,-2.704430580139160156e+00,-1.105229949951171875e+01,-4.908446788787841797e+00,-6.471012532711029053e-02
5.171416759490966797e+00,-4.576313495635986328e+00,-2.615293025970458984e+00,-1.709348440170288086e+00,-1.107972502708435059e+00,-3.729126930236816406e+00,1.654731035232543945e+00,-8.702852249145507812e+00,1.074946284294128418e+00,-3.526260852813720703e+00,7.034572958946228027e-01,-1.678394889831542969e+01,-3.126535192131996155e-02,-2.157052803039550781e+01,3.880303800106048584e-01,-1.491230392456054688e+01,-2.257318496704101562e+00,-5.964816808700561523e-01,-4.913140296936035156e+00,-4.980876922607421875e+00,-6.095218285918235779e-02
4.077417850494384766e+00,-4.950479030609130859e+00,-2.969451427459716797e+00,-2.246908426284790039e+00,-1.438455820083618164e+00,-4.528521537780761719e+00,3.134265422821044922e+00,-7.150572299957275391e+00,3.758880853652954102e+00,-2.004409313201904297e+00,3.459427595138549805e+00,-1.348816776275634766e+01,6.463923931121826172e+00,-1.619066810607910156e+01,6.546330928802490234e+00,-8.835968971252441406e+00,-3.046463489532470703e+00,8.941269516944885254e-01,1.398761034011840820e+00,-4.954077720642089844e+00,-5.645342171192169189e-02
2.746879100799560547e+00,-5.460566520690917969e+00,-3.701477289199829102e+00,-3.155094146728515625e+00,-1.959658503532409668e+00,-5.312861919403076172e+00,4.389567375183105469e+00,-5.576852321624755859e+00,5.878857612609863281e+00,-8.683790564537048340e-01,6.349865436553955078e+00,-9.695314407348632812e+00,1.292663764953613281e+01,-1.064827442169189453e+01,1.277547454833984375e+01,-2.487773895263671875e+00,-4.148447990417480469e+00,1.762207627296447754e+00,7.667476654052734375e+00,-4.816460132598876953e+00,-5.300527438521385193e-02
1.196431756019592285e+00,-6.095884799957275391e+00,-4.808407306671142578e+00,-4.366518497467041016e+00,-2.719624519348144531e+00,-6.027951240539550781e+00,5.368582725524902344e+00,-4.020284175872802734e+00,7.362209320068359375e+00,-5.221808329224586487e-02,9.224266052246093750e+00,-5.513632297515869141e+00,1.904835319519042969e+01,-5.061765193939208984e+00,1.881233024597167969e+01,3.970119953155517578e+00,-5.523815155029296875e+00,2.089034795761108398e+00,1.367480659484863281e+01,-4.547744274139404297e+00,-5.188731849193572998e-02
-5.073972940444946289e-01,-6.815199851989746094e+00,-6.220595359802246094e+00,-5.770913600921630859e+00,-3.721265316009521484e+00,-6.633142948150634766e+00,6.049288749694824219e+00,-2.505167961120605469e+00,8.224733352661132812e+00,5.512464046478271484e-01,1.190621757507324219e+01,-1.098369121551513672e+00,2.453446960449218750e+01,4.272243976593017578e-01,2.437352180480957031e+01,1.033739376068115234e+01,-7.075330257415771484e+00,2.035428285598754883e+00,1.919345855712890625e+01,-4.132719039916992188e+00,-5.353057757019996643e-02
-2.261121511459350586e+00,-7.560476779937744141e+00,-7.812084674835205078e+00,-7.225848197937011719e+00,-4.903434753417968750e+00,-7.116392612457275391e+00,6.445699691772460938e+00,-1.042937636375427246e+00,8.562791824340820312e+00,1.068972826004028320e+00,1.421437358856201172e+01,3.338258266448974609e+00,2.912285614013671875e+01,5.646872520446777344e+00,2.916049957275390625e+01,1.635887908935546875e+01,-8.669121742248535156e+00,1.801980257034301758e+00,2.400068664550781250e+01,-3.577179670333862305e+00,-5.735586956143379211e-02
-3.924295186996459961e+00,-8.267574310302734375e+00,-9.396164894104003906e+00,-8.573576927185058594e+00,-6.148206710815429688e+00,-7.492755413055419922e+00,6.605865955352783203e+00,3.449662327766418457e-01,8.546995162963867188e+00,1.618026494979858398e+00,1.598835945129394531e+01,7.531334400177001953e+00,3.260706329345703125e+01,1.037427616119384766e+01,3.290000915527343750e+01,2.174125099182128906e+01,-1.013749504089355469e+01,1.599658608436584473e+00,2.788056182861328125e+01,-2.915891885757446289e+00,-6.198932230472564697e-02
-5.339840888977050781e+00,-8.867766380310058594e+00,-1.075797080993652344e+01,-9.660949707031250000e+00,-7.292522907257080078e+00,-7.792340278625488281e+00,6.597857475280761719e+00,1.632815241813659668e+00,8.392183303833007812e+00,2.294038772583007812e+00,1.712084770202636719e+01,1.119172954559326172e+01,3.490125656127929688e+01,1.436563491821289062e+01,3.537193298339843750e+01,2.612441635131835938e+01,-1.129584693908691406e+01,1.627326607704162598e+00,3.065579795837402344e+01,-2.213319063186645508e+00,-6.573379784822463989e-02
-6.374704360961914062e+00,-9.295384407043457031e+00,-1.167818927764892578e+01,-1.034706592559814453e+01,-8.154399871826171875e+00,-8.028696060180664062e+00,6.501757621765136719e+00,2.786304950714111328e+00,8.317936897277832031e+00,3.158015251159667969e+00,1.756989669799804688e+01,1.403886222839355469e+01,3.596832275390625000e+01,1.737250518798828125e+01,3.643964385986328125e+01,2.916735267639160156e+01,-1.196662044525146484e+01,2.037157535552978516e+00,3.220820236206054688e+01,-1.557101368904113770e+00,-6.717501580715179443e-02
-6.927247524261474609e+00,-9.489339828491210938e+00,-1.197307491302490234e+01,-1.052472114562988281e+01,-8.588250160217285156e+00,-8.192790031433105469e+00,6.393645763397216797e+00,3.755407571792602539e+00,8.504343032836914062e+00,4.211605072021484375e+00,1.736511039733886719e+01,1.585054492950439453e+01,3.589409255981445312e+01,1.917662811279296875e+01,3.606771469116210938e+01,3.058627700805664062e+01,-1.201171398162841797e+01,2.913884401321411133e+00,3.248550033569335938e+01,-1.045019984245300293e+00,-6.569338589906692505e-02
-6.949423313140869141e+00,-9.388544082641601562e+00,-1.152407932281494141e+01,-1.013418579101562500e+01,-8.470324516296386719e+00,-8.243975639343261719e+00,6.327577114105224609e+00,4.482949256896972656e+00,9.055663108825683594e+00,5.403694629669189453e+00,1.658791351318359375e+01,1.648007583618164062e+01,3.481774520874023438e+01,1.962707710266113281e+01,3.431434631347656250e+01,3.018802452087402344e+01,-1.135362339019775391e+01,4.245402336120605469e+00,3.150814437866210938e+01,-7.661636471748352051e-01,-6.170646473765373230e-02
-6.459711074829101562e+00,-8.951763153076171875e+00,-1.030749320983886719e+01,-9.180054664611816406e+00,-7.761314392089843750e+00,-8.129561424255371094e+00,6.325574874877929688e+00,4.897462368011474609e+00,9.957679748535156250e+00,6.618867397308349609e+00,1.534562873840332031e+01,1.589469718933105469e+01,3.286687088012695312e+01,1.864723205566406250e+01,3.131362915039062500e+01,2.792490005493164062e+01,-9.996576309204101562e+00,5.915852546691894531e+00,2.935568809509277344e+01,-7.849954962730407715e-01,-5.654770880937576294e-02
-5.532029628753662109e+00,-8.162197113037109375e+00,-8.407782554626464844e+00,-7.741967201232910156e+00,-6.487424850463867188e+00,-7.804383754730224609e+00,6.371623039245605469e+00,4.916044235229492188e+00,1.108085727691650391e+01,7.690594196319580078e+00,1.374065208435058594e+01,1.414283466339111328e+01,3.017368507385253906e+01,1.626031112670898438e+01,2.724773406982421875e+01,2.388275527954101562e+01,-8.042033195495605469e+00,7.709079265594482422e+00,2.615541458129882812e+01,-1.123244524002075195e+00,-5.198160186409950256e-02
-4.293889045715332031e+00,-7.039699077606201172e+00,-6.007211208343505859e+00,-5.963883876800537109e+00,-4.747656345367431641e+00,-7.257905006408691406e+00,6.415668487548828125e+00,4.475802421569824219e+00,1.219455528259277344e+01,8.417719841003417969e+00,1.185070323944091797e+01,1.136264324188232422e+01,2.680778503417968750e+01,1.257080078125000000e+01,2.231147956848144531e+01,1.828336906433105469e+01,-5.673188686370849609e+00,9.338027000427246094e+00,2.205506515502929688e+01,-1.751214385032653809e+00,-4.944936931133270264e-02
-2.894975423812866211e+00,-5.640777111053466797e+00,-3.363619327545166016e+00,-4.034181118011474609e+00,-2.707977533340454102e+00,-6.518728256225585938e+00,6.385637283325195312e+00,3.525281429290771484e+00,1.301758670806884766e+01,8.607332229614257812e+00,9.722660064697265625e+00,7.752097129821777344e+00,2.280860519409179688e+01,7.766774177551269531e+00,1.670474243164062500e+01,1.144868564605712891e+01,-3.129605531692504883e+00,1.050180912017822266e+01,1.722283554077148438e+01,-2.585610151290893555e+00,-4.959753155708312988e-02
-1.492365717887878418e+00,-4.057062625885009766e+00,-7.555913925170898438e-01,-2.155017852783203125e+00,-5.751227736473083496e-01,-5.644061088562011719e+00,6.199444293975830078e+00,2.058763027191162109e+00,1.327823925018310547e+01,8.114337921142578125e+00,7.379961967468261719e+00,3.539081573486328125e+00,1.819006156921386719e+01,2.101319789886474609e+00,1.059957504272460938e+01,3.779340267181396484e+00,-6.677550673484802246e-01,1.093412017822265625e+01,1.183374118804931641e+01,-3.501852273941040039e+00,-5.196813493967056274e-02
-2.061780542135238647e-01,-2.396988153457641602e+00,1.561996936798095703e+00,-4.917978346347808838e-01,1.435438513755798340e+00,-4.709175586700439453e+00,5.785014629364013672e+00,1.334216743707656860e-01,1.278378868103027344e+01,6.887623786926269531e+00,4.838646411895751953e+00,-1.020033836364746094e+00,1.298927021026611328e+01,-4.126036167144775391e+00,4.173082828521728516e+00,-4.288257598876953125e+00,1.493938446044921875e+00,1.047414112091064453e+01,6.067340373992919922e+00,-4.355804443359375000e+00,-5.534893646836280823e-02
8.970604538917541504e-01,-7.582943439483642578e-01,3.406880140304565430e+00,8.528681397438049316e-01,3.138810634613037109e+00,-3.774290561676025391e+00,5.094298362731933594e+00,-2.132106304168701172e+00,1.146630764007568359e+01,4.981599330902099609e+00,2.120919227600097656e+00,-5.666030406951904297e+00,7.282782077789306641e+00,-1.058558273315429688e+01,-2.410277128219604492e+00,-1.231054496765136719e+01,3.210328817367553711e+00,9.090744972229003906e+00,1.213795021176338196e-01,-5.017816066741943359e+00,-5.829872190952301025e-02
1.808109998703002930e+00,7.887669801712036133e-01,4.706448554992675781e+00,1.859070301055908203e+00,4.421434879302978516e+00,-2.869514226913452148e+00,4.125293254852294922e+00,-4.556292533874511719e+00,9.404780387878417969e+00,2.561146020889282227e+00,-7.164718508720397949e-01,-1.014823436737060547e+01,1.219058632850646973e+00,-1.694296646118164062e+01,-8.980986595153808594e+00,-1.987257575988769531e+01,4.436321735382080078e+00,6.896334171295166016e+00,-5.797306537628173828e+00,-5.403144836425781250e+00,-5.991504341363906860e-02
2.578713893890380859e+00,2.215178966522216797e+00,5.485893249511718750e+00,2.577348470687866211e+00,5.261474132537841797e+00,-1.982803225517272949e+00,2.916039228439331055e+00,-6.924734115600585938e+00,6.801410675048828125e+00,-1.379562020301818848e-01,-3.604442358016967773e+00,-1.424445915222167969e+01,-4.990806579589843750e+00,-2.289401435852050781e+01,-1.537458705902099609e+01,-2.663333320617675781e+01,5.224057674407958984e+00,4.119167804718017578e+00,-1.149324607849121094e+01,-5.494407176971435547e+00,-6.035953015089035034e-02
3.288334608078002930e+00,3.519414186477661133e+00,5.851906299591064453e+00,3.107251167297363281e+00,5.744823932647705078e+00,-1.087059617042541504e+00,1.538610577583312988e+00,-9.024456977844238281e+00,3.932649612426757812e+00,-2.855195283889770508e+00,-6.443067073822021484e+00,-1.777382087707519531e+01,-1.109628486633300781e+01,-2.819492912292480469e+01,-2.143421363830566406e+01,-3.235195541381835938e+01,5.683452606201171875e+00,1.065322160720825195e+00,-1.678233337402343750e+01,-5.344476222991943359e+00,-6.092524155974388123e-02
3.999803304672241211e+00,4.716744899749755859e+00,5.946743488311767578e+00,3.551388978958129883e+00,6.008337020874023438e+00,-1.521742939949035645e-01,7.709493488073348999e-02,-1.067679119110107422e+01,1.092323064804077148e+00,-5.353142738342285156e+00,-9.127486228942871094e+00,-2.062095451354980469e+01,-1.683524894714355469e+01,-3.267853164672851562e+01,-2.701817703247070312e+01,-3.691874694824218750e+01,5.954016685485839844e+00,-1.952209234237670898e+00,-2.152137374877929688e+01,-5.056928634643554688e+00,-6.351135671138763428e-02
4.746383666992187500e+00,5.817861557006835938e+00,5.905252456665039062e+00,3.990932464599609375e+00,6.212159633636474609e+00,8.278746008872985840e-01,-1.390426993370056152e+00,-1.176881885528564453e+01,-1.477872133255004883e+00,-7.455375671386718750e+00,-1.156517505645751953e+01,-2.273743247985839844e+01,-2.198732566833496094e+01,-3.627052307128906250e+01,-3.201768493652343750e+01,-4.035755157470703125e+01,6.154121398925781250e+00,-4.653288841247558594e+00,-2.561490440368652344e+01,-4.749100208282470703e+00,-6.977459788322448730e-02
5.507747173309326172e+00,6.818182468414306641e+00,5.828197002410888672e+00,4.467232227325439453e+00,6.478584289550781250e+00,1.822978019714355469e+00,-2.819909572601318359e+00,-1.227195167541503906e+01,-3.619964838027954102e+00,-9.072857856750488281e+00,-1.368334865570068359e+01,-2.415031623840332031e+01,-2.638549613952636719e+01,-3.898019027709960938e+01,-3.635683441162109375e+01,-4.281145477294921875e+01,6.358453750610351562e+00,-6.835595607757568359e+00,-2.902883148193359375e+01,-4.512253284454345703e+00,-8.007863909006118774e-02
6.222911834716796875e+00,7.696326732635498047e+00,5.768923759460449219e+00,4.963441371917724609e+00,6.857111454010009766e+00,2.765390634536743164e+00,-4.205346107482910156e+00,-1.223764705657958984e+01,-5.284983634948730469e+00,-1.018580532073974609e+01,-1.544623184204101562e+01,-2.494221496582031250e+01,-2.994625282287597656e+01,-4.088879776000976562e+01,-3.999514007568359375e+01,-4.449508666992187500e+01,6.586741924285888672e+00,-8.400561332702636719e+00,-3.177679252624511719e+01,-4.379706382751464844e+00,-9.276675432920455933e-02
6.808718681335449219e+00,8.421751022338867188e+00,5.740768909454345703e+00,5.444335460662841797e+00,7.314255714416503906e+00,3.566290855407714844e+00,-5.558749675750732422e+00,-1.179454708099365234e+01,-6.504523277282714844e+00,-1.084203147888183594e+01,-1.685382461547851562e+01,-2.524273872375488281e+01,-3.266959381103515625e+01,-4.212637329101562500e+01,-4.291995239257812500e+01,-4.564691925048828125e+01,6.815030097961425781e+00,-9.339541435241699219e+00,-3.392015838623046875e+01,-4.313070297241210938e+00,-1.039463058114051819e-01
7.189400672912597656e+00,8.966963768005371094e+00,5.725950241088867188e+00,5.844059944152832031e+00,7.761209011077880859e+00,4.136857032775878906e+00,-6.912153244018554688e+00,-1.111417388916015625e+01,-7.370206832885742188e+00,-1.112397766113281250e+01,-1.794067001342773438e+01,-2.519858551025390625e+01,-3.463438796997070312e+01,-4.285545349121093750e+01,-4.515657424926757812e+01,-4.647919464111328125e+01,6.991178989410400391e+00,-9.738996505737304688e+00,-3.553847503662109375e+01,-4.215289592742919922e+00,-1.079736351966857910e-01
7.311366558074951172e+00,9.309058189392089844e+00,5.700759410858154297e+00,6.099822044372558594e+00,8.081501007080078125e+00,4.410849094390869141e+00,-8.275567054748535156e+00,-1.039520835876464844e+01,-7.986295223236083984e+00,-1.113057327270507812e+01,-1.876968002319335938e+01,-2.495218467712402344e+01,-3.597286224365234375e+01,-4.323624801635742188e+01,-4.676319503784179688e+01,-4.714215469360351562e+01,7.063047409057617188e+00,-9.738996505737304688e+00,-3.673857879638671875e+01,-3.953816652297973633e+00,-9.834305942058563232e-02
7.146897315979003906e+00,9.420544624328613281e+00,5.632595062255859375e+00,6.138109683990478516e+00,8.174676895141601562e+00,4.347620010375976562e+00,-9.638980865478515625e+00,-9.824895858764648438e+00,-8.449151992797851562e+00,-1.097558498382568359e+01,-1.941364479064941406e+01,-2.462744903564453125e+01,-3.686130905151367188e+01,-4.342432022094726562e+01,-4.782584381103515625e+01,-4.772403335571289062e+01,6.974268436431884766e+00,-9.510736465454101562e+00,-3.761592483520507812e+01,-3.399725675582885742e+00,-6.911460310220718384e-02
6.692296504974365234e+00,9.273932456970214844e+00,5.491820812225341797e+00,5.908383369445800781e+00,7.976678371429443359e+00,3.935126304626464844e+00,-1.096835994720458984e+01,-9.549030303955078125e+00,-8.829862594604492188e+00,-1.075464439392089844e+01,-1.994904899597167969e+01,-2.431268310546875000e+01,-3.747835159301757812e+01,-4.355434799194335938e+01,-4.846343231201171875e+01,-4.824867630004882812e+01,6.685385227203369141e+00,-9.218494415283203125e+00,-3.826825332641601562e+01,-2.461754560470581055e+00,-1.622051373124122620e-02
5.953108310699462891e+00,8.835623741149902344e+00,5.250281810760498047e+00,5.363165378570556641e+00,7.465666770935058594e+00,3.189927816390991211e+00,-1.221365165710449219e+01,-9.656231880187988281e+00,-9.166341781616210938e+00,-1.055843639373779297e+01,-2.043387222290039062e+01,-2.406343460083007812e+01,-3.798173141479492188e+01,-4.372616958618164062e+01,-4.880247116088867188e+01,-4.869462585449218750e+01,6.163985729217529297e+00,-8.998880386352539062e+00,-3.877284240722656250e+01,-1.105861306190490723e+00,6.147062405943870544e-02
4.957052230834960938e+00,8.078128814697265625e+00,4.885750770568847656e+00,4.487141609191894531e+00,6.662024497985839844e+00,2.157188177108764648e+00,-1.333080959320068359e+01,-1.016079425811767578e+01,-9.479125022888183594e+00,-1.044466781616210938e+01,-2.089895820617675781e+01,-2.389821815490722656e+01,-3.846886825561523438e+01,-4.400247573852539062e+01,-4.896692657470703125e+01,-4.902133560180664062e+01,5.400206089019775391e+00,-8.926251411437988281e+00,-3.917287826538085938e+01,6.310148239135742188e-01,1.613592207431793213e-01
3.754023075103759766e+00,7.016719341278076172e+00,4.390818119049072266e+00,3.309410572052001953e+00,5.609427928924560547e+00,9.136853218078613281e-01,-1.428179645538330078e+01,-1.099982547760009766e+01,-9.769792556762695312e+00,-1.043477535247802734e+01,-2.133443641662597656e+01,-2.380564117431640625e+01,-3.896064758300781250e+01,-4.438558959960937500e+01,-4.903776931762695312e+01,-4.917634201049804688e+01,4.413774967193603516e+00,-9.021360397338867188e+00,-3.947972106933593750e+01,2.639504194259643555e+00,2.769126594066619873e-01
2.419788360595703125e+00,5.710957050323486328e+00,3.783266067504882812e+00,1.909610152244567871e+00,4.386494159698486328e+00,-4.351991713047027588e-01,-1.504458713531494141e+01,-1.205611896514892578e+01,-1.003360462188720703e+01,-1.050897216796875000e+01,-2.168849182128906250e+01,-2.375721549987792969e+01,-3.939211273193359375e+01,-4.482210922241210938e+01,-4.902005767822265625e+01,-4.909526062011718750e+01,3.249786138534545898e+00,-9.239245414733886719e+00,-3.964564514160156250e+01,4.742152690887451172e+00,3.980154693126678467e-01
1.067073702812194824e+00,4.281490802764892578e+00,3.107549667358398438e+00,4.225137531757354736e-01,3.093678474426269531e+00,-1.753974676132202148e+00,-1.561117458343505859e+01,-1.317387485504150391e+01,-1.025476551055908203e+01,-1.060295391082763672e+01,-2.187600708007812500e+01,-2.370736503601074219e+01,-3.961944580078125000e+01,-4.520522308349609375e+01,-4.884801101684570312e+01,-4.870654678344726562e+01,1.991381645202636719e+00,-9.503819465637207031e+00,-3.957973098754882812e+01,6.711529731750488281e+00,5.117505788803100586e-01
-1.932422667741775513e-01,2.884095907211303711e+00,2.427387952804565430e+00,-9.941331744194030762e-01,1.845994830131530762e+00,-2.905644893646240234e+00,-1.596754455566406250e+01,-1.419729328155517578e+01,-1.041115665435791016e+01,-1.062768650054931641e+01,-2.178965187072753906e+01,-2.360624122619628906e+01,-3.945938491821289062e+01,-4.539329910278320312e+01,-4.837488174438476562e+01,-4.792196655273437500e+01,7.400231957435607910e-01,-9.732079505920410156e+00,-3.915696716308593750e+01,8.294129371643066406e+00,6.040694117546081543e-01
-1.266913294792175293e+00,1.660802483558654785e+00,1.802054047584533691e+00,-2.190242528915405273e+00,7.730160951614379883e-01,-3.775795936584472656e+00,-1.611169433593750000e+01,-1.500201988220214844e+01,-1.047908496856689453e+01,-1.051391792297363281e+01,-2.133690261840820312e+01,-2.340399360656738281e+01,-3.873563385009765625e+01,-4.522611999511718750e+01,-4.742608642578125000e+01,-4.665805053710937500e+01,-4.098737537860870361e-01,-9.853126525878906250e+00,-3.825007247924804688e+01,9.248035430908203125e+00,6.619875431060791016e-01
-2.122523784637451172e+00,7.062977552413940430e-01,1.273039340972900391e+00,-3.069329500198364258e+00,-1.752322725951671600e-02,-4.308725833892822266e+00,-1.604762840270996094e+01,-1.551229953765869141e+01,-1.044275093078613281e+01,-1.021713256835937500e+01,-2.045854568481445312e+01,-2.305504608154296875e+01,-3.732525253295898438e+01,-4.457134246826171875e+01,-4.582958221435546875e+01,-4.485279846191406250e+01,-1.396304965019226074e+00,-9.842751502990722656e+00,-3.676130676269531250e+01,9.393620491027832031e+00,6.760630011558532715e-01
-2.795185089111328125e+00,3.279921784996986389e-02,8.388619422912597656e-01,-3.613015651702880859e+00,-4.659322798252105713e-01,-4.536048889160156250e+00,-1.580337429046630859e+01,-1.571812725067138672e+01,-1.030531597137451172e+01,-9.757114410400390625e+00,-1.915704727172851562e+01,-2.251809310913085938e+01,-3.519807815551757812e+01,-4.334769821166992188e+01,-4.348416900634765625e+01,-4.247520446777343750e+01,-2.213633775711059570e+00,-9.726891517639160156e+00,-3.466567611694335938e+01,8.658453941345214844e+00,6.426321268081665039e-01
-3.384687662124633789e+00,-4.360535144805908203e-01,4.521032869815826416e-01,-3.885624408721923828e+00,-5.911374092102050781e-01,-4.564652442932128906e+00,-1.543899631500244141e+01,-1.565523529052734375e+01,-1.009047508239746094e+01,-9.196518898010253906e+00,-1.750272369384765625e+01,-2.176180076599121094e+01,-3.243298339843750000e+01,-4.154822158813476562e+01,-4.037971496582031250e+01,-3.956104660034179688e+01,-2.911181449890136719e+00,-9.571260452270507812e+00,-3.201317596435546875e+01,7.114241600036621094e+00,5.653854608535766602e-01
-4.025933265686035156e+00,-8.392363190650939941e-01,2.978059835731983185e-02,-4.011208057403564453e+00,-4.906821250915527344e-01,-4.563147068023681641e+00,-1.503657913208007812e+01,-1.539938068389892578e+01,-9.844038963317871094e+00,-8.635923385620117188e+00,-1.562264442443847656e+01,-2.077050399780273438e+01,-2.918770790100097656e+01,-3.924256515502929688e+01,-3.661490631103515625e+01,-3.619139862060546875e+01,-3.576318025588989258e+00,-9.460588455200195312e+00,-2.893336868286132812e+01,4.974653720855712891e+00,4.550042450428009033e-01
-4.835344791412353516e+00,-1.324888348579406738e+00,-5.199798345565795898e-01,-4.139854907989501953e+00,-3.218007981777191162e-01,-4.703154087066650391e+00,-1.468821811676025391e+01,-1.503632450103759766e+01,-9.611821174621582031e+00,-8.167661666870117188e+00,-1.366977882385253906e+01,-1.954704856872558594e+01,-2.567566490173339844e+01,-3.656540679931640625e+01,-3.236178207397460938e+01,-3.249742507934570312e+01,-4.306277275085449219e+00,-9.467505455017089844e+00,-2.560126686096191406e+01,2.561279535293579102e+00,3.274496197700500488e-01
-5.877600193023681641e+00,-2.006022930145263672e+00,-1.266824126243591309e+00,-4.391022682189941406e+00,-2.664775848388671875e-01,-5.115647792816162109e+00,-1.446398544311523438e+01,-1.464039325714111328e+01,-9.426994323730468750e+00,-7.856036186218261719e+00,-1.178476428985595703e+01,-1.810710334777832031e+01,-2.209403228759765625e+01,-3.368624114990234375e+01,-2.781516456604003906e+01,-2.861505699157714844e+01,-5.170108795166015625e+00,-9.630054473876953125e+00,-2.218733978271484375e+01,2.304758578538894653e-01,2.006627470254898071e-01
-7.126828193664550781e+00,-2.929983615875244141e+00,-2.228534460067749023e+00,-4.827503204345703125e+00,-4.659322798252105713e-01,-5.845791816711425781e+00,-1.437189006805419922e+01,-1.426304340362548828e+01,-9.278501510620117188e+00,-7.712589740753173828e+00,-1.005272197723388672e+01,-1.648912239074707031e+01,-1.857503128051757812e+01,-3.076760292053222656e+01,-2.314457130432128906e+01,-2.465160942077636719e+01,-6.179087162017822266e+00,-9.925755500793457031e+00,-1.880750465393066406e+01,-1.707756280899047852e+00,9.060479700565338135e-02
-8.468455314636230469e+00,-4.043317794799804688e+00,-3.359173774719238281e+00,-5.440107345581054688e+00,-9.783997535705566406e-01,-6.836378574371337891e+00,-1.434386062622070312e+01,-1.391856861114501953e+01,-9.107892036437988281e+00,-7.694452762603759766e+00,-8.481054306030273438e+00,-1.473441123962402344e+01,-1.516505718231201172e+01,-2.791397857666015625e+01,-1.843349647521972656e+01,-2.065238952636718750e+01,-7.275434970855712891e+00,-1.028025054931640625e+01,-1.549131393432617188e+01,-3.060028076171875000e+00,8.132047951221466064e-03
-9.713987350463867188e+00,-5.219267845153808594e+00,-4.541676998138427734e+00,-6.146133422851562500e+00,-1.758747935295104980e+00,-7.950412750244140625e+00,-1.423174476623535156e+01,-1.359410476684570312e+01,-8.814065933227539062e+00,-7.714238643646240234e+00,-6.998208999633789062e+00,-1.289281940460205078e+01,-1.180843544006347656e+01,-2.516948509216308594e+01,-1.367687988281250000e+01,-1.658878135681152344e+01,-8.336553573608398438e+00,-1.056903362274169922e+01,-1.217284965515136719e+01,-3.793745994567871094e+00,-4.278204590082168579e-02
-1.063612461090087891e+01,-6.291367530822753906e+00,-5.618970394134521484e+00,-6.832250118255615234e+00,-2.657021999359130859e+00,-9.008745193481445312e+00,-1.383733558654785156e+01,-1.324963092803955078e+01,-8.280121803283691406e+00,-7.671369552612304688e+00,-5.461082935333251953e+00,-1.100137710571289062e+01,-8.379903793334960938e+00,-2.249232482910156250e+01,-8.778576850891113281e+00,-1.235824012756347656e+01,-9.206022262573242188e+00,-1.063993263244628906e+01,-8.715737342834472656e+00,-4.025522708892822266e+00,-6.481788307428359985e-02
-1.100571918487548828e+01,-7.083988189697265625e+00,-6.422124385833740234e+00,-7.374404430389404297e+00,-3.457752227783203125e+00,-9.850292205810546875e+00,-1.296242809295654297e+01,-1.283225917816162109e+01,-7.406539916992187500e+00,-7.468565940856933594e+00,-3.703134298324584961e+00,-9.084298133850097656e+00,-4.726359367370605469e+00,-1.978730201721191406e+01,-3.607021570205688477e+00,-7.815297603607177734e+00,-9.734467506408691406e+00,-1.036152458190917969e+01,-4.954052925109863281e+00,-3.976994276046752930e+00,-6.537012755870819092e-02
-1.066384410858154297e+01,-7.478007793426513672e+00,-6.810365200042724609e+00,-7.679174900054931641e+00,-3.944014072418212891e+00,-1.037418937683105469e+01,-1.146087074279785156e+01,-1.229625034332275391e+01,-6.136449813842773438e+00,-7.036577701568603516e+00,-1.575091004371643066e+00,-7.148704051971435547e+00,-7.132602334022521973e-01,-1.693367767333984375e+01,1.966822266578674316e+00,-2.816868782043457031e+00,-9.810563087463378906e+00,-9.633512496948242188e+00,-7.446033358573913574e-01,-3.906737089157104492e+00,-5.377302691340446472e-02
-9.536581993103027344e+00,-7.432191371917724609e+00,-6.712563991546630859e+00,-7.703679084777832031e+00,-3.946925878524780273e+00,-1.056839275360107422e+01,-9.284613609313964844e+00,-1.160015487670898438e+01,-4.479329586029052734e+00,-6.332535743713378906e+00,1.018037676811218262e+00,-5.187472820281982422e+00,3.731305122375488281e+00,-1.382232189178466797e+01,7.996086597442626953e+00,2.727667093276977539e+00,-9.399080276489257812e+00,-8.417854309082031250e+00,3.983072042465209961e+00,-4.039284229278564453e+00,-3.860655054450035095e-02
-7.677523612976074219e+00,-6.999991893768310547e+00,-6.134648799896240234e+00,-7.455574512481689453e+00,-3.392237901687622070e+00,-1.048860359191894531e+01,-6.501727581024169922e+00,-1.072110176086425781e+01,-2.496787786483764648e+00,-5.343249797821044922e+00,4.087354660034179688e+00,-3.186361312866210938e+00,8.591098785400390625e+00,-1.038822078704833984e+01,1.443776035308837891e+01,8.823079109191894531e+00,-8.549340248107910156e+00,-6.742216110229492188e+00,9.206244468688964844e+00,-4.511528968811035156e+00,-2.593190595507621765e-02
-5.264073848724365234e+00,-6.315802574157714844e+00,-5.165529251098632812e+00,-6.985401153564453125e+00,-2.317803382873535156e+00,-1.024321556091308594e+01,-3.282389163970947266e+00,-9.649085044860839844e+00,-2.883472442626953125e-01,-4.078612327575683594e+00,7.547738075256347656e+00,-1.138248920440673828e+00,1.374085617065429688e+01,-6.631374359130859375e+00,2.112232398986816406e+01,1.536443901062011719e+01,-7.376896381378173828e+00,-4.699978828430175781e+00,1.479990291595458984e+01,-5.348822116851806641e+00,-1.873927935957908630e-02
-2.571580648422241211e+00,-5.552198886871337891e+00,-3.954870939254760742e+00,-6.363607883453369141e+00,-8.692092299461364746e-01,-9.936102867126464844e+00,1.251447647809982300e-01,-8.386964797973632812e+00,2.041731357574462891e+00,-2.560058355331420898e+00,1.122400951385498047e+01,9.525918960571289062e-01,1.898340225219726562e+01,-2.621440172195434570e+00,2.776387786865234375e+01,2.212758064270019531e+01,-6.038168430328369141e+00,-2.422563791275024414e+00,2.054584693908691406e+01,-6.470766067504882812e+00,-1.732499897480010986e-02
7.101754844188690186e-02,-4.875646114349365234e+00,-2.679011821746826172e+00,-5.671365261077880859e+00,7.497221231460571289e-01,-9.636518478393554688e+00,3.456599712371826172e+00,-6.950462341308593750e+00,4.389186859130859375e+00,-8.354029059410095215e-01,1.486697292327880859e+01,3.050554037094116211e+00,2.403805160522460938e+01,1.513877153396606445e+00,3.399808120727539062e+01,2.880248641967773438e+01,-4.695212841033935547e+00,-7.424989342689514160e-02,2.616223335266113281e+01,-7.720186710357666016e+00,-2.023437619209289551e-02
2.355109453201293945e+00,-4.399157047271728516e+00,-1.506881237030029297e+00,-4.972996711730957031e+00,2.313330173492431641e+00,-9.365536689758300781e+00,6.461716175079345703e+00,-5.369595527648925781e+00,6.667135238647460938e+00,1.027752518653869629e+00,1.819659042358398438e+01,5.092969417572021484e+00,2.858932304382324219e+01,5.591146945953369141e+00,3.941505813598632812e+01,3.500521087646484375e+01,-3.491766691207885742e+00,2.187601804733276367e+00,3.132858276367187500e+01,-8.903696060180664062e+00,-2.528537809848785400e-02
4.046002388000488281e+00,-4.157858371734619141e+00,-5.733258128166198730e-01,-4.322104930877685547e+00,3.629439830780029297e+00,-9.109610557556152344e+00,8.944291114807128906e+00,-3.697250127792358398e+00,8.780793190002441406e+00,2.923884153366088867e+00,2.092788696289062500e+01,6.985835552215576172e+00,3.231245803833007812e+01,9.396753311157226562e+00,4.361251831054687500e+01,4.033512115478515625e+01,-2.519427299499511719e+00,4.214276313781738281e+00,3.571532058715820312e+01,-9.835148811340332031e+00,-3.020168468356132507e-02
5.025426864624023438e+00,-4.112042427062988281e+00,4.608077183365821838e-02,-3.756977558135986328e+00,4.569934368133544922e+00,-8.817552566528320312e+00,1.077418899536132812e+01,-2.016328573226928711e+00,1.062431907653808594e+01,4.727682590484619141e+00,2.282770538330078125e+01,8.615210533142089844e+00,3.492445373535156250e+01,1.268921852111816406e+01,4.624383926391601562e+01,4.438919067382812500e+01,-1.826107144355773926e+00,5.891643047332763672e+00,3.902241897583007812e+01,-1.037765121459960938e+01,-3.316494077444076538e-02
5.308166503906250000e+00,-4.163967132568359375e+00,3.276292383670806885e-01,-3.295993089675903320e+00,5.104239940643310547e+00,-8.447211265563964844e+00,1.189535140991210938e+01,-4.311735928058624268e-01,1.207449722290039062e+01,6.287456989288330078e+00,2.373813819885253906e+01,9.862877845764160156e+00,3.620029449462890625e+01,1.523867225646972656e+01,4.706865692138671875e+01,4.682878494262695312e+01,-1.418851971626281738e+00,7.138428211212158203e+00,4.100440597534179688e+01,-1.045732402801513672e+01,-3.294942900538444519e-02
5.014338970184326172e+00,-4.186875343322753906e+00,3.083653748035430908e-01,-2.940682649612426758e+00,5.252738952636718750e+00,-7.965467453002929688e+00,1.232179355621337891e+01,9.424366950988769531e-01,1.300968837738037109e+01,7.464707374572753906e+00,2.361107254028320312e+01,1.062629127502441406e+01,3.601935577392578125e+01,1.684543228149414062e+01,4.597817611694335938e+01,4.740589523315429688e+01,-1.268068909645080566e+00,7.918317794799804688e+00,4.150672149658203125e+01,-1.007923889160156250e+01,-2.915107645094394684e-02
4.347221851348876953e+00,-4.057062625885009766e+00,7.127194851636886597e-02,-2.660416364669799805e+00,5.108607292175292969e+00,-7.342210292816162109e+00,1.212358760833740234e+01,1.995871424674987793e+00,1.333668899536132812e+01,8.168748855590820312e+00,2.251189231872558594e+01,1.083993339538574219e+01,3.437467956542968750e+01,1.737250518798828125e+01,4.301288223266601562e+01,4.600605010986328125e+01,-1.311753749847412109e+00,8.227851867675781250e+00,4.048618316650390625e+01,-9.315824508666992188e+00,-2.228171564638614655e-02
3.539658546447753906e+00,-3.666097640991210938e+00,-2.621406912803649902e-01,-2.396996498107910156e+00,4.779580116271972656e+00,-6.557870388031005859e+00,1.143087005615234375e+01,2.660521507263183594e+00,1.301126766204833984e+01,8.368254661560058594e+00,2.059233474731445312e+01,1.048956012725830078e+01,3.137761497497558594e+01,1.677113151550292969e+01,3.835746765136718750e+01,4.266501998901367188e+01,-1.451263308525085449e+00,8.111992835998535156e+00,3.801551818847656250e+01,-8.283694267272949219e+00,-1.378256361931562424e-02
2.828189849853515625e+00,-2.939146757125854492e+00,-5.496165156364440918e-01,-2.063127279281616211e+00,4.383582592010498047e+00,-5.594381332397460938e+00,1.040580654144287109e+01,2.914946794509887695e+00,1.207291793823242188e+01,8.114337921142578125e+00,1.806952476501464844e+01,9.606508255004882812e+00,2.723693275451660156e+01,1.508310508728027344e+01,3.229784393310546875e+01,3.756404495239257812e+01,-1.561179876327514648e+00,7.639909267425537109e+00,3.427428817749023438e+01,-7.114670276641845703e+00,-5.647084210067987442e-03
2.406852483749389648e+00,-1.842611670494079590e+00,-6.474175453186035156e-01,-1.559260368347167969e+00,4.003599166870117188e+00,-4.439700126647949219e+00,9.212569236755371094e+00,2.794880867004394531e+00,1.062431907653808594e+01,7.515820503234863281e+00,1.517168426513671875e+01,8.260564804077148438e+00,2.220779991149902344e+01,1.243380832672119141e+01,2.518821907043457031e+01,3.101553153991699219e+01,-1.500584840774536133e+00,6.899792671203613281e+00,2.951706504821777344e+01,-5.934058189392089844e+00,-1.690115277597215027e-05
2.417940378189086914e+00,-3.826012611389160156e-01,-4.310697615146636963e-01,-8.026943802833557129e-01,3.699321746826171875e+00,-3.101353645324707031e+00,8.001313209533691406e+00,2.376080036163330078e+00,8.818705558776855469e+00,6.706254482269287109e+00,1.209619903564453125e+01,6.551430702209472656e+00,1.655930519104003906e+01,8.999707221984863281e+00,1.737016296386718750e+01,2.339388084411621094e+01,-1.129968523979187012e+00,5.983293056488037109e+00,2.401886940002441406e+01,-4.834568023681640625e+00,1.545541919767856598e-03
2.926132202148437500e+00,1.376741886138916016e+00,1.853731721639633179e-01,2.586421668529510498e-01,3.510058164596557617e+00,-1.619989395141601562e+00,6.868137836456298828e+00,1.757169127464294434e+00,6.823526859283447266e+00,5.822492122650146484e+00,8.984938621520996094e+00,4.583077907562255859e+00,1.054429531097412109e+01,4.978163242340087891e+00,9.149819374084472656e+00,1.509734821319580078e+01,-3.478695154190063477e-01,4.975143909454345703e+00,1.805472564697265625e+01,-3.871970653533935547e+00,-1.431181561201810837e-03
3.924036502838134766e+00,3.326986074447631836e+00,1.222656965255737305e+00,1.627812266349792480e+00,3.453279256820678711e+00,-6.184720620512962341e-02,5.855087280273437500e+00,1.043920874595642090e+00,4.795173645019531250e+00,4.970057487487792969e+00,5.924256801605224609e+00,2.459478616714477539e+00,4.350667953491210938e+00,5.665388703346252441e-01,7.548971176147460938e-01,6.507490634918212891e+00,8.879879117012023926e-01,3.954889535903930664e+00,1.185192394256591797e+01,-3.062925338745117188e+00,-8.085033856332302094e-03
5.335886001586914062e+00,5.329154968261718750e+00,2.637808322906494141e+00,3.257339000701904297e+00,3.533352136611938477e+00,1.491778731346130371e+00,4.950148582458496094e+00,3.292433321475982666e-01,2.866342306137084961e+00,4.211605072021484375e+00,2.935127019882202148e+00,2.789081633090972900e-01,-1.856877565383911133e+00,-4.058701038360595703e+00,-7.624844551086425781e+00,-2.046595573425292969e+00,2.545192241668701172e+00,2.988241910934448242e+00,5.605937480926513672e+00,-2.391497373580932617e+00,-1.651683822274208069e-02
7.030475139617919922e+00,7.236637592315673828e+00,4.334508419036865234e+00,5.072178840637207031e+00,3.747365713119506836e+00,2.965615749359130859e+00,4.109276771545410156e+00,-3.082490563392639160e-01,1.134975433349609375e+00,3.583408117294311523e+00,2.124982327222824097e-02,-1.858933806419372559e+00,-7.936838626861572266e+00,-8.718769073486328125e+00,-1.583253860473632812e+01,-1.028112602233886719e+01,4.527919292449951172e+00,2.142641305923461914e+00,-5.104925036430358887e-01,-1.822196006774902344e+00,-2.436946332454681396e-02
8.856269836425781250e+00,8.931838035583496094e+00,6.167536735534667969e+00,6.977377414703369141e+00,4.074937343597412109e+00,4.316005706787109375e+00,3.294431447982788086e+00,-8.056646585464477539e-01,-3.199415206909179688e-01,3.100306749343872070e+00,-2.823543071746826172e+00,-3.854347944259643555e+00,-1.374307441711425781e+01,-1.323952293395996094e+01,-2.370119667053222656e+01,-1.795046997070312500e+01,6.682566642761230469e+00,1.480340838432312012e+00,-6.331442832946777344e+00,-1.312287330627441406e+00,-2.966291271150112152e-02
1.065434551239013672e+01,1.034908676147460938e+01,7.973892688751220703e+00,8.873387336730957031e+00,4.486949443817138672e+00,5.532410144805908203e+00,2.485592603683471680e+00,-1.112975955009460449e+00,-1.435219883918762207e+00,2.777140140533447266e+00,-5.586915493011474609e+00,-5.607635021209716797e+00,-1.909928512573242188e+01,-1.743521118164062500e+01,-3.102334976196289062e+01,-2.484000396728515625e+01,8.837214469909667969e+00,1.060134410858154297e+00,-1.169099044799804688e+01,-8.226591944694519043e-01,-3.148127347230911255e-02
1.228425598144531250e+01,1.148074722290039062e+01,9.593537330627441406e+00,1.066219043731689453e+01,4.930990695953369141e+00,6.632895469665527344e+00,1.698776721954345703e+00,-1.201596021652221680e+00,-2.176105976104736328e+00,2.622151851654052734e+00,-8.233090400695800781e+00,-7.034761905670166016e+00,-2.381293869018554688e+01,-2.113168716430664062e+01,-3.756116867065429688e+01,-3.074940681457519531e+01,1.082416820526123047e+01,9.148778915405273438e-01,-1.641411972045898438e+01,-3.279609680175781250e-01,-3.017474710941314697e-02
1.363697052001953125e+01,1.235125541687011719e+01,1.089014148712158203e+01,1.224117755889892578e+01,5.351738452911376953e+00,7.634020328521728516e+00,9.700209498405456543e-01,-1.071524739265441895e+00,-2.537860393524169922e+00,2.640288829803466797e+00,-1.070532226562500000e+01,-8.075909614562988281e+00,-2.770773124694824219e+01,-2.418499565124511719e+01,-4.307175827026367188e+01,-3.552843856811523438e+01,1.248560047149658203e+01,1.032466530799865723e+00,-2.036445617675781250e+01,1.768774986267089844e-01,-2.723843045532703400e-02
1.462193870544433594e+01,1.300337314605712891e+01,1.176294231414794922e+01,1.350007915496826172e+01,5.689500808715820312e+00,8.537291526794433594e+00,3.533814549446105957e-01,-7.570666074752807617e-01,-2.564715623855590820e+00,2.798574686050415039e+00,-1.293329048156738281e+01,-8.716835021972656250e+00,-3.064912414550781250e+01,-2.652083396911621094e+01,-4.736283493041992188e+01,-3.909125137329101562e+01,1.370454788208007812e+01,1.348918199539184570e+00,-2.345790100097656250e+01,6.795430779457092285e-01,-2.447721734642982483e-02
1.518372154235839844e+01,1.345237255096435547e+01,1.215711021423339844e+01,1.433168888092041016e+01,5.902058601379394531e+00,9.300555229187011719e+00,-1.251147687435150146e-01,-3.282600343227386475e-01,-2.349874496459960938e+00,3.040949583053588867e+00,-1.484791278839111328e+01,-8.981750488281250000e+00,-3.259768295288085938e+01,-2.815081405639648438e+01,-5.033319091796875000e+01,-4.144738006591796875e+01,1.439786815643310547e+01,1.743185997009277344e+00,-2.569672966003417969e+01,1.154685139656066895e+00,-2.333232387900352478e-02
1.527981662750244141e+01,1.367534446716308594e+01,1.206079101562500000e+01,1.464411735534667969e+01,5.955925941467285156e+00,9.859077453613281250e+00,-4.634656608104705811e-01,1.248455494642257690e-01,-2.027612686157226562e+00,3.271783113479614258e+00,-1.639737510681152344e+01,-8.940446853637695312e+00,-3.362531280517578125e+01,-2.917941856384277344e+01,-5.200559616088867188e+01,-4.270413970947265625e+01,1.452328586578369141e+01,2.064825296401977539e+00,-2.717640113830566406e+01,1.576228976249694824e+00,-2.414048463106155396e-02
1.489728641510009766e+01,1.361731052398681641e+01,1.150362110137939453e+01,1.438835525512695312e+01,5.829264640808105469e+00,1.013608074188232422e+01,-7.037148475646972656e-01,5.079127550125122070e-01,-1.751162767410278320e+00,3.385550975799560547e+00,-1.755700492858886719e+01,-8.678379058837890625e+00,-3.389672088623046875e+01,-2.977150535583496094e+01,-5.251414871215820312e+01,-4.305469894409179688e+01,1.409066486358642578e+01,2.154746055603027344e+00,-2.806511306762695312e+01,1.930412530899047852e+00,-2.597231417894363403e-02
1.404352378845214844e+01,1.319885635375976562e+01,1.054487419128417969e+01,1.357206058502197266e+01,5.498781681060791016e+00,1.006682968139648438e+01,-9.139328598976135254e-01,7.423269748687744141e-01,-1.659539341926574707e+00,3.293217658996582031e+00,-1.832803535461425781e+01,-8.286702156066894531e+00,-3.364619064331054688e+01,-3.013140106201171875e+01,-5.207896804809570312e+01,-4.273752593994140625e+01,1.314510059356689453e+01,1.891901016235351562e+00,-2.857197380065917969e+01,2.223030567169189453e+00,-2.706333063542842865e-02
1.275918483734130859e+01,1.235583686828613281e+01,9.252715110778808594e+00,1.226568222045898438e+01,4.945549488067626953e+00,9.625732421875000000e+00,-1.178206920623779297e+00,7.809195518493652344e-01,-1.857003569602966309e+00,2.928830623626708984e+00,-1.873760604858398438e+01,-7.848024845123291016e+00,-3.311961746215820312e+01,-3.044717979431152344e+01,-5.095559692382812500e+01,-4.199587249755859375e+01,1.177818870544433594e+01,1.205390930175781250e+00,-2.890154647827148438e+01,2.477984905242919922e+00,-2.546047791838645935e-02
1.111818599700927734e+01,1.105618381500244141e+01,7.719017028808593750e+00,1.059327316284179688e+01,4.140451431274414062e+00,8.821822166442871094e+00,-1.570613861083984375e+00,6.036795377731323242e-01,-2.390947103500366211e+00,2.280848264694213867e+00,-1.882889556884765625e+01,-7.420741081237792969e+00,-3.252344894409179688e+01,-3.086280059814453125e+01,-4.938186645507812500e+01,-4.103243255615234375e+01,1.009843730926513672e+01,9.175756573677062988e-02,-2.922657585144042969e+01,2.722074747085571289e+00,-1.993804983794689178e-02
9.235104560852050781e+00,9.318221092224121094e+00,6.028244495391845703e+00,8.701857566833496094e+00,3.083487272262573242e+00,7.701766014099121094e+00,-2.133197307586669922e+00,2.120362222194671631e-01,-3.250311613082885742e+00,1.347621679306030273e+00,-1.865001678466796875e+01,-7.056126117706298828e+00,-3.199919700622558594e+01,-3.145953178405761719e+01,-4.754753112792968750e+01,-3.998075866699218750e+01,8.227036476135253906e+00,-1.398851037025451660e+00,-2.964933776855468750e+01,2.965440034866333008e+00,-1.054992247372865677e-02
7.268863201141357422e+00,7.210674762725830078e+00,4.278198719024658203e+00,6.730804443359375000e+00,1.818333268165588379e+00,6.321267127990722656e+00,-2.855946779251098633e+00,-3.954397141933441162e-01,-4.381387233734130859e+00,1.538831740617752075e-01,-1.823674392700195312e+01,-6.796907424926757812e+00,-3.159788703918457031e+01,-3.226058959960937500e+01,-4.557404327392578125e+01,-3.890523910522460938e+01,6.273902416229248047e+00,-3.181702136993408203e+00,-3.022211456298828125e+01,3.182006359100341797e+00,1.276155235245823860e-03
5.411653041839599609e+00,4.851139068603515625e+00,2.575571298599243164e+00,4.791912078857421875e+00,4.556356668472290039e-01,4.734520912170410156e+00,-3.676798105239868164e+00,-1.230183124542236328e+00,-5.700448513031005859e+00,-1.292123317718505859e+00,-1.760511589050292969e+01,-6.682964801788330078e+00,-3.129864311218261719e+01,-3.324043655395507812e+01,-4.351705932617187500e+01,-3.779871749877929688e+01,4.332042217254638672e+00,-5.165145397186279297e+00,-3.093126487731933594e+01,3.302964925765991211e+00,1.323692686855792999e-02
3.877837181091308594e+00,2.383171796798706055e+00,1.024091243743896484e+00,2.944911003112792969e+00,-8.299006223678588867e-01,2.977659225463867188e+00,-4.483634948730468750e+00,-2.322210550308227539e+00,-7.104814529418945312e+00,-2.987100124359130859e+00,-1.675760078430175781e+01,-6.755603313446044922e+00,-3.102723693847656250e+01,-3.434566116333007812e+01,-4.138923263549804688e+01,-3.661111450195312500e+01,2.457822799682617188e+00,-7.266177177429199219e+00,-3.172224235534667969e+01,3.227637529373168945e+00,2.292137965559959412e-02
2.855909347534179688e+00,-4.203395545482635498e-02,-2.873318791389465332e-01,1.200520873069763184e+00,-1.825718164443969727e+00,1.082295894622802734e+00,-5.142317771911621094e+00,-3.701538085937500000e+00,-8.493383407592773438e+00,-4.935993671417236328e+00,-1.569666290283203125e+01,-7.043307304382324219e+00,-3.067928123474121094e+01,-3.549500656127929688e+01,-3.916020202636718750e+01,-3.526611709594726562e+01,6.808373332023620605e-01,-9.417357444763183594e+00,-3.249958038330078125e+01,2.850275993347167969e+00,2.864584885537624359e-02
2.467835664749145508e+00,-2.293138027191162109e+00,-1.303869962692260742e+00,-4.611676335334777832e-01,-2.345464944839477539e+00,-9.244709014892578125e-01,-5.518708229064941406e+00,-5.381030559539794922e+00,-9.753995895385742188e+00,-7.117369174957275391e+00,-1.441983699798583984e+01,-7.547502040863037109e+00,-3.013878822326660156e+01,-3.660255813598632812e+01,-3.677683258056640625e+01,-3.368502807617187500e+01,-1.000323295593261719e+00,-1.155297374725341797e+01,-3.313827133178710938e+01,2.100623607635498047e+00,2.991196513175964355e-02
2.728399515151977539e+00,-4.267817497253417969e+00,-2.019595861434936523e+00,-2.078442335128784180e+00,-2.282862424850463867e+00,-2.995972156524658203e+00,-5.512701988220214844e+00,-7.333529472351074219e+00,-1.076501274108886719e+01,-9.448786735534667969e+00,-1.294069290161132812e+01,-8.239701271057128906e+00,-2.927585601806640625e+01,-3.756382751464843750e+01,-3.417081451416015625e+01,-3.178915596008300781e+01,-2.605387926101684570e+00,-1.360039901733398438e+01,-3.347239303588867188e+01,9.743340015411376953e-01,2.754136174917221069e-02
3.513787031173706055e+00,-5.915674209594726562e+00,-2.490818977355957031e+00,-3.677339076995849609e+00,-1.665572047233581543e+00,-5.050913333892822266e+00,-5.064237117767333984e+00,-9.461839675903320312e+00,-1.139373874664306641e+01,-1.177196025848388672e+01,-1.128513622283935547e+01,-9.051540374755859375e+00,-2.795825958251953125e+01,-3.824414443969726562e+01,-3.125106048583984375e+01,-2.950218391418457031e+01,-4.147038936614990234e+00,-1.545760822296142578e+01,-3.330419540405273438e+01,-4.539895057678222656e-01,2.317729778587818146e-02
4.591154098510742188e+00,-7.229073047637939453e+00,-2.803485870361328125e+00,-5.244073867797851562e+00,-6.508281826972961426e-01,-6.967352867126464844e+00,-4.169308662414550781e+00,-1.160158443450927734e+01,-1.148694229125976562e+01,-1.385110950469970703e+01,-9.475374221801757812e+00,-9.879045486450195312e+00,-2.605145835876464844e+01,-3.849026870727539062e+01,-2.791383743286132812e+01,-2.676210975646972656e+01,-5.623867511749267578e+00,-1.698280143737792969e+01,-3.241775512695312500e+01,-2.037313699722290039e+00,1.870547793805599213e-02
5.666672706604003906e+00,-8.218703269958496094e+00,-3.056879520416259766e+00,-6.720449924468994141e+00,5.109588503837585449e-01,-8.602272987365722656e+00,-2.873965501785278320e+00,-1.353264331817626953e+01,-1.090086841583251953e+01,-1.539439582824707031e+01,-7.534845829010009766e+00,-1.059973049163818359e+01,-2.342090606689453125e+01,-3.813501739501953125e+01,-2.405288314819335938e+01,-2.351169967651367188e+01,-6.993597507476806641e+00,-1.800478553771972656e+01,-3.060396575927734375e+01,-3.590941429138183594e+00,1.552671380341053009e-02
6.468692302703857422e+00,-8.905946731567382812e+00,-3.316200494766235352e+00,-8.002324104309082031e+00,1.550452589988708496e+00,-9.805129051208496094e+00,-1.248279571533203125e+00,-1.501059627532958984e+01,-9.509140014648437500e+00,-1.611162757873535156e+01,-5.469718456268310547e+00,-1.108968257904052734e+01,-1.996453857421875000e+01,-3.700889205932617188e+01,-1.957710838317871094e+01,-1.971041297912597656e+01,-8.167450904846191406e+00,-1.833852958679199219e+01,-2.768780708312988281e+01,-4.937418937683105469e+00,1.426059566438198090e-02
6.821654319763183594e+00,-9.298439025878906250e+00,-3.600712537765502930e+00,-8.957985877990722656e+00,2.253639459609985352e+00,-1.045397853851318359e+01,6.116493344306945801e-01,-1.581818199157714844e+01,-7.253307819366455078e+00,-1.578021717071533203e+01,-3.277525663375854492e+00,-1.123780727386474609e+01,-1.563131904602050781e+01,-3.498186492919921875e+01,-1.442073345184326172e+01,-1.533201885223388672e+01,-9.024236679077148438e+00,-1.781629753112792969e+01,-2.357382011413574219e+01,-5.953614234924316406e+00,1.466467604041099548e-02
6.681208610534667969e+00,-9.394653320312500000e+00,-3.870406389236450195e+00,-9.469510078430175781e+00,2.525887727737426758e+00,-1.049763679504394531e+01,2.607719421386718750e+00,-1.581103515625000000e+01,-4.152328491210937500e+00,-1.429793739318847656e+01,-9.595005512237548828e-01,-1.096577072143554688e+01,-1.043980693817138672e+01,-3.198196029663085938e+01,-8.573637962341308594e+00,-1.038128471374511719e+01,-9.441355705261230469e+00,-1.633087539672851562e+01,-1.826882362365722656e+01,-6.587378501892089844e+00,1.593079417943954468e-02
6.132361412048339844e+00,-9.196116447448730469e+00,-4.061563014984130859e+00,-9.464916229248046875e+00,2.391947507858276367e+00,-9.969223022460937500e+00,4.637824535369873047e+00,-1.495628070831298828e+01,-3.278400897979736328e-01,-1.172579383850097656e+01,1.480655789375305176e+00,-1.023084259033203125e+01,-4.499027729034423828e+00,-2.802078628540039062e+01,-2.078831911087036133e+00,-4.891598224639892578e+00,-9.327212333679199219e+00,-1.387534904479980469e+01,-1.190464496612548828e+01,-6.867683410644531250e+00,1.708915643393993378e-02
5.326646327972412109e+00,-8.730318069458007812e+00,-4.113427162170410156e+00,-8.957985877990722656e+00,1.969744086265563965e+00,-8.990679740905761719e+00,6.609869956970214844e+00,-1.334539699554443359e+01,4.002156734466552734e+00,-8.276482582092285156e+00,4.023204803466796875e+00,-9.024478912353515625e+00,2.019358873367309570e+00,-2.320747184753417969e+01,4.962478637695312500e+00,1.063113927841186523e+00,-8.677577018737792969e+00,-1.055519962310791016e+01,-4.719942092895507812e+00,-6.882169723510742188e+00,1.745282858610153198e-02
4.424836635589599609e+00,-8.069037437438964844e+00,-3.997844219207763672e+00,-8.046737670898437500e+00,1.410688638687133789e+00,-7.763736724853515625e+00,8.439767837524414062e+00,-1.117277717590332031e+01,8.551733970642089844e+00,-4.283064842224121094e+00,6.637305736541748047e+00,-7.372315883636474609e+00,8.883381843566894531e+00,-1.774634552001953125e+01,1.238583660125732422e+01,7.377923011779785156e+00,-7.574182987213134766e+00,-6.595230579376220703e+00,2.944347143173217773e+00,-6.743827819824218750e+00,1.683324016630649567e-02
3.539658546447753906e+00,-7.335977554321289062e+00,-3.744450569152832031e+00,-6.902699470520019531e+00,8.443539142608642578e-01,-6.512706756591796875e+00,1.005944728851318359e+01,-8.702852249145507812e+00,1.300810813903808594e+01,-1.379562020301818848e-01,9.281013488769531250e+00,-5.331324577331542969e+00,1.584251403808593750e+01,-1.191139221191406250e+01,1.999136352539062500e+01,1.390258979797363281e+01,-6.197406768798828125e+00,-2.315350532531738281e+00,1.070637226104736328e+01,-6.556958198547363281e+00,1.560752931982278824e-02
2.713615655899047852e+00,-6.657897472381591797e+00,-3.418447017669677734e+00,-5.729562759399414062e+00,3.420775234699249268e-01,-5.461901664733886719e+00,1.142085933685302734e+01,-6.217203140258789062e+00,1.707113456726074219e+01,3.776319026947021484e+00,1.192225456237792969e+01,-2.978416681289672852e+00,2.264158630371093750e+01,-6.013747215270996094e+00,2.752604675292968750e+01,2.045825767517089844e+01,-4.771308898925781250e+00,1.914381146430969238e+00,1.816837120056152344e+01,-6.399060249328613281e+00,1.454345230013132095e-02
1.937467932701110840e+00,-6.156973361968994141e+00,-3.101334571838378906e+00,-4.712639808654785156e+00,-7.575816661119461060e-02,-4.779932022094726562e+00,1.249597454071044922e+01,-3.963110208511352539e+00,2.049437522888183594e+01,7.136593818664550781e+00,1.451168251037597656e+01,-4.132911860942840576e-01,2.903238868713378906e+01,-3.715117871761322021e-01,3.470904159545898438e+01,2.683030128479003906e+01,-3.521359682083129883e+00,5.722177028656005859e+00,2.498031425476074219e+01,-6.310695171356201172e+00,1.451651379466056824e-02
1.183495879173278809e+00,-5.900402069091796875e+00,-2.859795570373535156e+00,-3.985172510147094727e+00,-4.193443059921264648e-01,-4.557125091552734375e+00,1.327478218078613281e+01,-2.116383314132690430e+00,2.310880279541015625e+01,9.725225448608398438e+00,1.699995040893554688e+01,2.244412422180175781e+00,3.478990936279296875e+01,4.725075244903564453e+00,4.125698089599609375e+01,3.278739929199218750e+01,-2.609615325927734375e+00,8.786397933959960938e+00,3.084445190429687500e+01,-6.300555229187011719e+00,1.624058932065963745e-02
4.424596726894378662e-01,-5.886657238006591797e+00,-2.721985101699829102e+00,-3.596168994903564453e+00,-6.945043802261352539e-01,-4.793480873107910156e+00,1.375728225708007812e+01,-7.627840042114257812e-01,2.483385086059570312e+01,1.143174457550048828e+01,1.931550979614257812e+01,4.877903461456298828e+00,3.971233367919921875e+01,9.046145439147949219e+00,4.688648605346679688e+01,3.810061264038085938e+01,-2.116399765014648438e+00,1.089088821411132812e+01,3.558121871948242188e+01,-6.358499050140380859e+00,2.001200243830680847e-02
-2.690090537071228027e-01,-6.053122997283935547e+00,-2.677530050277709961e+00,-3.510404348373413086e+00,-8.852238059043884277e-01,-5.400177955627441406e+00,1.395748996734619141e+01,1.019758656620979309e-01,2.568215751647949219e+01,1.226769065856933594e+01,2.136336517333984375e+01,7.377511978149414062e+00,4.362800598144531250e+01,1.243613052368164062e+01,5.135467147827148438e+01,4.255532073974609375e+01,-2.016347408294677734e+00,1.194745731353759766e+01,3.911106491088867188e+01,-6.461349964141845703e+00,2.561524696648120880e-02
-9.065589308738708496e-01,-6.291367530822753906e+00,-2.681975603103637695e+00,-3.626799106597900391e+00,-9.623851180076599121e-01,-6.225165367126464844e+00,1.389342308044433594e+01,5.565108060836791992e-01,2.573902702331542969e+01,1.232539939880371094e+01,2.303989219665527344e+01,9.664903640747070312e+00,4.642789840698242188e+01,1.483466053009033203e+01,5.449454498291015625e+01,4.598935699462890625e+01,-2.205178499221801758e+00,1.199933433532714844e+01,4.146353912353515625e+01,-6.578687191009521484e+00,3.237685561180114746e-02
-1.433230638504028320e+00,-6.488377094268798828e+00,-2.684939146041870117e+00,-3.802922964096069336e+00,-9.026943445205688477e-01,-7.066712856292724609e+00,1.359511375427246094e+01,7.408975958824157715e-01,2.515295219421386719e+01,1.178458976745605469e+01,2.424516677856445312e+01,1.170731830596923828e+01,4.806329345703125000e+01,1.627424240112304688e+01,5.623779296875000000e+01,4.831209945678710938e+01,-2.530700922012329102e+00,1.122463321685791016e+01,4.275682830810546875e+01,-6.668500423431396484e+00,3.930009528994560242e-02
-1.828696370124816895e+00,-6.546411037445068359e+00,-2.640484333038330078e+00,-3.884092807769775391e+00,-7.163425087928771973e-01,-7.724595069885253906e+00,1.309459495544433594e+01,8.252295851707458496e-01,2.409928321838378906e+01,1.087114906311035156e+01,2.491010475158691406e+01,1.351900100708007812e+01,4.857130813598632812e+01,1.687561798095703125e+01,5.660718917846679688e+01,4.951162719726562500e+01,-2.839313030242919922e+00,9.889656066894531250e+00,4.315913772583007812e+01,-6.679365158081054688e+00,4.530741646885871887e-02
-2.091108083724975586e+00,-6.401326179504394531e+00,-2.526382923126220703e+00,-3.744725465774536133e+00,-4.630205333232879639e-01,-8.030201911926269531e+00,1.243791389465332031e+01,9.824586510658264160e-01,2.275494575500488281e+01,9.820857048034667969e+00,2.500386047363281250e+01,1.514979934692382812e+01,4.805169296264648438e+01,1.678738403320312500e+01,5.569635009765625000e+01,4.962371063232421875e+01,-2.991505146026611328e+00,8.303938865661621094e+00,4.284774780273437500e+01,-6.550439357757568359e+00,4.950984939932823181e-02
-2.238945722579956055e+00,-6.030214786529541016e+00,-2.341153860092163086e+00,-3.308244943618774414e+00,-2.417277395725250244e-01,-7.885678291320800781e+00,1.165510177612304688e+01,1.364096522331237793e+00,2.126211547851562500e+01,8.856303215026855469e+00,2.454247665405273438e+01,1.665241432189941406e+01,4.663899230957031250e+01,1.618136787414550781e+01,5.363177490234375000e+01,4.872704315185546875e+01,-2.899908065795898438e+00,6.752806663513183594e+00,4.196358108520507812e+01,-6.223779201507568359e+00,5.140902847051620483e-02
-2.283297061920166016e+00,-5.449875831604003906e+00,-2.101096630096435547e+00,-2.571588754653930664e+00,-1.587429642677307129e-01,-7.283497810363769531e+00,1.077418899536132812e+01,2.060192346572875977e+00,1.970767784118652344e+01,8.122582435607910156e+00,2.357282829284667969e+01,1.805817604064941406e+01,4.446774291992187500e+01,1.520152187347412109e+01,5.052479171752929688e+01,4.690032958984375000e+01,-2.530700922012329102e+00,5.447227478027343750e+00,4.058164596557617188e+01,-5.659547805786132812e+00,5.107229575514793396e-02
-2.231554031372070312e+00,-4.709180355072021484e+00,-1.832884669303894043e+00,-1.602142691612243652e+00,-2.941392064094543457e-01,-6.313987255096435547e+00,9.795173645019531250e+00,3.090757608413696289e+00,1.811532402038574219e+01,7.679052352905273438e+00,2.215043258666992188e+01,1.934999656677246094e+01,4.163769531250000000e+01,1.391982936859130859e+01,4.644371795654296875e+01,4.419602584838867188e+01,-1.913476824760437012e+00,4.487496852874755859e+00,3.869966506958007812e+01,-4.846156597137451172e+00,4.902495443820953369e-02
-2.087412118911743164e+00,-3.895178794860839844e+00,-1.566154599189758301e+00,-5.377431511878967285e-01,-6.712104082107543945e-01,-5.138229370117187500e+00,8.708045959472656250e+00,4.394329547882080078e+00,1.645662498474121094e+01,7.486141681671142578e+00,2.033080101013183594e+01,2.045096397399902344e+01,3.819524383544921875e+01,1.234557533264160156e+01,4.142144012451171875e+01,4.064513778686523438e+01,-1.115876674652099609e+00,3.858051776885986328e+00,3.626082229614257812e+01,-3.816199302673339844e+00,4.620986431837081909e-02
-1.860111832618713379e+00,-3.097976446151733398e+00,-1.317206501960754395e+00,4.562069773674011230e-01,-1.241912841796875000e+00,-3.948922872543334961e+00,7.498791694641113281e+00,5.837977886199951172e+00,1.468576526641845703e+01,7.428433418273925781e+00,1.815711402893066406e+01,2.124998474121093750e+01,3.415198898315429688e+01,1.043464565277099609e+01,3.547060775756835938e+01,3.625959014892578125e+01,-2.492263913154602051e-01,3.446491718292236328e+00,3.319465255737304688e+01,-2.636311292648315430e+00,4.366415739059448242e-02
-1.581068277359008789e+00,-2.429059505462646484e+00,-1.087522268295288086e+00,1.220430612564086914e+00,-1.892688274383544922e+00,-2.920699596405029297e+00,6.171415328979492188e+00,7.250181198120117188e+00,1.276957130432128906e+01,7.354237079620361328e+00,1.568241500854492188e+01,2.162314605712890625e+01,2.952648544311523438e+01,8.126669883728027344e+00,2.863929748535156250e+01,3.107038116455078125e+01,5.892401337623596191e-01,3.098913431167602539e+00,2.946024131774902344e+01,-1.407170891761779785e+00,4.237110167741775513e-02
-1.302024722099304199e+00,-1.949516296386718750e+00,-8.504287600517272949e-01,1.658442497253417969e+00,-2.467758417129516602e+00,-2.158941030502319336e+00,4.757949352264404297e+00,8.457985877990722656e+00,1.073332023620605469e+01,7.141540527343750000e+00,1.296715450286865234e+01,2.148071670532226562e+01,2.436049079895019531e+01,5.398428440093994141e+00,2.105907249450683594e+01,2.515143966674804688e+01,1.317790031433105469e+00,2.680436372756958008e+00,2.509850692749023438e+01,-2.403204292058944702e-01,4.299069195985794067e-02
-1.071028351783752441e+00,-1.691418170928955078e+00,-5.496165156364440918e-01,1.762585163116455078e+00,-2.795329809188842773e+00,-1.681712985038757324e+00,3.322460651397705078e+00,9.331321716308593750e+00,8.678111076354980469e+00,6.735933303833007812e+00,1.011125946044921875e+01,2.078282165527343750e+01,1.878854560852050781e+01,2.273140907287597656e+00,1.296270275115966797e+01,1.863631248474121094e+01,1.918103933334350586e+00,2.128807544708251953e+00,2.025036621093750000e+01,7.519732713699340820e-01,4.581925272941589355e-02
-9.121028780937194824e-01,-1.618112206459045410e+00,-1.021026223897933960e-01,1.623217701911926270e+00,-2.725447893142700195e+00,-1.421269893646240234e+00,1.957044601440429688e+00,9.804438591003417969e+00,6.777715206146240234e+00,6.180284023284912109e+00,7.243026733398437500e+00,1.957218360900878906e+01,1.302174568176269531e+01,-1.137741327285766602e+00,4.696816444396972656e+00,1.175870227813720703e+01,2.432457447052001953e+00,1.478611588478088379e+00,1.515447807312011719e+01,1.476999521255493164e+00,5.068168416619300842e-02
-7.993766665458679199e-01,-1.634911537170410156e+00,5.795410275459289551e-01,1.417995333671569824e+00,-2.154745578765869141e+00,-1.252659320831298828e+00,7.457883954048156738e-01,9.885911941528320312e+00,5.261189460754394531e+00,5.594956398010253906e+00,4.515430450439453125e+00,1.793996047973632812e+01,7.331495761871337891e+00,-4.660075187683105469e+00,-3.336299180984497070e+00,4.771394729614257812e+00,2.967948675155639648e+00,8.681882619857788086e-01,1.009495639801025391e+01,1.873916983604431152e+00,5.710655823349952698e-02
-6.626268029212951660e-01,-1.605894565582275391e+00,1.575333476066589355e+00,1.355203509330749512e+00,-1.062840461730957031e+00,-1.038885235786437988e+00,-2.492434978485107422e-01,9.641491889953613281e+00,4.352853298187255859e+00,5.143182754516601562e+00,2.070339679718017578e+00,1.602003479003906250e+01,2.017039060592651367e+00,-8.080245018005371094e+00,-1.072929573059082031e+01,-2.022748231887817383e+00,3.655632019042968750e+00,4.912130236625671387e-01,5.362735271453857422e+00,1.922445297241210938e+00,6.435306370258331299e-02
-4.002149701118469238e-01,-1.395139932632446289e+00,2.910465955734252930e+00,1.618623256683349609e+00,4.789296388626098633e-01,-6.715550422668457031e-01,-1.012034535408020020e+00,9.159799575805664062e+00,4.220157623291015625e+00,4.958515644073486328e+00,1.261428464204072952e-02,1.394201183319091797e+01,-2.666456460952758789e+00,-1.121946334838867188e+01,-1.714566802978515625e+01,-8.342327117919921875e+00,4.620925426483154297e+00,5.327149033546447754e-01,1.187379360198974609e+00,1.653004884719848633e+00,7.161303609609603882e-02
7.101754844188690186e-02,-9.064334630966186523e-01,4.553819656372070312e+00,2.312397241592407227e+00,2.298771619796752930e+00,-1.070107519626617432e-01,-1.582626342773437500e+00,8.508013725280761719e+00,4.912072181701660156e+00,5.098664760589599609e+00,-1.623203277587890625e+00,1.181413936614990234e+01,-6.561250686645507812e+00,-1.394306087493896484e+01,-2.237541580200195312e+01,-1.396317481994628906e+01,5.924423694610595703e+00,1.103365540504455566e+00,-2.319737434387207031e+00,1.140199184417724609e+00,7.811871916055679321e-02
7.824862599372863770e-01,-1.245031654834747314e-01,6.389811992645263672e+00,3.424273729324340820e+00,4.149186611175537109e+00,6.306604743003845215e-01,-2.039099693298339844e+00,7.704715728759765625e+00,6.332235813140869141e+00,5.512516021728515625e+00,-2.869188070297241211e+00,9.697661399841308594e+00,-9.625588417053222656e+00,-1.622317504882812500e+01,-2.637299728393554688e+01,-1.876128387451171875e+01,7.530897617340087891e+00,2.185872554779052734e+00,-5.176799297332763672e+00,4.984675943851470947e-01,8.334482461214065552e-02
1.675056099891662598e+00,8.697089552879333496e-01,8.236177444458007812e+00,4.821011066436767578e+00,5.747735977172851562e+00,1.449626088142395020e+00,-2.497575283050537109e+00,6.717031478881835938e+00,8.234211921691894531e+00,6.023647308349609375e+00,-3.822798252105712891e+00,7.606821060180664062e+00,-1.195689678192138672e+01,-1.814106941223144531e+01,-2.923961830139160156e+01,-2.271042442321777344e+01,9.293790817260742188e+00,3.612498998641967773e+00,-7.531545162200927734e+00,-1.425396651029586792e-01,8.703542500734329224e-02
2.604585409164428711e+00,1.908210158348083496e+00,9.866194725036621094e+00,6.263693809509277344e+00,6.833817481994628906e+00,2.227944374084472656e+00,-3.068166971206665039e+00,5.467775344848632812e+00,1.025466632843017578e+01,6.383087635040283203e+00,-4.612333297729492188e+00,5.523101329803466797e+00,-1.375467300415039062e+01,-1.984535026550292969e+01,-3.119539833068847656e+01,-2.589167785644531250e+01,1.097354221343994141e+01,5.080627441406250000e+00,-9.618086814880371094e+00,-6.596912741661071777e-01,8.928479999303817749e-02
3.375189065933227539e+00,2.772609710693359375e+00,1.106351661682128906e+01,7.490433216094970703e+00,7.223991394042968750e+00,2.827114105224609375e+00,-3.846974611282348633e+00,3.866897344589233398e+00,1.198761272430419922e+01,6.325379371643066406e+00,-5.366092205047607422e+00,3.409472227096557617e+00,-1.527408313751220703e+01,-2.152408981323242188e+01,-3.252117919921875000e+01,-2.845051002502441406e+01,1.227704048156738281e+01,6.218470573425292969e+00,-1.170008182525634766e+01,-9.624494910240173340e-01,9.051050990819931030e-02
3.785438776016235352e+00,3.250625610351562500e+00,1.164884090423583984e+01,8.250061988830566406e+00,6.848376274108886719e+00,3.140248060226440430e+00,-4.886052131652832031e+00,1.871517539024353027e+00,1.306971740722656250e+01,5.629581451416015625e+00,-6.174131870269775391e+00,1.236023306846618652e+00,-1.676797676086425781e+01,-2.334910964965820312e+01,-3.349527359008789062e+01,-3.056578063964843750e+01,1.292244911193847656e+01,6.662886142730712891e+00,-1.399573230743408203e+01,-1.010253429412841797e+00,9.131867438554763794e-02
3.683800220489501953e+00,3.191064596176147461e+00,1.152140331268310547e+01,8.381772041320800781e+00,5.771029949188232422e+00,3.101106166839599609e+00,-6.181395530700683594e+00,-5.026413798332214355e-01,1.324822521209716797e+01,4.188521385192871094e+00,-7.068526744842529297e+00,-1.012912392616271973e+00,-1.842889022827148438e+01,-2.541096305847167969e+01,-3.433526992797851562e+01,-3.239965057373046875e+01,1.270966148376464844e+01,6.144113063812255859e+00,-1.663004684448242188e+01,-8.161405324935913086e-01,9.231540560722351074e-02
3.025922775268554688e+00,2.557273387908935547e+00,1.069009399414062500e+01,7.845743656158447266e+00,4.169569015502929688e+00,2.705172538757324219e+00,-7.674944400787353516e+00,-3.151236534118652344e+00,1.243783187866210938e+01,2.028580188751220703e+00,-8.025837898254394531e+00,-3.314546346664428711e+00,-2.034960937500000000e+01,-2.770500755310058594e+01,-3.516514968872070312e+01,-3.405704879760742188e+01,1.156540107727050781e+01,4.544561862945556641e+00,-1.959166336059570312e+01,-4.395034909248352051e-01,9.391825646162033081e-02
1.883876800537109375e+00,1.434775829315185547e+00,9.261606216430664062e+00,6.729272842407226562e+00,2.308962583541870117e+00,2.006643056869506836e+00,-9.246574401855468750e+00,-5.901315689086914062e+00,1.072226142883300781e+01,-6.870099902153015137e-01,-8.978214263916015625e+00,-5.614756107330322266e+00,-2.250694084167480469e+01,-3.012443542480468750e+01,-3.600261688232421875e+01,-3.556897735595703125e+01,9.571400642395019531e+00,1.933402776718139648e+00,-2.274875068664550781e+01,2.984420396387577057e-02,9.631579369306564331e-02
4.443076252937316895e-01,2.210876345634460449e-02,7.431541442871093750e+00,5.225329875946044922e+00,4.818413853645324707e-01,1.107888579368591309e+00,-1.074012374877929688e+01,-8.548481941223144531e+00,8.322675704956054688e+00,-3.704332351684570312e+00,-9.840534210205078125e+00,-7.828084945678710938e+00,-2.477561759948730469e+01,-3.248581314086914062e+01,-3.676924133300781250e+01,-3.689251327514648438e+01,6.957358360290527344e+00,-1.459374666213989258e+00,-2.587628936767578125e+01,4.912245571613311768e-01,9.944068640470504761e-02
-1.034068942070007324e+00,-1.416520833969116211e+00,5.442920207977294922e+00,3.572830200195312500e+00,-1.020620107650756836e+00,1.353669315576553345e-01,-1.198141098022460938e+01,-1.089691162109375000e+01,5.545537948608398438e+00,-6.726601600646972656e+00,-1.053754615783691406e+01,-9.851984977722167969e+00,-2.696774482727050781e+01,-3.458249664306640625e+01,-3.732080841064453125e+01,-3.794418716430664062e+01,4.038930892944335938e+00,-5.289650917053222656e+00,-2.872426033020019531e+01,8.562727570533752441e-01,1.031178086996078491e-01
-2.274057388305664062e+00,-2.619960308074951172e+00,3.550618171691894531e+00,2.007626771926879883e+00,-1.971305489540100098e+00,-7.889802455902099609e-01,-1.281227207183837891e+01,-1.280653095245361328e+01,2.697312831878662109e+00,-9.480113983154296875e+00,-1.101620101928710938e+01,-1.158818054199218750e+01,-2.887686538696289062e+01,-3.623105239868164062e+01,-3.750297546386718750e+01,-3.862622451782226562e+01,1.165597796440124512e+00,-9.173533439636230469e+00,-3.107218742370605469e+01,1.055455803871154785e+00,1.072528958320617676e-01
-3.050204992294311523e+00,-3.394254684448242188e+00,1.969501256942749023e+00,7.073746323585510254e-01,-2.242097854614257812e+00,-1.582353115081787109e+00,-1.310657787322998047e+01,-1.420872783660888672e+01,4.971163719892501831e-02,-1.175876998901367188e+01,-1.125922966003417969e+01,-1.295976066589355469e+01,-3.032900428771972656e+01,-3.731538391113281250e+01,-3.718418121337890625e+01,-3.885992813110351562e+01,-1.354029297828674316e+00,-1.275479888916015625e+01,-3.279278945922851562e+01,1.055455803871154785e+00,1.118998229503631592e-01
-3.227610111236572266e+00,-3.649298191070556641e+00,8.388619422912597656e-01,-2.360356301069259644e-01,-1.818438768386840820e+00,-2.210126399993896484e+00,-1.280226230621337891e+01,-1.511208057403564453e+01,-2.202960968017578125e+00,-1.345539569854736328e+01,-1.127403354644775391e+01,-1.393254280090332031e+01,-3.121049499511718750e+01,-3.778672790527343750e+01,-3.629864120483398438e+01,-3.861191558837890625e+01,-3.309981584548950195e+00,-1.575503826141357422e+01,-3.385651397705078125e+01,8.606185913085937500e-01,1.173414289951324463e-01
-2.804424762725830078e+00,-3.418689966201782227e+00,2.105643451213836670e-01,-8.195409774780273438e-01,-8.211653828620910645e-01,-2.688859939575195312e+00,-1.189732360839843750e+01,-1.557947921752929688e+01,-3.946965694427490234e+00,-1.453701496124267578e+01,-1.108775329589843750e+01,-1.451792049407958984e+01,-3.148422050476074219e+01,-3.767527770996093750e+01,-3.485647583007812500e+01,-3.789649200439453125e+01,-4.612070560455322266e+00,-1.800305557250976562e+01,-3.432246398925781250e+01,5.093321204185485840e-01,1.239010021090507507e-01
-1.898919224739074707e+00,-2.835296630859375000e+00,3.570793569087982178e-02,-1.105933427810668945e+00,5.284293293952941895e-01,-3.066728353500366211e+00,-1.045582866668701172e+01,-1.569239902496337891e+01,-5.136490345001220703e+00,-1.504484844207763672e+01,-1.073122882843017578e+01,-1.476574516296386719e+01,-3.118033790588378906e+01,-3.703443145751953125e+01,-3.292599487304687500e+01,-3.674704360961914062e+01,-5.282844066619873047e+00,-1.942622375488281250e+01,-3.429746246337890625e+01,7.692383229732513428e-02,1.317266821861267090e-01
-7.254578471183776855e-01,-2.093073844909667969e+00,1.972278356552124023e-01,-1.190166473388671875e+00,1.944994211196899414e+00,-3.394916772842407227e+00,-8.581885337829589844e+00,-1.552945232391357422e+01,-5.774695396423339844e+00,-1.504979515075683594e+01,-1.023283481597900391e+01,-1.474153232574462891e+01,-3.035684204101562500e+01,-3.591527175903320312e+01,-3.061094093322753906e+01,-3.520888137817382812e+01,-5.435036182403564453e+00,-2.003664779663085938e+01,-3.388378906250000000e+01,-3.431713283061981201e-01,1.406433880329132080e-01
4.664832949638366699e-01,-1.390558242797851562e+00,5.439769625663757324e-01,-1.164130806922912598e+00,3.150457620620727539e+00,-3.696007013320922852e+00,-6.403625965118408203e+00,-1.513923835754394531e+01,-5.891593933105468750e+00,-1.462605094909667969e+01,-9.611076354980468750e+00,-1.450510215759277344e+01,-2.907172203063964844e+01,-3.432012176513671875e+01,-2.799733161926269531e+01,-3.328677749633789062e+01,-5.225067138671875000e+00,-1.990003585815429688e+01,-3.311554336547851562e+01,-6.582427024841308594e-01,1.500315070152282715e-01
1.445907711982727051e+00,-8.896341919898986816e-01,9.277719855308532715e-01,-1.098275899887084961e+00,3.946820259094238281e+00,-3.953439235687255859e+00,-4.035169601440429688e+00,-1.453176212310791016e+01,-5.532999038696289062e+00,-1.382637786865234375e+01,-8.870886802673339844e+00,-1.408209133148193359e+01,-2.734121704101562500e+01,-3.220486450195312500e+01,-2.511553001403808594e+01,-3.093780136108398438e+01,-4.809357166290283203e+00,-1.910112571716308594e+01,-3.194044303894042969e+01,-7.973086237907409668e-01,1.590559631586074829e-01
2.040954351425170898e+00,-6.727706789970397949e-01,1.249329924583435059e+00,-1.023231863975524902e+00,4.270024299621582031e+00,-4.110006332397460938e+00,-1.558601379394531250e+00,-1.368844223022460938e+01,-4.743141651153564453e+00,-1.268045425415039062e+01,-7.998697757720947266e+00,-1.345113658905029297e+01,-2.513981246948242188e+01,-2.946501350402832031e+01,-2.190734481811523438e+01,-2.807133483886718750e+01,-4.320368766784667969e+00,-1.772118949890136719e+01,-3.022438812255859375e+01,-7.379158735275268555e-01,1.668143123388290405e-01
2.179552078247070312e+00,-7.537127137184143066e-01,1.471605062484741211e+00,-9.344042539596557617e-01,4.201598167419433594e+00,-4.090435028076171875e+00,9.920437932014465332e-01,-1.257354545593261719e+01,-3.558356046676635742e+00,-1.118498420715332031e+01,-6.957498550415039062e+00,-1.255811405181884766e+01,-2.238167572021484375e+01,-2.598911666870117188e+01,-1.823867797851562500e+01,-2.456337356567382812e+01,-3.856746196746826172e+00,-1.583804130554199219e+01,-2.776508712768554688e+01,-5.090364813804626465e-01,1.727138757705688477e-01
1.889420747756958008e+00,-1.063735842704772949e+00,1.616824746131896973e+00,-8.057574033737182617e-01,3.938085079193115234e+00,-3.831497669219970703e+00,3.630780458450317383e+00,-1.114276123046875000e+01,-2.005496740341186523e+00,-9.320179939270019531e+00,-5.694242477416992188e+00,-1.133180999755859375e+01,-1.895546340942382812e+01,-2.168197822570800781e+01,-1.392230129241943359e+01,-2.030898475646972656e+01,-3.463582992553710938e+00,-1.349145698547363281e+01,-2.436934280395507812e+01,-1.881706863641738892e-01,1.766065210103988647e-01
1.283286333084106445e+00,-1.489826798439025879e+00,1.759080886840820312e+00,-5.867514610290527344e-01,3.722615718841552734e+00,-3.306095123291015625e+00,6.399652004241943359e+00,-9.373219490051269531e+00,-9.562208503484725952e-02,-7.053065776824951172e+00,-4.146014213562011719e+00,-9.723799705505371094e+00,-1.476142692565917969e+01,-1.651341247558593750e+01,-8.783637046813964844e+00,-1.525809192657470703e+01,-3.145106554031372070e+00,-1.071601963043212891e+01,-1.990077972412109375e+01,1.247277632355690002e-01,1.789232343435287476e-01
5.274662971496582031e-01,-1.889955163002014160e+00,1.984319567680358887e+00,-2.299095839262008667e-01,3.764836072921752930e+00,-2.526271104812622070e+00,9.334695816040039062e+00,-7.266349792480468750e+00,2.163369417190551758e+00,-4.363856315612792969e+00,-2.260999441146850586e+00,-7.746901035308837891e+00,-9.746212959289550781e+00,-1.054611015319824219e+01,-2.729071617126464844e+00,-9.463157653808593750e+00,-2.867496728897094727e+00,-7.535939216613769531e+00,-1.433666992187500000e+01,3.362239301204681396e-01,1.804183423519134521e-01
-1.840023994445800781e-01,-2.126672267913818359e+00,2.362187385559082031e+00,3.030559718608856201e-01,4.171024799346923828e+00,-1.550738692283630371e+00,1.245192813873291016e+01,-4.866462707519531250e+00,4.750941753387451172e+00,-1.252551794052124023e+00,-1.822692155838012695e-02,-5.479449748992919922e+00,-3.935338258743286133e+00,-3.954215049743652344e+00,4.195853710174560547e+00,-3.095884084701538086e+00,-2.568748950958251953e+00,-3.987529993057250977e+00,-7.799749851226806641e+00,3.883736729621887207e-01,1.820615977048873901e-01
-6.829544901847839355e-01,-2.100709915161132812e+00,2.920838594436645508e+00,1.027460336685180664e+00,4.917888164520263672e+00,-4.592863917350769043e-01,1.570330047607421875e+01,-2.269324302673339844e+00,7.621282577514648438e+00,2.224788665771484375e+00,2.553929805755615234e+00,-3.075267553329467773e+00,2.538973808288574219e+00,3.011507511138916016e+00,1.179631996154785156e+01,3.564713239669799805e+00,-2.185449838638305664e+00,-1.399611830711364746e-01,-5.536779761314392090e-01,2.768311798572540283e-01,1.846746504306793213e-01
-8.455759286880493164e-01,-1.766251325607299805e+00,3.648419141769409180e+00,1.920330762863159180e+00,5.870029449462890625e+00,6.577585935592651367e-01,1.899471473693847656e+01,3.792707622051239014e-01,1.069382667541503906e+01,5.962641239166259766e+00,5.369115352630615234e+00,-7.266324162483215332e-01,9.440113067626953125e+00,1.002599048614501953e+01,1.971557998657226562e+01,1.016092205047607422e+01,-1.662641406059265137e+00,3.894366025924682617e+00,7.021967411041259766e+00,4.360594227910041809e-02,1.887154430150985718e-01
