Fp1,Fp2,F7,F3,Fz,F4,F8,T3,C3,Cz,C4,T4,T5,P3,Pz,P4,T6,O1,Oz,O2,A1
-6.817143917083740234e+00,-4.960019588470458984e+00,-6.954136848449707031e+00,-9.534431457519531250e+00,-7.685581445693969727e-01,-1.793457388877868652e+00,3.264062404632568359e+00,-1.774575614929199219e+01,-1.249083614349365234e+01,-2.428231239318847656e+01,3.318621635437011719e+00,-7.885179996490478516e+00,-7.801249504089355469e+00,-2.954620552062988281e+01,2.770091056823730469e+00,-8.521489143371582031e+00,-1.016828632354736328e+01,-2.537367820739746094e+01,-2.670008850097656250e+01,-6.589198589324951172e+00,-3.224409744143486023e-02
-5.690668582916259766e+00,-4.416663646697998047e+00,-6.834204673767089844e+00,-9.903498649597167969e+00,-1.964816302061080933e-01,-1.422809720039367676e+00,4.385237693786621094e+00,-1.846886444091796875e+01,-1.248541259765625000e+01,-2.449974250793457031e+01,3.332767248153686523e+00,-1.015425300598144531e+01,-8.640659332275390625e+00,-3.277212142944335938e+01,1.029483199119567871e+00,-1.232683086395263672e+01,-9.627837181091308594e+00,-2.539371490478515625e+01,-2.844388771057128906e+01,-7.216200351715087891e+00,-3.292066603899002075e-02
-4.346097469329833984e+00,-3.957942247390747070e+00,-6.434778690338134766e+00,-9.887287139892578125e+00,5.482817292213439941e-01,-1.138241529464721680e+00,5.258754253387451172e+00,-1.890208435058593750e+01,-1.217222595214843750e+01,-2.413058090209960938e+01,3.158861875534057617e+00,-1.229211425781250000e+01,-9.188287734985351562e+00,-3.507852935791015625e+01,-7.605269551277160645e-01,-1.556335353851318359e+01,-8.909083366394042969e+00,-2.491282463073730469e+01,-2.954118347167968750e+01,-7.327495098114013672e+00,-3.362429514527320862e-02
-2.931651115417480469e+00,-3.629558801651000977e+00,-5.881005764007568359e+00,-9.496285438537597656e+00,1.362610936164855957e+00,-8.141779899597167969e-01,5.872411251068115234e+00,-1.904702758789062500e+01,-1.162991237640380859e+01,-2.326242256164550781e+01,2.855983972549438477e+00,-1.413696956634521484e+01,-9.436947822570800781e+00,-3.644709777832031250e+01,-2.586765289306640625e+00,-1.813807868957519531e+01,-8.175932884216308594e+00,-2.397734069824218750e+01,-2.995507431030273438e+01,-6.976140975952148438e+00,-3.417908027768135071e-02
-1.605431318283081055e+00,-3.400198221206665039e+00,-5.254230499267578125e+00,-8.781038284301757812e+00,2.160571813583374023e+00,-3.523875176906585693e-01,6.300629615783691406e+00,-1.889564132690429688e+01,-1.085169219970703125e+01,-2.200632858276367188e+01,2.546449184417724609e+00,-1.556352519989013672e+01,-9.359332084655761719e+00,-3.689768600463867188e+01,-4.389949321746826172e+00,-1.997716712951660156e+01,-7.510338306427001953e+00,-2.260730361938476562e+01,-2.965347862243652344e+01,-6.333609580993652344e+00,-3.446323797106742859e-02
-5.100117921829223633e-01,-3.194535493850708008e+00,-4.577396392822265625e+00,-7.837866306304931641e+00,2.870142936706542969e+00,2.876378595829010010e-01,6.621488094329833984e+00,-1.843021202087402344e+01,-9.777910232543945312e+00,-2.046084976196289062e+01,2.358398437500000000e+00,-1.647312736511230469e+01,-8.918066978454589844e+00,-3.646084594726562500e+01,-6.063040733337402344e+00,-2.103686523437500000e+01,-6.908977985382080078e+00,-2.079644775390625000e+01,-2.862356185913085938e+01,-5.643195152282714844e+00,-3.446323797106742859e-02
2.437949478626251221e-01,-2.950787067413330078e+00,-3.851546764373779297e+00,-6.802188873291015625e+00,3.420122146606445312e+00,1.072479128837585449e+00,6.856947422027587891e+00,-1.759920310974121094e+01,-8.357048034667968750e+00,-1.870263290405273438e+01,2.373375892639160156e+00,-1.678191947937011719e+01,-8.108841896057128906e+00,-3.520224761962890625e+01,-7.467712879180908203e+00,-2.133084487915039062e+01,-6.316476821899414062e+00,-1.853225135803222656e+01,-2.691666030883789062e+01,-5.147546768188476562e+00,-3.428732976317405701e-02
6.044646501541137695e-01,-2.658796548843383789e+00,-3.087110519409179688e+00,-5.823730945587158203e+00,3.747490644454956055e+00,1.913018822669982910e+00,6.952106952667236328e+00,-1.634463691711425781e+01,-6.605373859405517578e+00,-1.677860641479492188e+01,2.588885307312011719e+00,-1.642084121704101562e+01,-6.993462085723876953e+00,-3.323492813110351562e+01,-8.457406044006347656e+00,-2.094115066528320312e+01,-5.681891918182373047e+00,-1.583350181579589844e+01,-2.466592216491699219e+01,-5.004546165466308594e+00,-3.409789130091667175e-02
5.839961171150207520e-01,-2.376962423324584961e+00,-2.333102941513061523e+00,-5.043634891510009766e+00,3.809690713882446289e+00,2.685707807540893555e+00,6.793507575988769531e+00,-1.463269329071044922e+01,-4.619149208068847656e+00,-1.469971847534179688e+01,2.910069227218627930e+00,-1.538298606872558594e+01,-5.718536853790283203e+00,-3.072384834289550781e+01,-8.946488380432128906e+00,-2.004416656494140625e+01,-5.000792503356933594e+00,-1.279662418365478516e+01,-2.210396385192871094e+01,-5.227135181427001953e+00,-3.407082706689834595e-02
2.670867145061492920e-01,-2.185687541961669922e+00,-1.678169727325439453e+00,-4.542962074279785156e+00,3.615724802017211914e+00,3.296364784240722656e+00,6.259149551391601562e+00,-1.249880313873291016e+01,-2.574625492095947266e+00,-1.247066211700439453e+01,3.185488462448120117e+00,-1.375615978240966797e+01,-4.506855010986328125e+00,-2.788589859008789062e+01,-8.966249465942382812e+00,-1.887918281555175781e+01,-4.332983493804931641e+00,-9.618235588073730469e+00,-1.951954650878906250e+01,-5.684607505798339844e+00,-3.428732976317405701e-02
-2.086302638053894043e-01,-2.150140762329101562e+00,-1.225556612014770508e+00,-4.333156585693359375e+00,3.230248451232910156e+00,3.693342685699462891e+00,5.272173881530761719e+00,-1.006858348846435547e+01,-6.887287497520446777e-01,-1.011959457397460938e+01,3.257879734039306641e+00,-1.174457740783691406e+01,-3.609951972961425781e+00,-2.497616004943847656e+01,-8.683009147644042969e+00,-1.771830177307128906e+01,-3.789211511611938477e+00,-6.585114955902099609e+00,-1.721266174316406250e+01,-6.146608829498291016e+00,-3.476092591881752014e-02
-6.914053559303283691e-01,-2.276246786117553711e+00,-1.061823248863220215e+00,-4.356997966766357422e+00,2.763748168945312500e+00,3.889806032180786133e+00,3.828920125961303711e+00,-7.540125370025634766e+00,8.378850221633911133e-01,-7.735678195953369141e+00,3.014911651611328125e+00,-9.643218040466308594e+00,-3.233367443084716797e+00,-2.224665832519531250e+01,-8.363541603088378906e+00,-1.682268524169921875e+01,-3.490192174911499023e+00,-4.004082679748535156e+00,-1.541752624511718750e+01,-6.381492137908935547e+00,-3.536983579397201538e-02
-1.054192543029785156e+00,-2.497143983840942383e+00,-1.217213511466979980e+00,-4.504815578460693359e+00,2.325074434280395508e+00,3.962720394134521484e+00,2.001367807388305664e+00,-5.140505313873291016e+00,1.880483508110046387e+00,-5.472208976745605469e+00,2.428293466567993164e+00,-7.754954814910888672e+00,-3.454718589782714844e+00,-1.990053749084472656e+01,-8.277910232543945312e+00,-1.636325454711914062e+01,-3.515664339065551758e+00,-2.108069419860839844e+00,-1.424804115295410156e+01,-6.244962215423583984e+00,-3.593815118074417114e-02
-1.224293112754821777e+00,-2.702806711196899414e+00,-1.644797325134277344e+00,-4.656447887420654297e+00,1.998524308204650879e+00,4.007278919219970703e+00,-8.848323673009872437e-02,-3.072645187377929688e+00,2.418730258941650391e+00,-3.527846336364746094e+00,1.555438876152038574e+00,-6.300775051116943359e+00,-4.199263095855712891e+00,-1.806152343750000000e+01,-8.584204673767089844e+00,-1.638923454284667969e+01,-3.873379707336425781e+00,-9.847380518913269043e-01,-1.366570568084716797e+01,-5.724725246429443359e+00,-3.623584285378456116e-02
-1.174886226654052734e+00,-2.765436649322509766e+00,-2.213171005249023438e+00,-4.706992149353027344e+00,1.829111099243164062e+00,4.132853507995605469e+00,-2.293013811111450195e+00,-1.458941102027893066e+00,2.555664300918579102e+00,-2.085608005523681641e+00,5.378018617630004883e-01,-5.339872360229492188e+00,-5.241338253021240234e+00,-1.673724746704101562e+01,-9.264309883117675781e+00,-1.677893066406250000e+01,-4.473632812500000000e+00,-5.326503515243530273e-01,-1.351169872283935547e+01,-4.915898799896240234e+00,-3.615465387701988220e-02
-9.116185903549194336e-01,-2.584317922592163086e+00,-2.739829063415527344e+00,-4.583015918731689453e+00,1.832384824752807617e+00,4.423498153686523438e+00,-4.445084571838378906e+00,-3.299925029277801514e-01,2.474317312240600586e+00,-1.250298738479614258e+00,-4.340705573558807373e-01,-4.771617412567138672e+00,-6.287725448608398438e+00,-1.583454227447509766e+01,-1.012555694580078125e+01,-1.729578971862792969e+01,-5.155839443206787109e+00,-5.251364111900329590e-01,-1.355501365661621094e+01,-3.969895839691162109e+00,-3.574871271848678589e-02
-4.676631093025207520e-01,-2.123057603836059570e+00,-3.059995412826538086e+00,-4.271168708801269531e+00,1.989521622657775879e+00,4.919720172882080078e+00,-6.401956558227539062e+00,3.592942655086517334e-01,2.359075546264648438e+00,-1.004711508750915527e+00,-1.182112812995910645e+00,-4.407578945159912109e+00,-7.088326454162597656e+00,-1.518080520629882812e+01,-1.090940666198730469e+01,-1.767181015014648438e+01,-5.750555515289306641e+00,-7.029659152030944824e-01,-1.358388900756835938e+01,-3.038774967193603516e+00,-3.519392758607864380e-02
1.047500744462013245e-01,-1.418048977851867676e+00,-3.092324972152709961e+00,-3.803873777389526367e+00,2.255508661270141602e+00,5.606329917907714844e+00,-8.057489395141601562e+00,7.152110338211059570e-01,2.336027383804321289e+00,-1.206499695777893066e+00,-1.603146553039550781e+00,-4.072151184082031250e+00,-7.510906219482421875e+00,-1.459427547454833984e+01,-1.141825008392333984e+01,-1.771966743469238281e+01,-6.139280319213867188e+00,-8.532443642616271973e-01,-1.345555114746093750e+01,-2.229948759078979492e+00,-3.473386168479919434e-02
7.329223752021789551e-01,-5.708537101745605469e-01,-2.870189905166625977e+00,-3.248842239379882812e+00,2.564053535461425781e+00,6.416488647460937500e+00,-9.360444068908691406e+00,8.617650270462036133e-01,2.434999465942382812e+00,-1.603819131851196289e+00,-1.704660654067993164e+00,-3.685421943664550781e+00,-7.562650680541992188e+00,-1.391151809692382812e+01,-1.159445190429687500e+01,-1.740107536315917969e+01,-6.279930114746093750e+00,-8.582536578178405762e-01,-1.311545372009277344e+01,-1.596476078033447266e+00,-3.455795720219612122e-02
1.339920282363891602e+00,2.856514751911163330e-01,-2.521865606307983398e+00,-2.674737453460693359e+00,2.828403472900390625e+00,7.255002975463867188e+00,-1.031081962585449219e+01,9.471206068992614746e-01,2.593626499176025391e+00,-1.882255673408508301e+00,-1.590665340423583984e+00,-3.250351905822753906e+00,-7.348485946655273438e+00,-1.299964714050292969e+01,-1.151211452484130859e+01,-1.680354309082031250e+01,-6.191331863403320312e+00,-6.691532731056213379e-01,-1.256359767913818359e+01,-1.139003992080688477e+00,-3.476092591881752014e-02
1.839634895324707031e+00,1.009279847145080566e+00,-2.214213848114013672e+00,-2.123520612716674805e+00,2.949529886245727539e+00,8.021615982055664062e+00,-1.095253658294677734e+01,1.109779357910156250e+00,2.699377536773681641e+00,-1.739908933639526367e+00,-1.427577137947082520e+00,-2.805416345596313477e+00,-6.992024421691894531e+00,-1.175632572174072266e+01,-1.129968452453613281e+01,-1.606653976440429688e+01,-5.928859710693359375e+00,-2.583921849727630615e-01,-1.181121349334716797e+01,-8.271206617355346680e-01,-3.524805605411529541e-02
2.153015136718750000e+00,1.477310776710510254e+00,-2.075509786605834961e+00,-1.585654973983764648e+00,2.828403472900390625e+00,8.630247116088867188e+00,-1.134049510955810547e+01,1.472138047218322754e+00,2.666838884353637695e+00,-9.593482613563537598e-01,-1.373491764068603516e+00,-2.380211830139160156e+00,-6.582381248474121094e+00,-1.010976505279541016e+01,-1.104114627838134766e+01,-1.526253604888916016e+01,-5.541242122650146484e+00,4.141038954257965088e-01,-1.085509109497070312e+01,-6.245905756950378418e-01,-3.578930720686912537e-02
2.219361543655395508e+00,1.616958379745483398e+00,-2.145383119583129883e+00,-1.007735490798950195e+00,2.399550676345825195e+00,9.007984161376953125e+00,-1.151739501953125000e+01,2.106668472290039062e+00,2.449913263320922852e+00,5.407673120498657227e-01,-1.503296613693237305e+00,-1.960926532745361328e+00,-6.143990993499755859e+00,-8.026362419128417969e+00,-1.073320484161376953e+01,-1.435324668884277344e+01,-5.051736831665039062e+00,1.389661550521850586e+00,-9.684001922607421875e+00,-5.042372345924377441e-01,-3.614112362265586853e-02
2.028086662292480469e+00,1.420605421066284180e+00,-2.363346576690673828e+00,-3.191911876201629639e-01,1.656424164772033691e+00,9.127482414245605469e+00,-1.150153446197509766e+01,2.995655059814453125e+00,2.055379867553710938e+00,2.674403905868530273e+00,-1.784540534019470215e+00,-1.521910309791564941e+00,-5.668230056762695312e+00,-5.550411701202392578e+00,-1.030175876617431641e+01,-1.320467090606689453e+01,-4.461450576782226562e+00,2.654505252838134766e+00,-8.309175491333007812e+00,-4.589429497718811035e-01,-3.603287041187286377e-02
1.625773906707763672e+00,9.661160707473754883e-01,-2.601125001907348633e+00,5.257537364959716797e-01,6.767739057540893555e-01,8.999882698059082031e+00,-1.129169559478759766e+01,4.029585361480712891e+00,1.494084835052490234e+00,5.200667381286621094e+00,-2.096571445465087891e+00,-1.066122651100158691e+00,-5.162284374237060547e+00,-2.822436571121215820e+00,-9.680935859680175781e+00,-1.169784927368164062e+01,-3.753772020339965820e+00,4.092168807983398438e+00,-6.801197528839111328e+00,-4.867665767669677734e-01,-3.539690002799034119e-02
1.129588484764099121e+00,3.931377828121185303e-01,-2.728357315063476562e+00,1.517562747001647949e+00,-3.822632730007171631e-01,8.696072578430175781e+00,-1.086835765838623047e+01,5.036137104034423828e+00,7.592495083808898926e-01,7.778551101684570312e+00,-2.292110919952392578e+00,-6.399314999580383301e-01,-4.663525581359863281e+00,-6.085818260908126831e-02,-8.867444992065429688e+00,-9.802699089050292969e+00,-2.928700685501098633e+00,5.479740142822265625e+00,-5.288406848907470703e+00,-5.592374205589294434e-01,-3.428732976317405701e-02
6.870446205139160156e-01,-1.400620639324188232e-01,-2.669955492019653320e+00,2.574220657348632812e+00,-1.326721429824829102e+00,8.324412345886230469e+00,-1.020590019226074219e+01,5.833326339721679688e+00,-1.884441077709197998e-01,1.005609893798828125e+01,-2.283790111541748047e+00,-3.232478499412536621e-01,-4.238071441650390625e+00,2.479243993759155273e+00,-7.940328121185302734e+00,-7.639547348022460938e+00,-2.021676063537597656e+00,6.539203166961669922e+00,-3.916788816452026367e+00,-6.155317425727844238e-01,-3.286653757095336914e-02
4.131897091865539551e-01,-5.243045091629028320e-01,-2.440520286560058594e+00,3.552678346633911133e+00,-2.006829500198364258e+00,7.999336242675781250e+00,-9.282363891601562500e+00,6.281040668487548828e+00,-1.401871562004089355e+00,1.174236011505126953e+01,-2.118205547332763672e+00,-1.880900412797927856e-01,-3.960664033889770508e+00,4.559592247009277344e+00,-7.021445274353027344e+00,-5.443579673767089844e+00,-1.115758776664733887e+00,7.027607917785644531e+00,-2.803451776504516602e+00,-5.915904641151428223e-01,-3.117512166500091553e-02
3.517841100692749023e-01,-7.316600084304809570e-01,-2.118268251419067383e+00,4.301303386688232422e+00,-2.352203369140625000e+00,7.810974121093750000e+00,-8.067249298095703125e+00,6.313250064849853516e+00,-2.891879081726074219e+00,1.268247413635253906e+01,-1.959277868270874023e+00,-2.472832500934600830e-01,-3.862924575805664062e+00,6.053411006927490234e+00,-6.204660892486572266e+00,-3.469123125076293945e+00,-3.261267840862274170e-01,6.832246303558349609e+00,-1.980480909347534180e+00,-4.317663908004760742e-01,-2.915895357728004456e-02
4.675371944904327393e-01,-8.019069433212280273e-01,-1.779329776763916016e+00,4.735219955444335938e+00,-2.378392934799194336e+00,7.826164722442626953e+00,-6.517856121063232422e+00,5.946060180664062500e+00,-4.571696758270263672e+00,1.288426208496093750e+01,-2.006706476211547852e+00,-4.189435541629791260e-01,-3.894546270370483398e+00,6.971391201019287109e+00,-5.486680507659912109e+00,-1.854279994964599609e+00,2.497619241476058960e-01,6.037022590637207031e+00,-1.361247420310974121e+00,-1.153535917401313782e-01,-2.668271958827972412e-02
6.722225546836853027e-01,-8.112167716026306152e-01,-1.450820326805114746e+00,4.853474140167236328e+00,-2.155782222747802734e+00,8.075288772583007812e+00,-4.591484069824218750e+00,5.243889331817626953e+00,-6.259648799896240234e+00,1.249945735931396484e+01,-2.391960859298706055e+00,-5.610072612762451172e-01,-3.926167726516723633e+00,7.466275691986083984e+00,-4.757173061370849609e+00,-5.812750458717346191e-01,5.687156915664672852e-01,4.878626346588134766e+00,-7.869324684143066406e-01,3.252949118614196777e-01,-2.367876283824443817e-02
8.585568070411682129e-01,-8.416853547096252441e-01,-1.099367260932922363e+00,4.739034652709960938e+00,-1.764576792716979980e+00,8.539104461669921875e+00,-2.286913871765136719e+00,4.284041404724121094e+00,-7.714406013488769531e+00,1.176113128662109375e+01,-3.111712217330932617e+00,-5.393030643463134766e-01,-3.798243999481201172e+00,7.759541034698486328e+00,-3.856404542922973633e+00,4.989332258701324463e-01,6.628513336181640625e-01,3.672641754150390625e+00,-8.909166604280471802e-02,8.151200413703918457e-01,-2.030946128070354462e-02
9.411367774009704590e-01,-9.542497992515563965e-01,-6.509256958961486816e-01,4.511109352111816406e+00,-1.250608325004577637e+00,9.145710945129394531e+00,3.348549604415893555e-01,3.143819570541381836e+00,-8.701416969299316406e+00,1.091017913818359375e+01,-4.010361194610595703e+00,-2.926647067070007324e-01,-3.372790098190307617e+00,8.048223495483398438e+00,-2.654281854629516602e+00,1.568202733993530273e+00,6.395942568778991699e-01,2.704597949981689453e+00,8.413627743721008301e-01,1.259003877639770508e+00,-1.691309548914432526e-02
8.769078850746154785e-01,-1.191227436065673828e+00,-4.292239993810653687e-02,4.273647308349609375e+00,-6.171501874923706055e-01,9.761431694030761719e+00,3.138402938842773438e+00,1.898916125297546387e+00,-9.066123008728027344e+00,1.012179756164550781e+01,-4.846604347229003906e+00,1.345129311084747314e-01,-2.580812931060791016e+00,8.437716484069824219e+00,-1.129397511482238770e+00,2.722248077392578125e+00,6.440241932868957520e-01,2.144810676574707031e+00,2.002826690673828125e+00,1.572828412055969238e+00,-1.389560848474502563e-02
6.785748600959777832e-01,-1.572930932044982910e+00,7.496719360351562500e-01,4.066702365875244141e+00,1.587132215499877930e-01,1.022626018524169922e+01,5.923651218414306641e+00,6.362973451614379883e-01,-8.778697013854980469e+00,9.474197387695312500e+00,-5.390786170959472656e+00,6.159510016441345215e-01,-1.452497124671936035e+00,8.891360282897949219e+00,6.112102866172790527e-01,3.930987358093261719e+00,7.990711331367492676e-01,2.000793933868408203e+00,3.287816286087036133e+00,1.722946643829345703e+00,-1.155468728393316269e-02
4.089548587799072266e-01,-2.097667217254638672e+00,1.698699355125427246e+00,3.865479707717895508e+00,1.097442507743835449e+00,1.040753269195556641e+01,8.472220420837402344e+00,-5.409657955169677734e-01,-7.934042930603027344e+00,8.942353248596191406e+00,-5.487308025360107422e+00,1.025370717048645020e+00,-8.414479345083236694e-02,9.302236557006835938e+00,2.383106231689453125e+00,5.072726726531982422e+00,1.163431525230407715e+00,2.152324676513671875e+00,4.539116859436035156e+00,1.734593749046325684e+00,-9.836208075284957886e-03
1.407464593648910522e-01,-2.740892410278320312e+00,2.733243703842163086e+00,3.604176282882690430e+00,2.180213928222656250e+00,1.023436164855957031e+01,1.058281135559082031e+01,-1.531412839889526367e+00,-6.705701828002929688e+00,8.433971405029296875e+00,-5.095396995544433594e+00,1.293713212013244629e+00,1.406381845474243164e+00,9.540514945983886719e+00,3.993621349334716797e+00,6.012097358703613281e+00,1.697236061096191406e+00,2.412807226181030273e+00,5.623577594757080078e+00,1.666005253791809082e+00,-8.442481048405170441e-03
-8.017255365848541260e-02,-3.457750082015991211e+00,3.755273103713989258e+00,3.205545186996459961e+00,3.317819356918334961e+00,9.734088897705078125e+00,1.209804534912109375e+01,-2.265793085098266602e+00,-5.292973995208740234e+00,7.844249725341796875e+00,-4.257489681243896484e+00,1.437749981880187988e+00,2.932842254638671875e+00,9.540514945983886719e+00,5.324190139770507812e+00,6.677998065948486328e+00,2.252082586288452148e+00,2.594393730163574219e+00,6.477028846740722656e+00,1.567651987075805664e+00,-6.818720605224370956e-03
-2.573312520980834961e-01,-4.180531978607177734e+00,4.641727447509765625e+00,2.618089199066162109e+00,4.379312038421630859e+00,9.014060020446777344e+00,1.293496131896972656e+01,-2.742496252059936523e+00,-3.863976955413818359e+00,7.109052181243896484e+00,-3.064283609390258789e+00,1.533445715904235840e+00,4.472238540649414062e+00,9.311401367187500000e+00,6.378105640411376953e+00,7.110081195831298828e+00,2.621980428695678711e+00,2.570599794387817383e+00,7.131555557250976562e+00,1.457651615142822266e+00,-4.613113123923540115e-03
-4.415480792522430420e-01,-4.832220554351806641e+00,5.264331340789794922e+00,1.819873690605163574e+00,5.224740982055664062e+00,8.231244087219238281e+00,1.306916046142578125e+01,-3.043656587600708008e+00,-2.527173042297363281e+00,6.245586395263671875e+00,-1.606474876403808594e+00,1.676496028900146484e+00,6.056192874908447266e+00,8.946347236633300781e+00,7.259113311767578125e+00,7.443715095520019531e+00,2.595401048660278320e+00,2.302603006362915039e+00,7.696245193481445312e+00,1.323062896728515625e+00,-1.771532930433750153e-03
-7.041099667549133301e-01,-5.342569351196289062e+00,5.503152370452880859e+00,8.204354643821716309e-01,5.747712135314941406e+00,7.539571285247802734e+00,1.253480339050292969e+01,-3.301333904266357422e+00,-1.339505434036254883e+00,5.321114540100097656e+00,2.024651877582073212e-02,1.937932610511779785e+00,7.716326236724853516e+00,8.569074630737304688e+00,8.143414497375488281e+00,7.856655597686767578e+00,2.027264595031738281e+00,1.809188842773437500e+00,8.294623374938964844e+00,1.140591740608215332e+00,1.286548678763210773e-03
-1.111363172531127930e+00,-5.681955337524414062e+00,5.257030963897705078e+00,-3.601986765861511230e-01,5.891754627227783203e+00,7.022082328796386719e+00,1.141240787506103516e+01,-3.663692474365234375e+00,-3.280899524688720703e-01,4.424799442291259766e+00,1.700221180915832520e+00,2.328607797622680664e+00,9.428203582763671875e+00,8.269700050354003906e+00,9.192390441894531250e+00,8.491106986999511719e+00,8.810245394706726074e-01,1.127926588058471680e+00,9.003694534301757812e+00,9.050615429878234863e-01,3.925159107893705368e-03
-1.695069432258605957e+00,-5.876615524291992188e+00,4.481122970581054688e+00,-1.693418860435485840e+00,5.652775287628173828e+00,6.679790019989013672e+00,9.838614463806152344e+00,-4.222530364990234375e+00,4.935156702995300293e-01,3.634853363037109375e+00,3.293659210205078125e+00,2.811032533645629883e+00,1.109121227264404297e+01,8.043641090393066406e+00,1.049002361297607422e+01,9.403131484985351562e+00,-7.657956480979919434e-01,2.888718545436859131e-01,9.821852684020996094e+00,6.378253698348999023e-01,5.616575479507446289e-03
-2.436171531677246094e+00,-6.002721309661865234e+00,3.219229221343994141e+00,-3.141078472137451172e+00,5.066785812377929688e+00,6.434717178344726562e+00,7.986662387847900391e+00,-4.987509727478027344e+00,1.128023028373718262e+00,2.952840566635131836e+00,4.657442569732666016e+00,3.314174652099609375e+00,1.254580497741699219e+01,7.814527988433837891e+00,1.201820182800292969e+01,1.051342105865478516e+01,-2.732677221298217773e+00,-6.916950345039367676e-01,1.064963626861572266e+01,3.628244698047637939e-01,6.225485820323228836e-03
-3.259147882461547852e+00,-6.144907951354980469e+00,1.613182663917541504e+00,-4.636421203613281250e+00,4.204988002777099609e+00,6.179517269134521484e+00,6.052970409393310547e+00,-5.884548664093017578e+00,1.598480343818664551e+00,2.328704833984375000e+00,5.692553043365478516e+00,3.766016244888305664e+00,1.362525081634521484e+01,7.451001644134521484e+00,1.366329860687255859e+01,1.165242576599121094e+01,-4.766007423400878906e+00,-1.806260228157043457e+00,1.133143424987792969e+01,9.170591086149215698e-02,6.036046892404556274e-03
-4.065184593200683594e+00,-6.355648994445800781e+00,-1.378251463174819946e-01,-6.086941719055175781e+00,3.153316736221313477e+00,5.842288494110107422e+00,4.213218688964843750e+00,-6.804134368896484375e+00,1.949628591537475586e+00,1.662334442138671875e+00,6.370700359344482422e+00,4.110323429107666016e+00,1.421456241607666016e+01,6.818649291992187500e+00,1.525405311584472656e+01,1.259726619720458984e+01,-6.608850955963134766e+00,-3.041048288345336914e+00,1.169880390167236328e+01,-1.949420869350433350e-01,5.643638316541910172e-03
-4.769584655761718750e+00,-6.637483119964599609e+00,-1.842945933341979980e+00,-7.394412994384765625e+00,1.993613719940185547e+00,5.416955471038818359e+00,2.601605415344238281e+00,-7.654469490051269531e+00,2.237055063247680664e+00,8.254607915878295898e-01,6.735984802246093750e+00,4.310593605041503906e+00,1.428499221801757812e+01,5.825825214385986328e+00,1.660767555236816406e+01,1.314283943176269531e+01,-8.068507194519042969e+00,-4.371012687683105469e+00,1.160415363311767578e+01,-5.456491112709045410e-01,5.589513108134269714e-03
-5.325057983398437500e+00,-6.948093414306640625e+00,-3.372861623764038086e+00,-8.483495712280273438e+00,8.060844540596008301e-01,4.968329906463623047e+00,1.286450862884521484e+00,-8.392070770263671875e+00,2.508211851119995117e+00,-2.929778397083282471e-01,6.887423992156982422e+00,4.349069118499755859e+00,1.388828563690185547e+01,4.445035934448242188e+00,1.758584213256835938e+01,1.316335010528564453e+01,-9.063022613525390625e+00,-5.762340545654296875e+00,1.095604419708251953e+01,-1.007650613784790039e+00,6.198422983288764954e-03
-5.728076457977294922e+00,-7.232466697692871094e+00,-4.682727813720703125e+00,-9.316042900085449219e+00,-3.331579864025115967e-01,4.593631267547607422e+00,2.860551774501800537e-01,-9.026600837707519531e+00,2.801061391830444336e+00,-1.746165871620178223e+00,6.928195953369140625e+00,4.216871261596679688e+00,1.312505531311035156e+01,2.706830024719238281e+00,1.810456657409667969e+01,1.265059280395507812e+01,-9.633374214172363281e+00,-7.187481403350830078e+00,9.725598335266113281e+00,-1.582887887954711914e+00,7.483900059014558792e-03
-5.986403465270996094e+00,-7.447439193725585938e+00,-5.769416809082031250e+00,-9.888240814208984375e+00,-1.335724115371704102e+00,4.384002685546875000e+00,-4.154418408870697021e-01,-9.575776100158691406e+00,3.129161357879638672e+00,-3.494997262954711914e+00,6.921539306640625000e+00,3.916958808898925781e+00,1.209160423278808594e+01,6.936881542205810547e-01,1.816055488586425781e+01,1.170301723480224609e+01,-9.896954536437988281e+00,-8.616378784179687500e+00,7.956130504608154297e+00,-2.200184106826782227e+00,9.215910919010639191e-03
-6.076747417449951172e+00,-7.571005821228027344e+00,-6.628755569458007812e+00,-1.022869777679443359e+01,-2.091945409774780273e+00,4.392104625701904297e+00,-8.461000323295593262e-01,-1.004120540618896484e+01,3.487088680267333984e+00,-5.411203384399414062e+00,6.888256072998046875e+00,3.461171150207519531e+00,1.085836219787597656e+01,-1.481360316276550293e+00,1.777192306518554688e+01,1.047650241851806641e+01,-9.996626853942871094e+00,-1.001897811889648438e+01,5.740686416625976562e+00,-2.715244531631469727e+00,1.105617173016071320e-02
-5.932762145996093750e+00,-7.593010902404785156e+00,-7.219029903411865234e+00,-1.038033008575439453e+01,-2.492971897125244141e+00,4.614898204803466797e+00,-1.042519211769104004e+00,-1.038101768493652344e+01,3.863996744155883789e+00,-7.285174369812011719e+00,6.818360805511474609e+00,2.858386993408203125e+00,9.465575218200683594e+00,-3.694594383239746094e+00,1.694855117797851562e+01,9.132395744323730469e+00,-1.004424858093261719e+01,-1.135770797729492188e+01,3.214021682739257812e+00,-2.957892417907714844e+00,1.276112068444490433e-02
-5.479630947113037109e+00,-7.510915279388427734e+00,-7.472451686859130859e+00,-1.038795948028564453e+01,-2.461053371429443359e+00,4.998710632324218750e+00,-1.069359064102172852e+00,-1.052596092224121094e+01,4.234126091003417969e+00,-8.874452590942382812e+00,6.686892032623291016e+00,2.109592914581298828e+00,7.939114570617675781e+00,-5.814655780792236328e+00,1.567891216278076172e+01,7.792390346527099609e+00,-1.009297752380371094e+01,-1.258372974395751953e+01,5.397672057151794434e-01,-2.804538965225219727e+00,1.420897338539361954e-02
-4.693356990814208984e+00,-7.328104019165039062e+00,-7.352519512176513672e+00,-1.029736137390136719e+01,-2.010103225708007812e+00,5.466577529907226562e+00,-1.027879238128662109e+00,-1.039873313903808594e+01,4.539177417755126953e+00,-9.966298103332519531e+00,6.461397647857666016e+00,1.218735218048095703e+00,6.300541400909423828e+00,-7.705603599548339844e+00,1.392348384857177734e+01,6.519385337829589844e+00,-1.014835166931152344e+01,-1.365070724487304688e+01,-2.121653318405151367e+00,-2.240301847457885742e+00,1.542679313570261002e-02
-3.643815040588378906e+00,-7.047115802764892578e+00,-6.914506912231445312e+00,-1.013428497314453125e+01,-1.262066125869750977e+00,5.955710887908935547e+00,-1.052279114723205566e+00,-9.933302879333496094e+00,4.672044754028320312e+00,-1.042462348937988281e+01,6.103601932525634766e+00,2.242892980575561523e-01,4.569978237152099609e+00,-9.243717193603515625e+00,1.166085910797119141e+01,5.328421592712402344e+00,-1.019708061218261719e+01,-1.451731300354003906e+01,-4.627463340759277344e+00,-1.363534212112426758e+00,1.645517535507678986e-02
-2.512399196624755859e+00,-6.678954124450683594e+00,-6.332575798034667969e+00,-9.905405998229980469e+00,-4.501922428607940674e-01,6.446869373321533203e+00,-1.306038022041320801e+00,-9.099073410034179688e+00,4.470032691955566406e+00,-1.023847770690917969e+01,5.561084270477294922e+00,-7.819952368736267090e-01,2.756048679351806641e+00,-1.033124160766601562e+01,8.933851242065429688e+00,4.216763973236083984e+00,-1.024359512329101562e+01,-1.518605136871337891e+01,-6.883013248443603516e+00,-3.605896830558776855e-01,1.728058606386184692e-02
-1.556730270385742188e+00,-6.254933357238769531e+00,-5.879962921142578125e+00,-9.603095054626464844e+00,1.407079398632049561e-01,6.952206134796142578e+00,-1.934335350990295410e+00,-7.920199394226074219e+00,3.725706815719604492e+00,-9.534565925598144531e+00,4.759788513183593750e+00,-1.667920231819152832e+00,8.443800210952758789e-01,-1.094221019744873047e+01,5.861028194427490234e+00,3.170739412307739258e+00,-1.033108615875244141e+01,-1.570952129364013672e+01,-8.869051933288574219e+00,5.627663135528564453e-01,1.794362068176269531e-02
-1.014667034149169922e+00,-5.831758975982666016e+00,-5.834075450897216797e+00,-9.214954376220703125e+00,2.651079893112182617e-01,7.487923622131347656e+00,-3.004270792007446289e+00,-6.483648300170898438e+00,2.269593715667724609e+00,-8.549088478088378906e+00,3.639805555343627930e+00,-2.321018695831298828e+00,-1.195212483406066895e+00,-1.115452194213867188e+01,2.621884107589721680e+00,2.150694847106933594e+00,-1.051714229583740234e+01,-1.617788887023925781e+01,-1.063691520690917969e+01,1.249945044517517090e+00,1.851193793118000031e-02
-1.023842573165893555e+00,-5.490680217742919922e+00,-6.363862514495849609e+00,-8.726679801940917969e+00,-1.923895180225372314e-01,8.032754898071289062e+00,-4.473144531250000000e+00,-4.919869422912597656e+00,3.661616891622543335e-02,-7.549532413482666016e+00,2.200302839279174805e+00,-2.689002990722656250e+00,-3.375664710998535156e+00,-1.114383029937744141e+01,-5.826786756515502930e-01,1.085527300834655762e+00,-1.083277320861816406e+01,-1.667005157470703125e+01,-1.228285789489746094e+01,1.631063938140869141e+00,1.925616152584552765e-02
-1.555318713188171387e+00,-5.306176185607910156e+00,-7.444293498992919922e+00,-8.138269424438476562e+00,-1.162218809127807617e+00,8.539104461669921875e+00,-6.178697109222412109e+00,-3.370584487915039062e+00,-2.864763498306274414e+00,-6.731430053710937500e+00,5.402981042861938477e-01,-2.796537399291992188e+00,-5.650981903076171875e+00,-1.113008308410644531e+01,-3.563284158706665039e+00,-9.586501121520996094e-02,-1.124032497406005859e+01,-1.720854949951171875e+01,-1.388227653503417969e+01,1.740417242050170898e+00,2.051457576453685760e-02
-2.418526172637939453e+00,-5.323949337005615234e+00,-8.846977233886718750e+00,-7.468798637390136719e+00,-2.402945518493652344e+00,8.943171501159667969e+00,-7.879370212554931641e+00,-1.948528051376342773e+00,-6.145762920379638672e+00,-6.146400451660156250e+00,-1.140508651733398438e+00,-2.708734035491943359e+00,-7.904738426208496094e+00,-1.129657173156738281e+01,-6.176666259765625000e+00,-1.441339612007141113e+00,-1.163237285614013672e+01,-1.770697212219238281e+01,-1.544800662994384766e+01,1.684769988059997559e+00,2.251721173524856567e-02
-3.352314949035644531e+00,-5.552463531494140625e+00,-1.023193168640136719e+01,-6.764996051788330078e+00,-3.601932764053344727e+00,9.199383735656738281e+00,-9.349463462829589844e+00,-7.052350640296936035e-01,-9.410492897033691406e+00,-5.681818485260009766e+00,-2.599149465560913086e+00,-2.484786510467529297e+00,-9.960142135620117188e+00,-1.171814060211181641e+01,-8.342133522033691406e+00,-2.967304706573486328e+00,-1.188709259033203125e+01,-1.798123168945312500e+01,-1.690144157409667969e+01,1.586416721343994141e+00,2.527760528028011322e-02
-4.136471748352050781e+00,-5.974792003631591797e+00,-1.130089092254638672e+01,-6.110783576965332031e+00,-4.505469799041748047e+00,9.290526390075683594e+00,-1.046575927734375000e+01,3.737886250019073486e-01,-1.227255439758300781e+01,-5.126509666442871094e+00,-3.639252424240112305e+00,-2.135546445846557617e+00,-1.164471054077148438e+01,-1.233369159698486328e+01,-1.004321956634521484e+01,-4.640944004058837891e+00,-1.195354175567626953e+01,-1.780214881896972656e+01,-1.812065696716308594e+01,1.533357739448547363e+00,2.857924997806549072e-02
-4.682064056396484375e+00,-6.563004493713378906e+00,-1.191828060150146484e+01,-5.619647026062011719e+00,-5.012890815734863281e+00,9.227739334106445312e+00,-1.124777603149414062e+01,1.340078473091125488e+00,-1.448383998870849609e+01,-4.281814575195312500e+00,-4.197579860687255859e+00,-1.623525261878967285e+00,-1.286789035797119141e+01,-1.298895549774169922e+01,-1.130627155303955078e+01,-6.377481460571289062e+00,-1.190149021148681641e+01,-1.699565505981445312e+01,-1.897731590270996094e+01,1.557299017906188965e+00,3.196208551526069641e-02
-5.034263610839843750e+00,-7.275630474090576172e+00,-1.215501594543457031e+01,-5.397443771362304688e+00,-5.193762302398681641e+00,9.060644149780273438e+00,-1.184313297271728516e+01,2.243559598922729492e+00,-1.598333740234375000e+01,-3.049185991287231445e+00,-4.360668182373046875e+00,-9.043278694152832031e-01,-1.365124320983886719e+01,-1.349758720397949219e+01,-1.217904567718505859e+01,-8.038814544677734375e+00,-1.190370464324951172e+01,-1.551290702819824219e+01,-1.939441680908203125e+01,1.644005179405212402e+00,3.489838168025016785e-02
-5.320823192596435547e+00,-8.057656288146972656e+00,-1.223010349273681641e+01,-5.497578620910644531e+00,-5.234683036804199219e+00,8.856079101562500000e+00,-1.246655082702636719e+01,3.092284202575683594e+00,-1.688900184631347656e+01,-1.481807708740234375e+00,-4.337369918823242188e+00,1.711307652294635773e-02,-1.412987899780273438e+01,-1.372364521026611328e+01,-1.272576427459716797e+01,-9.477269172668457031e+00,-1.215067291259765625e+01,-1.347663402557373047e+01,-1.937677001953125000e+01,1.752064347267150879e+00,3.680630028247833252e-02
-5.657495498657226562e+00,-8.830373764038085938e+00,-1.238340759277343750e+01,-5.879997253417968750e+00,-5.327983379364013672e+00,8.680882453918457031e+00,-1.327784729003906250e+01,3.866926431655883789e+00,-1.740284347534179688e+01,2.498168349266052246e-01,-4.364828586578369141e+00,1.057927012443542480e+00,-1.448634052276611328e+01,-1.362283515930175781e+01,-1.301888465881347656e+01,-1.057115077972412109e+01,-1.274317359924316406e+01,-1.113980484008789062e+01,-1.899015045166015625e+01,1.850417613983154297e+00,3.726636618375778198e-02
-6.054161548614501953e+00,-9.471059799194335938e+00,-1.272964668273925781e+01,-6.396882057189941406e+00,-5.567780494689941406e+00,8.609992980957031250e+00,-1.429654312133789062e+01,4.554602622985839844e+00,-1.768891525268554688e+01,1.965798854827880859e+00,-4.600307941436767578e+00,2.089861869812011719e+00,-1.484567737579345703e+01,-1.321195888519287109e+01,-1.310286903381347656e+01,-1.122611236572265625e+01,-1.358928680419921875e+01,-8.796712875366210938e+00,-1.831476974487304688e+01,1.942947268486022949e+00,3.608914092183113098e-02
-6.400714874267578125e+00,-9.844299316406250000e+00,-1.318434524536132812e+01,-6.827937602996826172e+00,-5.914791107177734375e+00,8.696072578430175781e+00,-1.538477802276611328e+01,5.179470062255859375e+00,-1.778788757324218750e+01,3.551948070526123047e+00,-5.059617519378662109e+00,2.996504545211791992e+00,-1.521507453918457031e+01,-1.250629043579101562e+01,-1.298595046997070312e+01,-1.136968421936035156e+01,-1.440439128875732422e+01,-6.672777652740478516e+00,-1.739875221252441406e+01,2.058771133422851562e+00,3.327462449669837952e-02
-6.512938976287841797e+00,-9.829065322875976562e+00,-1.349199676513671875e+01,-6.929979324340820312e+00,-6.214333534240722656e+00,8.952285766601562500e+00,-1.629245376586914062e+01,5.826884269714355469e+00,-1.760892295837402344e+01,4.995750904083251953e+00,-5.618776798248291016e+00,3.728527069091796875e+00,-1.547379684448242188e+01,-1.148291778564453125e+01,-1.263519382476806641e+01,-1.096768283843994141e+01,-1.478979301452636719e+01,-4.856912612915039062e+00,-1.622285079956054688e+01,2.236065864562988281e+00,2.894459664821624756e-02
-6.229908466339111328e+00,-9.373729705810546875e+00,-1.335955047607421875e+01,-6.521811962127685547e+00,-6.286354541778564453e+00,9.337110519409179688e+00,-1.678411293029785156e+01,6.607968807220458984e+00,-1.700153160095214844e+01,6.336312770843505859e+00,-6.092231750488281250e+00,4.290862560272216797e+00,-1.545367431640625000e+01,-1.008532714843750000e+01,-1.202260494232177734e+01,-1.003378105163574219e+01,-1.438556385040283203e+01,-3.316558599472045898e+00,-1.475818729400634766e+01,2.493596315383911133e+00,2.322084084153175354e-02
-5.510686397552490234e+00,-8.535843849182128906e+00,-1.261284351348876953e+01,-5.543354034423828125e+00,-6.033462524414062500e+00,9.755354881286621094e+00,-1.673897171020507812e+01,7.600026130676269531e+00,-1.586945152282714844e+01,7.583019733428955078e+00,-6.331039428710937500e+00,4.706201553344726562e+00,-1.503828144073486328e+01,-8.273804664611816406e+00,-1.116465187072753906e+01,-8.677368164062500000e+00,-1.303222560882568359e+01,-1.954034090042114258e+00,-1.299674034118652344e+01,2.791244268417358398e+00,1.621161028742790222e-02
-4.464673995971679688e+00,-7.457595348358154297e+00,-1.128941917419433594e+01,-4.062316417694091797e+00,-5.492486000061035156e+00,1.009359645843505859e+01,-1.619851493835449219e+01,8.809498786926269531e+00,-1.424115371704101562e+01,8.671737670898437500e+00,-6.294427871704101562e+00,4.965665340423583984e+00,-1.424055480957031250e+01,-6.088064193725585938e+00,-1.014367103576660156e+01,-7.096708774566650391e+00,-1.082612895965576172e+01,-6.879380941390991211e-01,-1.100909709930419922e+01,3.037127494812011719e+00,8.119872771203517914e-03
-3.300790548324584961e+00,-6.336183071136474609e+00,-9.626013755798339844e+00,-2.241774797439575195e+00,-4.815651416778564453e+00,1.026676750183105469e+01,-1.534451866149902344e+01,1.014781093597412109e+01,-1.230509376525878906e+01,9.477326393127441406e+00,-6.070597648620605469e+00,5.024858474731445312e+00,-1.320566654205322266e+01,-3.651826620101928711e+00,-9.088108062744140625e+00,-5.548865795135498047e+00,-8.089550018310546875e+00,4.930000901222229004e-01,-8.933221817016601562e+00,3.132245302200317383e+00,-6.754947826266288757e-04
-2.218781471252441406e+00,-5.326488494873046875e+00,-7.928193569183349609e+00,-2.514811754226684570e-01,-4.182193279266357422e+00,1.027892017364501953e+01,-1.440756225585937500e+01,1.148451137542724609e+01,-1.032293605804443359e+01,9.910623550415039062e+00,-5.821805000305175781e+00,4.861090660095214844e+00,-1.212909507751464844e+01,-1.149909853935241699e+00,-8.116529464721679688e+00,-4.266289234161376953e+00,-5.243330478668212891e+00,1.563734054565429688e+00,-6.921514987945556641e+00,3.039715528488159180e+00,-9.538519196212291718e-03
-1.317460179328918457e+00,-4.502144813537597656e+00,-6.421221256256103516e+00,1.782680869102478027e+00,-3.695232629776000977e+00,1.023233604431152344e+01,-1.357674598693847656e+01,1.269881534576416016e+01,-8.522453308105468750e+00,1.000291442871093750e+01,-5.699489116668701172e+00,4.533554553985595703e+00,-1.116032505035400391e+01,1.254251837730407715e+00,-7.303038597106933594e+00,-3.389816522598266602e+00,-2.666228532791137695e+00,2.504226684570312500e+00,-5.071835517883300781e+00,2.819067955017089844e+00,-1.771144568920135498e-02
-5.615360140800476074e-01,-3.829297304153442383e+00,-5.150984287261962891e+00,3.796816110610961914e+00,-3.343311548233032227e+00,1.028499698638916016e+01,-1.294112873077392578e+01,1.371503067016601562e+01,-7.003974437713623047e+00,9.943472862243652344e+00,-5.794346332550048828e+00,4.186287879943847656e+00,-1.032522773742675781e+01,3.462903738021850586e+00,-6.642694473266601562e+00,-2.923549413681030273e+00,-6.074262857437133789e-01,3.370832443237304688e+00,-3.392204999923706055e+00,2.614596605300903320e+00,-2.439592406153678894e-02
1.746254116296768188e-01,-3.208923339843750000e+00,-3.983993530273437500e+00,5.758499622344970703e+00,-3.018398284912109375e+00,1.056956481933593750e+01,-1.251047039031982422e+01,1.452027225494384766e+01,-5.703776836395263672e+00,1.001073551177978516e+01,-6.111369609832763672e+00,3.998842716217041016e+00,-9.527501106262207031e+00,5.466880798339843750e+00,-6.102562427520751953e+00,-2.749895811080932617e+00,8.444777727127075195e-01,4.297549724578857422e+00,-1.807223916053771973e+00,2.586125850677490234e+00,-2.905070222914218903e-02
1.022305130958557129e+00,-2.535229682922363281e+00,-2.714799642562866211e+00,7.620048999786376953e+00,-2.590363979339599609e+00,1.112654876708984375e+01,-1.224085140228271484e+01,1.511615085601806641e+01,-4.449676036834716797e+00,1.043777561187744141e+01,-6.595641613006591797e+00,4.084672927856445312e+00,-8.632035255432128906e+00,7.289094924926757812e+00,-5.666175365447998047e+00,-2.706140518188476562e+00,1.723815560340881348e+00,5.448431968688964844e+00,-2.382852137088775635e-01,2.821009159088134766e+00,-3.149987384676933289e-02
2.057024717330932617e+00,-1.726119995117187500e+00,-1.175498008728027344e+00,9.304216384887695312e+00,-1.976547956466674805e+00,1.190025043487548828e+01,-1.206395244598388672e+01,1.550588798522949219e+01,-3.055929183959960938e+00,1.128716373443603516e+01,-7.173107147216796875e+00,4.440818786621093750e+00,-7.551151752471923828e+00,8.938710212707519531e+00,-5.363174915313720703e+00,-2.640507459640502930e+00,2.151302099227905273e+00,6.937440872192382812e+00,1.341883063316345215e+00,3.297893047332763672e+00,-3.206818923354148865e-02
3.263256788253784180e+00,-7.562041282653808594e-01,6.599836349487304688e-01,1.071468353271484375e+01,-1.195774078369140625e+00,1.278332328796386719e+01,-1.191633319854736328e+01,1.567659950256347656e+01,-1.439833521842956543e+00,1.240873050689697266e+01,-7.772206783294677734e+00,4.951853275299072266e+00,-6.306410789489746094e+00,1.037448692321777344e+01,-5.234728813171386719e+00,-2.454547643661499023e+00,2.306349039077758789e+00,8.738277435302734375e+00,2.872320175170898438e+00,3.891247987747192383e+00,-3.145927935838699341e-02
4.539363861083984375e+00,3.406641483306884766e-01,2.644598245620727539e+00,1.177324867248535156e+01,-3.667132556438446045e-01,1.366639614105224609e+01,-1.173943328857421875e+01,1.560734844207763672e+01,3.240425586700439453e-01,1.347242069244384766e+01,-8.343015670776367188e+00,5.454009056091308594e+00,-5.017112731933593750e+00,1.151241588592529297e+01,-5.279191017150878906e+00,-2.099035978317260742e+00,2.392732381820678711e+00,1.065558052062988281e+01,4.227896213531494141e+00,4.425720214843750000e+00,-3.051208704710006714e-02
5.759006500244140625e+00,1.479849934577941895e+00,4.524923801422119141e+00,1.244081306457519531e+01,3.461316823959350586e-01,1.448465728759765625e+01,-1.147225475311279297e+01,1.528847217559814453e+01,2.024196863174438477e+00,1.408873462677001953e+01,-8.844760894775390625e+00,5.814101219177246094e+00,-3.835615158081054688e+00,1.227459907531738281e+01,-5.392816066741943359e+00,-1.563033938407897949e+00,2.610905647277832031e+00,1.236875438690185547e+01,5.275459289550781250e+00,4.755074024200439453e+00,-2.986258268356323242e-02
6.814194679260253906e+00,2.542017936706542969e+00,6.041282176971435547e+00,1.271546745300292969e+01,8.085397481918334961e-01,1.519759654998779297e+01,-1.106599617004394531e+01,1.473607730865478516e+01,3.407097339630126953e+00,1.393387413024902344e+01,-9.241663932800292969e+00,5.971949577331542969e+00,-2.865407228469848633e+00,1.263354301452636719e+01,-5.369761943817138672e+00,-8.506434559822082520e-01,3.108163356781005859e+00,1.351838493347167969e+01,5.934798717498779297e+00,4.820427417755126953e+00,-2.971373870968818665e-02
7.654816150665283203e+00,3.395983934402465820e+00,7.033068180084228516e+00,1.261151790618896484e+01,9.689503312110900879e-01,1.576673316955566406e+01,-1.050113868713378906e+01,1.398398113250732422e+01,4.278866767883300781e+00,1.287018394470214844e+01,-9.499609947204589844e+00,5.939393520355224609e+00,-2.115113258361816406e+00,1.262743377685546875e+01,-4.959722518920898438e+00,3.813550993800163269e-02,3.938772201538085938e+00,1.383397006988525391e+01,6.210726737976074219e+00,4.666427135467529297e+00,-2.988964505493640900e-02
8.296399116516113281e+00,3.926644802093505859e+00,7.498195648193359375e+00,1.214422321319580078e+01,8.903818726539611816e-01,1.613332939147949219e+01,-9.797202110290527344e+00,1.306922721862792969e+01,4.597476482391357422e+00,1.100403404235839844e+01,-9.585314750671386719e+00,5.762800216674804688e+00,-1.508553624153137207e+00,1.235708045959472656e+01,-3.986497402191162109e+00,1.103302955627441406e+00,5.046250343322753906e+00,1.322909927368164062e+01,6.183454513549804688e+00,4.407602310180664062e+00,-2.997083403170108795e-02
8.794701576232910156e+00,4.055289745330810547e+00,7.584755420684814453e+00,1.132693481445312500e+01,6.988712549209594727e-01,1.621637153625488281e+01,-9.018845558166503906e+00,1.202563381195068359e+01,4.491724967956542969e+00,8.646709442138671875e+00,-9.478807449340820312e+00,5.470780372619628906e+00,-9.408023953437805176e-01,1.195078563690185547e+01,-2.455025911331176758e+00,2.312042236328125000e+00,6.292163372039794922e+00,1.184904193878173828e+01,5.987738132476806641e+00,4.152660369873046875e+00,-2.960548736155033112e-02
9.203367233276367188e+00,3.770916461944580078e+00,7.524268150329589844e+00,1.020638179779052734e+01,5.212738513946533203e-01,1.594598102569580078e+01,-8.247808456420898438e+00,1.088863277435302734e+01,4.217856407165527344e+00,6.244021892547607422e+00,-9.175097465515136719e+00,5.067280292510986328e+00,-3.299307823181152344e-01,1.151699829101562500e+01,-5.629177689552307129e-01,3.580945253372192383e+00,7.511497020721435547e+00,1.001940155029296875e+01,5.759937286376953125e+00,3.943012714385986328e+00,-2.869888767600059509e-02
9.556978225708007812e+00,3.143771886825561523e+00,7.533653736114501953e+00,8.877929687500000000e+00,4.328843653202056885e-01,1.531608200073242188e+01,-7.549971580505371094e+00,9.698485374450683594e+00,4.052450656890869141e+00,4.230832576751708984e+00,-8.680840492248535156e+00,4.549339771270751953e+00,3.398719727993011475e-01,1.115041732788085938e+01,1.372005820274353027e+00,4.801990985870361328e+00,8.577999114990234375e+00,8.150939941406250000e+00,5.618764877319335938e+00,3.735953330993652344e+00,-2.739988081157207489e-02
9.876005172729492188e+00,2.323659896850585938e+00,7.751617431640625000e+00,7.486536026000976562e+00,4.435238242149353027e-01,1.440667915344238281e+01,-6.918014049530029297e+00,8.487402915954589844e+00,4.196164131164550781e+00,2.898091793060302734e+00,-8.003525733947753906e+00,3.930770635604858398e+00,1.032672166824340820e+00,1.088006305694580078e+01,3.038510084152221680e+00,5.868525505065917969e+00,9.455121040344238281e+00,6.611837863922119141e+00,5.646037101745605469e+00,3.445422887802124023e+00,-2.608733996748924255e-02
1.016962242126464844e+01,1.500162243843078613e+00,8.191716194152832031e+00,6.195277214050292969e+00,5.130896568298339844e-01,1.336157417297363281e+01,-6.295816898345947266e+00,7.256993293762207031e+00,4.723564624786376953e+00,2.297419786453247070e+00,-7.144816398620605469e+00,3.242156267166137695e+00,1.708224296569824219e+00,1.069219017028808594e+01,4.242279529571533203e+00,6.690304279327392578e+00,1.017498207092285156e+01,5.613738536834716797e+00,5.870629310607910156e+00,2.996362447738647461e+00,-2.527546137571334839e-02
1.043924236297607422e+01,8.315465450286865234e-01,8.760089874267578125e+00,5.118592262268066406e+00,5.818370580673217773e-01,1.232254600524902344e+01,-5.596759796142578125e+00,5.965385913848876953e+00,5.569574356079101562e+00,2.244235277175903320e+00,-6.111369609832763672e+00,2.501254558563232422e+00,2.360779047012329102e+00,1.049515342712402344e+01,4.937205314636230469e+00,7.189387798309326172e+00,1.077855777740478516e+01,5.162902832031250000e+00,6.257249355316162109e+00,2.361595869064331055e+00,-2.531605400145053864e-02
1.068063068389892578e+01,3.948304951190948486e-01,9.306562423706054688e+00,4.284137725830078125e+00,6.186659932136535645e-01,1.137263488769531250e+01,-4.752523422241210938e+00,4.530445575714111328e+00,6.585056781768798828e+00,2.392838954925537109e+00,-4.914834976196289062e+00,1.679455637931823730e+00,3.032018899917602539e+00,1.014079093933105469e+01,5.223738670349121094e+00,7.300143241882324219e+00,1.125698852539062500e+01,5.090268611907958984e+00,6.704830169677734375e+00,1.567651987075805664e+00,-2.629031054675579071e-02
1.088319873809814453e+01,1.807042062282562256e-01,9.705987930297851562e+00,3.639461755752563477e+00,6.268501877784729004e-01,1.052399349212646484e+01,-3.722847700119018555e+00,2.890973806381225586e+00,7.619520664215087891e+00,2.375632286071777344e+00,-3.574350118637084961e+00,6.978349685668945312e-01,3.816809415817260742e+00,9.477890014648437500e+00,5.279727935791015625e+00,6.995223999023437500e+00,1.154161071777343750e+01,5.139109134674072266e+00,7.115513324737548828e+00,6.747078299522399902e-01,-2.795466408133506775e-02
1.105329895019531250e+01,1.138426288962364197e-01,9.920823097229003906e+00,3.112086296081542969e+00,6.644975543022155762e-01,9.749279022216796875e+00,-2.495532989501953125e+00,1.071127772331237793e+00,8.592974662780761719e+00,1.950156331062316895e+00,-2.094907283782958984e+00,-5.156257748603820801e-01,4.824388027191162109e+00,8.404112815856933594e+00,5.322543144226074219e+00,6.307445526123046875e+00,1.154050350189208984e+01,5.078997611999511719e+00,7.412296295166015625e+00,-2.357069253921508789e-01,-2.974080108106136322e-02
1.122057628631591797e+01,1.087645366787910461e-01,1.000634002685546875e+01,2.652420997619628906e+00,8.069028854370117188e-01,9.025199890136718750e+00,-1.070579051971435547e+00,-7.938116192817687988e-01,9.514907836914062500e+00,1.061662435531616211e+00,-4.756746888160705566e-01,-1.969805598258972168e+00,6.112249374389648438e+00,6.934732913970947266e+00,5.538266658782958984e+00,5.348931789398193359e+00,1.120161437988281250e+01,4.788459300994873047e+00,7.603199958801269531e+00,-1.080121517181396484e+00,-3.108040243387222290e-02
1.141043949127197266e+01,9.183755517005920410e-02,1.005535507202148438e+01,2.245207071304321289e+00,1.101534605026245117e+00,8.351755142211914062e+00,5.385940670967102051e-01,-2.500923633575439453e+00,1.044226455688476562e+01,-1.897373497486114502e-01,1.283347845077514648e+00,-3.588739871978759766e+00,7.654520511627197266e+00,5.196527481079101562e+00,6.060284137725830078e+00,4.286499023437500000e+00,1.054598808288574219e+01,4.263736724853515625e+00,7.766831398010253906e+00,-1.797065019607543945e+00,-3.145927935838699341e-02
1.162006568908691406e+01,-2.953526796773076057e-03,1.010332870483398438e+01,1.897120356559753418e+00,1.509926795959472656e+00,7.744136333465576172e+00,2.283186674118041992e+00,-3.850508451461791992e+00,1.141707420349121094e+01,-1.630411386489868164e+00,3.153869390487670898e+00,-5.213593482971191406e+00,9.337651252746582031e+00,3.394169569015502930e+00,6.946232318878173828e+00,3.314311504364013672e+00,9.663327217102050781e+00,3.591240882873535156e+00,8.033133506774902344e+00,-2.358713865280151367e+00,-3.072858788073062897e-02
1.178169631958007812e+01,-2.543191611766815186e-01,1.006787014007568359e+01,1.581458091735839844e+00,1.892129540443420410e+00,7.191203117370605469e+00,4.044859409332275391e+00,-4.750768661499023438e+00,1.239730644226074219e+01,-3.135219812393188477e+00,5.061002731323242188e+00,-6.666786670684814453e+00,1.099203491210937500e+01,1.732334852218627930e+00,8.181289672851562500e+00,2.599186182022094727e+00,8.663274765014648438e+00,2.864895105361938477e+00,8.493548393249511719e+00,-2.779303550720214844e+00,-2.906423434615135193e-02
1.176758003234863281e+01,-7.502796649932861328e-01,9.752918243408203125e+00,1.217159032821655273e+00,2.046811103820800781e+00,6.649409294128417969e+00,5.607672691345214844e+00,-5.267733573913574219e+00,1.324196052551269531e+01,-4.680698394775390625e+00,6.873278617858886719e+00,-7.809215545654296875e+00,1.242075634002685547e+01,3.316891789436340332e-01,9.656771659851074219e+00,2.225899219512939453e+00,7.605632781982421875e+00,2.128530502319335938e+00,9.143261909484863281e+00,-3.099598646163940430e+00,-2.699393965303897858e-02
1.142455577850341797e+01,-1.570391774177551270e+00,8.931122779846191406e+00,6.783397197723388672e-01,1.783279538154602051e+00,6.055967807769775391e+00,6.704447746276855469e+00,-5.601103782653808594e+00,1.373546600341796875e+01,-6.340367317199707031e+00,8.425112724304199219e+00,-8.569848060607910156e+00,1.347145557403564453e+01,-8.001303076744079590e-01,1.120635700225830078e+01,2.197184801101684570e+00,6.477112293243408203e+00,1.348334908485412598e+00,9.869978904724121094e+00,-3.368129014968872070e+00,-2.520780451595783234e-02
1.062981224060058594e+01,-2.741738796234130859e+00,7.453351497650146484e+00,-1.465782970190048218e-01,9.951397776603698730e-01,5.372396469116210938e+00,7.078986167907714844e+00,-5.986009120941162109e+00,1.367581176757812500e+01,-8.197132110595703125e+00,9.567562103271484375e+00,-8.939805984497070312e+00,1.406507873535156250e+01,-1.757823705673217773e+00,1.262420368194580078e+01,2.462450981140136719e+00,5.214587211608886719e+00,4.454118907451629639e-01,1.048760890960693359e+01,-3.632129907608032227e+00,-2.438239194452762604e-02
9.343117713928222656e+00,-4.207615375518798828e+00,5.344633579254150391e+00,-1.291926980018615723e+00,-2.889632284641265869e-01,4.632113933563232422e+00,6.592208385467529297e+00,-6.577056407928466797e+00,1.297487068176269531e+01,-1.026194190979003906e+01,1.020660114288330078e+01,-8.916128158569335938e+00,1.421168804168701172e+01,-2.662057399749755859e+00,1.374234199523925781e+01,2.960167169570922852e+00,3.764898061752319336e+00,-6.365929841995239258e-01,1.082930946350097656e+01,-3.914895534515380859e+00,-2.481539547443389893e-02
7.640699863433837891e+00,-5.830066204071044922e+00,2.815631628036499023e+00,-2.694764375686645508e+00,-1.911074280738830566e+00,3.924237728118896484e+00,5.290473937988281250e+00,-7.388740062713623047e+00,1.170043277740478516e+01,-1.242686367034912109e+01,1.034139823913574219e+01,-8.496843338012695312e+00,1.398458766937255859e+01,-3.599894285202026367e+00,1.444056129455566406e+01,3.628802537918090820e+00,2.134690046310424805e+00,-1.883904099464416504e+00,1.081005954742431641e+01,-4.214484691619873047e+00,-2.642562426626682281e-02
5.715951919555664062e+00,-7.423741340637207031e+00,2.230138629674911499e-01,-4.209180355072021484e+00,-3.604387998580932617e+00,3.355101346969604492e+00,3.434861898422241211e+00,-8.293831825256347656e+00,1.008840465545654297e+01,-1.449949455261230469e+01,1.007846069335937500e+01,-7.674057483673095703e+00,1.350163936614990234e+01,-4.586608409881591797e+00,1.468263244628906250e+01,4.405458450317382812e+00,4.324958324432373047e-01,-3.187569618225097656e+00,1.046194076538085938e+01,-4.485603332519531250e+00,-2.863123081624507904e-02
3.836375713348388672e+00,-8.815985679626464844e+00,-2.049437522888183594e+00,-5.667330265045166016e+00,-5.070998668670654297e+00,2.981415510177612305e+00,1.423090338706970215e+00,-9.108736038208007812e+00,8.446549415588378906e+00,-1.627491760253906250e+01,9.590027809143066406e+00,-6.474408626556396484e+00,1.287783145904541016e+01,-5.567213535308837891e+00,1.447843647003173828e+01,5.191686153411865234e+00,-1.171132683753967285e+00,-4.379778861999511719e+00,9.897251129150390625e+00,-4.641544818878173828e+00,-3.068799525499343872e-02
2.249711275100708008e+00,-9.915392875671386719e+00,-3.723271608352661133e+00,-6.948099136352539062e+00,-6.065380573272705078e+00,2.761660099029541016e+00,-3.715220391750335693e-01,-9.664352416992187500e+00,7.043312072753906250e+00,-1.760765838623046875e+01,9.035861015319824219e+00,-5.001484394073486328e+00,1.217928218841552734e+01,-6.474501609802246094e+00,1.384608745574951172e+01,5.823402881622314453e+00,-2.512289047241210938e+00,-5.306495666503906250e+00,9.233098983764648438e+00,-4.589133262634277344e+00,-3.186522051692008972e-02
1.110531568527221680e+00,-1.072280979156494141e+01,-4.710886001586914062e+00,-7.996173858642578125e+00,-6.468862533569335938e+00,2.570260047912597656e+00,-1.739136219024658203e+00,-9.865662574768066406e+00,5.998002052307128906e+00,-1.844453239440917969e+01,8.515809059143066406e+00,-3.421025753021240234e+00,1.140311622619628906e+01,-7.265706062316894531e+00,1.278064441680908203e+01,6.084567070007324219e+00,-3.499052047729492188e+00,-5.890077114105224609e+00,8.522424697875976562e+00,-4.264308452606201172e+00,-3.170284628868103027e-02
4.153071641921997070e-01,-1.131948566436767578e+01,-5.124912261962890625e+00,-8.814416885375976562e+00,-6.334641456604003906e+00,2.264425039291381836e+00,-2.734652042388916016e+00,-9.680457115173339844e+00,5.250964641571044922e+00,-1.882308006286621094e+01,8.019056320190429688e+00,-1.923437595367431641e+00,1.048752689361572266e+01,-7.933189392089843750e+00,1.125576019287109375e+01,5.774178028106689453e+00,-4.156894207000732422e+00,-6.165587902069091797e+00,7.736351013183593750e+00,-3.676130056381225586e+00,-3.018733486533164978e-02
4.616771265864372253e-02,-1.178836345672607422e+01,-5.209386348724365234e+00,-9.409502029418945312e+00,-5.856683254241943359e+00,1.793520450592041016e+00,-3.639888048171997070e+00,-9.099073410034179688e+00,4.621880531311035156e+00,-1.880587387084960938e+01,7.454904079437255859e+00,-6.300659775733947754e-01,9.318965911865234375e+00,-8.472369194030761719e+00,9.254966735839843750e+00,4.807460308074951172e+00,-4.599885463714599609e+00,-6.244483947753906250e+00,6.802688121795654297e+00,-2.902245044708251953e+00,-2.769756875932216644e-02
-1.564002037048339844e-01,-1.215313911437988281e+01,-5.225029468536376953e+00,-9.751866340637207031e+00,-5.302612304687500000e+00,1.261853694915771484e+00,-4.826942920684814453e+00,-8.087689399719238281e+00,3.893824100494384766e+00,-1.841168403625488281e+01,6.707694053649902344e+00,4.590890109539031982e-01,7.804004192352294922e+00,-8.837423324584960938e+00,6.812846183776855469e+00,3.273290872573852539e+00,-4.960923671722412109e+00,-6.248240947723388672e+00,5.681330204010009766e+00,-2.057183504104614258e+00,-2.493717707693576813e-02
-3.060322403907775879e-01,-1.234610652923583984e+01,-5.351218700408935547e+00,-9.784291267395019531e+00,-4.922046184539794922e+00,8.922188282012939453e-01,-6.597155570983886719e+00,-6.631813049316406250e+00,2.929861068725585938e+00,-1.760922241210937500e+01,5.690888881683349609e+00,1.451561808586120605e+00,5.906708717346191406e+00,-8.926013946533203125e+00,4.021615982055664062e+00,1.423263311386108398e+00,-5.330821037292480469e+00,-6.236969947814941406e+00,4.413987159729003906e+00,-1.246416091918945312e+00,-2.270450629293918610e-02
-3.999051749706268311e-01,-1.225046920776367188e+01,-5.628626823425292969e+00,-9.452416419982910156e+00,-4.852480411529541016e+00,9.134854674339294434e-01,-9.044465065002441406e+00,-4.770094394683837891e+00,1.720500946044921875e+00,-1.635625839233398438e+01,4.383687496185302734e+00,2.476590871810913086e+00,3.681699037551879883e+00,-8.620529174804687500e+00,1.017955899238586426e+00,-4.322336614131927490e-01,-5.721761226654052734e+00,-6.184372425079345703e+00,3.124184608459472656e+00,-5.152372717857360840e-01,-2.162200026214122772e-02
-3.363821506500244141e-01,-1.175366306304931641e+01,-5.983208656311035156e+00,-8.760057449340820312e+00,-5.088185787200927734e+00,1.445152163505554199e+00,-1.201881217956542969e+01,-2.650698661804199219e+00,3.620045483112335205e-01,-1.465748405456542969e+01,2.829357147216796875e+00,3.591396093368530273e+00,1.261210083961486816e+00,-7.849181175231933594e+00,-2.051573753356933594e+00,-2.044342041015625000e+00,-6.077261447906494141e+00,-6.012804508209228516e+00,1.964325070381164551e+00,1.680591106414794922e-01,-2.221737988293170929e-02
1.864106208086013794e-02,-1.081929302215576172e+01,-6.299203395843505859e+00,-7.791136741638183594e+00,-5.508854389190673828e+00,2.435571193695068359e+00,-1.519323921203613281e+01,-5.168085098266601562e-01,-1.012761354446411133e+00,-1.262083053588867188e+01,1.093633055686950684e+00,4.726919174194335938e+00,-1.195212483406066895e+00,-6.656264781951904297e+00,-5.068407535552978516e+00,-3.291367292404174805e+00,-6.323121547698974609e+00,-5.645874500274658203e+00,1.040287494659423828e+00,8.830614686012268066e-01,-2.482892759144306183e-02
7.357456088066101074e-01,-9.537075042724609375e+00,-6.497352123260498047e+00,-6.701100349426269531e+00,-5.943436145782470703e+00,3.668025255203247070e+00,-1.820052528381347656e+01,1.344909906387329102e+00,-2.311603069305419922e+00,-1.045903682708740234e+01,-7.610790133476257324e-01,5.707553386688232422e+00,-3.555332899093627930e+00,-5.214378833770751953e+00,-7.937034606933593750e+00,-4.191084861755371094e+00,-6.405075073242187500e+00,-5.071059703826904297e+00,3.600932359695434570e-01,1.713887691497802734e+00,-2.978139556944370270e-02
1.745056152343750000e+00,-8.106744766235351562e+00,-6.584954738616943359e+00,-5.667330265045166016e+00,-6.269167900085449219e+00,4.850856781005859375e+00,-2.077959442138671875e+01,2.700936794281005859e+00,-3.533165216445922852e+00,-8.431769371032714844e+00,-2.701495409011840820e+00,6.325135707855224609e+00,-5.755908012390136719e+00,-3.806096076965332031e+00,-1.058664512634277344e+01,-4.861087799072265625e+00,-6.328659057617187500e+00,-4.362246036529541016e+00,-1.949709653854370117e-01,2.674126148223876953e+00,-3.718303516507148743e-02
2.834123373031616211e+00,-6.791518688201904297e+00,-6.648570537567138672e+00,-4.824292659759521484e+00,-6.459859848022460938e+00,5.729878902435302734e+00,-2.283894729614257812e+01,3.446590423583984375e+00,-4.731678962707519531e+00,-6.736122608184814453e+00,-4.687676429748535156e+00,6.441549301147460938e+00,-7.801249504089355469e+00,-2.733846187591552734e+00,-1.294313430786132812e+01,-5.438110351562500000e+00,-6.142602920532226562e+00,-3.652180671691894531e+00,-8.077874779701232910e-01,3.673835277557373047e+00,-4.649259150028228760e-02
3.724151611328125000e+00,-5.827527046203613281e+00,-6.777888774871826172e+00,-4.223485469818115234e+00,-6.571983337402343750e+00,6.166352272033691406e+00,-2.443347930908203125e+01,3.647900819778442383e+00,-5.969510555267333984e+00,-5.447180747985839844e+00,-6.643902778625488281e+00,6.054820060729980469e+00,-9.714355468750000000e+00,-2.220632553100585938e+00,-1.489287853240966797e+01,-6.012398242950439453e+00,-5.902279853820800781e+00,-3.076113224029541016e+00,-1.651613473892211914e+00,4.546073436737060547e+00,-5.620809271931648254e-02
4.196339607238769531e+00,-5.334105491638183594e+00,-6.990637779235839844e+00,-3.817225217819213867e+00,-6.683289051055908203e+00,6.188631534576416016e+00,-2.568397521972656250e+01,3.506178140640258789e+00,-7.264285087585449219e+00,-4.482038974761962891e+00,-8.428719520568847656e+00,5.313918590545654297e+00,-1.149810123443603516e+01,-2.336716413497924805e+00,-1.629425811767578125e+01,-6.592155456542968750e+00,-5.632055282592773438e+00,-2.727967977523803711e+00,-2.797034978866577148e+00,5.123898983001708984e+00,-6.366385519504547119e-02
4.182929039001464844e+00,-5.278246879577636719e+00,-7.212772846221923828e+00,-3.499655485153198242e+00,-6.828149318695068359e+00,5.951660156250000000e+00,-2.669046974182128906e+01,3.254942893981933594e+00,-8.584819793701171875e+00,-3.668628931045532227e+00,-9.874878883361816406e+00,4.448710918426513672e+00,-1.311511421203613281e+01,-2.993507862091064453e+00,-1.704352569580078125e+01,-7.134994506835937500e+00,-5.317531585693359375e+00,-2.632791757583618164e+00,-4.205550193786621094e+00,5.318664550781250000e+00,-6.559883803129196167e-02
3.782028198242187500e+00,-5.518610000610351562e+00,-7.309761047363281250e+00,-3.188761472702026367e+00,-6.972191810607910156e+00,5.642786979675292969e+00,-2.748102760314941406e+01,3.068126916885375977e+00,-9.886373519897460938e+00,-2.841140747070312500e+00,-1.085424041748046875e+01,3.663414716720581055e+00,-1.450646400451660156e+01,-4.006188392639160156e+00,-1.712586212158203125e+01,-7.613567829132080078e+00,-4.945418834686279297e+00,-2.779313325881958008e+00,-5.745613098144531250e+00,5.163369655609130859e+00,-5.899554491043090820e-02
3.197616338729858398e+00,-5.879154682159423828e+00,-7.171057224273681641e+00,-2.869284629821777344e+00,-7.040938854217529297e+00,5.405815601348876953e+00,-2.800806427001953125e+01,2.990823745727539062e+00,-1.113911819458007812e+01,-1.929183125495910645e+00,-1.134100818634033203e+01,3.058657407760620117e+00,-1.562759304046630859e+01,-5.153282165527343750e+00,-1.666148185729980469e+01,-8.037446975708007812e+00,-4.536759376525878906e+00,-3.132467508316040039e+00,-7.264820575714111328e+00,4.801015377044677734e+00,-4.210843890905380249e-02
2.630849599838256836e+00,-6.232081890106201172e+00,-6.789360523223876953e+00,-2.590815305709838867e+00,-6.993470668792724609e+00,5.297456741333007812e+00,-2.821912384033203125e+01,2.955393075942993164e+00,-1.235118961334228516e+01,-9.687337279319763184e-01,-1.142421722412109375e+01,2.613721847534179688e+00,-1.646987724304199219e+01,-6.249970912933349609e+00,-1.589739227294921875e+01,-8.454489707946777344e+00,-4.166861534118652344e+00,-3.638405084609985352e+00,-8.644459724426269531e+00,4.414072990417480469e+00,-1.491045858711004257e-02
2.211597442626953125e+00,-6.527457714080810547e+00,-6.263745307922363281e+00,-2.410573005676269531e+00,-6.856794357299804688e+00,5.300495147705078125e+00,-2.809834480285644531e+01,2.832996368408203125e+00,-1.354292488098144531e+01,-6.146886944770812988e-02,-1.126612091064453125e+01,2.221073389053344727e+00,-1.707499885559082031e+01,-7.167951107025146484e+00,-1.512342262268066406e+01,-8.923491477966308594e+00,-3.935398578643798828e+00,-4.220734119415283203e+00,-9.815548896789550781e+00,4.162366390228271484e+00,2.117761038243770599e-02
1.972327470779418945e+00,-6.788133144378662109e+00,-5.757945060729980469e+00,-2.333326339721679688e+00,-6.735667705535888672e+00,5.378472805023193359e+00,-2.769696617126464844e+01,2.512510299682617188e+00,-1.471432304382324219e+01,7.159633040428161621e-01,-1.103147411346435547e+01,1.757393360137939453e+00,-1.748176765441894531e+01,-7.832379817962646484e+00,-1.457011699676513672e+01,-9.455390930175781250e+00,-3.906604051589965820e+00,-4.761736392974853516e+00,-1.073477363586425781e+01,4.142954349517822266e+00,6.449141353368759155e-02
1.865044116973876953e+00,-7.050501346588134766e+00,-5.411706447601318359e+00,-2.270384550094604492e+00,-6.765130996704101562e+00,5.513161659240722656e+00,-2.712722778320312500e+01,1.961724996566772461e+00,-1.580979728698730469e+01,1.363562703132629395e+00,-1.081346797943115234e+01,1.143757104873657227e+00,-1.769736862182617188e+01,-8.202015876770019531e+00,-1.432969284057617188e+01,-9.987291336059570312e+00,-4.060543537139892578e+00,-5.128666400909423828e+00,-1.135721588134765625e+01,4.373955249786376953e+00,1.144626289606094360e-01
1.826224446296691895e+00,-7.308638095855712891e+00,-5.269873619079589844e+00,-2.066300868988037109e+00,-7.040938854217529297e+00,5.738993167877197266e+00,-2.650625038146972656e+01,1.254722833633422852e+00,-1.671274948120117188e+01,1.981441378593444824e+00,-1.060960769653320312e+01,3.781916499137878418e-01,-1.767580986022949219e+01,-8.247838020324707031e+00,-1.431981182098388672e+01,-1.039202785491943359e+01,-4.279824256896972656e+00,-5.192534923553466797e+00,-1.160747623443603516e+01,4.822368621826171875e+00,1.721737682819366455e-01
1.796580314636230469e+00,-7.504991054534912109e+00,-5.284473896026611328e+00,-1.592330574989318848e+00,-7.575367927551269531e+00,6.111666202545166016e+00,-2.590235328674316406e+01,5.219530463218688965e-01,-1.730251693725585938e+01,2.710381746292114258e+00,-1.036747169494628906e+01,-4.850426316261291504e-01,-1.734378242492675781e+01,-7.975957393646240234e+00,-1.435109996795654297e+01,-1.054243659973144531e+01,-4.417151451110839844e+00,-4.917024135589599609e+00,-1.141978073120117188e+01,5.419605731964111328e+00,2.393839061260223389e-01
1.742232918739318848e+00,-7.569313526153564453e+00,-5.365819454193115234e+00,-8.408445715904235840e-01,-8.285758018493652344e+00,6.670675754547119141e+00,-2.531309509277343750e+01,-9.325147420167922974e-02,-1.752215385437011719e+01,3.634853363037109375e+00,-1.002881431579589844e+01,-1.374913811683654785e+00,-1.666679382324218750e+01,-7.432195186614990234e+00,-1.420618724822998047e+01,-1.035784339904785156e+01,-4.365099906921386719e+00,-4.388545036315917969e+00,-1.077808761596679688e+01,6.086725711822509766e+00,3.163095414638519287e-01
1.649065732955932617e+00,-7.455056190490722656e+00,-5.449250221252441406e+00,2.889559976756572723e-02,-9.029703140258789062e+00,7.402856826782226562e+00,-2.466283798217773438e+01,-4.974827468395233154e-01,-1.741233444213867188e+01,4.723571300506591797e+00,-9.576993942260742188e+00,-2.239134550094604492e+00,-1.568077468872070312e+01,-6.706669807434082031e+00,-1.373192501068115234e+01,-9.821841239929199219e+00,-4.124777317047119141e+00,-3.801206588745117188e+00,-9.751379966735839844e+00,6.740904331207275391e+00,3.993377983570098877e-01
1.499433636665344238e+00,-7.193534374237060547e+00,-5.556667804718017578e+00,7.183935642242431641e-01,-9.660705566406250000e+00,8.203901290893554688e+00,-2.387228202819824219e+01,-6.698044538497924805e-01,-1.711541748046875000e+01,5.821674823760986328e+00,-9.060270309448242188e+00,-3.065866470336914062e+00,-1.452946090698242188e+01,-5.924630165100097656e+00,-1.288549900054931641e+01,-8.997327804565429688e+00,-3.816898345947265625e+00,-3.399211883544921875e+00,-8.496870040893554688e+00,7.295435428619384766e+00,4.804987609386444092e-01
1.275691390037536621e+00,-6.894773006439208984e+00,-5.777759552001953125e+00,9.062650799751281738e-01,-1.008137416839599609e+01,8.909751892089843750e+00,-2.290482711791992188e+01,-6.601415276527404785e-01,-1.681714439392089844e+01,6.697654247283935547e+00,-8.555195808410644531e+00,-3.872867107391357422e+00,-1.340977001190185547e+01,-5.225070953369140625e+00,-1.171795749664306641e+01,-7.997793674468994141e+00,-3.623089790344238281e+00,-3.369156122207641602e+00,-7.221506118774414062e+00,7.675907611846923828e+00,5.491161346435546875e-01
9.587820768356323242e-01,-6.709422588348388672e+00,-6.226201057434082031e+00,3.827043771743774414e-01,-1.027452182769775391e+01,9.331034660339355469e+00,-2.180805015563964844e+01,-5.570706129074096680e-01,-1.667207717895507812e+01,7.129387378692626953e+00,-8.126673698425292969e+00,-4.670002460479736328e+00,-1.250280475616455078e+01,-4.717967033386230469e+00,-1.033963298797607422e+01,-6.949034690856933594e+00,-3.706150531768798828e+00,-3.781169652938842773e+00,-6.119399070739746094e+00,7.829907894134521484e+00,5.950415134429931641e-01
5.508229732513427734e-01,-6.757664680480957031e+00,-6.957265377044677734e+00,-8.494275212287902832e-01,-1.027943229675292969e+01,9.355339050292968750e+00,-2.068809509277343750e+01,-4.362843632698059082e-01,-1.674528884887695312e+01,7.016761302947998047e+00,-7.785520076751708984e+00,-5.403011322021484375e+00,-1.190055751800537109e+01,-4.443030834197998047e+00,-8.847683906555175781e+00,-5.942663192749023438e+00,-4.128099918365478516e+00,-4.550094127655029297e+00,-5.299636363983154297e+00,7.738672256469726562e+00,6.116038560867309570e-01
7.228273898363113403e-02,-7.073352813720703125e+00,-7.932364940643310547e+00,-2.571742057800292969e+00,-1.017631053924560547e+01,9.000894546508789062e+00,-1.966695976257324219e+01,-3.396553993225097656e-01,-1.699475288391113281e+01,6.400446891784667969e+00,-7.483473777770996094e+00,-5.933777332305908203e+00,-1.157140541076660156e+01,-4.349858283996582031e+00,-7.293158054351806641e+00,-5.000557422637939453e+00,-4.824703693389892578e+00,-5.488082408905029297e+00,-4.760614395141601562e+00,7.403494834899902344e+00,5.967870354652404785e-01
-4.521352350711822510e-01,-7.608245372772216797e+00,-9.044082641601562500e+00,-4.458086490631103516e+00,-1.005436611175537109e+01,8.409479141235351562e+00,-1.881662368774414062e+01,-2.913408875465393066e-01,-1.731200599670410156e+01,5.405584335327148438e+00,-7.136495590209960938e+00,-6.104451179504394531e+00,-1.138023853302001953e+01,-4.322364807128906250e+00,-5.695816993713378906e+00,-4.094003200531005859e+00,-5.659742355346679688e+00,-6.389752864837646484e+00,-4.407683849334716797e+00,6.808198451995849609e+00,5.524854660034179688e-01
-9.949043393135070801e-01,-8.268397331237792969e+00,-1.015892887115478516e+01,-6.216639995574951172e+00,-9.973342895507812500e+00,7.762364864349365234e+00,-1.811634635925292969e+01,-3.348239362239837646e-01,-1.758858680725097656e+01,4.143234729766845703e+00,-6.658880233764648438e+00,-5.833148956298828125e+00,-1.115026378631591797e+01,-4.236829280853271484e+00,-4.070481300354003906e+00,-3.202489376068115234e+00,-6.508070468902587891e+00,-7.136136054992675781e+00,-4.123734474182128906e+00,5.917842864990234375e+00,4.827314317226409912e-01
-1.530615329742431641e+00,-8.973405838012695312e+00,-1.117470169067382812e+01,-7.706260681152343750e+00,-9.948789596557617188e+00,7.198291778564453125e+00,-1.747584915161132812e+01,-5.490182042121887207e-01,-1.774450302124023438e+01,2.624347925186157227e+00,-6.001534938812255859e+00,-5.204714298248291016e+00,-1.073199558258056641e+01,-4.013825416564941406e+00,-2.445145368576049805e+00,-2.334220647811889648e+00,-7.338679313659667969e+00,-7.728483676910400391e+00,-3.820534706115722656e+00,4.691015243530273438e+00,3.924368321895599365e-01
-2.032447338104248047e+00,-9.686032295227050781e+00,-1.204968357086181641e+01,-8.957466125488281250e+00,-9.958610534667968750e+00,6.758780479431152344e+00,-1.680729293823242188e+01,-1.030552625656127930e+00,-1.775534820556640625e+01,7.488124966621398926e-01,-5.176940917968750000e+00,-4.462826251983642578e+00,-1.005644416809082031e+01,-3.645716905593872070e+00,-8.445108532905578613e-01,-1.531584858894348145e+00,-8.225769042968750000e+00,-8.282009124755859375e+00,-3.462791204452514648e+00,3.131598234176635742e+00,2.873254120349884033e-01
-2.456640005111694336e+00,-1.041981697082519531e+01,-1.277240467071533203e+01,-1.008755588531494141e+01,-9.950427055358886719e+00,6.376993179321289062e+00,-1.606675529479980469e+01,-1.843846559524536133e+00,-1.759129905700683594e+01,-1.610076189041137695e+00,-4.245008468627929688e+00,-3.923181295394897461e+00,-9.130793571472167969e+00,-3.179853200912475586e+00,7.215421199798583984e-01,-8.342352509498596191e-01,-9.285626411437988281e+00,-8.929458618164062500e+00,-3.047295093536376953e+00,1.339886546134948730e+00,1.749747544527053833e-01
-2.748846054077148438e+00,-1.119761180877685547e+01,-1.331992053985595703e+01,-1.117091655731201172e+01,-9.874313354492187500e+00,5.940520286560058594e+00,-1.530181884765625000e+01,-2.953469514846801758e+00,-1.719405364990234375e+01,-4.480474472045898438e+00,-3.291441917419433594e+00,-3.829458713531494141e+00,-8.013977050781250000e+00,-2.669694423675537109e+00,2.289241790771484375e+00,-2.380696535110473633e-01,-1.057694625854492188e+01,-9.733448982238769531e+00,-2.569233894348144531e+00,-4.738253653049468994e-01,6.549272686243057251e-02
-2.858246803283691406e+00,-1.199064064025878906e+01,-1.362652969360351562e+01,-1.214079093933105469e+01,-9.697534561157226562e+00,5.370371341705322266e+00,-1.463448143005371094e+01,-4.196762561798095703e+00,-1.646464157104492188e+01,-7.702828884124755859e+00,-2.400281667709350586e+00,-4.236905574798583984e+00,-6.782172203063964844e+00,-2.147316217422485352e+00,3.912930965423583984e+00,3.075039088726043701e-01,-1.201113033294677734e+01,-1.063386726379394531e+01,-2.018982410430908203e+00,-2.047477722167968750e+00,-2.925367280840873718e-02
-2.748846054077148438e+00,-1.267956829071044922e+01,-1.357647132873535156e+01,-1.277497673034667969e+01,-9.411905288696289062e+00,4.684774398803710938e+00,-1.417576313018798828e+01,-5.307995796203613281e+00,-1.527019500732421875e+01,-1.092049121856689453e+01,-1.631437301635742188e+00,-4.971887588500976562e+00,-5.508684635162353516e+00,-1.592862129211425781e+00,5.628837585449218750e+00,8.790571689605712891e-01,-1.333567428588867188e+01,-1.143910884857177734e+01,-1.377289772033691406e+00,-3.153304815292358398e+00,-9.826347976922988892e-02
-2.399469375610351562e+00,-1.304349803924560547e+01,-1.303208351135253906e+01,-1.278546714782714844e+01,-9.017426490783691406e+00,4.023482322692871094e+00,-1.395128440856933594e+01,-5.994061470031738281e+00,-1.352123260498046875e+01,-1.368295574188232422e+01,-1.000718712806701660e+00,-5.696017742156982422e+00,-4.265381336212158203e+00,-9.605095386505126953e-01,7.418847560882568359e+00,1.540855646133422852e+00,-1.419175529479980469e+01,-1.191248607635498047e+01,-6.585939526557922363e-01,-3.678718328475952148e+00,-1.349063366651535034e-01
-1.807293415069580078e+00,-1.284037494659423828e+01,-1.190576553344726562e+01,-1.196817874908447266e+01,-8.501820564270019531e+00,3.585996627807617188e+00,-1.388418483734130859e+01,-6.052039146423339844e+00,-1.123673439025878906e+01,-1.561949729919433594e+01,-4.998050630092620850e-01,-6.064989089965820312e+00,-3.148564100265502930e+00,-2.380391061305999756e-01,9.147928237915039062e+00,2.284695148468017578e+00,-1.425488090515136719e+01,-1.187867355346679688e+01,7.293574512004852295e-02,-3.660600662231445312e+00,-1.394934505224227905e-01
-9.927868843078613281e-01,-1.190939044952392578e+01,-1.023193168640136719e+01,-1.034218406677246094e+01,-7.856904983520507812e+00,3.539412498474121094e+00,-1.381952476501464844e+01,-5.464212417602539062e+00,-8.587531089782714844e+00,-1.660497474670410156e+01,-1.311925053596496582e-01,-5.866691589355468750e+00,-2.271783828735351562e+00,5.210894942283630371e-01,1.061682319641113281e+01,3.028534889221191406e+00,-1.338108062744140625e+01,-1.132264328002929688e+01,6.937734484672546387e-01,-3.257481575012207031e+00,-1.192641109228134155e-01
-9.591399691998958588e-03,-1.025393199920654297e+01,-8.183700561523437500e+00,-8.176416397094726562e+00,-7.088407516479492188e+00,3.937402963638305664e+00,-1.360236549377441406e+01,-4.422230243682861328e+00,-5.855624675750732422e+00,-1.680207061767578125e+01,8.182062953710556030e-02,-5.093233585357666016e+00,-1.742840886116027832e+00,1.179408192634582520e+00,1.159498882293701172e+01,3.650680065155029297e+00,-1.167999458312988281e+01,-1.040093517303466797e+01,1.064350962638854980e+00,-2.670597314834594727e+00,-8.563874661922454834e-02
1.060418963432312012e+00,-8.076276779174804688e+00,-6.053081989288330078e+00,-5.912421703338623047e+00,-6.244615077972412109e+00,4.685787200927734375e+00,-1.313754749298095703e+01,-3.261071681976318359e+00,-3.356913328170776367e+00,-1.658620452880859375e+01,9.014145284891128540e-02,-3.917262077331542969e+00,-1.627853274345397949e+00,1.565845966339111328e+00,1.191775035858154297e+01,4.034905910491943359e+00,-9.491617202758789062e+00,-9.379041671752929688e+00,1.077184796333312988e+00,-2.057183504104614258e+00,-5.020017921924591064e-02
2.135370016098022461e+00,-5.716655254364013672e+00,-4.139383792877197266e+00,-3.985069751739501953e+00,-5.392638683319091797e+00,5.602279186248779297e+00,-1.240921115875244141e+01,-2.330212593078613281e+00,-1.330014944076538086e+00,-1.635469436645507812e+01,-1.519945710897445679e-01,-2.595280408859252930e+00,-1.911010146141052246e+00,1.536824941635131836e+00,1.155546665191650391e+01,4.119681835174560547e+00,-7.246758460998535156e+00,-8.503669738769531250e+00,7.130241990089416504e-01,-1.476122736930847168e+00,-2.128371782600879669e-02
3.160914182662963867e+00,-3.538999557495117188e+00,-2.645969152450561523e+00,-2.658525228500366211e+00,-4.587311744689941406e+00,6.494466304779052734e+00,-1.145029449462890625e+01,-1.856730461120605469e+00,1.423673927783966064e-01,-1.635625839233398438e+01,-6.445874571800231934e-01,-1.354196190834045410e+00,-2.478761434555053711e+00,1.043467640876770020e+00,1.062011718750000000e+01,3.911844491958618164e+00,-5.300919055938720703e+00,-7.891285419464111328e+00,5.849765986204147339e-02,-8.866502642631530762e-01,-2.610475523397326469e-03
4.107407569885253906e+00,-1.824296474456787109e+00,-1.621853828430175781e+00,-1.945185661315917969e+00,-3.859735488891601562e+00,7.243863105773925781e+00,-1.032057952880859375e+01,-1.874445796012878418e+00,1.141580820083618164e+00,-1.658776855468750000e+01,-1.329391360282897949e+00,-3.360730707645416260e-01,-3.145689487457275391e+00,1.514534354209899902e-01,9.334010124206542969e+00,3.497536659240722656e+00,-3.792533874511718750e+00,-7.471757888793945312e+00,-7.051166892051696777e-01,-2.279421985149383545e-01,6.049578543752431870e-03
4.969203472137451172e+00,-6.893425583839416504e-01,-9.575345516204833984e-01,-1.640013694763183594e+00,-3.200087785720825195e+00,7.832241058349609375e+00,-9.077404975891113281e+00,-2.220699548721313477e+00,1.854723691940307617e+00,-1.681927680969238281e+01,-2.094075202941894531e+00,4.166672229766845703e-01,-3.700504541397094727e+00,-9.834209084510803223e-01,7.958979606628417969e+00,2.994351148605346680e+00,-2.636326551437377930e+00,-7.034698009490966797e+00,-1.362851738929748535e+00,5.174720287322998047e-01,7.023834623396396637e-03
5.730068206787109375e+00,-1.062081009149551392e-01,-4.736348688602447510e-01,-1.469308137893676758e+00,-2.592819213867187500e+00,8.310235023498535156e+00,-7.809830188751220703e+00,-2.644256591796875000e+00,2.459403753280639648e+00,-1.673793601989746094e+01,-2.818819046020507812e+00,9.069842696189880371e-01,-3.982224225997924805e+00,-2.176337242126464844e+00,6.705807685852050781e+00,2.529451370239257812e+00,-1.620768904685974121e+00,-6.347174167633056641e+00,-1.736637711524963379e+00,1.273239254951477051e+00,3.140341490507125854e-03
6.341300964355468750e+00,3.767122328281402588e-02,-2.519331499934196472e-02,-1.238521814346313477e+00,-2.049387454986572266e+00,8.744682312011718750e+00,-6.663035392761230469e+00,-2.927701711654663086e+00,3.032900571823120117e+00,-1.611380004882812500e+01,-3.439552783966064453e+00,1.146716713905334473e+00,-3.936229228973388672e+00,-3.276080846786499023e+00,5.678239822387695312e+00,2.204021453857421875e+00,-5.642346143722534180e-01,-5.286458969116210938e+00,-1.755888462066650391e+00,1.899594187736511230e+00,-3.341167699545621872e-03
6.747848510742187500e+00,-1.392157077789306641e-01,4.315913319587707520e-01,-9.266741871833801270e-01,-1.626263618469238281e+00,9.163939476013183594e+00,-5.848078727722167969e+00,-2.979237079620361328e+00,3.515560150146484375e+00,-1.492809867858886719e+01,-3.970421314239501953e+00,1.139810919761657715e+00,-3.632949352264404297e+00,-4.201698303222656250e+00,4.863101959228515625e+00,2.080959796905517578e+00,5.687156915664672852e-01,-3.912663221359252930e+00,-1.462314128875732422e+00,2.266477823257446289e+00,-1.090518385171890259e-02
6.911596775054931641e+00,-5.480022430419921875e-01,8.258027434349060059e-01,-6.749073266983032227e-01,-1.412655711174011230e+00,9.537625312805175781e+00,-5.593099594116210938e+00,-2.853619575500488281e+00,3.747399330139160156e+00,-1.336228466033935547e+01,-4.481319904327392578e+00,9.030380845069885254e-01,-3.229055404663085938e+00,-4.942497730255126953e+00,4.159942150115966797e+00,2.171205043792724609e+00,1.637432217597961426e+00,-2.449952840805053711e+00,-9.906699061393737793e-01,2.326007366180419922e+00,-1.848273165524005890e-02
6.862189769744873047e+00,-1.129444003105163574e+00,1.040637493133544922e+00,-6.758609414100646973e-01,-1.479766249656677246e+00,9.809028625488281250e+00,-6.023757934570312500e+00,-2.689350128173828125e+00,3.583349227905273438e+00,-1.170105171203613281e+01,-5.042975902557373047e+00,5.123628973960876465e-01,-2.907090187072753906e+00,-5.513753414154052734e+00,3.455136299133300781e+00,2.439206123352050781e+00,2.414881944656372070e+00,-1.171333789825439453e+00,-4.901496171951293945e-01,2.153889179229736328e+00,-2.528899163007736206e-02
6.700559139251708984e+00,-1.828528285026550293e+00,1.002050638198852539e+00,-1.057325959205627441e+00,-1.835779547691345215e+00,9.948781013488769531e+00,-7.068073749542236328e+00,-2.605605125427246094e+00,2.985448122024536133e+00,-1.018685817718505859e+01,-5.667869567871093750e+00,1.049163341522216797e-01,-2.786353349685668945e+00,-5.916993141174316406e+00,2.677873373031616211e+00,2.815227985382080078e+00,2.723868370056152344e+00,-2.846909165382385254e-01,-5.219433456659317017e-02,1.915123701095581055e+00,-3.056621178984642029e-02
6.580571174621582031e+00,-2.561466455459594727e+00,7.507148385047912598e-01,-1.798321723937988281e+00,-2.389032363891601562e+00,9.991313934326171875e+00,-8.416168212890625000e+00,-2.624930858612060547e+00,2.081139802932739258e+00,-8.897915840148925781e+00,-6.262808799743652344e+00,-1.318565011024475098e-01,-2.858220577239990234e+00,-6.100283622741699219e+00,1.814979791641235352e+00,3.245943784713745117e+00,2.553316831588745117e+00,2.049663811922073364e-01,3.440509140491485596e-01,1.801240921020507812e+00,-3.386785835027694702e-02
6.634212493896484375e+00,-3.227543115615844727e+00,4.430630803108215332e-01,-2.724328041076660156e+00,-2.970929861068725586e+00,1.003384685516357422e+01,-9.602003097534179688e+00,-2.655529975891113281e+00,1.114465117454528809e+00,-7.709085941314697266e+00,-6.668865203857421875e+00,-1.248352788388729095e-02,-2.991893529891967773e+00,-5.967397689819335938e+00,9.603199362754821777e-01,3.721782445907592773e+00,2.070456266403198242e+00,4.754675924777984619e-01,8.156950473785400391e-01,1.936476707458496094e+00,-3.522099182009696960e-02
6.886187553405761719e+00,-3.747201442718505859e+00,2.605578005313873291e-01,-3.605512142181396484e+00,-3.414514303207397461e+00,1.017562484741210938e+01,-1.016808032989501953e+01,-2.554069757461547852e+00,3.308214843273162842e-01,-6.398244857788085938e+00,-6.748744964599609375e+00,5.597174763679504395e-01,-2.999080419540405273e+00,-5.429745197296142578e+00,2.308125793933868408e-01,4.261886596679687500e+00,1.526684403419494629e+00,7.985662817955017090e-01,1.502306222915649414e+00,2.315654516220092773e+00,-3.519392758607864380e-02
7.224271297454833984e+00,-4.108592510223388672e+00,3.241739273071289062e-01,-4.248280525207519531e+00,-3.623211622238159180e+00,1.043791389465332031e+01,-9.841121673583984375e+00,-2.207815885543823242e+00,-1.396358609199523926e-01,-4.772989273071289062e+00,-6.453355789184570312e+00,1.539365053176879883e+00,-2.713048696517944336e+00,-4.468997001647949219e+00,-2.730908989906311035e-01,4.885399341583251953e+00,1.122454762458801270e+00,1.409698605537414551e+00,2.484096050262451172e+00,2.806126594543457031e+00,-3.470680117607116699e-02
7.426133155822753906e+00,-4.365036010742187500e+00,6.286970376968383789e-01,-4.562035560607910156e+00,-3.610116958618164062e+00,1.073666000366210938e+01,-8.619907379150390625e+00,-1.600663661956787109e+00,-3.267341554164886475e-01,-2.775442361831665039e+00,-5.848431587219238281e+00,2.752825736999511719e+00,-2.063368797302246094e+00,-3.156941890716552734e+00,-5.052817463874816895e-01,5.574544906616210938e+00,9.042816162109375000e-01,2.405293464660644531e+00,3.738605260848999023e+00,3.202127933502197266e+00,-3.463914245367050171e-02
7.263090610504150391e+00,-4.600321292877197266e+00,1.061495304107666016e+00,-4.553452491760253906e+00,-3.470985174179077148e+00,1.091894531250000000e+01,-6.742334842681884766e+00,-7.986430525779724121e-01,-3.768981993198394775e-01,-5.057157874107360840e-01,-5.076259136199951172e+00,3.970232725143432617e+00,-1.085974216461181641e+00,-1.615773439407348633e+00,-4.772870838642120361e-01,6.281466007232666016e+00,7.791365385055541992e-01,3.716472864151000977e+00,5.155141830444335938e+00,3.322481393814086914e+00,-3.550514951348304749e-02
6.615155696868896484e+00,-4.870306491851806641e+00,1.467178463935852051e+00,-4.288334369659423828e+00,-3.315485239028930664e+00,1.083489131927490234e+01,-4.560984134674072266e+00,9.034359455108642578e-02,-4.446874558925628662e-01,1.828144907951354980e+00,-4.268306732177734375e+00,4.983423233032226562e+00,1.070220842957496643e-01,2.162258699536323547e-02,-2.599169611930847168e-01,6.915917396545410156e+00,5.864353179931640625e-01,5.157893657684326172e+00,6.602159023284912109e+00,3.090833425521850586e+00,-3.726422414183616638e-02
5.522559642791748047e+00,-5.181762695312500000e+00,1.725814461708068848e+00,-3.845834970474243164e+00,-3.202543020248413086e+00,1.040246963500976562e+01,-2.399153470993041992e+00,9.873827099800109863e-01,-6.019585132598876953e-01,4.008708953857421875e+00,-3.503623008728027344e+00,5.664144992828369141e+00,1.381947040557861328e+00,1.668183207511901855e+00,4.473058134317398071e-02,7.389021396636962891e+00,2.065702676773071289e-01,6.514156818389892578e+00,7.991423606872558594e+00,2.567361116409301758e+00,-3.932098671793937683e-02
4.165284156799316406e+00,-5.501682758331298828e+00,1.784216165542602539e+00,-3.293664455413818359e+00,-3.131340503692626953e+00,9.641933441162109375e+00,-4.679016172885894775e-01,1.871537923812866211e+00,-8.053262233734130859e-01,5.882680416107177734e+00,-2.803841590881347656e+00,5.974909305572509766e+00,2.629562377929687500e+00,3.284195184707641602e+00,3.164432346820831299e-01,7.629675388336181641e+00,-3.693184554576873779e-01,7.617451190948486328e+00,9.300477027893066406e+00,1.904770731925964355e+00,-4.083649441599845886e-02
2.774129390716552734e+00,-5.777592658996582031e+00,1.641340613365173340e+00,-2.689042329788208008e+00,-3.060956239700317383e+00,8.659615516662597656e+00,1.144931554794311523e+00,2.760524511337280273e+00,-9.503952264785766602e-01,7.412516593933105469e+00,-2.181443929672241211e+00,5.938406944274902344e+00,3.770814418792724609e+00,4.851329803466796875e+00,4.432424902915954590e-01,7.598226070404052734e+00,-1.042665243148803711e+00,8.391385078430175781e+00,1.053092288970947266e+01,1.279062747955322266e+00,-4.109359160065650940e-02
1.558016061782836914e+00,-5.955326080322265625e+00,1.326388597488403320e+00,-2.069161891937255859e+00,-2.952924489974975586e+00,7.624637603759765625e+00,2.434466123580932617e+00,3.683331489562988281e+00,-9.422605037689208984e-01,8.659223556518554688e+00,-1.671377301216125488e+00,5.624682903289794922e+00,4.751083374023437500e+00,6.340566158294677734e+00,3.444378674030303955e-01,7.287837028503417969e+00,-1.653993248939514160e+00,8.853491783142089844e+00,1.166992759704589844e+01,8.332377672195434570e-01,-3.984870761632919312e-02
6.503424048423767090e-01,-5.982409000396728516e+00,8.706468939781188965e-01,-1.446420192718505859e+00,-2.796606063842773438e+00,6.727386951446533203e+00,3.428761720657348633e+00,4.635127067565917969e+00,-7.619410753250122070e-01,9.741684913635253906e+00,-1.345200896263122559e+00,5.119567394256591797e+00,5.522937774658203125e+00,7.699971199035644531e+00,-1.290544029325246811e-02,6.727222919464111328e+00,-2.052685499191284180e+00,9.090179443359375000e+00,1.266134262084960938e+01,6.365312337875366211e-01,-3.750778734683990479e-02
1.033384501934051514e-01,-5.800444126129150391e+00,3.054019510746002197e-01,-8.017444014549255371e-01,-2.610824584960937500e+00,6.134958267211914062e+00,4.155878543853759766e+00,5.554712772369384766e+00,-4.853610098361968994e-01,1.077096080780029297e+01,-1.276138067245483398e+00,4.524675846099853516e+00,6.026008605957031250e+00,8.853175163269042969e+00,-6.189070343971252441e-01,5.940995216369628906e+00,-2.150143623352050781e+00,9.209150314331054688e+00,1.340089321136474609e+01,6.915314197540283203e-01,-3.495036438107490540e-02
-8.228998631238937378e-02,-5.334951877593994141e+00,-3.172017633914947510e-01,-8.268290758132934570e-02,-2.415221691131591797e+00,5.973939418792724609e+00,4.667056560516357422e+00,6.340628623962402344e+00,-2.250503003597259521e-01,1.182213687896728516e+01,-1.470013380050659180e+00,3.963326930999755859e+00,6.212863445281982422e+00,9.742134094238281250e+00,-1.430751562118530273e+00,4.953766822814941406e+00,-1.922003030776977539e+00,9.298065185546875000e+00,1.380034732818603516e+01,9.412969350814819336e-01,-3.320482373237609863e-02
6.945949047803878784e-02,-4.508915424346923828e+00,-8.939184546470642090e-01,7.698913216590881348e-01,-2.208979606628417969e+00,6.307116985321044922e+00,5.064774990081787109e+00,6.896245002746582031e+00,-6.642347574234008789e-02,1.290772628784179688e+01,-1.831969261169433594e+00,3.564759254455566406e+00,6.074878215789794922e+00,1.035310268402099609e+01,-2.389156103134155273e+00,3.787415504455566406e+00,-1.400380730628967285e+00,9.398250579833984375e+00,1.382922363281250000e+01,1.288768649101257324e+00,-3.296126052737236023e-02
5.388242006301879883e-01,-3.276631355285644531e+00,-1.288129806518554688e+00,1.785541892051696777e+00,-1.949540019035339355e+00,7.136517047882080078e+00,5.486893177032470703e+00,7.163585186004638672e+00,-2.303836308419704437e-02,1.396828746795654297e+01,-2.190596818923950195e+00,3.430588006973266602e+00,5.649424076080322266e+00,1.071051979064941406e+01,-3.426604509353637695e+00,2.476124525070190430e+00,-6.340057849884033203e-01,9.479651451110839844e+00,1.353725337982177734e+01,1.631063938140869141e+00,-3.435498476028442383e-02
1.301100611686706543e+00,-1.662643909454345703e+00,-1.365303516387939453e+00,2.930890560150146484e+00,-1.569792628288269043e+00,8.395300865173339844e+00,6.068830490112304688e+00,7.129765033721923828e+00,-5.693298578262329102e-02,1.488024520874023438e+01,-2.376983404159545898e+00,3.575611352920532227e+00,5.006930828094482422e+00,1.084951496124267578e+01,-4.475580215454101562e+00,1.078690528869628906e+00,3.073507845401763916e-01,9.454605102539062500e+00,1.302069091796875000e+01,1.887947082519531250e+00,-3.691240772604942322e-02
2.300529718399047852e+00,2.154045104980468750e-01,-1.068080663681030273e+00,4.105802536010742188e+00,-1.025542378425598145e+00,9.948781013488769531e+00,6.841087341308593750e+00,6.815721035003662109e+00,-1.409916430711746216e-01,1.547778892517089844e+01,-2.326226234436035156e+00,3.889335393905639648e+00,4.212079048156738281e+00,1.075786972045898438e+01,-5.465272903442382812e+00,-3.337843120098114014e-01,1.341735482215881348e+00,9.180347442626953125e+00,1.235814285278320312e+01,2.014123916625976562e+00,-3.972692415118217468e-02
3.450296878814697266e+00,2.159468173980712891e+00,-4.486055672168731689e-01,5.189163208007812500e+00,-3.347948193550109863e-01,1.161163139343261719e+01,7.692643642425537109e+00,6.258493900299072266e+00,-2.941953241825103760e-01,1.561544227600097656e+01,-2.124862194061279297e+00,4.164583683013916016e+00,3.305114507675170898e+00,1.038059616088867188e+01,-6.303465366363525391e+00,-1.669687509536743164e+00,2.371690273284912109e+00,8.560448646545410156e+00,1.157367324829101562e+01,2.017359256744384766e+00,-4.187840968370437622e-02
4.637471675872802734e+00,3.950342416763305664e+00,3.512890040874481201e-01,6.096096038818359375e+00,4.099685549736022949e-01,1.318232631683349609e+01,8.402680397033691406e+00,5.509619235992431641e+00,-5.707754492759704590e-01,1.523689365386962891e+01,-1.963438272476196289e+00,4.180368423461914062e+00,2.307597160339355469e+00,9.673399925231933594e+00,-6.863358020782470703e+00,-2.825100183486938477e+00,3.299757242202758789e+00,7.593657016754150391e+00,1.065926170349121094e+01,1.944241404533386230e+00,-4.263616353273391724e-02
5.751242637634277344e+00,5.411987304687500000e+00,1.151183605194091797e+00,6.820879936218261719e+00,1.065523982048034668e+00,1.449478340148925781e+01,8.708899497985839844e+00,4.627074718475341797e+00,-1.018184423446655273e+00,1.441566276550292969e+01,-2.030004978179931641e+00,3.791666507720947266e+00,1.245399236679077148e+00,8.628643989562988281e+00,-7.034619331359863281e+00,-3.707042217254638672e+00,4.055057525634765625e+00,6.420232772827148438e+00,9.622927665710449219e+00,1.858182311058044434e+00,-4.182428121566772461e-02
6.713969230651855469e+00,6.451303958892822266e+00,1.804031014442443848e+00,7.422640800476074219e+00,1.494376778602600098e+00,1.545887279510498047e+01,8.425860404968261719e+00,3.680110454559326172e+00,-1.624220252037048340e+00,1.333320236206054688e+01,-2.425244092941284180e+00,2.987625598907470703e+00,1.587664932012557983e-01,7.330335140228271484e+00,-6.766200065612792969e+00,-4.262187480926513672e+00,4.611011505126953125e+00,5.283125877380371094e+00,8.498360633850097656e+00,1.806417465209960938e+00,-3.979458287358283997e-02
7.484715461730957031e+00,7.057289600372314453e+00,2.227443218231201172e+00,7.963367462158203125e+00,1.604863643646240234e+00,1.606041526794433594e+01,7.503544330596923828e+00,2.713820457458496094e+00,-2.317026376724243164e+00,1.219755649566650391e+01,-3.113376379013061523e+00,1.880712509155273438e+00,-8.991193771362304688e-01,5.908305644989013672e+00,-6.137144088745117188e+00,-4.539759635925292969e+00,4.958759784698486328e+00,4.410258293151855469e+00,7.368981838226318359e+00,1.787005662918090820e+00,-3.729128465056419373e-02
8.058540344238281250e+00,7.268877029418945312e+00,2.396390914916992188e+00,8.433523178100585938e+00,1.384708285331726074e+00,1.634295845031738281e+01,6.041990756988525391e+00,1.734646797180175781e+00,-2.989495515823364258e+00,1.114638042449951172e+01,-3.973749637603759766e+00,6.268031001091003418e-01,-1.899511456489562988e+00,4.469474315643310547e+00,-5.358234405517578125e+00,-4.701107501983642578e+00,5.093872070312500000e+00,3.893049955368041992e+00,6.305376052856445312e+00,1.752064347267150879e+00,-3.515333309769630432e-02
8.441796302795410156e+00,7.124997615814208984e+00,2.316088676452636719e+00,8.712945938110351562e+00,9.026581645011901855e-01,1.636422538757324219e+01,4.259578227996826172e+00,6.910538077354431152e-01,-3.568415641784667969e+00,1.017341709136962891e+01,-4.870734691619873047e+00,-6.527566909790039062e-01,-2.851033687591552734e+00,3.045917510986328125e+00,-4.706124305725097656e+00,-4.967741012573242188e+00,4.986446380615234375e+00,3.620044231414794922e+00,5.326794624328613281e+00,1.633005142211914062e+00,-3.394904732704162598e-02
8.635188102722167969e+00,6.634961605072021484e+00,2.000093936920166016e+00,8.608042716979980469e+00,2.716553509235382080e-01,1.617282485961914062e+01,2.434466123580932617e+00,-5.216400027275085449e-01,-4.028026580810546875e+00,9.142577171325683594e+00,-5.703649520874023438e+00,-1.900746822357177734e+00,-3.783870697021484375e+00,1.594866871833801270e+00,-4.408063411712646484e+00,-5.501008510589599609e+00,4.597721576690673828e+00,3.321991920471191406e+00,4.410778522491455078e+00,1.381945490837097168e+00,-3.382726386189460754e-02
8.628836631774902344e+00,5.791997909545898438e+00,1.470307111740112305e+00,7.946201324462890625e+00,-3.724422156810760498e-01,1.581736755371093750e+01,8.399327993392944336e-01,-2.012947320938110352e+00,-4.399511814117431641e+00,7.870841979980468750e+00,-6.415080070495605469e+00,-3.107301712036132812e+00,-4.708083629608154297e+00,5.064360052347183228e-02,-4.529922485351562500e+00,-6.302277088165283203e+00,3.915515184402465820e+00,2.712111949920654297e+00,3.520429849624633789e+00,1.001473665237426758e+00,-3.454442322254180908e-02
8.404388427734375000e+00,4.602877616882324219e+00,7.694868445396423340e-01,6.671154499053955078e+00,-9.256950020790100098e-01,1.534139919281005859e+01,-3.019823431968688965e-01,-3.848898172378540039e+00,-4.730323314666748047e+00,6.229943752288818359e+00,-6.975903511047363281e+00,-4.262555599212646484e+00,-5.586301326751708984e+00,-1.602026700973510742e+00,-4.935021400451660156e+00,-7.169178009033203125e+00,2.977480888366699219e+00,1.637620925903320312e+00,2.647727727890014648e+00,5.388250350952148438e-01,-3.553221374750137329e-02
7.939964294433593750e+00,3.106532573699951172e+00,-2.415042743086814880e-02,4.881130218505859375e+00,-1.330813527107238770e+00,1.478542804718017578e+01,-8.680599331855773926e-01,-6.003724575042724609e+00,-5.051644325256347656e+00,4.212061405181884766e+00,-7.352837085723876953e+00,-5.325073719024658203e+00,-6.332283020019531250e+00,-3.297464847564697266e+00,-5.361527919769287109e+00,-7.788589000701904297e+00,1.870002627372741699e+00,1.648921221494674683e-01,1.834382295608520508e+00,5.482343956828117371e-02,-3.618171811103820801e-02
7.227800369262695312e+00,1.397754073143005371e+00,-7.958870530128479004e-01,2.814543724060058594e+00,-1.578795194625854492e+00,1.418185997009277344e+01,-8.400000333786010742e-01,-8.337314605712890625e+00,-5.362119197845458984e+00,1.957977652549743652e+00,-7.503443717956542969e+00,-6.219877719879150391e+00,-6.856914043426513672e+00,-4.908894538879394531e+00,-5.562430858612060547e+00,-7.881568908691406250e+00,7.160102725028991699e-01,-1.458115220069885254e+00,1.138145685195922852e+00,-4.110604524612426758e-01,-3.599227592349052429e-02
6.320126533508300781e+00,-3.770397603511810303e-01,-1.410147666931152344e+00,7.698913216590881348e-01,-1.673732042312622070e+00,1.357424068450927734e+01,-3.032023310661315918e-01,-1.062259006500244141e+01,-5.623785495758056641e+00,-3.039276003837585449e-01,-7.388616561889648438e+00,-6.861137390136718750e+00,-7.117073535919189453e+00,-6.303430557250976562e+00,-5.440571784973144531e+00,-7.356505393981933594e+00,-3.626735806465148926e-01,-2.930844068527221680e+00,5.846856832504272461e-01,-8.290618062019348145e-01,-3.480152040719985962e-02
5.332696437835693359e+00,-2.051118135452270508e+00,-1.755343317985534668e+00,-9.943842291831970215e-01,-1.610713601112365723e+00,1.299700260162353516e+01,5.947138667106628418e-01,-1.258737945556640625e+01,-5.804104804992675781e+00,-2.343709230422973633e+00,-7.016675472259521484e+00,-7.196565628051757812e+00,-7.165943145751953125e+00,-7.419975757598876953e+00,-5.104636192321777344e+00,-6.370644569396972656e+00,-1.271913290023803711e+00,-4.060437202453613281e+00,1.162500008940696716e-01,-1.165533542633056641e+00,-3.277181833982467651e-02
4.432080745697021484e+00,-3.488218545913696289e+00,-1.785587072372436523e+00,-2.334280014038085938e+00,-1.377463579177856445e+00,1.246128559112548828e+01,1.669529318809509277e+00,-1.399333095550537109e+01,-5.893586635589599609e+00,-4.025277614593505859e+00,-6.479982376098632812e+00,-7.251812934875488281e+00,-7.154444694519042969e+00,-8.295188903808593750e+00,-4.824689865112304688e+00,-5.269926071166992188e+00,-1.972947001457214355e+00,-4.859417438507080078e+00,-4.131464958190917969e-01,-1.364181280136108398e+00,-3.037677332758903503e-02
3.785557270050048828e+00,-4.619787216186523438e+00,-1.544680118560791016e+00,-3.245027542114257812e+00,-9.772555232048034668e-01,1.194582176208496094e+01,2.738244771957397461e+00,-1.470838546752929688e+01,-5.931548595428466797e+00,-5.342376232147216797e+00,-5.950778007507324219e+00,-7.127506732940673828e+00,-7.301053524017333984e+00,-9.034461021423339844e+00,-4.895499706268310547e+00,-4.435841083526611328e+00,-2.476849555969238281e+00,-5.525651931762695312e+00,-1.184782028198242188e+00,-1.342181205749511719e+00,-2.815763466060161591e-02
3.507467508316040039e+00,-5.456826210021972656e+00,-1.153597354888916016e+00,-3.823900699615478516e+00,-4.722896218299865723e-01,1.139896488189697266e+01,3.643480777740478516e+00,-1.472126960754394531e+01,-5.981712818145751953e+00,-6.381038188934326172e+00,-5.632090091705322266e+00,-6.963738918304443359e+00,-7.798375129699707031e+00,-9.738601684570312500e+00,-5.488327503204345703e+00,-4.113145828247070312e+00,-2.823490381240844727e+00,-6.322127819061279297e+00,-2.339828968048095703e+00,-1.032238960266113281e+00,-2.649328112602233887e-02
3.631690502166748047e+00,-6.047577857971191406e+00,-7.489570975303649902e-01,-4.185338973999023438e+00,2.940264903008937836e-02,1.077818107604980469e+01,4.282758235931396484e+00,-1.413666439056396484e+01,-6.096954345703125000e+00,-7.239810943603515625e+00,-5.682847499847412109e+00,-6.860150814056396484e+00,-8.747022628784179688e+00,-1.043816089630126953e+01,-6.566944122314453125e+00,-4.299105644226074219e+00,-3.044986009597778320e+00,-7.411646366119384766e+00,-3.895933628082275391e+00,-4.091192781925201416e-01,-2.551902458071708679e-02
4.113759517669677734e+00,-6.433513164520263672e+00,-4.152331650257110596e-01,-4.399912834167480469e+00,3.968738019466400146e-01,1.008650779724121094e+01,4.629236698150634766e+00,-1.311561775207519531e+01,-6.288120269775390625e+00,-7.943723678588867188e+00,-6.150477886199951172e+00,-6.830554485321044922e+00,-1.011250019073486328e+01,-1.106134891510009766e+01,-7.904099941253662109e+00,-4.765372753143310547e+00,-3.138014078140258789e+00,-8.757890701293945312e+00,-5.731174945831298828e+00,4.799425005912780762e-01,-2.512661553919315338e-02
4.847803592681884766e+00,-6.619709968566894531e+00,-1.576400101184844971e-01,-4.462854862213134766e+00,5.245475172996520996e-01,9.389771461486816406e+00,4.719516277313232422e+00,-1.182884216308593750e+01,-6.525382518768310547e+00,-8.441155433654785156e+00,-6.963422298431396484e+00,-6.804903984069824219e+00,-1.173813724517822266e+01,-1.148597240447998047e+01,-9.195146560668945312e+00,-5.194721698760986328e+00,-3.060490608215332031e+00,-1.013043403625488281e+01,-7.622564315795898438e+00,1.506181120872497559e+00,-2.491011470556259155e-02
5.701835632324218750e+00,-6.581624031066894531e+00,9.369584172964096069e-02,-4.322666168212890625e+00,3.747764527797698975e-01,8.798355102539062500e+00,4.651196479797363281e+00,-1.042772197723388672e+01,-6.757221698760986328e+00,-8.658585548400878906e+00,-7.965249538421630859e+00,-6.665800094604492188e+00,-1.341983127593994141e+01,-1.160816574096679688e+01,-1.020789432525634766e+01,-5.361538410186767578e+00,-2.760364055633544922e+00,-1.120868206024169922e+01,-9.331070899963378906e+00,2.492949247360229492e+00,-2.447711117565631866e-02
6.536810874938964844e+00,-6.309946060180664062e+00,4.336771070957183838e-01,-3.940247535705566406e+00,-9.881572797894477844e-03,8.410491943359375000e+00,4.570676803588867188e+00,-9.044316291809082031e+00,-6.933473587036132812e+00,-8.569423675537109375e+00,-8.982886314392089844e+00,-6.313600540161132812e+00,-1.495347785949707031e+01,-1.139432716369628906e+01,-1.086494445800781250e+01,-5.217966556549072266e+00,-2.214377164840698242e+00,-1.171712398529052734e+01,-1.065937519073486328e+01,3.259716272354125977e+00,-2.343519963324069977e-02
7.246151447296142578e+00,-5.829219818115234375e+00,9.509491920471191406e-01,-3.313691377639770508e+00,-5.213949084281921387e-01,8.283904075622558594e+00,4.643876552581787109e+00,-7.752708911895751953e+00,-7.006686210632324219e+00,-8.264394760131835938e+00,-9.856573104858398438e+00,-5.676286697387695312e+00,-1.617809677124023438e+01,-1.087042140960693359e+01,-1.121734809875488281e+01,-4.843312263488769531e+00,-1.429175138473510742e+00,-1.151550102233886719e+01,-1.147913742065429688e+01,3.689364910125732422e+00,-2.159493789076805115e-02
7.771275043487548828e+00,-5.216463088989257812e+00,1.690356254577636719e+00,-2.496402740478515625e+00,-1.019813418388366699e+00,8.415555000305175781e+00,5.040374755859375000e+00,-6.591550827026367188e+00,-6.921271800994873047e+00,-7.923388481140136719e+00,-1.045068073272705078e+01,-4.728209018707275391e+00,-1.698013496398925781e+01,-1.008685398101806641e+01,-1.135732078552246094e+01,-4.326452732086181641e+00,-4.324447214603424072e-01,-1.061508178710937500e+01,-1.171977233886718750e+01,3.768306255340576172e+00,-1.910517178475856781e-02
8.095242500305175781e+00,-4.589318752288818359e+00,2.637298107147216797e+00,-1.568489074707031250e+00,-1.390558362007141113e+00,8.736580848693847656e+00,5.883391380310058594e+00,-5.559231281280517578e+00,-6.610796928405761719e+00,-7.743499755859375000e+00,-1.066202926635742188e+01,-3.495017290115356445e+00,-1.728197669982910156e+01,-9.072646141052246094e+00,-1.133261966705322266e+01,-3.666021823883056641e+00,7.348374128341674805e-01,-9.136092185974121094e+00,-1.135561180114746094e+01,3.578070402145385742e+00,-1.627712324261665344e-02
8.254050254821777344e+00,-4.044270038604736328e+00,3.730243921279907227e+00,-6.014752984046936035e-01,-1.577158331871032715e+00,9.165965080261230469e+00,7.230265617370605469e+00,-4.625151157379150391e+00,-6.012895584106445312e+00,-7.848304271697998047e+00,-1.042738246917724609e+01,-2.045770168304443359e+00,-1.703331565856933594e+01,-7.829324722290039062e+00,-1.109713554382324219e+01,-2.743058919906616211e+00,2.031694412231445312e+00,-7.233817100524902344e+00,-1.040269756317138672e+01,3.260363340377807617e+00,-1.354379393160343170e-02
8.303457260131835938e+00,-3.612631797790527344e+00,4.880548477172851562e+00,3.712604343891143799e-01,-1.577976822853088379e+00,9.654085159301757812e+00,9.049278259277343750e+00,-3.739385128021240234e+00,-5.077404499053955078e+00,-8.220595359802246094e+00,-9.726768493652343750e+00,-4.820829629898071289e-01,-1.620971679687500000e+01,-6.352308273315429688e+00,-1.053065586090087891e+01,-1.403053760528564453e+00,3.421579837799072266e+00,-5.041003704071044922e+00,-8.915575027465820312e+00,2.956891775131225586e+00,-1.121640391647815704e-02
8.321807861328125000e+00,-3.248701810836791992e+00,6.001652240753173828e+00,1.354486465454101562e+00,-1.426568865776062012e+00,1.020904445648193359e+01,1.121232891082763672e+01,-2.842346191406250000e+00,-3.816524267196655273e+00,-8.710206031799316406e+00,-8.602624893188476562e+00,1.068778991699218750e+00,-1.481980514526367188e+01,-4.681308746337890625e+00,-9.537669181823730469e+00,4.141573905944824219e-01,4.865731239318847656e+00,-2.679127693176269531e+00,-7.009747505187988281e+00,2.761479377746582031e+00,-9.430267848074436188e-03
8.369803428649902344e+00,-2.869537591934204102e+00,7.010124683380126953e+00,2.356785774230957031e+00,-1.165492415428161621e+00,1.088147544860839844e+01,1.351323890686035156e+01,-1.890550613403320312e+00,-2.334651470184326172e+00,-9.118474960327148438e+00,-7.171442985534667969e+00,2.467711925506591797e+00,-1.294119548797607422e+01,-2.938520669937133789e+00,-8.147817611694335938e+00,2.566369771957397461e+00,6.312098026275634766e+00,-2.546352148056030273e-01,-4.866493701934814453e+00,2.695479154586791992e+00,-8.090666495263576508e-03
8.470028877258300781e+00,-2.399813890457153320e+00,7.835048198699951172e+00,3.359084844589233398e+00,-8.291212916374206543e-01,1.171897792816162109e+01,1.571166992187500000e+01,-8.614519238471984863e-01,-8.148167133331298828e-01,-9.299927711486816406e+00,-5.595478534698486328e+00,3.595342397689819336e+00,-1.070324897766113281e+01,-1.293487429618835449e+00,-6.532362461090087891e+00,4.733623027801513672e+00,7.687586307525634766e+00,2.098474979400634766e+00,-2.683134555816650391e+00,2.714890956878662109e+00,-6.926971487700939178e-03
8.592133522033691406e+00,-1.822603821754455566e+00,8.426365852355957031e+00,4.287952423095703125e+00,-4.420080184936523438e-01,1.270332050323486328e+01,1.759046173095703125e+01,2.465604543685913086e-01,5.192756056785583496e-01,-9.191994667053222656e+00,-4.046973228454589844e+00,4.379652500152587891e+00,-8.281322479248046875e+00,9.646625071763992310e-02,-4.986070632934570312e+00,6.531691551208496094e+00,8.916887283325195312e+00,4.244952201843261719e+00,-6.393431425094604492e-01,2.740126371383666992e+00,-5.573838017880916595e-03
8.669773101806640625e+00,-1.187842130661010742e+00,8.744445800781250000e+00,5.031808853149414062e+00,-3.770789504051208496e-02,1.371703147888183594e+01,1.901297569274902344e+01,1.404497861862182617e+00,1.472392320632934570e+00,-8.822832107543945312e+00,-2.649906396865844727e+00,4.803870201110839844e+00,-5.870895385742187500e+00,1.154969453811645508e+00,-3.833350181579589844e+00,7.648818016052246094e+00,9.925799369812011719e+00,6.062068939208984375e+00,1.138145685195922852e+00,2.690302610397338867e+00,-3.692982485517859459e-03
8.617543220520019531e+00,-5.860879421234130859e-01,8.768432617187500000e+00,5.483844757080078125e+00,3.371290564537048340e-01,1.457883739471435547e+01,1.993773078918457031e+01,2.554382801055908203e+00,1.933359146118164062e+00,-8.248752593994140625e+00,-1.459196209907531738e+00,4.931135654449462891e+00,-3.640136241912841797e+00,1.927844882011413574e+00,-3.296511888504028320e+00,7.997492790222167969e+00,1.066559505462646484e+01,7.472181797027587891e+00,2.610830545425415039e+00,2.529184579849243164e+00,-1.094966195523738861e-03
8.374744415283203125e+00,-1.011300086975097656e-01,8.500410079956054688e+00,5.591609001159667969e+00,6.260317564010620117e-01,1.510341548919677734e+01,2.042450904846191406e+01,3.607638597488403320e+00,1.903531908988952637e+00,-7.526068687438964844e+00,-4.640255272388458252e-01,4.865036487579345703e+00,-1.706907272338867188e+00,2.557142496109008789e+00,-3.428251266479492188e+00,7.722655296325683594e+00,1.110858631134033203e+01,8.440225601196289062e+00,3.801170349121093750e+00,2.275536537170410156e+00,2.193148015066981316e-03
7.922318935394287109e+00,2.264070510864257812e-01,7.952894687652587891e+00,5.372266292572021484e+00,7.692555189132690430e-01,1.517531681060791016e+01,2.057456970214843750e+01,4.451531887054443359e+00,1.465613365173339844e+00,-6.695452213287353516e+00,3.805382549762725830e-01,4.701268672943115234e+00,-1.157663837075233459e-01,3.189495086669921875e+00,-4.072127819061279297e+00,7.121020317077636719e+00,1.124259185791015625e+01,8.974966049194335938e+00,4.763709545135498047e+00,1.983712196350097656e+00,5.954858846962451935e-03
7.271560668945312500e+00,3.914451003074645996e-01,7.147785663604736328e+00,4.902111053466796875e+00,7.283344268798828125e-01,1.477327632904052734e+01,2.047818946838378906e+01,4.986212253570556641e+00,7.362011671066284180e-01,-5.811651229858398438e+00,1.097793459892272949e+00,4.477321147918701172e+00,1.141910433769226074e+00,3.907383441925048828e+00,-4.926787853240966797e+00,6.497507572174072266e+00,1.105432033538818359e+01,9.100198745727539062e+00,5.541761875152587891e+00,1.708711266517639160e+00,9.865414351224899292e-03
6.452113151550292969e+00,3.889060616493225098e-01,6.100726604461669922e+00,4.269832611083984375e+00,4.721685647964477539e-01,1.395602798461914062e+01,2.015367126464843750e+01,5.150481700897216797e+00,-1.897999048233032227e-01,-4.970084667205810547e+00,1.664441585540771484e+00,4.147812366485595703e+00,2.107806205749511719e+00,4.677203655242919922e+00,-5.666175365447998047e+00,6.035342693328857422e+00,1.051830101013183594e+01,8.862257957458496094e+00,6.140140533447265625e+00,1.471886992454528809e+00,1.366771943867206573e-02
5.509854793548583984e+00,1.993238776922225952e-01,4.851347923278808594e+00,3.541234493255615234e+00,7.305274717509746552e-03,1.283497142791748047e+01,1.956197357177734375e+01,4.968496799468994141e+00,-1.248667836189270020e+00,-4.289636135101318359e+00,2.029725790023803711e+00,3.630858421325683594e+00,2.836540222167968750e+00,5.376762866973876953e+00,-6.030106067657470703e+00,5.765974044799804688e+00,9.614598274230957031e+00,8.333778381347656250e+00,6.546010971069335938e+00,1.266121506690979004e+00,1.722646132111549377e-02
4.516777992248535156e+00,-2.111553698778152466e-01,3.479950904846191406e+00,2.739204406738281250e+00,-6.146948933601379395e-01,1.153871726989746094e+01,1.864453697204589844e+01,4.564265727996826172e+00,-2.379392385482788086e+00,-3.826618194580078125e+00,2.155370235443115234e+00,2.869239091873168945e+00,3.384168624877929688e+00,5.860955715179443359e+00,-5.903306484222412109e+00,5.605993747711181641e+00,8.368685722351074219e+00,7.636235713958740234e+00,6.740123271942138672e+00,1.077826857566833496e+00,2.052810601890087128e-02
3.564638376235961914e+00,-8.704612255096435547e-01,2.113768577575683594e+00,1.859927535057067871e+00,-1.308716177940368652e+00,1.018777751922607422e+01,1.739404296875000000e+01,4.124603748321533203e+00,-3.497915029525756836e+00,-3.535667657852172852e+00,2.054688453674316406e+00,1.877752900123596191e+00,3.796686410903930664e+00,6.028972148895263672e+00,-5.326946258544921875e+00,5.437809467315673828e+00,6.875804424285888672e+00,6.928674697875976562e+00,6.716059684753417969e+00,9.024732708930969238e-01,2.372150123119354248e-02
2.762836456298828125e+00,-1.765898466110229492e+00,9.040192961692810059e-01,8.995894193649291992e-01,-1.969182133674621582e+00,8.877346038818359375e+00,1.589222908020019531e+01,3.823443412780761719e+00,-4.472724437713623047e+00,-3.277566432952880859e+00,1.794246554374694824e+00,7.372971177101135254e-01,4.095654487609863281e+00,5.848736286163330078e+00,-4.459112644195556641e+00,5.152032852172851562e+00,5.296540737152099609e+00,6.357616901397705078e+00,6.486654281616210938e+00,7.523551583290100098e-01,2.703667804598808289e-02
2.213009119033813477e+00,-2.829759120941162109e+00,-1.685021631419658661e-02,-1.246440559625625610e-01,-2.497882366180419922e+00,7.677298069000244141e+00,1.430013561248779297e+01,3.733256340026855469e+00,-5.156039714813232422e+00,-2.891196727752685547e+00,1.468070149421691895e+00,-4.475536048412322998e-01,4.278197288513183594e+00,5.346214771270751953e+00,-3.523762464523315430e+00,4.677561759948730469e+00,3.812519550323486328e+00,5.998200893402099609e+00,6.063137054443359375e+00,6.410606503486633301e-01,3.070366941392421722e-02
1.965975165367126465e+00,-3.938476324081420898e+00,-5.758377909660339355e-01,-1.153645873069763184e+00,-2.829342842102050781e+00,6.652447223663330078e+00,1.281662178039550781e+01,3.792844295501708984e+00,-5.423129558563232422e+00,-2.312424421310424805e+00,1.157703399658203125e+00,-1.587022781372070312e+00,4.314130783081054688e+00,4.558064937591552734e+00,-2.710271120071411133e+00,3.976109981536865234e+00,2.589863538742065430e+00,5.827885150909423828e+00,5.467967033386230469e+00,5.685898661613464355e-01,3.488485142588615417e-02
2.022439956665039062e+00,-4.956634044647216797e+00,-7.687719464302062988e-01,-2.102540016174316406e+00,-2.934919357299804688e+00,5.858491897583007812e+00,1.161614704132080078e+01,3.825053930282592773e+00,-5.225184917449951172e+00,-1.633539915084838867e+00,9.155673384666442871e-01,-2.633755922317504883e+00,4.200580596923828125e+00,3.524000406265258789e+00,-2.124030590057373047e+00,3.054514646530151367e+00,1.733782887458801270e+00,5.750241279602050781e+00,4.746062755584716797e+00,5.097072720527648926e-01,3.959375619888305664e-02
2.319586753845214844e+00,-5.780131816864013672e+00,-6.509256958961486816e-01,-2.888357877731323242e+00,-2.838345527648925781e+00,5.332901477813720703e+00,1.079509067535400391e+01,3.623743534088134766e+00,-4.609658718109130859e+00,-1.093873739242553711e+00,7.682887315750122070e-01,-3.582820415496826172e+00,3.951919794082641602e+00,2.283734083175659180e+00,-1.769980669021606445e+00,1.977041006088256836e+00,1.266427040100097656e+00,5.653812408447265625e+00,3.984052896499633789e+00,4.184716939926147461e-01,4.468153789639472961e-02
2.743779420852661133e+00,-6.370882987976074219e+00,-3.182446360588073730e-01,-3.457694292068481445e+00,-2.600184917449951172e+00,5.085803031921386719e+00,1.035345268249511719e+01,3.045580148696899414e+00,-3.705349922180175781e+00,-9.749907255172729492e-01,7.291808724403381348e-01,-4.428296566009521484e+00,3.632829189300537109e+00,8.861432671546936035e-01,-1.572371482849121094e+00,8.626489043235778809e-01,1.134637117385864258e+00,5.472226142883300781e+00,3.303858518600463867e+00,2.418240606784820557e-01,4.994522780179977417e-02
