Fp1,Fp2,F7,F3,Fz,F4,F8,T3,C3,Cz,C4,T4,T5,P3,Pz,P4,T6,O1,Oz,O2,A1
8.501839637756347656e-02,3.187671303749084473e-01,-4.766875803470611572e-01,-6.023592948913574219e-01,1.216179013252258301e+00,-1.854135245084762573e-01,3.443537354469299316e-01,1.921499073505401611e-01,1.208622083067893982e-01,-1.255972962826490402e-02,-3.572651743888854980e-01,3.102701902389526367e-01,-6.937344074249267578e-01,2.104040831327438354e-01,-4.748466610908508301e-01,-7.678987383842468262e-01,-4.258253052830696106e-02,4.478992223739624023e-01,-4.674183428287506104e-01,-3.314080238342285156e-01,-5.878502726554870605e-01
1.664322465658187866e-01,3.090179562568664551e-01,-3.016601204872131348e-01,-4.665400683879852295e-01,1.132347941398620605e+00,1.978054791688919067e-01,6.225306391716003418e-01,1.394210159778594971e-01,2.007802948355674744e-03,8.470726013183593750e-02,-4.639124274253845215e-01,2.970294654369354248e-01,-6.364181637763977051e-01,1.497874259948730469e-01,-1.668762266635894775e-01,-6.568173170089721680e-01,1.574837416410446167e-01,5.313266515731811523e-01,-5.442661643028259277e-01,-6.022179722785949707e-01,-4.158549010753631592e-01
1.009945198893547058e-01,2.596758604049682617e-01,-3.201252222061157227e-01,-4.537631571292877197e-01,1.150470495223999023e+00,1.396216750144958496e-01,3.010013401508331299e-01,-1.533483853563666344e-03,-1.275580842047929764e-02,3.251953125000000000e-01,-4.854015707969665527e-01,2.771231830120086670e-01,-3.762778639793395996e-01,1.608873009681701660e-01,-2.846153974533081055e-01,-5.778901576995849609e-01,2.028083056211471558e-01,5.345631241798400879e-01,-3.907083570957183838e-01,-5.857468843460083008e-01,-4.255267083644866943e-01
-1.159809306263923645e-01,-5.424810945987701416e-02,-3.741821050643920898e-01,-5.476171970367431641e-01,9.350261688232421875e-01,1.290889382362365723e-01,3.017696142196655273e-01,-3.946787863969802856e-02,7.856361567974090576e-02,1.506006270647048950e-01,-3.210463523864746094e-01,2.724463343620300293e-01,-4.009543359279632568e-01,3.646393073722720146e-03,-2.013968974351882935e-01,-6.333366036415100098e-01,4.949886202812194824e-01,4.663472473621368408e-01,-3.588141500949859619e-01,-4.845867753028869629e-01,-5.262538790702819824e-01
-3.633840084075927734e-01,1.040017232298851013e-01,-3.409121632575988770e-01,-4.469653964042663574e-01,9.126355648040771484e-01,1.122814565896987915e-01,4.014085829257965088e-01,-6.457996368408203125e-02,4.881574586033821106e-02,1.053566560149192810e-01,-3.427419662475585938e-01,2.246291339397430420e-01,-2.690885066986083984e-01,9.203334152698516846e-02,-2.052321285009384155e-01,-5.520928502082824707e-01,3.848940730094909668e-01,4.490631818771362305e-01,-2.319750189781188965e-01,-5.931197404861450195e-01,-6.000301837921142578e-01
-7.413528114557266235e-02,1.577257737517356873e-02,-9.176835417747497559e-02,-3.119335770606994629e-01,7.511925101280212402e-01,3.790587484836578369e-01,5.708233714103698730e-01,-2.371586859226226807e-01,3.352347016334533691e-02,2.221173346042633057e-01,-3.571544289588928223e-01,9.398411214351654053e-02,1.523567922413349152e-02,7.590447366237640381e-02,-2.208492904901504517e-01,-5.720658302307128906e-01,5.257377028465270996e-01,3.996709883213043213e-01,7.873364537954330444e-02,-7.165911197662353516e-01,-6.485655903816223145e-01
-3.758307099342346191e-01,8.778946474194526672e-03,-1.716184914112091064e-01,-3.741251826286315918e-01,9.592840671539306641e-01,4.531310796737670898e-01,5.251019597053527832e-01,-1.260542720556259155e-01,2.789365313947200775e-02,1.026398763060569763e-01,-4.206218719482421875e-01,3.448785468935966492e-02,-1.576316542923450470e-02,-8.162257820367813110e-02,-6.540112942457199097e-02,-4.903188943862915039e-01,4.718530774116516113e-01,2.086976617574691772e-01,-5.154000222682952881e-02,-6.733966469764709473e-01,-5.543884038925170898e-01
-5.390203595161437988e-01,-7.239458709955215454e-02,-1.202611103653907776e-01,-2.542059719562530518e-01,9.107324481010437012e-01,3.824147880077362061e-01,3.959034085273742676e-01,-1.159552186727523804e-01,7.448291406035423279e-03,2.158775776624679565e-01,-2.764562964439392090e-01,-1.562116891145706177e-01,1.795038133859634399e-01,-6.117668375372886658e-02,3.230163082480430603e-02,-6.977302432060241699e-01,6.545062661170959473e-01,1.600629240274429321e-01,1.674341112375259399e-01,-6.890267133712768555e-01,-3.477142155170440674e-01
-4.857588112354278564e-01,-9.961976110935211182e-02,-2.844799868762493134e-02,-2.829821109771728516e-01,9.590371847152709961e-01,3.075786828994750977e-01,4.646653532981872559e-01,-2.942744195461273193e-01,2.101067900657653809e-01,5.062800645828247070e-01,-1.439307481050491333e-01,-2.063297182321548462e-01,2.903080284595489502e-01,-2.879644334316253662e-01,2.184786051511764526e-01,-5.020835995674133301e-01,5.409492850303649902e-01,-4.707113653421401978e-02,1.364628076553344727e-01,-8.408240079879760742e-01,-5.316106677055358887e-01
-3.515022397041320801e-01,-2.708071172237396240e-01,-1.211400926113128662e-01,4.389313980937004089e-03,7.988713979721069336e-01,1.979165971279144287e-01,4.835726618766784668e-01,-4.194809496402740479e-01,1.440360695123672485e-01,3.503983616828918457e-01,-4.082847833633422852e-01,-1.949572861194610596e-01,2.173545360565185547e-01,-3.159883618354797363e-01,9.050268679857254028e-02,-5.887717008590698242e-01,7.753247618675231934e-01,-3.253118991851806641e-01,1.452191174030303955e-01,-6.529981493949890137e-01,-3.456579446792602539e-01
-4.105836451053619385e-01,2.787783509120345116e-03,1.568224430084228516e-01,5.206029862165451050e-02,5.077294111251831055e-01,1.871276646852493286e-01,3.739641010761260986e-01,-1.361560672521591187e-01,1.893201321363449097e-01,4.704698920249938965e-01,-2.750932574272155762e-01,-1.811254620552062988e-01,4.003233611583709717e-01,-3.796726465225219727e-01,-2.250022068619728088e-02,-5.517343878746032715e-01,6.946783065795898438e-01,-3.127575218677520752e-01,5.354965925216674805e-01,-5.628206133842468262e-01,-3.075831234455108643e-01
-6.756582260131835938e-01,-3.195395767688751221e-01,3.034820258617401123e-01,1.230707243084907532e-01,5.868850350379943848e-01,2.014106810092926025e-01,6.461737155914306641e-01,-1.193755045533180237e-01,1.850722283124923706e-01,6.515666246414184570e-01,-2.880811989307403564e-01,-1.948890388011932373e-01,3.422762155532836914e-01,-5.133131742477416992e-01,-1.893272101879119873e-01,-5.839625000953674316e-01,8.090000748634338379e-01,-2.553735971450805664e-01,6.608088612556457520e-01,-7.127283215522766113e-01,-1.887548267841339111e-01
-8.539483547210693359e-01,-4.173804074525833130e-02,3.018619418144226074e-01,8.868334814906120300e-03,5.553424358367919922e-01,9.725138545036315918e-02,4.362757802009582520e-01,-3.668951988220214844e-01,6.183113157749176025e-02,3.269795775413513184e-01,-6.634297966957092285e-02,-1.682412773370742798e-01,4.490174055099487305e-01,-5.042160153388977051e-01,-6.750218570232391357e-02,-5.176845192909240723e-01,5.887935161590576172e-01,-3.684999048709869385e-01,7.032060027122497559e-01,-5.796360969543457031e-01,-2.804414927959442139e-01
-8.107913136482238770e-01,-2.954212948679924011e-02,5.394356250762939453e-01,2.983031868934631348e-01,7.489587068557739258e-01,2.621028125286102295e-01,4.287895858287811279e-01,-4.871221780776977539e-01,1.441735029220581055e-01,6.196563839912414551e-01,-5.910559371113777161e-02,-2.901636362075805664e-01,5.604116320610046387e-01,-7.291071414947509766e-01,-6.223903968930244446e-02,-5.935032367706298828e-01,5.512459874153137207e-01,-3.372716605663299561e-01,6.524240374565124512e-01,-4.818666279315948486e-01,-3.037789650261402130e-02
-7.378148436546325684e-01,-7.878556102514266968e-02,5.196229219436645508e-01,4.560142159461975098e-01,4.064966142177581787e-01,4.256970807909965515e-02,3.157300949096679688e-01,-1.913109421730041504e-01,1.811966747045516968e-01,5.164510011672973633e-01,4.879584163427352905e-02,-2.409436255693435669e-01,4.793883562088012695e-01,-5.853168964385986328e-01,4.906208440661430359e-02,-6.232748627662658691e-01,5.433723330497741699e-01,-3.897603750228881836e-01,7.883335351943969727e-01,-6.074507236480712891e-01,1.731028854846954346e-01
-7.110787630081176758e-01,1.791181415319442749e-02,3.888013362884521484e-01,4.692321717739105225e-01,3.556669652462005615e-01,1.373368650674819946e-01,2.366856187582015991e-01,-2.195393443107604980e-01,3.735409080982208252e-01,6.328663825988769531e-01,3.477901220321655273e-02,-3.489829301834106445e-01,7.433651685714721680e-01,-8.768748641014099121e-01,-2.020401209592819214e-01,-5.030916929244995117e-01,5.117670893669128418e-01,-2.935403287410736084e-01,7.230144739151000977e-01,-4.262834787368774414e-01,3.244163393974304199e-01
-6.793371438980102539e-01,-1.207951083779335022e-01,7.405270934104919434e-01,3.490079343318939209e-01,2.376573234796524048e-01,1.813655644655227661e-01,1.467768400907516479e-01,-2.668022811412811279e-01,4.310279190540313721e-01,5.544645190238952637e-01,1.327316612005233765e-01,-3.158566653728485107e-01,5.734224319458007812e-01,-9.291917085647583008e-01,-1.157177891582250595e-02,-4.334896802902221680e-01,6.947786211967468262e-01,-4.343114793300628662e-01,7.953119277954101562e-01,-5.614129304885864258e-01,2.199834734201431274e-01
-5.495969653129577637e-01,-2.618951499462127686e-01,6.717733144760131836e-01,3.254591226577758789e-01,4.389765858650207520e-01,6.762808561325073242e-02,-4.517880082130432129e-02,-8.056358993053436279e-02,3.523265421390533447e-01,3.071325421333312988e-01,9.042676538228988647e-02,-2.625217437744140625e-01,5.545235872268676758e-01,-8.371793031692504883e-01,-1.576739251613616943e-01,-2.779086232185363770e-01,5.687243342399597168e-01,-2.635892331600189209e-01,7.985786795616149902e-01,-6.910261511802673340e-01,3.184517920017242432e-01
-3.627696335315704346e-01,-1.204471215605735779e-01,8.768537044525146484e-01,4.038486182689666748e-01,1.728369742631912231e-01,8.735625306144356728e-04,-1.444543749094009399e-01,-1.631725877523422241e-01,7.476331591606140137e-01,5.911731719970703125e-01,3.897461295127868652e-02,-1.648543030023574829e-01,6.886222958564758301e-01,-8.499988913536071777e-01,-2.493346631526947021e-01,-2.741484045982360840e-01,7.473762631416320801e-01,-4.683347046375274658e-01,9.614034295082092285e-01,-7.672791481018066406e-01,4.101904630661010742e-01
-4.397345185279846191e-01,-1.027016788721084595e-01,7.281038761138916016e-01,6.453130841255187988e-01,2.853696644306182861e-01,1.314938515424728394e-01,-2.930584847927093506e-01,-7.220749557018280029e-02,4.806409180164337158e-01,6.090858578681945801e-01,3.268794715404510498e-02,-1.703377366065979004e-01,7.434253692626953125e-01,-7.001450657844543457e-01,-1.789578497409820557e-01,-2.916730642318725586e-01,6.450818181037902832e-01,-4.376092851161956787e-01,6.022543907165527344e-01,-7.493765950202941895e-01,3.410916924476623535e-01
-3.930612504482269287e-01,-2.122420072555541992e-01,8.191009759902954102e-01,7.913224101066589355e-01,3.378385305404663086e-01,1.255688816308975220e-01,-2.880611121654510498e-01,2.334186434745788574e-02,8.011503815650939941e-01,6.326990723609924316e-01,1.014136299490928650e-01,-1.653229147195816040e-01,6.597557663917541504e-01,-7.962377071380615234e-01,-2.543143630027770996e-01,-1.546021401882171631e-01,6.287831068038940430e-01,-6.643118262290954590e-01,6.149216890335083008e-01,-7.481986880302429199e-01,6.210917234420776367e-01
-2.034473121166229248e-01,-1.514608711004257202e-01,5.859322547912597656e-01,6.545441150665283203e-01,4.173600375652313232e-01,7.301172614097595215e-02,-3.985846638679504395e-01,-1.504114866256713867e-01,7.429311871528625488e-01,5.580422878265380859e-01,6.781333684921264648e-02,-3.619379699230194092e-01,6.580442786216735840e-01,-6.163868308067321777e-01,-4.764810204505920410e-01,-1.015440896153450012e-01,6.252689957618713379e-01,-5.785186886787414551e-01,8.175911903381347656e-01,-5.261797904968261719e-01,3.677822053432464600e-01
-3.113757371902465820e-01,-1.644600331783294678e-01,4.778979420661926270e-01,5.885809659957885742e-01,1.713391542434692383e-01,-9.833496809005737305e-02,-5.027444958686828613e-01,-9.969598799943923950e-02,6.044639348983764648e-01,1.924079656600952148e-01,-1.348744928836822510e-01,-1.991974711418151855e-01,4.302954077720642090e-01,-7.268976569175720215e-01,-4.974882304668426514e-01,-3.413311541080474854e-01,4.469600617885589600e-01,-7.296345233917236328e-01,5.698809027671813965e-01,-8.817149400711059570e-01,3.551541268825531006e-01
-1.690788120031356812e-01,-3.469166159629821777e-01,5.381909012794494629e-01,5.206954479217529297e-01,3.336803317070007324e-01,-1.135880723595619202e-01,-5.236312747001647949e-01,-1.144912838935852051e-01,8.927802443504333496e-01,2.658158838748931885e-01,-8.238107897341251373e-03,-2.651947140693664551e-01,5.757557749748229980e-01,-5.668312907218933105e-01,-5.799474716186523438e-01,6.053847074508666992e-02,5.141319632530212402e-01,-7.021824717521667480e-01,5.419680476188659668e-01,-7.968335747718811035e-01,6.084988713264465332e-01
-2.036150097846984863e-01,-2.997637391090393066e-01,3.395627439022064209e-01,5.633933544158935547e-01,-2.809743024408817291e-02,-4.685389623045921326e-02,-5.268513560295104980e-01,-1.571145206689834595e-01,7.942678332328796387e-01,5.845244601368904114e-02,3.974858846049755812e-04,-3.058747947216033936e-01,4.649600386619567871e-01,-5.510175824165344238e-01,-7.890493869781494141e-01,7.007506676018238068e-03,3.792362213134765625e-01,-6.355951428413391113e-01,4.037776887416839600e-01,-4.787602722644805908e-01,2.973022758960723877e-01
1.281887441873550415e-01,-6.824440509080886841e-02,3.687684535980224609e-01,4.273844063282012939e-01,-3.855440765619277954e-02,-1.359216719865798950e-01,-5.660790801048278809e-01,-1.902246475219726562e-01,8.542063832283020020e-01,4.106801748275756836e-02,-3.580824136734008789e-01,-2.745823860168457031e-01,3.880293965339660645e-01,-7.038818597793579102e-01,-6.727568507194519043e-01,-2.744413353502750397e-02,3.307277858257293701e-01,-9.287558794021606445e-01,3.453796803951263428e-01,-5.218418240547180176e-01,4.484046399593353271e-01
9.710805863142013550e-02,-2.256195247173309326e-01,2.049993872642517090e-01,4.413214623928070068e-01,5.672541260719299316e-02,-1.727832108736038208e-01,-5.707319974899291992e-01,-2.962064743041992188e-01,8.048599362373352051e-01,-1.639696508646011353e-01,-2.008855110034346581e-03,-2.607041597366333008e-01,4.553941786289215088e-01,-6.324495077133178711e-01,-7.942775487899780273e-01,2.201636880636215210e-01,2.181434333324432373e-01,-1.032383799552917480e+00,1.514621078968048096e-01,-4.163618087768554688e-01,3.857902884483337402e-01
1.266292929649353027e-01,-1.601570546627044678e-01,1.462549269199371338e-01,5.645031929016113281e-01,-1.555930376052856445e-01,-3.407969474792480469e-01,-3.851439952850341797e-01,-2.193318307399749756e-01,8.695051670074462891e-01,-1.211676374077796936e-01,-6.559891998767852783e-02,-3.597587347030639648e-01,5.035247206687927246e-01,-4.398650228977203369e-01,-8.452798128128051758e-01,2.875716686248779297e-01,4.728208184242248535e-01,-8.406217098236083984e-01,3.283287882804870605e-01,-2.998718321323394775e-01,1.046282649040222168e-01
1.708397716283798218e-01,6.539171934127807617e-02,-1.908677071332931519e-02,5.815898776054382324e-01,-3.092948198318481445e-01,-1.810670830309391022e-02,-3.762902617454528809e-01,-1.316994577646255493e-01,1.012519121170043945e+00,-1.079936027526855469e-01,-1.017110049724578857e-01,-2.530826926231384277e-01,5.914418697357177734e-01,-3.510256409645080566e-01,-8.749462962150573730e-01,2.275801897048950195e-01,2.137122750282287598e-01,-8.940674662590026855e-01,4.149723351001739502e-01,-1.599665731191635132e-01,2.623572349548339844e-01
3.474756479263305664e-01,6.061387807130813599e-02,3.197017610073089600e-01,4.397833943367004395e-01,-2.713484466075897217e-01,-2.874699234962463379e-01,-3.604398071765899658e-01,1.882801651954650879e-01,8.442906141281127930e-01,-1.852670609951019287e-01,6.248250976204872131e-02,-1.170471459627151489e-01,4.541126787662506104e-01,-1.870231181383132935e-01,-9.496732950210571289e-01,2.535421252250671387e-01,2.578830122947692871e-01,-8.503490686416625977e-01,2.960093915462493896e-01,-6.420467048883438110e-02,2.221438139677047729e-01
2.204002887010574341e-01,1.456482708454132080e-01,2.086208313703536987e-01,6.189288496971130371e-01,-4.485538303852081299e-01,-1.141417622566223145e-01,-6.014900207519531250e-01,1.092593222856521606e-01,7.579352855682373047e-01,-3.569491207599639893e-01,-1.991316908970475197e-03,-2.887305319309234619e-01,3.598086833953857422e-01,-2.103827446699142456e-01,-7.837938070297241211e-01,4.022904038429260254e-01,1.732043474912643433e-01,-8.659390807151794434e-01,4.600408673286437988e-02,-6.229331344366073608e-02,1.686444431543350220e-01
3.706885874271392822e-01,4.012427628040313721e-01,1.839608848094940186e-01,6.450534462928771973e-01,-3.903505802154541016e-01,-2.123057842254638672e-01,-4.243597984313964844e-01,2.713048160076141357e-01,9.972606301307678223e-01,-4.200753569602966309e-01,9.927362948656082153e-02,-2.993561923503875732e-01,6.720976829528808594e-01,-4.522849339991807938e-03,-9.041129946708679199e-01,1.949757486581802368e-01,2.838133573532104492e-01,-7.907903790473937988e-01,4.116151928901672363e-01,8.835671842098236084e-02,1.219769492745399475e-01
3.953888714313507080e-01,1.132189556956291199e-01,1.134579405188560486e-01,3.623149991035461426e-01,-4.004614055156707764e-01,-2.754980623722076416e-01,-4.413790106773376465e-01,6.033220887184143066e-02,6.862252354621887207e-01,-2.736721038818359375e-01,-1.764015294611454010e-02,-6.682125478982925415e-02,5.624133348464965820e-01,-5.902354791760444641e-02,-9.290612936019897461e-01,2.802387177944183350e-01,1.823319494724273682e-01,-8.197963237762451172e-01,1.462532281875610352e-01,1.970552057027816772e-01,2.327192127704620361e-01
2.116120755672454834e-01,1.837730854749679565e-01,1.086454167962074280e-01,4.142531752586364746e-01,-4.533157646656036377e-01,-2.590693831443786621e-01,-7.318400740623474121e-01,4.213493466377258301e-01,7.214903831481933594e-01,-4.216922819614410400e-01,2.879833243787288666e-02,-1.102937087416648865e-01,6.731530427932739258e-01,-5.080890655517578125e-02,-8.120947480201721191e-01,1.374873984605073929e-02,1.524235121905803680e-02,-1.116153359413146973e+00,3.080078065395355225e-01,1.928246766328811646e-01,1.713467203080654144e-02
2.961454987525939941e-01,1.316088885068893433e-01,1.579908132553100586e-01,5.389648079872131348e-01,-4.784550070762634277e-01,-3.785949945449829102e-01,-5.096591711044311523e-01,5.813336372375488281e-01,6.111400723457336426e-01,-5.426632165908813477e-01,3.198811039328575134e-02,-1.305856406688690186e-01,5.168080925941467285e-01,3.669815957546234131e-01,-7.785550355911254883e-01,3.543550074100494385e-01,7.225635647773742676e-02,-7.408013343811035156e-01,2.269620746374130249e-01,2.310919165611267090e-01,2.351165115833282471e-01
4.613150358200073242e-01,2.898006737232208252e-01,-8.556488156318664551e-02,5.524274706840515137e-01,-3.842441141605377197e-01,-6.044654846191406250e-01,-7.982589602470397949e-01,5.205830931663513184e-01,4.887215197086334229e-01,-2.831144034862518311e-01,1.424249708652496338e-01,-8.443159610033035278e-02,6.298192739486694336e-01,1.997916996479034424e-01,-6.365761160850524902e-01,-5.980755016207695007e-02,1.424898207187652588e-01,-8.481076359748840332e-01,-7.389503065496683121e-03,4.517895877361297607e-01,2.799446880817413330e-01
5.550687909126281738e-01,2.796540260314941406e-01,-9.952875971794128418e-02,5.572047233581542969e-01,-3.750302493572235107e-01,-3.997422754764556885e-01,-9.603874087333679199e-01,6.117628216743469238e-01,5.662388205528259277e-01,-3.739107251167297363e-01,-2.122946232557296753e-01,-1.164517402648925781e-01,3.450729250907897949e-01,-1.576188020408153534e-02,-6.152606010437011719e-01,-1.119843125343322754e-01,-1.041122451424598694e-01,-7.753247022628784180e-01,9.535818547010421753e-02,4.024681448936462402e-01,7.010336965322494507e-02
3.777654469013214111e-01,3.647113442420959473e-01,-1.790005415678024292e-01,4.129869341850280762e-01,-2.474080920219421387e-01,-5.943073630332946777e-01,-7.559194564819335938e-01,5.581352114677429199e-01,4.435618519783020020e-01,-4.247459173202514648e-01,-1.375968456268310547e-01,1.142808198928833008e-01,3.734833598136901855e-01,1.706461757421493530e-01,-5.166813135147094727e-01,-1.127279400825500488e-01,-3.469294607639312744e-01,-8.059342503547668457e-01,1.392899751663208008e-01,3.726064264774322510e-01,2.117179036140441895e-01
3.219065964221954346e-01,5.102261900901794434e-01,-2.649855427443981171e-02,3.501076698303222656e-01,-4.257384538650512695e-01,-6.139112114906311035e-01,-7.393308281898498535e-01,7.575674057006835938e-01,3.156001567840576172e-01,-3.688643574714660645e-01,-1.039418876171112061e-01,-6.913444399833679199e-02,3.653264641761779785e-01,-8.582579903304576874e-03,-5.302677750587463379e-01,-7.404496520757675171e-02,-3.702773451805114746e-01,-8.052802681922912598e-01,1.186950411647558212e-02,3.937310874462127686e-01,-1.429079473018646240e-01
5.137313008308410645e-01,5.496045351028442383e-01,-1.780810803174972534e-01,2.328503727912902832e-01,-4.003247022628784180e-01,-5.650105476379394531e-01,-7.599295377731323242e-01,6.478440165519714355e-01,-4.848186857998371124e-03,-4.826446473598480225e-01,-9.353033453226089478e-02,2.254006266593933105e-01,2.690841853618621826e-01,4.736603796482086182e-02,-6.056391000747680664e-01,-1.494877934455871582e-01,-3.193661868572235107e-01,-6.467740535736083984e-01,-1.164887994527816772e-01,3.689792752265930176e-01,-1.224656403064727783e-01
3.437971174716949463e-01,3.225199282169342041e-01,-4.631531238555908203e-01,1.534515023231506348e-01,-2.881983518600463867e-01,-3.904170691967010498e-01,-6.465066671371459961e-01,7.780815958976745605e-01,4.532830044627189636e-02,-6.315072178840637207e-01,-1.559510231018066406e-01,1.411309391260147095e-01,1.941084116697311401e-01,5.412162095308303833e-02,-5.982133150100708008e-01,-3.132057189941406250e-01,-4.603255391120910645e-01,-5.742204189300537109e-01,-6.888838112354278564e-02,3.551147878170013428e-01,-1.791261434555053711e-01
5.180400013923645020e-01,3.176657259464263916e-01,-4.419339597225189209e-01,3.684220314025878906e-01,-2.902609705924987793e-01,-6.179139614105224609e-01,-4.366909563541412354e-01,8.836526870727539062e-01,4.169622436165809631e-02,-6.959862112998962402e-01,-2.251628935337066650e-01,1.483533382415771484e-01,2.555512487888336182e-01,-1.264302283525466919e-01,-7.432664632797241211e-01,-1.800777614116668701e-01,-3.364591300487518311e-01,-4.812288880348205566e-01,-7.426634430885314941e-02,3.976086974143981934e-01,-1.487440615892410278e-01
5.147979259490966797e-01,3.450332880020141602e-01,-3.778153955936431885e-01,2.551887929439544678e-01,-1.250742673873901367e-01,-7.574700713157653809e-01,-7.752460837364196777e-01,9.762914776802062988e-01,-3.741385042667388916e-02,-4.825208783149719238e-01,-3.344853520393371582e-01,2.020849436521530151e-01,1.348146349191665649e-01,-3.511310368776321411e-02,-7.310023903846740723e-01,-5.286480784416198730e-01,-5.352930426597595215e-01,-3.932535648345947266e-01,-2.106834352016448975e-01,6.041885614395141602e-01,-3.094001710414886475e-01
6.098735928535461426e-01,2.264956831932067871e-01,-4.709970355033874512e-01,-1.637223921716213226e-02,-5.101421847939491272e-02,-6.733031272888183594e-01,-7.775400876998901367e-01,8.265795111656188965e-01,-1.078730672597885132e-01,-4.780478775501251221e-01,-2.120343893766403198e-01,4.964307844638824463e-01,4.700487479567527771e-02,-3.984291851520538330e-02,-6.772500276565551758e-01,-3.916597068309783936e-01,-4.229730665683746338e-01,-3.056426942348480225e-01,-2.853110134601593018e-01,5.446408316493034363e-02,-2.095767110586166382e-01
4.740043580532073975e-01,2.368380576372146606e-01,-5.672157406806945801e-01,-1.302111446857452393e-01,1.140024662017822266e-01,-4.131729602813720703e-01,-6.693964004516601562e-01,7.358523011207580566e-01,-5.631414055824279785e-02,-4.273376464843750000e-01,-1.977370381355285645e-01,3.552888035774230957e-01,3.547016531229019165e-02,4.329547286033630371e-02,-5.454666614532470703e-01,-3.567201793193817139e-01,-4.230220615863800049e-01,-3.736576810479164124e-02,-1.099733933806419373e-01,1.020825132727622986e-01,-2.493335306644439697e-01
5.423021912574768066e-01,1.950666010379791260e-01,-5.371816754341125488e-01,-1.876015663146972656e-01,6.753598153591156006e-02,-2.728969156742095947e-01,-6.967325210571289062e-01,7.064462900161743164e-01,-6.483957171440124512e-02,-5.469394922256469727e-01,-4.722515046596527100e-01,2.765462100505828857e-01,-4.053134936839342117e-03,1.602755300700664520e-02,-5.782777667045593262e-01,-3.678545057773590088e-01,-3.168298006057739258e-01,1.259980499744415283e-01,-4.399173855781555176e-01,7.220765203237533569e-02,-8.006617426872253418e-02
6.861675977706909180e-01,6.728623807430267334e-02,-6.689146161079406738e-01,-1.215935796499252319e-01,2.089607715606689453e-01,-2.738594412803649902e-01,-5.396658182144165039e-01,6.385873556137084961e-01,3.003307245671749115e-02,-4.534537196159362793e-01,-2.354428470134735107e-01,5.065823793411254883e-01,-2.022950351238250732e-02,1.097106784582138062e-01,-7.013546824455261230e-01,-4.568326771259307861e-01,-2.809948325157165527e-01,1.122244596481323242e-01,-1.214263737201690674e-01,1.939201802015304565e-01,-3.053626120090484619e-01
7.409249544143676758e-01,-2.027660794556140900e-02,-7.060038447380065918e-01,-2.614833116531372070e-01,1.559135764837265015e-01,-1.976706981658935547e-01,-7.424049973487854004e-01,6.733599901199340820e-01,-9.067820012569427490e-02,-4.693566560745239258e-01,-3.165479004383087158e-01,3.839608132839202881e-01,-1.911964118480682373e-01,-1.358057111501693726e-01,-3.708676695823669434e-01,-6.026220917701721191e-01,-3.997586071491241455e-01,1.164641007781028748e-01,-4.368090070784091949e-03,-3.076395718380808830e-03,-4.623461067676544189e-01
7.564136981964111328e-01,-1.076868101954460144e-01,-8.494948744773864746e-01,-1.562913805246353149e-01,2.103304564952850342e-01,-1.125526130199432373e-01,-5.822739601135253906e-01,6.297340989112854004e-01,7.961026392877101898e-03,-5.554046630859375000e-01,-4.703279733657836914e-01,3.717652857303619385e-01,-1.763350516557693481e-01,1.632853746414184570e-01,-3.270377516746520996e-01,-4.628036320209503174e-01,-1.725994199514389038e-01,1.349338889122009277e-01,-3.154482245445251465e-01,-1.442206203937530518e-01,-4.685213565826416016e-01
6.844102740287780762e-01,-7.137237489223480225e-02,-6.618638038635253906e-01,-3.189784586429595947e-01,2.890470027923583984e-01,-1.366151720285415649e-01,-3.336011469364166260e-01,6.782556772232055664e-01,9.562391042709350586e-02,-6.796465516090393066e-01,-6.937148571014404297e-01,3.825624287128448486e-01,-1.066663935780525208e-01,-8.046620525419712067e-03,-2.893049418926239014e-01,-2.079227119684219360e-01,-3.008074760437011719e-01,1.145317927002906799e-01,-5.932163000106811523e-01,-5.551873147487640381e-02,-4.099571704864501953e-01
5.716355443000793457e-01,-3.292470574378967285e-01,-9.225313663482666016e-01,-5.280120968818664551e-01,2.583536207675933838e-01,5.940100550651550293e-02,-4.571876525878906250e-01,4.392046332359313965e-01,-8.863981813192367554e-02,-3.511598706245422363e-01,-6.732192039489746094e-01,4.529764950275421143e-01,1.778326928615570068e-01,2.454453855752944946e-01,-3.791932165622711182e-01,-2.406782209873199463e-01,-7.551646232604980469e-02,5.577281117439270020e-02,-1.757118552923202515e-01,-2.384352236986160278e-01,-4.609946906566619873e-01
3.678055703639984131e-01,-2.108285725116729736e-01,-6.745066046714782715e-01,-5.442387461662292480e-01,7.177819609642028809e-01,-7.939815521240234375e-02,-2.293331772089004517e-01,3.393071591854095459e-01,-8.441067487001419067e-02,-4.993272423744201660e-01,-4.372324049472808838e-01,2.742813825607299805e-01,-1.595052182674407959e-01,7.678583264350891113e-02,-7.581961154937744141e-02,-4.572254419326782227e-01,5.369418486952781677e-02,1.080667376518249512e-01,-1.195197552442550659e-01,-3.864450156688690186e-01,-6.542367339134216309e-01
5.986945629119873047e-01,-3.723167777061462402e-01,-7.316389679908752441e-01,-6.533668637275695801e-01,6.516982913017272949e-01,1.209251284599304199e-01,-9.756722301244735718e-02,1.978279352188110352e-01,-1.290521118789911270e-02,-3.853088617324829102e-01,-5.122122168540954590e-01,2.016104161739349365e-01,-1.534607708454132080e-01,4.853679798543453217e-03,-9.598066657781600952e-02,-3.443017303943634033e-01,-1.014283224940299988e-01,4.933509603142738342e-02,-1.445104032754898071e-01,-5.075275301933288574e-01,-5.767844915390014648e-01
5.358883142471313477e-01,-2.531822323799133301e-01,-9.112865924835205078e-01,-6.324517726898193359e-01,4.299277663230895996e-01,1.125798150897026062e-01,3.508869186043739319e-02,1.996030211448669434e-01,9.678120911121368408e-02,-1.946924030780792236e-01,-6.790038943290710449e-01,1.900581568479537964e-01,-8.456167578697204590e-02,-1.538062542676925659e-01,-3.448882102966308594e-01,-3.915733993053436279e-01,2.267766185104846954e-02,-1.354623287916183472e-01,-1.437623649835586548e-01,-3.724766075611114502e-01,-8.033231496810913086e-01
5.046942234039306641e-01,-2.147439122200012207e-01,-7.537499070167541504e-01,-5.649827718734741211e-01,5.896151661872863770e-01,7.434959709644317627e-02,1.365485042333602905e-02,-9.986343793570995331e-03,-1.137999296188354492e-01,-1.932093650102615356e-01,-3.575550615787506104e-01,1.604588329792022705e-01,-4.824181273579597473e-02,1.109427437186241150e-01,-4.255907237529754639e-02,-1.040235310792922974e-01,8.599530905485153198e-02,1.551378890872001648e-02,-1.546725332736968994e-01,-3.312498629093170166e-01,-5.866541266441345215e-01
2.277101129293441772e-01,-1.509672105312347412e-01,-8.275964856147766113e-01,-5.719960331916809082e-01,3.248457312583923340e-01,1.034094020724296570e-01,1.050295084714889526e-01,1.073518842458724976e-01,-1.485041901469230652e-02,-3.638650774955749512e-01,-5.810261964797973633e-01,1.102632582187652588e-01,1.292856633663177490e-01,-4.030753299593925476e-02,-6.900021433830261230e-02,-4.027330279350280762e-01,2.317384034395217896e-01,-3.737189248204231262e-02,-9.961450845003128052e-02,-4.293350875377655029e-01,-6.690197587013244629e-01
2.071443200111389160e-01,-3.099772930145263672e-01,-6.746282577514648438e-01,-4.723120927810668945e-01,2.949276566505432129e-01,2.352230995893478394e-01,1.899051666259765625e-01,-2.117156833410263062e-01,-4.325515404343605042e-02,-1.305375397205352783e-01,-5.579597949981689453e-01,-6.131651252508163452e-02,1.812022626399993896e-01,-2.415677718818187714e-02,2.111257314682006836e-01,-1.859148293733596802e-01,3.023392856121063232e-01,-6.406735628843307495e-02,-1.032924000173807144e-02,-6.053469181060791016e-01,-7.778593897819519043e-01
2.457045167684555054e-01,-1.974859833717346191e-01,-7.747207880020141602e-01,-3.779793977737426758e-01,3.316085040569305420e-01,7.658039778470993042e-02,2.339625060558319092e-01,-8.678940683603286743e-02,2.254804223775863647e-02,-2.853491529822349548e-02,-2.090930938720703125e-01,-4.521661624312400818e-02,-8.716658502817153931e-02,-1.613983958959579468e-01,4.312437474727630615e-01,1.319865696132183075e-02,3.960009217262268066e-01,-7.987786829471588135e-02,2.855836227536201477e-02,-3.982665240764617920e-01,-6.768145561218261719e-01
2.629503011703491211e-01,-2.665333449840545654e-01,-5.101114511489868164e-01,-1.945142000913619995e-01,2.892175912857055664e-01,1.499967277050018311e-01,3.707649409770965576e-01,-1.701540946960449219e-01,1.894002594053745270e-02,-1.639128923416137695e-01,-7.947423309087753296e-02,-3.935960233211517334e-01,1.362896114587783813e-01,-2.222092747688293457e-01,3.661153018474578857e-01,-1.809703409671783447e-01,5.955137014389038086e-01,-8.283453993499279022e-03,2.133046984672546387e-01,-5.654026269912719727e-01,-5.283140540122985840e-01
1.670909076929092407e-01,-9.168557822704315186e-02,-3.910776376724243164e-01,-1.312067359685897827e-01,1.478068381547927856e-01,2.569617703557014465e-02,2.590485215187072754e-01,-3.075933270156383514e-02,6.648574024438858032e-02,8.514306694269180298e-02,-1.213649660348892212e-01,-3.943472802639007568e-01,4.842478036880493164e-01,-1.599245071411132812e-01,3.905051946640014648e-01,-1.294967234134674072e-01,6.906078457832336426e-01,-2.653946280479431152e-01,2.095612287521362305e-01,-4.055772721767425537e-01,-4.061681628227233887e-01
1.507902592420578003e-01,-1.173130609095096588e-02,-2.877824604511260986e-01,-2.256900370121002197e-01,1.708032637834548950e-01,1.249213609844446182e-02,5.362988114356994629e-01,-1.016090512275695801e-01,2.674639597535133362e-02,1.446793526411056519e-01,-1.246417611837387085e-01,-2.352467179298400879e-01,3.449581563472747803e-01,-1.631160676479339600e-01,5.766651034355163574e-01,-1.027156785130500793e-01,4.029616415500640869e-01,-3.244436979293823242e-01,4.679096043109893799e-01,-5.329907536506652832e-01,-3.116610646247863770e-01
1.324618756771087646e-01,-1.529895663261413574e-01,-2.726674973964691162e-01,8.826882392168045044e-02,2.381443604826927185e-02,-1.745046079158782959e-01,3.557321131229400635e-01,4.049671441316604614e-02,-2.762889117002487183e-02,3.785658776760101318e-01,-1.924762278795242310e-01,-2.228500843048095703e-01,3.783618211746215820e-01,-1.938877403736114502e-01,5.893043279647827148e-01,-1.053889840841293335e-01,4.975421428680419922e-01,-1.450613588094711304e-01,2.742973864078521729e-01,-5.119761824607849121e-01,-3.947923481464385986e-01
9.041120111942291260e-02,-2.490315437316894531e-01,-2.581850886344909668e-01,5.415362492203712463e-02,1.310841143131256104e-01,-1.077979877591133118e-01,4.139095842838287354e-01,-3.080231547355651855e-01,7.179292151704430580e-04,3.497410416603088379e-01,-7.970001548528671265e-02,-1.077405065298080444e-01,4.762874543666839600e-01,-5.014044046401977539e-01,6.766093969345092773e-01,-1.949610412120819092e-01,5.019084215164184570e-01,-2.973324060440063477e-01,6.044058799743652344e-01,-5.706658959388732910e-01,-3.808860480785369873e-02
3.569150865077972412e-01,-1.218281313776969910e-01,-2.622317969799041748e-01,2.055391222238540649e-01,1.009591743350028992e-01,-2.871706783771514893e-01,3.141219019889831543e-01,5.110337398946285248e-03,-8.478938788175582886e-02,3.851250708103179932e-01,9.321718476712703705e-03,-3.036088049411773682e-01,4.743316769599914551e-01,-2.681474387645721436e-01,6.369273662567138672e-01,-2.105120420455932617e-01,4.388110637664794922e-01,-3.140868544578552246e-01,5.665467977523803711e-01,-7.673441767692565918e-01,1.541685611009597778e-01
2.145611941814422607e-01,-3.462060540914535522e-02,-1.764982193708419800e-01,2.448619306087493896e-01,2.830909192562103271e-01,-1.347161382436752319e-01,1.993855237960815430e-01,-2.093590050935745239e-01,-3.129348158836364746e-02,5.234790444374084473e-01,6.612103432416915894e-02,-6.011335924267768860e-02,5.178213715553283691e-01,-3.651866018772125244e-01,6.443690061569213867e-01,-3.621041774749755859e-01,4.724206328392028809e-01,-3.904365897178649902e-01,6.219901442527770996e-01,-7.153391838073730469e-01,-8.955183625221252441e-02
1.555495858192443848e-01,-1.743913441896438599e-01,1.073783189058303833e-01,2.849480509757995605e-01,1.351355463266372681e-01,-3.988551199436187744e-01,-1.197372451424598694e-01,3.288296982645988464e-02,1.326694041490554810e-01,5.009129047393798828e-01,2.427660226821899414e-01,-2.021585106849670410e-01,4.713466763496398926e-01,-2.457133829593658447e-01,5.616084337234497070e-01,4.276706650853157043e-02,4.793323278427124023e-01,-2.862061858177185059e-01,6.029243469238281250e-01,-7.901747226715087891e-01,9.231831878423690796e-02
1.041688174009323120e-01,-7.117611169815063477e-02,-7.801879197359085083e-02,3.919608891010284424e-01,-1.692316867411136627e-02,-4.260328710079193115e-01,2.832714468240737915e-03,1.166368052363395691e-01,-9.559861570596694946e-02,7.369480729103088379e-01,1.889937371015548706e-01,-2.190309017896652222e-01,4.107473194599151611e-01,-6.235890388488769531e-01,6.153970360755920410e-01,-9.065696597099304199e-02,5.457644462585449219e-01,-4.227709174156188965e-01,5.525415539741516113e-01,-7.178070545196533203e-01,1.041533648967742920e-01
1.995807886123657227e-01,-1.789354532957077026e-01,9.626505896449089050e-03,3.377656936645507812e-01,2.363244444131851196e-01,-2.826450169086456299e-01,1.659877300262451172e-01,-7.329881936311721802e-02,-1.611381322145462036e-01,6.772425174713134766e-01,1.818436384201049805e-01,-7.296569645404815674e-02,4.986414611339569092e-01,-6.115535497665405273e-01,6.006128191947937012e-01,-2.391849309206008911e-01,5.654928684234619141e-01,-3.636558651924133301e-01,5.864443778991699219e-01,-5.901967883110046387e-01,2.479940801858901978e-01
-7.721702754497528076e-02,-1.211311295628547668e-01,-3.456272184848785400e-02,1.358633488416671753e-01,-2.496031485497951508e-02,-4.188294112682342529e-01,5.939980596303939819e-02,-5.581754446029663086e-02,-1.989734768867492676e-01,6.856017112731933594e-01,3.278414309024810791e-01,-1.028692200779914856e-01,2.409195303916931152e-01,-6.561589837074279785e-01,4.665511846542358398e-01,-1.470487117767333984e-01,3.395964503288269043e-01,-3.770584464073181152e-01,5.848994851112365723e-01,-6.962053179740905762e-01,2.645648121833801270e-01
2.329344600439071655e-01,-9.149370342493057251e-02,-1.545664966106414795e-01,3.802502155303955078e-01,1.194612085819244385e-01,-5.118893980979919434e-01,-7.109457254409790039e-02,-2.150631695985794067e-01,-6.181989610195159912e-02,6.115273237228393555e-01,3.168573379516601562e-01,-6.927042454481124878e-02,4.953003227710723877e-01,-4.990251660346984863e-01,4.753122925758361816e-01,1.923407427966594696e-02,5.447436571121215820e-01,-2.633998394012451172e-01,6.235387325286865234e-01,-8.755381703376770020e-01,3.459181189537048340e-01
2.240634262561798096e-01,-9.861313551664352417e-02,-1.676479727029800415e-02,4.944962561130523682e-01,1.879309713840484619e-01,-6.024338006973266602e-01,-1.145295202732086182e-01,-1.725517511367797852e-01,-3.453841805458068848e-02,5.805354118347167969e-01,2.637415528297424316e-01,-4.748829081654548645e-02,2.402347028255462646e-01,-4.952057898044586182e-01,4.420307874679565430e-01,4.473931714892387390e-02,5.543617606163024902e-01,-2.364207655191421509e-01,2.582973539829254150e-01,-6.390237212181091309e-01,3.050365746021270752e-01
5.230734348297119141e-01,-1.504640728235244751e-01,-1.613423079252243042e-01,6.303717494010925293e-01,1.157577782869338989e-01,-5.567477941513061523e-01,5.896538868546485901e-02,-2.329782843589782715e-01,1.119390651583671570e-01,3.916857242584228516e-01,1.606433540582656860e-01,2.918992005288600922e-02,3.139786422252655029e-01,-4.524432718753814697e-01,2.322272956371307373e-01,1.985203027725219727e-01,6.257734298706054688e-01,-2.749392986297607422e-01,3.396786451339721680e-01,-7.937331199645996094e-01,5.362256169319152832e-01
4.834242761135101318e-01,-5.013447999954223633e-02,3.200953453779220581e-02,5.214289426803588867e-01,-9.336353838443756104e-02,-5.243576765060424805e-01,-1.055584698915481567e-01,-3.129237890243530273e-01,2.633312344551086426e-01,4.874490797519683838e-01,1.230113208293914795e-01,2.112256363034248352e-02,1.507338583469390869e-01,-4.794606268405914307e-01,2.128904014825820923e-01,2.532659173011779785e-01,7.359106540679931641e-01,-1.691509336233139038e-01,4.393245875835418701e-01,-8.308337330818176270e-01,4.683858156204223633e-01
3.641253709793090820e-01,-1.015656348317861557e-02,-1.449337750673294067e-01,7.727330327033996582e-01,6.205935031175613403e-02,-4.437604248523712158e-01,-1.835797354578971863e-02,-3.083986937999725342e-01,1.461128517985343933e-02,2.609181404113769531e-01,3.253688514232635498e-01,1.877004206180572510e-01,1.542440652847290039e-01,-4.555259346961975098e-01,1.308177113533020020e-01,2.417657375335693359e-01,6.930307149887084961e-01,-1.237874776124954224e-01,3.146154582500457764e-01,-9.094814062118530273e-01,4.765741825103759766e-01
5.643163323402404785e-01,1.088467836380004883e-01,-1.726080477237701416e-01,5.676476955413818359e-01,-8.160153031349182129e-02,-4.277426898479461670e-01,-1.679242253303527832e-01,-1.890594214200973511e-01,5.364574491977691650e-02,2.955857515335083008e-01,3.322219848632812500e-01,2.584075331687927246e-01,1.924370825290679932e-01,-3.673093020915985107e-01,8.670059591531753540e-02,1.076876148581504822e-01,7.714111804962158203e-01,-2.424448728561401367e-01,2.667289972305297852e-01,-6.599968671798706055e-01,5.857129096984863281e-01
6.112796068191528320e-01,-1.790676265954971313e-02,-2.101380005478858948e-02,6.706188321113586426e-01,1.868902472779154778e-03,-4.324396550655364990e-01,-4.030970335006713867e-01,-2.897082865238189697e-01,1.178336739540100098e-01,1.297984719276428223e-01,3.185921311378479004e-01,3.156659603118896484e-01,2.760753929615020752e-01,-4.823639988899230957e-02,2.286234498023986816e-02,1.944450289011001587e-01,5.718736648559570312e-01,-1.894476115703582764e-01,4.900048077106475830e-01,-6.360826492309570312e-01,5.542552471160888672e-01
6.350075602531433105e-01,-1.482537481933832169e-02,-7.200416177511215210e-02,7.491337060928344727e-01,-1.241876184940338135e-01,-3.535816371440887451e-01,-3.081526756286621094e-01,-9.994485974311828613e-02,7.605657726526260376e-02,1.371464282274246216e-01,5.440324544906616211e-02,2.071981281042098999e-01,2.367072701454162598e-01,-2.115361690521240234e-01,-1.336807012557983398e-01,3.309265375137329102e-01,7.428908944129943848e-01,-2.137029618024826050e-01,2.416923344135284424e-01,-7.190534472465515137e-01,5.191312432289123535e-01
6.639678478240966797e-01,2.031584978103637695e-01,-2.685942649841308594e-01,8.696812391281127930e-01,-2.641724944114685059e-01,-3.578781187534332275e-01,-1.338772624731063843e-01,-1.619887501001358032e-01,1.954726725816726685e-01,7.932277768850326538e-02,3.393630683422088623e-01,2.881079912185668945e-01,1.205560564994812012e-02,-6.357798725366592407e-02,1.052052155137062073e-01,3.720930218696594238e-01,6.644429564476013184e-01,-1.551582962274551392e-01,2.048933357000350952e-01,-6.301242113113403320e-01,8.180374503135681152e-01
5.000322461128234863e-01,5.326138436794281006e-02,-1.946382969617843628e-01,7.474007606506347656e-01,-1.872487962245941162e-01,-6.191322803497314453e-01,-4.416525661945343018e-01,-2.316429167985916138e-01,2.791253626346588135e-01,1.178206801414489746e-01,-5.301916971802711487e-03,4.557071030139923096e-01,8.578017354011535645e-02,-6.721840798854827881e-02,1.445986181497573853e-01,4.080125093460083008e-01,6.717029213905334473e-01,-4.068512916564941406e-01,1.886662542819976807e-01,-4.533567726612091064e-01,6.622200012207031250e-01
6.160986423492431641e-01,1.366495639085769653e-01,-1.983531862497329712e-01,7.401233911514282227e-01,-2.048481851816177368e-01,-5.212837457656860352e-01,-4.650947451591491699e-01,-3.706278502941131592e-01,5.076757818460464478e-02,-4.039536789059638977e-02,2.322800308465957642e-01,1.677170097827911377e-01,1.590563654899597168e-01,-2.531684190034866333e-02,-1.711521856486797333e-02,9.283769130706787109e-02,6.420610547065734863e-01,-2.523363828659057617e-01,1.463007181882858276e-01,-5.692955255508422852e-01,5.728083252906799316e-01
7.107133865356445312e-01,1.718201935291290283e-01,-3.426004648208618164e-01,6.732102036476135254e-01,-1.952614337205886841e-01,-5.072191953659057617e-01,-4.648657441139221191e-01,-4.690604507923126221e-01,1.597000956535339355e-01,-4.394749179482460022e-02,-1.305147409439086914e-01,2.518337070941925049e-01,6.609338521957397461e-02,-5.736585240811109543e-03,3.076857887208461761e-02,6.846931576728820801e-02,7.192907333374023438e-01,-4.294159114360809326e-01,1.735500842332839966e-01,-3.544444441795349121e-01,7.562043666839599609e-01
5.908723473548889160e-01,5.386051908135414124e-02,-3.344693779945373535e-01,6.956100463867187500e-01,-2.493166774511337280e-01,-8.742536902427673340e-01,-3.158641159534454346e-01,-2.324209064245223999e-01,-7.502287626266479492e-03,-3.314275741577148438e-01,2.038078308105468750e-01,3.034596145153045654e-01,-4.710208624601364136e-02,-2.078354507684707642e-01,-2.570654638111591339e-02,2.408366352319717407e-01,7.258328199386596680e-01,-4.343523979187011719e-01,1.462147831916809082e-01,-2.204031944274902344e-01,6.128280758857727051e-01
5.104556083679199219e-01,1.454755812883377075e-01,-3.382457494735717773e-01,6.221131682395935059e-01,-4.454807639122009277e-01,-5.933840870857238770e-01,-4.329769611358642578e-01,-2.109598368406295776e-01,-2.354882359504699707e-01,-3.239052295684814453e-01,-1.286653131246566772e-01,3.389315307140350342e-01,-4.740001633763313293e-02,1.418915018439292908e-02,-2.981517910957336426e-01,3.771177679300308228e-02,2.979158759117126465e-01,-2.797151803970336914e-01,1.218359470367431641e-01,-2.864906191825866699e-02,4.546307027339935303e-01
5.383971929550170898e-01,3.003522753715515137e-01,-3.392659127712249756e-01,6.543822288513183594e-01,-3.537937700748443604e-01,-7.838931083679199219e-01,-2.247471064329147339e-01,-2.966790199279785156e-01,-2.927153706550598145e-01,-1.716903746128082275e-01,3.592864051461219788e-02,4.821996688842773438e-01,-1.869021728634834290e-02,8.941315859556198120e-02,-6.975919753313064575e-02,-7.055541127920150757e-02,4.041800796985626221e-01,-2.393791079521179199e-01,1.787414848804473877e-01,5.766821280121803284e-02,5.843147039413452148e-01
4.021579325199127197e-01,5.929140448570251465e-01,-2.589329183101654053e-01,6.570193171501159668e-01,-3.343596756458282471e-01,-6.538730859756469727e-01,-3.984522521495819092e-01,2.584741916507482529e-03,-2.859561741352081299e-01,-2.894608080387115479e-01,-1.892497539520263672e-01,5.121004581451416016e-01,8.837710320949554443e-02,2.954833582043647766e-02,-2.667635213583707809e-03,-2.493656706064939499e-03,3.972803652286529541e-01,-4.566711485385894775e-01,1.595162749290466309e-01,1.333375871181488037e-01,5.078504085540771484e-01
2.894865274429321289e-01,3.711705505847930908e-01,-2.647366225719451904e-01,7.758693099021911621e-01,-5.272433757781982422e-01,-7.100348472595214844e-01,-4.050112962722778320e-01,-1.586943566799163818e-01,-1.143933907151222229e-01,-4.205089509487152100e-01,-1.731107681989669800e-01,6.580803990364074707e-01,-1.440898925065994263e-01,7.402820140123367310e-02,-3.433364331722259521e-01,-1.399738192558288574e-01,3.304178416728973389e-01,-2.979342043399810791e-01,2.458589971065521240e-01,1.578969061374664307e-01,5.743096470832824707e-01
5.371643304824829102e-01,4.965468347072601318e-01,-2.563753128051757812e-01,8.637775778770446777e-01,-6.386235356330871582e-01,-7.551607489585876465e-01,-4.772413969039916992e-01,-7.488184422254562378e-02,-3.431914448738098145e-01,-3.804690241813659668e-01,5.570486932992935181e-02,5.221250653266906738e-01,-1.005514189600944519e-01,1.014807000756263733e-01,-2.343338727951049805e-01,-3.329140543937683105e-01,1.054430231451988220e-01,-1.062676459550857544e-01,2.565937936305999756e-01,2.548461556434631348e-01,5.413649082183837891e-01
5.257081389427185059e-01,2.971618473529815674e-01,-3.525057733058929443e-01,8.743178248405456543e-01,-5.226582884788513184e-01,-6.281000971794128418e-01,-6.552082300186157227e-01,1.783258020877838135e-01,-3.123784065246582031e-01,-1.845158040523529053e-01,-3.574657440185546875e-02,5.179539918899536133e-01,-1.511897146701812744e-01,-2.404954098165035248e-02,-1.791116446256637573e-01,-3.447635769844055176e-01,2.646220922470092773e-01,-1.341715604066848755e-01,4.300260916352272034e-03,2.878643274307250977e-01,7.061191201210021973e-01
4.626865386962890625e-01,4.442049860954284668e-01,-1.540526896715164185e-01,9.057211875915527344e-01,-3.662296831607818604e-01,-6.498956680297851562e-01,-6.066240668296813965e-01,2.205978631973266602e-01,-5.456089377403259277e-01,-4.641983807086944580e-01,-1.684134900569915771e-01,7.749879956245422363e-01,-1.054585054516792297e-01,-2.792431786656379700e-02,-2.647174298763275146e-01,-4.310396909713745117e-01,9.665331244468688965e-02,-1.036947369575500488e-01,2.607748806476593018e-01,4.546019136905670166e-01,5.091080665588378906e-01
2.595404088497161865e-01,3.276575207710266113e-01,-1.509717255830764771e-01,6.978135704994201660e-01,-4.413029551506042480e-01,-6.708324551582336426e-01,-7.032458782196044922e-01,1.163338497281074524e-01,-4.717246592044830322e-01,-3.145993351936340332e-01,1.085361689329147339e-01,8.737297058105468750e-01,-8.760127425193786621e-02,1.850758939981460571e-01,-2.893802225589752197e-01,-2.793047726154327393e-01,3.242480382323265076e-02,1.190991792827844620e-02,5.468021631240844727e-01,8.593809604644775391e-02,4.514870345592498779e-01
4.104345738887786865e-01,3.717425465583801270e-01,-1.478980779647827148e-01,8.535993695259094238e-01,-2.037263810634613037e-01,-4.900939464569091797e-01,-7.210330367088317871e-01,2.237062007188796997e-01,-5.525062084197998047e-01,-4.398835003376007080e-01,-2.070754617452621460e-01,9.573682546615600586e-01,-2.960285842418670654e-01,1.338601261377334595e-01,-6.628081947565078735e-02,-5.324608087539672852e-01,2.758369036018848419e-02,4.071404412388801575e-02,1.307127922773361206e-01,3.287157118320465088e-01,4.500746428966522217e-01
4.766103625297546387e-01,2.722155153751373291e-01,-9.790214151144027710e-02,8.800141811370849609e-01,-3.061207532882690430e-01,-4.640148878097534180e-01,-7.244510054588317871e-01,2.312287986278533936e-01,-7.625015377998352051e-01,-5.495992302894592285e-01,-8.921128511428833008e-02,9.932321906089782715e-01,-1.305883526802062988e-01,-4.806204140186309814e-02,-1.009643897414207458e-01,-4.069924652576446533e-01,-1.344296187162399292e-01,-3.024819307029247284e-02,2.522115707397460938e-01,5.298994779586791992e-01,9.004895687103271484e-01
3.052946627140045166e-01,2.033888101577758789e-01,-1.885996162891387939e-01,5.901042819023132324e-01,1.162281353026628494e-02,-4.022564888000488281e-01,-7.569150328636169434e-01,1.171922907233238220e-01,-7.390744090080261230e-01,-5.758478045463562012e-01,-5.402519702911376953e-01,1.017832398414611816e+00,-1.547752618789672852e-01,3.787029907107353210e-02,-2.436029613018035889e-01,-6.025267839431762695e-01,1.037607118487358093e-01,2.467586100101470947e-01,1.846790611743927002e-01,6.443092226982116699e-01,5.478944778442382812e-01
3.399858772754669189e-01,-1.282493472099304199e-01,-4.499182701110839844e-01,9.116829037666320801e-01,-2.438831143081188202e-02,-3.028207123279571533e-01,-8.286054730415344238e-01,2.344216704368591309e-01,-6.322567462921142578e-01,-5.480724573135375977e-01,-5.617928504943847656e-01,1.108210563659667969e+00,-3.524857759475708008e-01,1.689414680004119873e-02,-1.047679632902145386e-01,-6.343120336532592773e-01,-7.057613227516412735e-03,1.145283058285713196e-01,2.381792813539505005e-01,3.467485606670379639e-01,5.460667014122009277e-01
4.227238893508911133e-01,6.053987517952919006e-02,-4.359958767890930176e-01,4.523634910583496094e-01,1.725393533706665039e-01,-3.575701415538787842e-01,-9.721205830574035645e-01,2.333475053310394287e-01,-7.448087930679321289e-01,-2.612174451351165771e-01,-6.753107905387878418e-01,9.671335816383361816e-01,-4.164525866508483887e-01,-1.186257898807525635e-01,-4.174169301986694336e-01,-6.622596383094787598e-01,-1.460283696651458740e-01,1.693985760211944580e-01,1.673070937395095825e-01,4.000971913337707520e-01,6.325420737266540527e-01
3.013596832752227783e-01,-1.849504858255386353e-01,-4.852449893951416016e-01,5.322144031524658203e-01,1.203372329473495483e-01,-1.949388831853866577e-01,-7.750863432884216309e-01,-5.766904354095458984e-02,-6.861726641654968262e-01,-4.330769777297973633e-01,-7.716306447982788086e-01,1.189094305038452148e+00,-4.450903534889221191e-01,-2.247233390808105469e-01,-3.387610912322998047e-01,-7.356048822402954102e-01,-2.318814992904663086e-01,2.677657902240753174e-01,9.582075476646423340e-02,2.920135855674743652e-01,4.035921394824981689e-01
2.278872579336166382e-01,-2.954031825065612793e-01,-6.200005412101745605e-01,4.937248229980468750e-01,1.316280514001846313e-01,-9.055127948522567749e-02,-6.581293940544128418e-01,-2.469480186700820923e-01,-5.632176399230957031e-01,-6.450288295745849609e-01,-5.975931286811828613e-01,9.391142129898071289e-01,-5.154938101768493652e-01,-1.778409183025360107e-01,-4.946912825107574463e-01,-7.645274400711059570e-01,-1.210893914103507996e-01,3.046658933162689209e-01,6.589858233928680420e-02,2.759322524070739746e-01,4.204744696617126465e-01
2.935079336166381836e-01,-5.514757037162780762e-01,-5.550242662429809570e-01,2.919580638408660889e-01,2.498149871826171875e-01,1.541917794384062290e-03,-6.650775671005249023e-01,-2.995449006557464600e-01,-7.420052886009216309e-01,-6.698669791221618652e-01,-8.064078688621520996e-01,1.023466587066650391e+00,-4.741599559783935547e-01,-2.104134857654571533e-01,-3.879476189613342285e-01,-6.504643559455871582e-01,-1.550092250108718872e-01,4.101231694221496582e-01,3.771248459815979004e-02,2.294173091650009155e-01,3.635770380496978760e-01
1.697802245616912842e-01,-4.028981924057006836e-01,-5.204626917839050293e-01,1.634808033704757690e-01,4.121542572975158691e-01,2.429270297288894653e-01,-4.877945482730865479e-01,-2.140681147575378418e-01,-6.414336562156677246e-01,-7.730035185813903809e-01,-8.494836091995239258e-01,9.432904720306396484e-01,-6.437380313873291016e-01,-2.377555370330810547e-01,-3.925422430038452148e-01,-5.911177992820739746e-01,8.849923498928546906e-03,3.745182454586029053e-01,-6.225910410284996033e-02,1.793542355298995972e-01,2.633766829967498779e-01
2.428750395774841309e-01,-4.874681830406188965e-01,-7.383902668952941895e-01,5.496880412101745605e-02,3.860313296318054199e-01,1.637498140335083008e-01,-6.000474691390991211e-01,-3.509257435798645020e-01,-5.063278675079345703e-01,-9.536601305007934570e-01,-8.900686502456665039e-01,1.006435275077819824e+00,-5.289288759231567383e-01,-3.548108637332916260e-01,-3.675194382667541504e-01,-4.278619289398193359e-01,6.453651934862136841e-03,4.874131083488464355e-01,6.328292936086654663e-02,8.984269574284553528e-03,2.710233032703399658e-01
3.654399812221527100e-01,-5.116887688636779785e-01,-6.708436608314514160e-01,-1.110753044486045837e-01,1.876739859580993652e-01,5.330718755722045898e-01,-5.795004963874816895e-01,-6.362661123275756836e-01,-4.592852890491485596e-01,-5.818389654159545898e-01,-8.139496445655822754e-01,7.696402668952941895e-01,-6.028474569320678711e-01,-2.981082499027252197e-01,-3.185057938098907471e-01,-3.538803458213806152e-01,4.495960101485252380e-02,3.411122858524322510e-01,-5.801323801279067993e-02,2.223355621099472046e-01,2.635627090930938721e-01
3.026765882968902588e-01,-6.368221044540405273e-01,-4.211328327655792236e-01,1.669281125068664551e-01,4.422260224819183350e-01,5.518459677696228027e-01,-3.389995992183685303e-01,-4.670029878616333008e-01,-4.095734655857086182e-01,-7.026099562644958496e-01,-8.181063532829284668e-01,6.691185235977172852e-01,-3.278064429759979248e-01,-1.765822023153305054e-01,-1.609027683734893799e-01,-5.282416343688964844e-01,2.534959018230438232e-01,3.224008381366729736e-01,1.786502599716186523e-01,2.338164448738098145e-01,-8.855342864990234375e-02
5.241796001791954041e-02,-8.043267130851745605e-01,-3.944428265094757080e-01,1.981802433729171753e-01,4.614964425563812256e-01,4.904775321483612061e-01,-2.570191919803619385e-01,-5.624116063117980957e-01,-3.285880088806152344e-01,-7.460996508598327637e-01,-8.989949226379394531e-01,4.746270775794982910e-01,-2.184859067201614380e-01,-3.533298075199127197e-01,-3.154103159904479980e-01,-4.395811259746551514e-01,1.265055239200592041e-01,2.777425944805145264e-01,1.401488929986953735e-01,1.829892396926879883e-01,7.546120136976242065e-02
8.316732943058013916e-03,-8.709088563919067383e-01,-1.087878271937370300e-01,1.060901582241058350e-01,4.839465022087097168e-01,5.925216674804687500e-01,-3.752104640007019043e-01,-5.598671436309814453e-01,-5.269472599029541016e-01,-8.038660287857055664e-01,-1.025469422340393066e+00,8.446667194366455078e-01,-2.716976404190063477e-01,-1.624894440174102783e-01,1.658377423882484436e-02,-2.774260938167572021e-01,3.822835981845855713e-01,4.474093616008758545e-01,2.762104868888854980e-01,-4.500804841518402100e-02,1.529275327920913696e-01
5.027387291193008423e-03,-8.853951692581176758e-01,-5.418871045112609863e-01,1.722194105386734009e-01,2.782280743122100830e-01,7.322123050689697266e-01,-3.329076468944549561e-01,-6.427314877510070801e-01,-3.695826977491378784e-02,-6.751852631568908691e-01,-7.909433841705322266e-01,7.738230824470520020e-01,-1.445980276912450790e-02,-1.000784933567047119e-01,1.030110418796539307e-01,-3.552964031696319580e-01,4.590205848217010498e-01,1.552737802267074585e-01,1.120596751570701599e-01,-9.513063728809356689e-02,1.460719704627990723e-01
-1.890877634286880493e-01,-8.074058890342712402e-01,-2.949503064155578613e-01,3.151057362556457520e-01,1.527545750141143799e-01,7.749527692794799805e-01,-8.256846666336059570e-02,-5.142645239830017090e-01,-3.118997812271118164e-01,-5.697758793830871582e-01,-9.563007950782775879e-01,3.863035738468170166e-01,-1.001518666744232178e-01,-2.480032891035079956e-01,1.581263244152069092e-01,-3.643120229244232178e-01,3.950244486331939697e-01,1.519034653902053833e-01,3.800488114356994629e-01,7.694768160581588745e-02,-8.606566488742828369e-02
-1.226045489311218262e-01,-9.128111600875854492e-01,-1.645108461380004883e-01,3.829420730471611023e-02,-5.648655444383621216e-02,7.994935512542724609e-01,-1.762220114469528198e-01,-7.015135884284973145e-01,-2.610878050327301025e-01,-4.331851601600646973e-01,-7.138877511024475098e-01,3.316981792449951172e-01,1.383175849914550781e-01,-3.180867135524749756e-01,3.864846825599670410e-01,-1.865220665931701660e-01,4.222317337989807129e-01,6.335187703371047974e-03,3.719949722290039062e-01,3.765545040369033813e-02,8.222513645887374878e-02
-2.047520428895950317e-01,-1.086348176002502441e+00,4.016168043017387390e-02,4.750362634658813477e-01,1.081492751836776733e-01,6.279424428939819336e-01,3.591183200478553772e-02,-8.056679368019104004e-01,-2.460337281227111816e-01,-4.797129631042480469e-01,-8.142274022102355957e-01,2.892546057701110840e-01,1.975253373384475708e-01,-4.522873461246490479e-01,4.309331774711608887e-01,-2.273264825344085693e-01,5.744806528091430664e-01,-1.398699730634689331e-01,6.486394405364990234e-01,9.162282198667526245e-02,-9.528063237667083740e-02
-2.304591834545135498e-01,-9.865865111351013184e-01,-8.509705215692520142e-02,5.184080600738525391e-01,-8.622538298368453979e-02,7.053409814834594727e-01,-1.843984872102737427e-01,-8.689516186714172363e-01,-3.154852092266082764e-01,-3.327524960041046143e-01,-8.480530977249145508e-01,1.718483716249465942e-01,4.404064416885375977e-01,-3.600837588310241699e-01,2.847240865230560303e-01,-2.928861975669860840e-02,2.323389649391174316e-01,-2.241805493831634521e-01,5.899537205696105957e-01,5.904564633965492249e-02,-7.383313775062561035e-02
-5.295833349227905273e-01,-7.670454382896423340e-01,1.374415904283523560e-01,3.405351936817169189e-01,-1.419257521629333496e-01,7.304565906524658203e-01,2.110335044562816620e-02,-8.827500343322753906e-01,-4.214505851268768311e-02,-2.469260692596435547e-01,-6.471902728080749512e-01,1.225085854530334473e-01,1.244759187102317810e-01,-6.622055172920227051e-01,3.877198696136474609e-01,-1.873509585857391357e-01,4.644306004047393799e-01,-1.035806089639663696e-01,5.813500285148620605e-01,1.775373816490173340e-01,-7.585009187459945679e-02
-6.307874321937561035e-01,-7.600875496864318848e-01,6.932858377695083618e-02,3.413515090942382812e-01,-9.613630920648574829e-02,5.518637299537658691e-01,-5.649869516491889954e-02,-8.860025405883789062e-01,-1.874053776264190674e-01,-5.727898329496383667e-02,-4.853704273700714111e-01,2.165526002645492554e-01,4.647044241428375244e-01,-4.541134238243103027e-01,3.502508997917175293e-01,-1.806624680757522583e-01,4.832737445831298828e-01,-2.751623392105102539e-01,7.015952467918395996e-01,1.579409539699554443e-01,9.459710121154785156e-02
-6.761090755462646484e-01,-7.880589365959167480e-01,7.859761267900466919e-02,2.868600487709045410e-01,-1.693738996982574463e-01,5.868591070175170898e-01,2.385330200195312500e-02,-1.011393666267395020e+00,-4.400504752993583679e-02,-1.228134930133819580e-01,-3.669548332691192627e-01,-4.709898680448532104e-02,6.250492930412292480e-01,-5.554710626602172852e-01,4.761161804199218750e-01,-7.402149587869644165e-02,3.176837563514709473e-01,-3.713491261005401611e-01,7.341942787170410156e-01,1.815285086631774902e-01,1.332717984914779663e-01
-5.382469296455383301e-01,-7.800329923629760742e-01,1.563834697008132935e-01,4.147319495677947998e-01,-2.053076475858688354e-01,5.001568794250488281e-01,8.391950279474258423e-02,-8.228953480720520020e-01,-1.519024074077606201e-01,2.506384812295436859e-02,-4.829714894294738770e-01,-1.716043055057525635e-01,5.567172169685363770e-01,-7.263026237487792969e-01,6.106874346733093262e-01,1.071995869278907776e-01,4.351968169212341309e-01,-5.386857986450195312e-01,7.568300962448120117e-01,3.667120933532714844e-01,1.055855378508567810e-01
-6.461254358291625977e-01,-7.560656666755676270e-01,4.261963069438934326e-01,5.546045899391174316e-01,-2.951391041278839111e-01,4.435298144817352295e-01,-8.111315965652465820e-02,-5.608528256416320801e-01,-2.551133036613464355e-01,-2.011895924806594849e-01,-5.009649321436882019e-03,-2.709173262119293213e-01,4.150323867797851562e-01,-5.853131413459777832e-01,4.663148820400238037e-01,9.326320886611938477e-02,3.356565535068511963e-01,-3.220216333866119385e-01,8.223174214363098145e-01,3.328169584274291992e-01,1.923015713691711426e-01
-6.118859052658081055e-01,-6.868274807929992676e-01,3.775821626186370850e-01,3.326784074306488037e-01,-3.425818383693695068e-01,6.160799860954284668e-01,-1.834648251533508301e-01,-8.232075572013854980e-01,9.722393751144409180e-02,2.032547257840633392e-02,-2.007218748331069946e-01,-3.743975460529327393e-01,3.946493864059448242e-01,-7.013269066810607910e-01,4.745907783508300781e-01,2.405747473239898682e-01,2.427319139242172241e-01,-3.982803821563720703e-01,6.763107180595397949e-01,1.890860944986343384e-01,4.541650116443634033e-01
-4.938701689243316650e-01,-8.018482923507690430e-01,7.613692879676818848e-01,4.957941472530364990e-01,-3.944753110408782959e-01,4.009352624416351318e-01,-2.321108058094978333e-02,-7.348771691322326660e-01,-8.637667633593082428e-03,1.323013473302125931e-02,-4.460453242063522339e-02,-3.536313772201538086e-01,7.831187248229980469e-01,-8.022168278694152832e-01,5.414633750915527344e-01,1.667777076363563538e-02,4.029251337051391602e-01,-1.838017404079437256e-01,7.784535884857177734e-01,1.663407534360885620e-01,4.603192508220672607e-01
-4.655113816261291504e-01,-8.046450614929199219e-01,5.415144562721252441e-01,7.076047062873840332e-01,-5.564423799514770508e-01,4.263992011547088623e-01,-2.907891869544982910e-01,-7.492288947105407715e-01,8.225632458925247192e-02,-5.215937271714210510e-02,-1.458231657743453979e-01,-3.080504834651947021e-01,6.314723491668701172e-01,-7.410953640937805176e-01,3.723458349704742432e-01,3.116689622402191162e-01,1.557421535253524780e-01,-3.766807615756988525e-01,8.023944497108459473e-01,4.491737112402915955e-02,4.969637095928192139e-01
-2.411376237869262695e-01,-8.028396964073181152e-01,5.779474973678588867e-01,6.849962472915649414e-01,-2.854747176170349121e-01,6.036317348480224609e-01,-4.351147115230560303e-01,-5.358045101165771484e-01,-7.310250401496887207e-02,-9.752118587493896484e-02,3.015720471739768982e-02,-1.183013767004013062e-01,4.785253405570983887e-01,-7.041726708412170410e-01,5.249481201171875000e-01,5.070521831512451172e-01,1.837233453989028931e-01,-3.015545308589935303e-01,8.944005966186523438e-01,1.005810201168060303e-01,3.177796900272369385e-01
-4.009756743907928467e-01,-6.266935467720031738e-01,2.943504750728607178e-01,8.166442513465881348e-01,-5.974364876747131348e-01,4.650838077068328857e-01,-1.453453898429870605e-01,-7.436535358428955078e-01,1.522683948278427124e-01,2.207378447055816650e-01,-1.050151810050010681e-01,-2.211929410696029663e-01,5.387534499168395996e-01,-8.468722105026245117e-01,3.848319947719573975e-01,4.291653931140899658e-01,1.556386351585388184e-01,-2.744552791118621826e-01,6.693709492683410645e-01,3.145633963868021965e-03,5.565547347068786621e-01
-9.660444408655166626e-02,-6.582319736480712891e-01,5.562855601310729980e-01,5.733210444450378418e-01,-4.496562182903289795e-01,3.752757012844085693e-01,-3.523988723754882812e-01,-5.997294783592224121e-01,1.600887030363082886e-01,2.173668593168258667e-01,1.115016862750053406e-01,-2.392958998680114746e-01,5.489874482154846191e-01,-5.064140558242797852e-01,2.612729966640472412e-01,3.747736215591430664e-01,7.584167271852493286e-02,-4.452173709869384766e-01,7.259911894798278809e-01,5.257778987288475037e-02,6.406101584434509277e-01
-1.726662218570709229e-01,-5.004734992980957031e-01,5.232458710670471191e-01,7.149988412857055664e-01,-4.900143146514892578e-01,3.119577169418334961e-01,-5.973251461982727051e-01,-4.446387290954589844e-01,1.899362653493881226e-01,2.533261477947235107e-01,2.475690282881259918e-02,-8.762814104557037354e-02,6.223524808883666992e-01,-6.373413801193237305e-01,1.403297483921051025e-01,5.352364182472229004e-01,1.846280694007873535e-01,-4.317143261432647705e-01,6.524657011032104492e-01,1.101175323128700256e-02,4.365511238574981689e-01
-2.617741823196411133e-01,-5.842210650444030762e-01,4.520567357540130615e-01,5.911951661109924316e-01,-4.062571227550506592e-01,4.152424931526184082e-01,-5.692324042320251465e-01,-3.534575700759887695e-01,3.069579601287841797e-01,2.038458734750747681e-01,-9.292570501565933228e-02,-3.317319154739379883e-01,3.909119367599487305e-01,-4.290703237056732178e-01,2.184907793998718262e-01,5.984765291213989258e-01,3.108042478561401367e-01,-3.501314222812652588e-01,6.764032840728759766e-01,4.136815294623374939e-02,5.548649430274963379e-01
4.325901344418525696e-02,-6.562801003456115723e-01,3.118293583393096924e-01,7.035194635391235352e-01,-7.087814807891845703e-01,2.130325436592102051e-01,-7.357659935951232910e-01,-5.298292636871337891e-01,4.586992561817169189e-01,-1.090565603226423264e-02,1.202873513102531433e-01,-1.234130710363388062e-01,3.215878009796142578e-01,-3.340318500995635986e-01,2.648247778415679932e-01,5.475893616676330566e-01,-1.679625548422336578e-02,-4.443473815917968750e-01,5.818499326705932617e-01,9.485112503170967102e-03,5.995689034461975098e-01
-1.008008345961570740e-01,-6.094452738761901855e-01,2.572604715824127197e-01,5.028758049011230469e-01,-5.253587365150451660e-01,4.915912449359893799e-01,-6.621580123901367188e-01,-3.453912436962127686e-01,3.698292970657348633e-01,1.435343474149703979e-01,1.002178490161895752e-01,-8.641184866428375244e-02,4.417629539966583252e-01,-3.718392550945281982e-01,-3.140316111966967583e-03,5.327598452568054199e-01,-5.385319143533706665e-02,-3.393768072128295898e-01,3.552053272724151611e-01,1.326552927494049072e-01,5.698451995849609375e-01
1.435381919145584106e-01,-6.911047697067260742e-01,1.887904554605484009e-01,4.777127206325531006e-01,-6.149780154228210449e-01,1.071573719382286072e-01,-6.497103571891784668e-01,-4.973274469375610352e-01,4.004720449447631836e-01,-1.152782663702964783e-01,2.015346288681030273e-01,-2.132230848073959351e-01,2.269773483276367188e-01,-3.435160517692565918e-01,-1.756052672863006592e-01,6.480749249458312988e-01,4.713199660181999207e-02,-4.220199286937713623e-01,2.471839040517807007e-01,2.032004743814468384e-01,7.933006286621093750e-01
1.591337472200393677e-01,-6.794986128807067871e-01,1.483319401741027832e-01,4.319421947002410889e-01,-6.071529388427734375e-01,5.133635178208351135e-02,-4.765944480895996094e-01,-4.535066485404968262e-01,3.281120359897613525e-01,-9.862239658832550049e-02,2.122846990823745728e-01,-4.262875318527221680e-01,2.415884882211685181e-01,-1.677822172641754150e-01,8.038581907749176025e-02,9.858199357986450195e-01,-1.491062194108963013e-01,-2.358514964580535889e-01,2.475922405719757080e-01,2.885800600051879883e-01,5.489120483398437500e-01
1.894638091325759888e-01,-5.154235959053039551e-01,8.457988500595092773e-02,4.259397089481353760e-01,-7.353373765945434570e-01,6.066576763987541199e-02,-5.565521717071533203e-01,-5.698717832565307617e-01,2.489740401506423950e-01,-1.842364072799682617e-01,2.549332380294799805e-01,-1.044151708483695984e-01,2.255889922380447388e-01,-2.277849800884723663e-02,-6.902860105037689209e-02,1.021106958389282227e+00,-1.603094637393951416e-01,-5.471374988555908203e-01,1.727349162101745605e-01,2.399115860462188721e-01,4.663635492324829102e-01
1.902056634426116943e-01,-2.663295865058898926e-01,1.360474675893783569e-01,3.547919988632202148e-01,-8.183114528656005859e-01,1.218392625451087952e-01,-5.056859850883483887e-01,-2.624217569828033447e-01,5.222228169441223145e-01,-3.775779306888580322e-01,2.113389223814010620e-01,-2.223080545663833618e-01,8.044774085283279419e-02,-5.031590536236763000e-02,8.150292932987213135e-02,8.489240407943725586e-01,-1.808950155973434448e-01,-5.785713195800781250e-01,-4.821106791496276855e-02,1.183433309197425842e-01,5.272902846336364746e-01
2.585467398166656494e-01,-2.149802148342132568e-01,1.658986322581768036e-02,2.548101544380187988e-01,-6.929589509963989258e-01,1.762182712554931641e-01,-5.148134827613830566e-01,-3.966672122478485107e-01,4.758893251419067383e-01,-2.737571597099304199e-01,2.775109708309173584e-01,-3.462191224098205566e-01,1.355029791593551636e-01,8.305085822939872742e-03,-7.652813941240310669e-02,1.086818099021911621e+00,-8.544233441352844238e-02,-4.701022803783416748e-01,-3.393746539950370789e-02,3.291649818420410156e-01,3.067321479320526123e-01
5.891271829605102539e-01,-9.605720639228820801e-02,2.462611645460128784e-01,5.640914440155029297e-01,-1.012721896171569824e+00,7.624561339616775513e-02,-4.648927748203277588e-01,-2.710238099098205566e-01,3.903386294841766357e-01,-5.386478900909423828e-01,3.646820187568664551e-01,-3.387474119663238525e-01,6.750930100679397583e-02,3.084847033023834229e-01,6.070925388485193253e-03,8.871576189994812012e-01,-2.491600364446640015e-01,-3.031794130802154541e-01,-1.026787087321281433e-01,3.399004042148590088e-01,2.940146327018737793e-01
5.231976509094238281e-01,-4.982159286737442017e-02,-3.885184600949287415e-02,2.533477544784545898e-01,-9.658504128456115723e-01,1.034303531050682068e-01,-5.398104786872863770e-01,-1.169726718217134476e-02,5.752965211868286133e-01,-3.148611485958099365e-01,4.220413565635681152e-01,-2.534736394882202148e-01,1.487524062395095825e-01,3.779080808162689209e-01,-7.185730338096618652e-02,1.063080072402954102e+00,-9.628362953662872314e-02,-4.034319519996643066e-01,-8.786764740943908691e-02,4.538274407386779785e-01,3.797199428081512451e-01
4.983204007148742676e-01,1.609305590391159058e-01,-1.224800199270248413e-01,4.350428581237792969e-01,-9.624167084693908691e-01,9.461633861064910889e-02,-4.542606174945831299e-01,8.908888697624206543e-02,5.001004934310913086e-01,-3.232865929603576660e-01,4.885995686054229736e-01,-2.816746830940246582e-01,7.086213678121566772e-02,5.552292466163635254e-01,1.221681311726570129e-01,9.738356471061706543e-01,-2.843725681304931641e-01,-2.997193038463592529e-01,-6.432313472032546997e-02,3.482843637466430664e-01,3.322262763977050781e-01
3.674370944499969482e-01,1.799282729625701904e-01,1.077849790453910828e-01,5.670891404151916504e-01,-9.168159365653991699e-01,-5.618981644511222839e-02,-6.542143225669860840e-01,5.640859529376029968e-02,2.417996525764465332e-01,-3.082311451435089111e-01,4.476011991500854492e-01,-2.391961961984634399e-01,-6.965387612581253052e-03,5.372756123542785645e-01,5.887394770979881287e-02,1.023326873779296875e+00,-1.866659671068191528e-01,-1.340678185224533081e-01,-7.986152172088623047e-02,4.969826936721801758e-01,1.931982040405273438e-01
6.177065372467041016e-01,2.341720759868621826e-01,-1.746236085891723633e-01,3.713781833648681641e-01,-7.622370719909667969e-01,-1.114785894751548767e-01,-4.064621329307556152e-01,-5.584580451250076294e-02,3.159165084362030029e-01,-3.796124756336212158e-01,3.763675093650817871e-01,1.528137829154729843e-03,-1.498724669218063354e-01,7.266499996185302734e-01,1.828686296939849854e-01,9.483192563056945801e-01,-3.738045990467071533e-01,-2.291371226310729980e-01,-2.869533002376556396e-01,4.078472852706909180e-01,2.762363553047180176e-01
3.584167361259460449e-01,3.335175216197967529e-01,8.080482482910156250e-02,3.358420431613922119e-01,-8.717245459556579590e-01,-2.818742990493774414e-01,-4.935927391052246094e-01,3.465614616870880127e-01,2.155099436640739441e-02,-3.366656601428985596e-01,3.026399314403533936e-01,-1.480243802070617676e-01,-1.090773716568946838e-01,5.965282320976257324e-01,1.785440295934677124e-01,8.349537253379821777e-01,-4.681563973426818848e-01,-1.666591167449951172e-01,-3.658915162086486816e-01,4.903691709041595459e-01,3.901737034320831299e-01
5.239894986152648926e-01,1.075649335980415344e-01,2.371743880212306976e-02,3.068852722644805908e-01,-7.301155328750610352e-01,-3.006633222103118896e-01,-5.029366612434387207e-01,4.263689219951629639e-01,8.146032691001892090e-02,-2.816265821456909180e-01,4.145610034465789795e-01,8.341623097658157349e-02,-1.277957409620285034e-01,6.345579624176025391e-01,3.378446698188781738e-01,7.932224869728088379e-01,-4.306572377681732178e-01,-3.820201158523559570e-01,-2.146240472793579102e-01,5.626042485237121582e-01,3.412022888660430908e-01
5.091127753257751465e-01,1.433688998222351074e-01,-1.696648746728897095e-01,3.544618487358093262e-01,-6.721860170364379883e-01,-3.658137619495391846e-01,-4.583733677864074707e-01,2.816836833953857422e-01,-1.116248741745948792e-01,-2.362035065889358521e-01,4.316969513893127441e-01,4.208552464842796326e-02,-2.488554418087005615e-01,6.754474043846130371e-01,2.338539659976959229e-01,6.448161005973815918e-01,-4.676545560359954834e-01,-1.489563733339309692e-01,-2.618499994277954102e-01,7.191865444183349609e-01,4.111862480640411377e-01
5.486499071121215820e-01,2.755750715732574463e-01,-1.700124144554138184e-01,3.027560114860534668e-01,-6.738724708557128906e-01,-4.936308860778808594e-01,-4.466122686862945557e-01,3.537806272506713867e-01,-3.597207069396972656e-01,-3.689300417900085449e-01,5.169851779937744141e-01,-2.854771539568901062e-02,-2.090312540531158447e-01,6.667718291282653809e-01,1.225754469633102417e-01,3.728893697261810303e-01,-7.061599493026733398e-01,-2.409528195858001709e-01,-4.105359911918640137e-01,5.091559290885925293e-01,2.898498475551605225e-01
4.579829275608062744e-01,3.504556119441986084e-01,-2.077466398477554321e-01,4.078000485897064209e-01,-6.762098670005798340e-01,-2.849758863449096680e-01,-5.793012976646423340e-01,2.954879403114318848e-01,-3.005906641483306885e-01,-1.547278910875320435e-01,2.464957386255264282e-01,3.342639207839965820e-01,-2.292283773422241211e-01,7.755886912345886230e-01,2.470167875289916992e-01,3.751017153263092041e-01,-9.047974944114685059e-01,2.639394067227840424e-02,-4.186319708824157715e-01,7.117831110954284668e-01,6.214296817779541016e-02
1.393302530050277710e-01,4.182420372962951660e-01,-2.123536914587020874e-01,2.105756849050521851e-01,-7.412118315696716309e-01,-4.607879221439361572e-01,-4.219675958156585693e-01,5.885456800460815430e-01,-5.383552312850952148e-01,-2.677921056747436523e-01,1.392671018838882446e-01,1.370417475700378418e-01,-3.950991034507751465e-01,7.578452825546264648e-01,-6.016115657985210419e-03,2.050921767950057983e-01,-8.569264411926269531e-01,1.794513314962387085e-01,-3.807759284973144531e-01,7.908732295036315918e-01,8.595810830593109131e-02
5.143404603004455566e-01,2.914009094238281250e-01,-4.713983833789825439e-01,2.424570918083190918e-01,-4.023764729499816895e-01,-4.455909132957458496e-01,-6.707904338836669922e-01,3.854523301124572754e-01,-5.961633920669555664e-01,-2.094830274581909180e-01,4.483603537082672119e-01,2.964919507503509521e-01,-5.558542013168334961e-01,5.915005803108215332e-01,1.536080688238143921e-01,2.003625780344009399e-01,-8.857714533805847168e-01,1.031581312417984009e-01,-8.041561245918273926e-01,7.520580887794494629e-01,-1.151234433054924011e-01
3.318324387073516846e-01,2.519322931766510010e-01,-3.684011995792388916e-01,1.251946091651916504e-01,-5.519049167633056641e-01,-2.723728120326995850e-01,-5.476372838020324707e-01,4.086871743202209473e-01,-9.153090119361877441e-01,-3.279842734336853027e-01,2.032429873943328857e-01,2.097582370042800903e-01,-5.042700767517089844e-01,6.060330867767333984e-01,8.445833623409271240e-02,-2.864791639149188995e-02,-1.104289770126342773e+00,3.611080646514892578e-01,-7.085640430450439453e-01,6.904975175857543945e-01,-1.477535218000411987e-01
5.795183181762695312e-01,5.358324646949768066e-01,-4.477893412113189697e-01,4.811238124966621399e-02,-3.604255318641662598e-01,-3.140293061733245850e-01,-4.718316793441772461e-01,6.997781395912170410e-01,-5.274002552032470703e-01,-2.381886839866638184e-01,2.901585698127746582e-01,3.672673106193542480e-01,-7.798066139221191406e-01,6.499941349029541016e-01,1.455782353878021240e-01,1.704985648393630981e-01,-7.203358411788940430e-01,4.628032743930816650e-01,-7.138653993606567383e-01,8.472939729690551758e-01,5.134894698858261108e-02
5.320184230804443359e-01,4.914867281913757324e-01,-6.199688911437988281e-01,3.926588594913482666e-02,-1.213380396366119385e-01,-2.844426631927490234e-01,-3.868398368358612061e-01,3.875992298126220703e-01,-8.056738376617431641e-01,-1.666198223829269409e-01,4.018131196498870850e-01,2.514972686767578125e-01,-8.316903710365295410e-01,7.365391850471496582e-01,1.280052512884140015e-01,1.280370950698852539e-01,-8.479260802268981934e-01,8.195802569389343262e-01,-5.714966654777526855e-01,6.808708906173706055e-01,-5.312181264162063599e-02
3.931528031826019287e-01,2.601468861103057861e-01,-4.209154248237609863e-01,-1.966487765312194824e-01,-3.119870126247406006e-01,-2.701316475868225098e-01,-3.495013415813446045e-01,5.946760773658752441e-01,-6.575137376785278320e-01,-1.914526224136352539e-01,1.218444630503654480e-01,5.396891832351684570e-01,-8.670254945755004883e-01,7.632002234458923340e-01,9.318328648805618286e-02,2.384902089834213257e-01,-8.882691264152526855e-01,8.728680610656738281e-01,-5.937827229499816895e-01,4.626874923706054688e-01,1.298910677433013916e-01
5.844243168830871582e-01,2.667757272720336914e-01,-4.795055687427520752e-01,-3.497878611087799072e-01,-9.645147621631622314e-02,-8.769397437572479248e-02,-3.631329238414764404e-01,3.256770670413970947e-01,-8.295190334320068359e-01,-2.365094125270843506e-01,-4.304358735680580139e-02,6.231394410133361816e-01,-9.454635381698608398e-01,7.509486675262451172e-01,5.267249047756195068e-02,1.199174672365188599e-01,-7.582527399063110352e-01,8.502463102340698242e-01,-7.744275927543640137e-01,4.067445695400238037e-01,-1.072074249386787415e-01
4.165152311325073242e-01,1.236906871199607849e-01,-5.347007513046264648e-01,-9.565015882253646851e-02,5.785995349287986755e-02,2.373402565717697144e-01,-2.184829115867614746e-01,2.937883436679840088e-01,-8.407195806503295898e-01,-9.996925294399261475e-02,3.539381083101034164e-03,5.133249163627624512e-01,-1.011072754859924316e+00,5.373603701591491699e-01,7.230940461158752441e-02,3.421047329902648926e-02,-7.229458689689636230e-01,9.417821764945983887e-01,-7.278259396553039551e-01,1.594332903623580933e-01,3.212919831275939941e-02
3.802209496498107910e-01,1.820097267627716064e-01,-5.188485383987426758e-01,-1.156433224678039551e-01,2.478905767202377319e-01,2.199973016977310181e-01,-1.925806701183319092e-01,2.748320102691650391e-01,-7.976611256599426270e-01,-1.399940401315689087e-01,2.299802005290985107e-02,5.851300954818725586e-01,-1.021432399749755859e+00,4.772679805755615234e-01,1.134075224399566650e-01,1.664325594902038574e-01,-7.997553348541259766e-01,9.608706831932067871e-01,-6.657255887985229492e-01,3.522347807884216309e-01,-1.502813026309013367e-02
3.824163377285003662e-01,1.102211922407150269e-01,-7.019181847572326660e-01,-4.229918718338012695e-01,2.692119777202606201e-01,2.497839182615280151e-01,-1.292788833379745483e-01,2.011581324040889740e-02,-6.283516883850097656e-01,-2.302173078060150146e-01,-2.587350010871887207e-01,4.628213346004486084e-01,-9.796875715255737305e-01,6.821797490119934082e-01,3.741969466209411621e-01,-2.497987635433673859e-02,-5.416999459266662598e-01,1.035893440246582031e+00,-5.804837942123413086e-01,-7.953483611345291138e-02,-4.583331197500228882e-02
3.070456385612487793e-01,-1.775005757808685303e-01,-4.237710833549499512e-01,-5.892616510391235352e-01,5.380551218986511230e-01,2.282808125019073486e-01,1.281881630420684814e-01,9.760432690382003784e-02,-5.332167148590087891e-01,3.495493903756141663e-02,-9.603695571422576904e-02,3.766281604766845703e-01,-9.082089066505432129e-01,8.531569838523864746e-01,2.991506755352020264e-01,-3.068778291344642639e-02,-5.068915486335754395e-01,8.032720088958740234e-01,-7.127333879470825195e-01,5.307257175445556641e-02,-4.119755700230598450e-02
4.392973184585571289e-01,-1.443817652761936188e-02,-6.027276515960693359e-01,-5.481086969375610352e-01,3.854158222675323486e-01,3.973307311534881592e-01,-1.439656503498554230e-02,1.161750257015228271e-01,-6.301482319831848145e-01,-7.120562344789505005e-02,-2.406615018844604492e-01,4.794558584690093994e-01,-8.682290911674499512e-01,6.712344288825988770e-01,3.303167819976806641e-01,1.345908194780349731e-01,-2.884052097797393799e-01,1.000782966613769531e+00,-6.216373443603515625e-01,1.440566629171371460e-01,-2.379592657089233398e-01
2.035991549491882324e-01,-1.880036890506744385e-01,-4.013197124004364014e-01,-3.099283874034881592e-01,5.040510892868041992e-01,3.118031620979309082e-01,1.157844290137290955e-01,-2.229126840829849243e-01,-6.676399707794189453e-01,-1.288694143295288086e-01,-2.808624505996704102e-01,3.906088769435882568e-01,-9.042675495147705078e-01,3.014098107814788818e-01,5.560000538825988770e-01,-5.406937561929225922e-03,-3.085511028766632080e-01,7.109122276306152344e-01,-7.251010537147521973e-01,-1.764640510082244873e-01,-3.129472434520721436e-01
2.132546715438365936e-02,-2.396991699934005737e-01,-7.201125621795654297e-01,-4.853147268295288086e-01,3.744570314884185791e-01,2.929608523845672607e-01,2.491586804389953613e-01,-2.032124698162078857e-01,-6.682095527648925781e-01,-2.990112006664276123e-01,-2.851732373237609863e-01,3.471665978431701660e-01,-8.949201703071594238e-01,7.293415665626525879e-01,4.714826643466949463e-01,1.229556277394294739e-01,-1.624850183725357056e-01,8.558918833732604980e-01,-6.016218066215515137e-01,-2.456596940755844116e-01,-4.497863054275512695e-01
8.619445562362670898e-02,-2.068809717893600464e-01,-5.614220499992370605e-01,-5.900587439537048340e-01,5.964859127998352051e-01,4.000785350799560547e-01,4.808290004730224609e-01,-2.921985089778900146e-01,-5.867757201194763184e-01,2.722104787826538086e-01,-1.792047470808029175e-01,3.182787895202636719e-01,-7.866557240486145020e-01,6.438074707984924316e-01,5.634635090827941895e-01,6.716189533472061157e-02,-1.837849169969558716e-01,8.814366459846496582e-01,-3.921433985233306885e-01,-1.793583482503890991e-01,-3.791155517101287842e-01
7.851912826299667358e-02,-2.607348263263702393e-01,-5.135661363601684570e-01,-5.729864239692687988e-01,3.991756439208984375e-01,3.391943573951721191e-01,6.357026100158691406e-01,-5.458159446716308594e-01,-6.627467870712280273e-01,1.690286993980407715e-01,-2.410545796155929565e-01,1.122955903410911560e-01,-9.642162322998046875e-01,5.412580370903015137e-01,5.295205116271972656e-01,1.407180279493331909e-01,-1.519239097833633423e-01,8.505197167396545410e-01,-7.061739563941955566e-01,-2.297369837760925293e-01,-4.220829606056213379e-01
-8.415115065872669220e-03,-2.050888389348983765e-01,-5.045116543769836426e-01,-6.269659996032714844e-01,5.059060454368591309e-01,4.674792885780334473e-01,6.674367785453796387e-01,-3.862088024616241455e-01,-6.163246631622314453e-01,1.007087007164955139e-01,-6.489308178424835205e-02,4.792416468262672424e-02,-7.593283057212829590e-01,3.537006974220275879e-01,4.217931628227233887e-01,6.160466000437736511e-02,-3.897979855537414551e-02,7.096292376518249512e-01,-5.578197836875915527e-01,-1.203782781958580017e-01,-5.243232846260070801e-01
-2.895229458808898926e-01,-1.746713072061538696e-01,-2.353440076112747192e-01,-4.285107553005218506e-01,4.662615954875946045e-01,2.512141168117523193e-01,7.406882643699645996e-01,-5.326362252235412598e-01,-4.881897568702697754e-01,-2.034909464418888092e-02,-9.496773779392242432e-02,-7.664866000413894653e-02,-7.354884743690490723e-01,2.040943950414657593e-01,6.663643121719360352e-01,-5.628949776291847229e-02,1.072553992271423340e-01,7.819976806640625000e-01,-4.433784186840057373e-01,-8.859495818614959717e-02,-4.216133654117584229e-01
-1.348591595888137817e-01,-4.251943901181221008e-02,-2.395966053009033203e-01,-4.725839793682098389e-01,3.940674364566802979e-01,3.879375159740447998e-01,7.822465896606445312e-01,-6.745408773422241211e-01,-5.942857861518859863e-01,3.091270029544830322e-01,1.743370592594146729e-01,4.773265682160854340e-03,-5.915368795394897461e-01,3.178024590015411377e-01,9.070183038711547852e-01,2.016888409852981567e-01,-4.854748025536537170e-02,7.384220361709594727e-01,-4.089232087135314941e-01,-1.580414175987243652e-01,-4.993523657321929932e-01
-3.449326455593109131e-01,-1.235132217407226562e-01,-1.091241165995597839e-01,-2.947070002555847168e-01,5.972022414207458496e-01,3.555833101272583008e-01,8.862693905830383301e-01,-4.271397888660430908e-01,-4.627871513366699219e-01,4.107948020100593567e-02,2.197761982679367065e-01,3.053460735827684402e-03,-2.952241897583007812e-01,3.341254591941833496e-01,8.435740470886230469e-01,2.919218316674232483e-02,3.170867562294006348e-01,6.870782971382141113e-01,-1.077244877815246582e-01,-1.210624054074287415e-01,-3.919714093208312988e-01
-3.128720223903656006e-01,-2.973732054233551025e-01,1.492772698402404785e-01,-2.311131656169891357e-01,2.200774103403091431e-01,6.214115023612976074e-01,8.393509984016418457e-01,-5.032778978347778320e-01,-4.483427107334136963e-01,4.167574942111968994e-01,2.258353233337402344e-01,-8.495771139860153198e-02,-2.617902755737304688e-01,3.484793901443481445e-01,8.332937955856323242e-01,1.070783287286758423e-01,3.159580230712890625e-01,6.343687772750854492e-01,-4.138988256454467773e-02,-1.911733150482177734e-01,-2.940631806850433350e-01
-6.326540112495422363e-01,-9.145859628915786743e-02,-6.295076012611389160e-02,-7.316663861274719238e-02,3.777995407581329346e-01,5.327333211898803711e-01,7.990108728408813477e-01,-4.376563727855682373e-01,-3.697049319744110107e-01,5.755547285079956055e-01,3.876662254333496094e-01,8.310580253601074219e-02,-3.973296582698822021e-01,1.821456849575042725e-01,8.731519579887390137e-01,2.622031271457672119e-01,2.667984664440155029e-01,5.828207731246948242e-01,1.374243348836898804e-01,-1.256989091634750366e-01,-2.137045264244079590e-01
-4.528166651725769043e-01,1.203510463237762451e-01,2.302315533161163330e-01,7.344700396060943604e-02,2.040590196847915649e-01,5.324894189834594727e-01,6.197562813758850098e-01,-6.475606560707092285e-01,-3.222405910491943359e-01,4.548526108264923096e-01,3.243483304977416992e-01,-1.578127592802047729e-01,-1.531500220298767090e-01,2.320881485939025879e-01,1.019959926605224609e+00,-1.060389354825019836e-02,3.969688713550567627e-01,3.559748828411102295e-01,2.559714019298553467e-01,-1.563148200511932373e-01,1.386697739362716675e-01
-6.549957990646362305e-01,-1.160802692174911499e-02,4.006791114807128906e-01,-1.584665663540363312e-02,1.075814813375473022e-01,5.852779150009155273e-01,6.226982474327087402e-01,-5.831362009048461914e-01,-3.982874453067779541e-01,7.566526532173156738e-01,3.310414254665374756e-01,-2.609479427337646484e-01,-3.521752059459686279e-01,-1.542747169733047485e-01,8.772844672203063965e-01,1.507124751806259155e-01,1.734807938337326050e-01,4.512902200222015381e-01,2.069426923990249634e-01,-2.401743680238723755e-01,1.505844742059707642e-01
-5.195383429527282715e-01,-1.283324807882308960e-01,4.609638750553131104e-01,2.047755420207977295e-01,3.283156752586364746e-01,3.576804697513580322e-01,4.545804262161254883e-01,-5.919663310050964355e-01,-4.894590377807617188e-01,7.253409624099731445e-01,4.050885438919067383e-01,-3.092353343963623047e-01,-1.230863556265830994e-01,4.312429204583168030e-02,8.892555236816406250e-01,2.869871631264686584e-02,4.828006923198699951e-01,4.970760345458984375e-01,1.918831467628479004e-01,-1.620794385671615601e-01,-3.348257020115852356e-02
-7.048488855361938477e-01,-9.775996953248977661e-02,5.025272965431213379e-01,3.429150879383087158e-01,3.883855342864990234e-01,3.677218854427337646e-01,4.308452010154724121e-01,-4.461681842803955078e-01,-2.993898987770080566e-01,6.916866302490234375e-01,3.450623452663421631e-01,-1.769336909055709839e-01,-1.960613131523132324e-01,-1.722895205020904541e-01,8.398112654685974121e-01,-5.346372257918119431e-03,2.359361946582794189e-02,4.571649432182312012e-01,2.885724306106567383e-01,-1.980027854442596436e-01,2.253739386796951294e-01
-7.050216794013977051e-01,-4.053611308336257935e-02,4.237068593502044678e-01,2.920595705509185791e-01,3.587933182716369629e-01,2.917090654373168945e-01,6.331951022148132324e-01,-5.012858510017395020e-01,-4.014609456062316895e-01,8.731451034545898438e-01,4.643042087554931641e-01,-1.225540116429328918e-01,-1.731109023094177246e-01,-3.207265436649322510e-01,8.450778126716613770e-01,1.453146785497665405e-01,3.371049165725708008e-01,1.143163144588470459e-01,3.645190000534057617e-01,-1.652041822671890259e-01,3.476012945175170898e-01
-7.812693119049072266e-01,-2.095963507890701294e-01,5.610542297363281250e-01,4.663420617580413818e-01,1.948377788066864014e-01,1.251450926065444946e-01,4.837207496166229248e-01,-6.314249634742736816e-01,-2.914546132087707520e-01,8.330082297325134277e-01,5.775990486145019531e-01,-1.795824468135833740e-01,1.563555374741554260e-02,-1.869095563888549805e-01,7.958967089653015137e-01,8.416455239057540894e-02,2.689909934997558594e-01,2.728500664234161377e-01,2.712166607379913330e-01,-4.931000173091888428e-01,1.252676844596862793e-01
-7.815911769866943359e-01,-1.426895707845687866e-01,6.215130090713500977e-01,2.265634387731552124e-01,3.423783779144287109e-01,1.262581944465637207e-01,2.568739950656890869e-01,-4.519048035144805908e-01,-2.740503251552581787e-01,7.653197050094604492e-01,4.719714224338531494e-01,-3.025991618633270264e-01,-2.003668397665023804e-01,-1.815710067749023438e-01,5.512539148330688477e-01,-1.523439772427082062e-02,3.381335139274597168e-01,2.024181932210922241e-02,2.780382633209228516e-01,-3.637626767158508301e-01,5.053815245628356934e-01
-8.260587453842163086e-01,-9.724105894565582275e-02,6.640125513076782227e-01,4.405918121337890625e-01,4.120988249778747559e-01,1.282423585653305054e-01,2.010541707277297974e-01,-5.213283896446228027e-01,-2.503672242164611816e-01,6.049937009811401367e-01,3.615079224109649658e-01,-3.427042961120605469e-01,-1.212187856435775757e-01,-2.826128900051116943e-01,3.686866164207458496e-01,6.915682554244995117e-02,5.462683620862662792e-04,2.086640447378158569e-01,3.187563717365264893e-01,-2.410311698913574219e-01,5.081779360771179199e-01
-5.257321000099182129e-01,-1.448179781436920166e-01,6.134352684020996094e-01,2.397564649581909180e-01,2.405279576778411865e-01,2.436553239822387695e-01,2.825545072555541992e-01,-5.229930281639099121e-01,-2.276464849710464478e-01,7.862367033958435059e-01,4.172591567039489746e-01,-1.075891181826591492e-01,-2.402374446392059326e-01,-1.663362085819244385e-01,5.071918964385986328e-01,8.348374068737030029e-02,2.426456362009048462e-01,1.320076733827590942e-01,2.478398978710174561e-01,-2.393255084753036499e-01,6.039400100708007812e-01
-7.875193953514099121e-01,-2.139198631048202515e-01,7.469508051872253418e-01,5.214393138885498047e-01,3.095152378082275391e-01,8.845714479684829712e-02,1.346687823534011841e-01,-7.103416919708251953e-01,-1.461813598871231079e-01,8.229611515998840332e-01,5.543281435966491699e-01,-3.155717551708221436e-01,-2.874272763729095459e-01,-3.285138010978698730e-01,1.809329688549041748e-01,1.913177371025085449e-01,1.405150145292282104e-01,3.070055246353149414e-01,4.912106320261955261e-02,-3.061864674091339111e-01,6.274596452713012695e-01
-4.121140539646148682e-01,-6.850178539752960205e-02,5.738978981971740723e-01,3.850570917129516602e-01,1.877623051404953003e-01,1.960178613662719727e-01,1.211641207337379456e-01,-5.372903943061828613e-01,-2.533300034701824188e-02,6.783177852630615234e-01,4.757798612117767334e-01,-1.139970943331718445e-01,-2.469777911901473999e-01,-2.398584634065628052e-01,1.911465525627136230e-01,1.986853331327438354e-01,2.604440450668334961e-01,2.896259725093841553e-01,2.443973869085311890e-01,-3.360229134559631348e-01,6.978776454925537109e-01
-3.829424977302551270e-01,-2.901214659214019775e-01,4.252674877643585205e-01,4.435241520404815674e-01,1.074174977838993073e-02,1.345539391040802002e-01,9.824834764003753662e-02,-4.721153676509857178e-01,1.084567680954933167e-01,5.175729990005493164e-01,4.436540305614471436e-01,1.080927401781082153e-01,-4.509264528751373291e-01,-5.310441553592681885e-02,9.096648544073104858e-02,3.134162127971649170e-01,8.630208671092987061e-02,1.745700091123580933e-02,9.133328497409820557e-02,-2.655910551548004150e-01,5.869375467300415039e-01
-2.782903015613555908e-01,-8.487979322671890259e-02,8.163514137268066406e-01,3.832703530788421631e-01,5.773142725229263306e-02,3.797236382961273193e-01,1.167621463537216187e-01,-4.844605326652526855e-01,2.577535808086395264e-02,6.101305484771728516e-01,3.180718719959259033e-01,-1.837402433156967163e-01,-2.588790953159332275e-01,-3.715597093105316162e-01,-4.325367137789726257e-02,4.325288236141204834e-01,3.856287300586700439e-01,5.935057252645492554e-02,-4.386427812278270721e-03,-3.260073363780975342e-01,5.708438754081726074e-01
-3.796284794807434082e-01,-5.073506757616996765e-02,6.698525547981262207e-01,5.203368663787841797e-01,-5.433447659015655518e-02,3.431475162506103516e-01,-9.001258015632629395e-02,-4.287084937095642090e-01,2.051616311073303223e-01,5.641291141510009766e-01,4.028103649616241455e-01,-1.001897379755973816e-01,-2.868359088897705078e-01,-2.523247385397553444e-03,-1.015482842922210693e-01,6.473681330680847168e-01,3.765248954296112061e-01,1.585354059934616089e-01,-3.198995068669319153e-02,-4.926209151744842529e-01,7.064300179481506348e-01
-1.557929962873458862e-01,5.776686966419219971e-02,7.736751437187194824e-01,7.040143013000488281e-01,-7.898213714361190796e-02,2.631165385246276855e-01,1.954463124275207520e-01,-3.832791149616241455e-01,3.318625986576080322e-01,5.707830786705017090e-01,5.590606331825256348e-01,-7.462387531995773315e-02,-2.835355699062347412e-01,1.641734689474105835e-01,-2.406434118747711182e-01,5.788038372993469238e-01,2.013015598058700562e-01,5.196443945169448853e-02,6.405438482761383057e-02,-2.427618056535720825e-01,8.118597269058227539e-01
-4.632607102394104004e-01,-8.343597874045372009e-03,6.568412780761718750e-01,5.057235360145568848e-01,6.396436598151922226e-03,3.240553140640258789e-01,7.184055284596979618e-04,-3.811216950416564941e-01,4.806992411613464355e-01,1.854450255632400513e-01,6.767438054084777832e-01,-2.556501887738704681e-02,-6.657586991786956787e-02,7.699310779571533203e-02,-3.749051988124847412e-01,4.484053254127502441e-01,1.942669898271560669e-01,-1.627461239695549011e-02,-2.955724857747554779e-02,-2.779232561588287354e-01,7.967687249183654785e-01
-3.430319428443908691e-01,1.194311752915382385e-01,5.291627049446105957e-01,5.630347132682800293e-01,3.886495903134346008e-02,3.724770247936248779e-01,7.369031012058258057e-02,-4.111861586570739746e-01,3.744997382164001465e-01,2.029000222682952881e-01,4.151692092418670654e-01,-2.158899009227752686e-01,1.158996485173702240e-02,-2.403547614812850952e-02,-1.986771076917648315e-01,4.324927926063537598e-01,2.171938717365264893e-01,1.351170688867568970e-01,-1.811782270669937134e-02,-1.729765832424163818e-01,6.178520321846008301e-01
-2.677028477191925049e-01,1.830219328403472900e-01,5.317969322204589844e-01,4.660561084747314453e-01,-2.384722232818603516e-01,2.041657716035842896e-01,-1.222190335392951965e-01,-5.703916549682617188e-01,4.156660437583923340e-01,1.535154432058334351e-01,2.077848464250564575e-01,-2.206555157899856567e-01,-1.489500403404235840e-01,-3.042154200375080109e-02,-2.580285072326660156e-01,7.359236478805541992e-01,1.009120792150497437e-01,-3.079903870820999146e-02,-2.407887764275074005e-02,1.918914765119552612e-01,4.282127618789672852e-01
-1.188235953450202942e-01,1.269092410802841187e-01,6.308807730674743652e-01,3.185724914073944092e-01,-1.752623021602630615e-01,1.999836415052413940e-01,-3.124740123748779297e-01,-3.254405856132507324e-01,3.403589725494384766e-01,1.498036533594131470e-01,2.736568748950958252e-01,-1.727048158645629883e-01,-1.428786814212799072e-01,1.922755390405654907e-01,-3.168442845344543457e-01,5.831001400947570801e-01,1.789069473743438721e-01,-1.876851916313171387e-01,-1.676254421472549438e-01,4.859159514307975769e-02,5.333619713783264160e-01
-3.848067522048950195e-01,2.481951713562011719e-01,4.138741791248321533e-01,5.994374752044677734e-01,-1.998404264450073242e-01,2.117669582366943359e-01,-1.580923050642013550e-01,-2.083864808082580566e-01,4.503463804721832275e-01,-6.383994128555059433e-03,3.685880899429321289e-01,-2.626398950815200806e-02,2.346774935722351074e-02,3.151777684688568115e-01,-2.897305190563201904e-01,6.611307859420776367e-01,-9.071097709238529205e-03,-5.065459385514259338e-02,-7.335906475782394409e-02,1.855116337537765503e-01,5.107110738754272461e-01
-7.255962491035461426e-02,2.574690878391265869e-01,6.777131557464599609e-01,4.811382591724395752e-01,-3.439471721649169922e-01,2.806350588798522949e-01,-6.330289691686630249e-02,-2.827600240707397461e-01,1.856859624385833740e-01,2.043879032135009766e-02,3.299115598201751709e-01,-2.560317516326904297e-01,-2.599778771400451660e-01,3.530598878860473633e-01,-5.052471160888671875e-01,5.231444239616394043e-01,-1.590354740619659424e-01,-5.367743596434593201e-02,-2.223362624645233154e-01,8.807557076215744019e-02,5.206843018531799316e-01
-2.045427709817886353e-01,3.233309686183929443e-01,5.338603854179382324e-01,5.197871923446655273e-01,-2.337571829557418823e-01,3.188171237707138062e-02,-1.774286478757858276e-01,-2.138325273990631104e-01,3.404609560966491699e-01,-5.602753907442092896e-02,2.212409228086471558e-01,-3.439228609204292297e-02,-2.291756570339202881e-01,3.889137804508209229e-01,-3.320386111736297607e-01,3.587901294231414795e-01,1.708233356475830078e-02,-1.795121096074581146e-02,-3.113348782062530518e-01,3.779006898403167725e-01,5.267618298530578613e-01
-1.156121343374252319e-01,3.806732296943664551e-01,3.338662981986999512e-01,4.463467299938201904e-01,-5.076684355735778809e-01,1.210547704249620438e-02,-2.418068349361419678e-01,-2.733026146888732910e-01,1.704256832599639893e-01,-9.078519046306610107e-02,3.329130113124847412e-01,-2.900725901126861572e-01,-2.069722414016723633e-01,5.158576965332031250e-01,-5.260311961174011230e-01,3.337324559688568115e-01,-3.433095216751098633e-01,9.046128019690513611e-03,-1.235872954130172729e-01,4.100795686244964600e-01,3.778156638145446777e-01
-2.977019846439361572e-01,4.050920605659484863e-01,6.134005188941955566e-01,4.401135444641113281e-01,-4.513874650001525879e-01,1.911657154560089111e-01,-9.808205813169479370e-02,-1.624682545661926270e-01,2.925406694412231445e-01,-1.060289964079856873e-01,3.482652306556701660e-01,-2.410982102155685425e-01,-2.567444443702697754e-01,2.243609726428985596e-01,-4.842017889022827148e-01,4.276255667209625244e-01,-9.342571347951889038e-02,-2.192294597625732422e-01,-1.729039102792739868e-01,5.851328372955322266e-01,2.512480616569519043e-01
-3.316516876220703125e-01,5.964598059654235840e-01,5.182881355285644531e-01,1.272072046995162964e-01,-4.549006819725036621e-01,1.425363272428512573e-01,-2.829411923885345459e-01,-1.272009760141372681e-01,2.983762323856353760e-01,-1.787359118461608887e-01,4.395160973072052002e-01,-1.439747363328933716e-01,-4.154384732246398926e-01,2.406671047210693359e-01,-4.666607677936553955e-01,1.270618885755538940e-01,-2.145430296659469604e-01,-1.027206853032112122e-01,-2.266530096530914307e-01,5.501059293746948242e-01,1.106681153178215027e-01
-8.474040776491165161e-02,4.588611125946044922e-01,5.019835829734802246e-01,4.437853693962097168e-01,-4.696599543094635010e-01,5.547715723514556885e-02,-3.979219794273376465e-01,-1.730642165057361126e-03,1.162279397249221802e-01,-1.807108372449874878e-01,5.334765911102294922e-01,-1.063510999083518982e-01,-2.700361013412475586e-01,5.631549954414367676e-01,-5.075951814651489258e-01,2.458489090204238892e-01,-3.269524276256561279e-01,-5.815397202968597412e-02,-2.906377017498016357e-01,7.941668033599853516e-01,9.728930145502090454e-02
-1.244868561625480652e-01,5.760461688041687012e-01,4.629032611846923828e-01,3.929090797901153564e-01,-3.259385228157043457e-01,1.512573212385177612e-01,-1.022704839706420898e-01,6.678149104118347168e-02,1.597468703985214233e-01,-1.411418169736862183e-01,3.458158969879150391e-01,-5.256573483347892761e-02,-1.749937683343887329e-01,5.224639177322387695e-01,-3.128560185432434082e-01,2.387008517980575562e-01,-5.071657896041870117e-01,2.598859742283821106e-02,-1.216717287898063660e-01,6.720602512359619141e-01,3.096460998058319092e-01
-2.203029543161392212e-01,5.136091709136962891e-01,5.516484975814819336e-01,2.861799299716949463e-01,-4.737550914287567139e-01,-4.741682112216949463e-02,-2.664375901222229004e-01,4.015928506851196289e-01,1.216678023338317871e-01,-4.142349644098430872e-04,2.423451393842697144e-01,2.331840544939041138e-01,-3.760959506034851074e-01,3.909966647624969482e-01,-4.491644799709320068e-01,1.143974214792251587e-01,-5.773218274116516113e-01,1.402407586574554443e-01,-1.722403168678283691e-01,7.247925996780395508e-01,3.039278686046600342e-01
-1.847603321075439453e-01,5.720527172088623047e-01,3.955334424972534180e-01,2.170945256948471069e-01,-2.905428409576416016e-01,8.718565106391906738e-02,-5.245818495750427246e-01,4.855027198791503906e-01,-1.763292551040649414e-01,-7.235520333051681519e-02,2.405861765146255493e-01,-2.292431890964508057e-02,-2.595611214637756348e-01,5.398862957954406738e-01,-7.075585722923278809e-01,-2.308857887983322144e-01,-4.550144672393798828e-01,2.020879881456494331e-03,-1.054720580577850342e-01,8.019964098930358887e-01,1.058972254395484924e-01
-1.309842318296432495e-01,2.715659737586975098e-01,6.390776038169860840e-01,4.547883272171020508e-01,-9.986004233360290527e-02,2.387001365423202515e-01,-5.120851993560791016e-01,4.012235105037689209e-01,-1.880397498607635498e-01,-2.791701816022396088e-02,1.289750784635543823e-01,1.518977433443069458e-01,-5.290418267250061035e-01,5.186130404472351074e-01,-4.548532962799072266e-01,-1.487323641777038574e-01,-7.373656630516052246e-01,2.301802486181259155e-01,-1.192487776279449463e-01,5.634190440177917480e-01,2.987113893032073975e-01
-4.261589348316192627e-01,2.738273441791534424e-01,4.076098501682281494e-01,2.253027707338333130e-01,-5.018346384167671204e-02,9.863999485969543457e-02,-4.815787374973297119e-01,4.403174221515655518e-01,-1.593967527151107788e-01,-2.178276926279067993e-01,8.981662243604660034e-02,6.965192407369613647e-02,-4.049364924430847168e-01,3.616432249546051025e-01,-3.351039290428161621e-01,-2.082453370094299316e-01,-8.328437209129333496e-01,4.315332174301147461e-01,-2.675128281116485596e-01,6.660733819007873535e-01,9.768246114253997803e-02
-3.440243303775787354e-01,4.870291054248809814e-01,4.169597029685974121e-01,3.508568406105041504e-01,1.538981869816780090e-02,1.764170527458190918e-01,-4.450238645076751709e-01,4.826699793338775635e-01,-1.340086162090301514e-01,-1.850947886705398560e-01,-2.820859849452972412e-02,2.193299233913421631e-01,-2.869616746902465820e-01,4.858855605125427246e-01,-4.200366139411926270e-01,-2.353650182485580444e-01,-5.405942797660827637e-01,3.070773482322692871e-01,-1.379590183496475220e-01,6.479013562202453613e-01,1.133896857500076294e-01
-2.479805797338485718e-01,1.013500317931175232e-01,3.786222934722900391e-01,1.804737150669097900e-01,1.122250258922576904e-01,1.461901962757110596e-01,-4.912191331386566162e-01,2.730782628059387207e-01,-1.074977740645408630e-01,-1.484837532043457031e-01,1.317937858402729034e-02,9.046293795108795166e-02,-3.760844767093658447e-01,5.419180393218994141e-01,-4.593505263328552246e-01,-1.389300972223281860e-01,-1.023288011550903320e+00,3.058836460113525391e-01,-3.949945569038391113e-01,5.815331935882568359e-01,7.565055042505264282e-02
-2.055102214217185974e-02,2.060600966215133667e-01,1.917022466659545898e-01,-1.763259060680866241e-02,1.658706218004226685e-01,2.886582612991333008e-01,-6.272385716438293457e-01,4.576060175895690918e-01,-3.120589442551136017e-02,-1.186782717704772949e-01,-1.438198834657669067e-01,4.320397973060607910e-01,-4.257856011390686035e-01,3.101621568202972412e-01,-6.279585957527160645e-01,-5.049593448638916016e-01,-7.861523032188415527e-01,3.724912405014038086e-01,-3.596234917640686035e-01,5.297852158546447754e-01,-3.762100264430046082e-02
-3.546792566776275635e-01,1.609008908271789551e-01,2.398830056190490723e-01,-7.596461474895477295e-02,3.250027000904083252e-01,4.294001162052154541e-01,-4.930169582366943359e-01,4.191337823867797852e-01,-1.957534849643707275e-01,-5.789484828710556030e-02,-2.263042777776718140e-01,1.131883338093757629e-01,-6.741259098052978516e-01,1.917631030082702637e-01,-6.124901771545410156e-01,-3.323956429958343506e-01,-8.217105865478515625e-01,4.765639603137969971e-01,-5.230740308761596680e-01,5.693841576576232910e-01,-1.009963452816009521e-01
-3.398454785346984863e-01,-7.536221295595169067e-02,1.709656715393066406e-01,-3.734904527664184570e-01,3.795775175094604492e-01,4.474117159843444824e-01,-3.188672065734863281e-01,4.515658020973205566e-01,-1.885329931974411011e-01,-3.168898820877075195e-01,4.799707606434822083e-02,2.914444208145141602e-01,-5.087488293647766113e-01,3.633888661861419678e-01,-5.301181674003601074e-01,-2.479410320520401001e-01,-8.980441689491271973e-01,4.943473041057586670e-01,-3.935241699218750000e-01,5.806288123130798340e-01,-2.650312185287475586e-01
-2.532721459865570068e-01,-8.132307976484298706e-02,-4.422876611351966858e-02,-4.338554441928863525e-01,3.167173862457275391e-01,5.187014937400817871e-01,-2.327430397272109985e-01,3.117334544658660889e-01,-3.241310119628906250e-01,-3.293794095516204834e-01,-2.708439826965332031e-01,2.808487117290496826e-01,-6.714625954627990723e-01,2.069969922304153442e-01,-7.301524877548217773e-01,-2.581338882446289062e-01,-6.536439657211303711e-01,5.537813305854797363e-01,-6.577841639518737793e-01,5.318556427955627441e-01,-5.402371287345886230e-01
-3.796847760677337646e-01,-1.847031712532043457e-01,1.399292703717947006e-02,-3.528860509395599365e-01,3.266513645648956299e-01,5.106219649314880371e-01,-3.934224545955657959e-01,1.935117095708847046e-01,-3.847544267773628235e-02,-2.397922426462173462e-01,-3.022403120994567871e-01,-1.607146859169006348e-02,-6.559457778930664062e-01,2.844919264316558838e-01,-6.741270422935485840e-01,-6.426027044653892517e-03,-4.845763742923736572e-01,3.552578389644622803e-01,-6.436278820037841797e-01,4.221509099006652832e-01,-4.192781150341033936e-01
-1.320871710777282715e-01,-7.459054142236709595e-02,-1.941977441310882568e-01,-7.379247546195983887e-01,3.012040257453918457e-01,6.985335946083068848e-01,-1.435167994350194931e-02,1.703901737928390503e-01,1.884927600622177124e-02,-4.853479862213134766e-01,-3.603648543357849121e-01,1.713084056973457336e-02,-6.375387907028198242e-01,2.063239067792892456e-01,-7.145151495933532715e-01,-2.227671295404434204e-01,-5.943745374679565430e-01,4.633864164352416992e-01,-4.510239660739898682e-01,1.076554134488105774e-01,-4.756639301776885986e-01
-1.056203544139862061e-01,5.322562158107757568e-02,-7.926313579082489014e-02,-6.369938254356384277e-01,3.384672701358795166e-01,6.905604600906372070e-01,-3.742273896932601929e-02,1.245059520006179810e-01,-4.563838243484497070e-03,-3.432963192462921143e-01,-1.920288950204849243e-01,-4.298150539398193359e-02,-4.246484339237213135e-01,3.025050759315490723e-01,-4.808789491653442383e-01,-1.280905306339263916e-01,-5.231854915618896484e-01,4.838290512561798096e-01,-6.414310336112976074e-01,2.420241534709930420e-01,-6.376401782035827637e-01
-3.685017302632331848e-02,-2.296177446842193604e-01,1.510846614837646484e-01,-6.619513034820556641e-01,2.091992795467376709e-01,6.656504869461059570e-01,7.781150192022323608e-02,4.478636384010314941e-02,6.081720814108848572e-02,-4.111927747726440430e-01,-4.404776394367218018e-01,-6.453950703144073486e-02,-4.871179759502410889e-01,3.020493388175964355e-01,-5.294428467750549316e-01,3.474782407283782959e-02,-3.400901854038238525e-01,5.173316597938537598e-01,-5.284969210624694824e-01,5.694120004773139954e-02,-8.176854848861694336e-01
-3.389820754528045654e-01,-1.549946218729019165e-01,1.364786922931671143e-01,-6.292400360107421875e-01,4.379921853542327881e-01,9.276228547096252441e-01,4.272028803825378418e-01,1.895763576030731201e-01,2.274133563041687012e-01,-2.002690881490707397e-01,-3.389800488948822021e-01,-1.875898540019989014e-01,-4.945575892925262451e-01,1.862902790307998657e-01,-2.980350553989410400e-01,1.875493675470352173e-02,-6.373369097709655762e-01,2.800871729850769043e-01,-5.407873988151550293e-01,7.416875660419464111e-02,-7.383905649185180664e-01
-1.472783386707305908e-01,-2.723897695541381836e-01,4.600889235734939575e-02,-5.957011580467224121e-01,4.734208583831787109e-01,9.919818043708801270e-01,2.554920911788940430e-01,1.034315228462219238e-01,1.767139732837677002e-01,-2.021426856517791748e-01,-2.977863550186157227e-01,-9.307147562503814697e-02,-4.071097075939178467e-01,4.314824044704437256e-01,-1.933530569076538086e-01,8.100121468305587769e-02,-1.911880224943161011e-01,3.116160333156585693e-01,-5.712715387344360352e-01,-1.354976184666156769e-02,-5.352233052253723145e-01
-3.123408555984497070e-01,-2.513526082038879395e-01,-2.760462090373039246e-02,-8.818600177764892578e-01,4.219429790973663330e-01,7.318632602691650391e-01,3.862519562244415283e-01,-4.706656560301780701e-02,2.089246958494186401e-01,-1.839736104011535645e-01,-3.486258983612060547e-01,-3.520423769950866699e-01,-3.620972335338592529e-01,3.552423715591430664e-01,-6.273750215768814087e-02,1.498451381921768188e-01,-3.290183842182159424e-01,1.930326670408248901e-01,-4.480850398540496826e-01,1.672990024089813232e-01,-7.231137156486511230e-01
-2.771075367927551270e-01,-2.947704195976257324e-01,1.442540138959884644e-01,-6.590644121170043945e-01,4.341565668582916260e-01,9.328849911689758301e-01,3.313055038452148438e-01,-8.467578887939453125e-02,4.952987134456634521e-01,3.262367844581604004e-02,-2.199231386184692383e-01,-4.799487292766571045e-01,-7.564514875411987305e-02,3.451598882675170898e-01,1.157041266560554504e-01,1.171760261058807373e-02,-1.525389403104782104e-01,2.361661195755004883e-01,-2.811784148216247559e-01,-1.649985462427139282e-01,-7.789108157157897949e-01
-2.636354565620422363e-01,-3.936218321323394775e-01,1.054104045033454895e-01,-6.459076404571533203e-01,1.791094392538070679e-01,8.639210462570190430e-01,5.229141116142272949e-01,-1.484490744769573212e-02,5.047886371612548828e-01,8.224222809076309204e-02,1.443606242537498474e-02,-3.259070813655853271e-01,2.365352027118206024e-02,4.312671124935150146e-01,2.898733913898468018e-01,-1.488071084022521973e-01,-2.906147241592407227e-01,1.086578816175460815e-01,-2.173022180795669556e-01,-3.360802680253982544e-02,-7.444677948951721191e-01
-5.523665547370910645e-01,-7.163619250059127808e-02,2.779299318790435791e-01,-7.789385318756103516e-01,4.775823652744293213e-01,6.415057778358459473e-01,3.948634564876556396e-01,6.587172299623489380e-02,5.290359854698181152e-01,2.084420770406723022e-01,-9.370198845863342285e-02,-7.021040320396423340e-01,1.015337109565734863e-01,4.359233975410461426e-01,9.680278599262237549e-02,2.927001714706420898e-01,-1.531725227832794189e-01,2.665355801582336426e-02,-2.996640801429748535e-01,-1.046785190701484680e-01,-7.186333537101745605e-01
-5.738379359245300293e-01,-3.897795975208282471e-01,3.320233225822448730e-01,-4.894672036170959473e-01,5.556735396385192871e-01,5.904090404510498047e-01,3.986296355724334717e-01,-1.796063631772994995e-01,3.426364362239837646e-01,3.274279832839965820e-01,1.388900429010391235e-01,-5.823969244956970215e-01,1.533020287752151489e-01,3.668399453163146973e-01,3.704875111579895020e-01,-7.500832527875900269e-02,-1.851008832454681396e-01,-1.275214999914169312e-01,-1.689048707485198975e-01,-1.574006974697113037e-01,-6.136208772659301758e-01
-7.561417818069458008e-01,-2.850835323333740234e-01,1.719085723161697388e-01,-5.983940958976745605e-01,3.385605514049530029e-01,5.647456049919128418e-01,4.918717145919799805e-01,-1.332319676876068115e-01,2.302846163511276245e-01,3.375675678253173828e-01,1.808272749185562134e-01,-8.326169252395629883e-01,1.094227284193038940e-01,1.335120946168899536e-01,1.722021549940109253e-01,1.881905198097229004e-01,-2.217628508806228638e-01,7.217905670404434204e-02,-1.779855936765670776e-01,-2.880441388697363436e-05,-8.958768844604492188e-01
-6.887977719306945801e-01,-2.364822030067443848e-01,2.417731136083602905e-01,-3.985429406166076660e-01,1.904774606227874756e-01,4.645986557006835938e-01,5.076764822006225586e-01,-6.990561261773109436e-03,2.692709565162658691e-01,4.265237748622894287e-01,2.422465942800045013e-02,-8.423362970352172852e-01,2.460369318723678589e-01,-9.589841961860656738e-02,1.640015393495559692e-01,1.859413236379623413e-01,-1.685277968645095825e-01,-2.113703638315200806e-01,-7.830590009689331055e-02,1.746171861886978149e-01,-5.697875618934631348e-01
-6.127598881721496582e-01,-3.303992748260498047e-01,2.226932197809219360e-01,-5.372241735458374023e-01,7.742856442928314209e-02,4.855598211288452148e-01,5.632078051567077637e-01,7.866011001169681549e-03,1.437541395425796509e-01,3.380353152751922607e-01,3.347217738628387451e-01,-1.179098367691040039e+00,3.555842339992523193e-01,2.024559676647186279e-02,4.195749163627624512e-01,2.280328571796417236e-01,-1.800063699483871460e-01,-3.419169783592224121e-01,-7.020811736583709717e-02,7.605578750371932983e-03,-7.307023406028747559e-01
-7.866940498352050781e-01,-1.477613449096679688e-01,4.734194576740264893e-01,-4.562181234359741211e-01,3.761253058910369873e-01,4.126023948192596436e-01,4.682195782661437988e-01,-7.587859872728586197e-03,4.943256974220275879e-01,6.416908502578735352e-01,1.475030481815338135e-01,-9.446213841438293457e-01,2.565737664699554443e-01,-1.001061573624610901e-01,2.852079868316650391e-01,2.833041548728942871e-01,-1.168308332562446594e-01,-2.430016994476318359e-01,-1.350597199052572250e-02,-4.565159603953361511e-02,-5.193224549293518066e-01
-6.863891482353210449e-01,-5.634197220206260681e-02,6.621475815773010254e-01,-3.015400171279907227e-01,8.561036735773086548e-02,3.618805706501007080e-01,5.586001873016357422e-01,4.042436182498931885e-02,4.466735720634460449e-01,6.924832463264465332e-01,5.610414743423461914e-01,-8.909286856651306152e-01,3.171923160552978516e-01,4.594207182526588440e-02,3.464253842830657959e-01,2.261285781860351562e-01,-1.582490205764770508e-01,-2.894413471221923828e-01,-4.662200342863798141e-03,-2.901853024959564209e-01,-6.729585528373718262e-01
-8.328731656074523926e-01,-2.404747903347015381e-01,6.628776192665100098e-01,-2.760144472122192383e-01,-4.883298650383949280e-02,3.262731134891510010e-01,4.901342093944549561e-01,3.993423283100128174e-01,4.608774781227111816e-01,5.772856473922729492e-01,6.868585944175720215e-01,-1.071419835090637207e+00,1.634073257446289062e-01,-2.382660359144210815e-01,2.995624542236328125e-01,4.168893098831176758e-01,-1.702744215726852417e-01,-1.424259692430496216e-02,1.725890636444091797e-01,-2.005142271518707275e-01,-3.816105723381042480e-01
-9.708648324012756348e-01,7.341931760311126709e-02,6.297405958175659180e-01,-2.960810959339141846e-01,-8.758767694234848022e-02,1.853960305452346802e-01,3.900752067565917969e-01,5.351779609918594360e-02,2.460758537054061890e-01,7.791699767112731934e-01,6.381912231445312500e-01,-1.014466643333435059e+00,1.177239492535591125e-01,5.562501028180122375e-03,4.323341548442840576e-01,2.250319868326187134e-01,-1.507487297058105469e-01,-2.087709307670593262e-01,1.935425847768783569e-01,-3.612357378005981445e-01,-2.710262238979339600e-01
-4.924791455268859863e-01,1.930051855742931366e-02,6.580115556716918945e-01,-1.979160606861114502e-01,1.381504535675048828e-01,2.544544637203216553e-01,4.314599633216857910e-01,1.785653531551361084e-01,4.623908400535583496e-01,7.499017119407653809e-01,8.017821907997131348e-01,-8.628379702568054199e-01,2.515309453010559082e-01,-1.557306647300720215e-01,1.795878708362579346e-01,6.122866868972778320e-01,-3.737280517816543579e-02,-2.896534502506256104e-01,6.694163382053375244e-02,-1.496374011039733887e-01,-2.607758045196533203e-01
-5.870681405067443848e-01,1.493051350116729736e-01,6.123022437095642090e-01,-2.161095887422561646e-01,2.177532762289047241e-01,2.447738349437713623e-01,3.506554961204528809e-01,1.241662800312042236e-01,6.531292200088500977e-01,6.448665261268615723e-01,8.628367781639099121e-01,-7.899088859558105469e-01,1.804712563753128052e-01,-6.139413639903068542e-02,2.126281112432479858e-01,4.623531401157379150e-01,-1.937370598316192627e-01,-5.218685790896415710e-02,1.886703073978424072e-01,-5.164995789527893066e-01,-3.094598948955535889e-01
-2.017809897661209106e-01,2.817753255367279053e-01,6.936473846435546875e-01,-3.028032481670379639e-01,2.002736032009124756e-01,5.964872986078262329e-02,4.961841106414794922e-01,4.100436866283416748e-01,5.702565312385559082e-01,1.091533422470092773e+00,7.643266916275024414e-01,-7.556603550910949707e-01,3.665709197521209717e-01,-1.128680258989334106e-01,3.590791225433349609e-01,3.377272188663482666e-01,-3.296811878681182861e-01,-1.142332106828689575e-01,1.271239966154098511e-01,-5.249878168106079102e-01,-2.594638168811798096e-01
-5.867767333984375000e-01,2.560207843780517578e-01,3.793170750141143799e-01,-5.028048902750015259e-02,2.569158077239990234e-01,1.966972351074218750e-01,1.568110585212707520e-01,4.471636116504669189e-01,4.569233953952789307e-01,6.972196102142333984e-01,7.740936875343322754e-01,-7.810346484184265137e-01,1.883353739976882935e-01,-6.996966153383255005e-02,3.076634407043457031e-01,3.683217465877532959e-01,-3.938103467226028442e-02,-2.370076328516006470e-01,-3.975098952651023865e-02,-6.617210507392883301e-01,-2.035565078258514404e-01
-1.964740753173828125e-01,7.264588028192520142e-02,5.453309416770935059e-01,-1.386450678110122681e-01,2.083216607570648193e-01,-2.332747355103492737e-02,1.747962534427642822e-01,3.320682346820831299e-01,6.773843765258789062e-01,8.305894136428833008e-01,7.023631334304809570e-01,-7.118050456047058105e-01,2.481705397367477417e-01,4.598699975758790970e-03,3.108701296150684357e-02,6.591327786445617676e-01,-4.182216897606849670e-02,-2.421912401914596558e-01,-1.556232422590255737e-01,-4.263975322246551514e-01,-9.348819404840469360e-02
-1.585262566804885864e-01,2.386636137962341309e-01,4.761853814125061035e-01,-1.245370600372552872e-02,4.012727141380310059e-01,2.241658330603968352e-05,2.264310121536254883e-01,2.817836999893188477e-01,6.425047516822814941e-01,9.379081130027770996e-01,7.968723773956298828e-01,-7.316703796386718750e-01,3.244176506996154785e-02,2.324163615703582764e-01,-7.833691686391830444e-02,5.865235924720764160e-01,-1.482561826705932617e-01,-9.319264441728591919e-02,-5.900113284587860107e-02,-7.047678232192993164e-01,7.855269312858581543e-02
-2.967205271124839783e-02,1.475606411695480347e-01,4.167984127998352051e-01,-1.356431543827056885e-01,3.483676016330718994e-01,-1.733907759189605713e-01,7.410760968923568726e-02,3.317536115646362305e-01,7.146957516670227051e-01,8.518176078796386719e-01,7.223868370056152344e-01,-8.827271461486816406e-01,2.280144840478897095e-01,1.090937182307243347e-01,-2.701052650809288025e-02,5.586990118026733398e-01,3.400704637169837952e-02,-9.719302505254745483e-02,-8.080287277698516846e-02,-7.202460765838623047e-01,-8.989919722080230713e-02
-7.682310044765472412e-02,4.384379684925079346e-01,1.817594170570373535e-01,-1.510878354310989380e-01,3.349342644214630127e-01,-1.447858959436416626e-01,2.485653460025787354e-01,3.261933028697967529e-01,6.783120036125183105e-01,7.805659770965576172e-01,6.608541011810302734e-01,-8.848481774330139160e-01,1.837790906429290771e-01,1.156971156597137451e-01,-1.590979099273681641e-02,6.259306669235229492e-01,-9.195403754711151123e-02,-1.938675791025161743e-01,-2.202257812023162842e-01,-6.431265473365783691e-01,3.859013319015502930e-03
