Fp1,Fp2,F7,F3,Fz,F4,F8,T3,C3,Cz,C4,T4,T5,P3,Pz,P4,T6,O1,Oz,O2,A1
-7.701058387756347656e+00,-2.434700489044189453e+00,-4.585070133209228516e+00,-3.172193050384521484e+00,4.297805309295654297e+00,-7.275701999664306641e+00,-1.062313365936279297e+01,-7.294308185577392578e+00,-7.209292888641357422e+00,-2.677953958511352539e+00,-5.119591236114501953e+00,-1.349092483520507812e+01,-6.704711914062500000e+00,-1.379243564605712891e+01,-1.312258720397949219e+00,-1.733627891540527344e+01,-4.228179931640625000e+00,-4.858313560485839844e+00,-1.170892238616943359e+01,-9.243326187133789062e+00,-5.233565345406532288e-02
-8.168078422546386719e+00,-3.667377471923828125e+00,-6.357152938842773438e+00,-4.954405784606933594e+00,4.175903320312500000e+00,-9.254974365234375000e+00,-1.261797618865966797e+01,-9.426498413085937500e+00,-9.557505607604980469e+00,-5.040529251098632812e+00,-7.261281967163085938e+00,-1.491736221313476562e+01,-9.737668037414550781e+00,-1.658224487304687500e+01,-5.166110992431640625e+00,-2.019025421142578125e+01,-6.048623085021972656e+00,-7.291042804718017578e+00,-1.484794616699218750e+01,-8.742608070373535156e+00,-5.387724936008453369e-02
-7.995450973510742188e+00,-4.529561519622802734e+00,-7.661517620086669922e+00,-6.391153812408447266e+00,4.668466091156005859e+00,-1.068486690521240234e+01,-1.420864200592041016e+01,-1.111830043792724609e+01,-1.149942016601562500e+01,-7.114802837371826172e+00,-9.135626792907714844e+00,-1.582590389251708984e+01,-1.248641300201416016e+01,-1.877029609680175781e+01,-8.642765045166015625e+00,-2.242782974243164062e+01,-7.363338947296142578e+00,-9.308825492858886719e+00,-1.743202209472656250e+01,-7.987256050109863281e+00,-5.403140932321548462e-02
-7.123063087463378906e+00,-4.823196887969970703e+00,-8.095140457153320312e+00,-7.053026199340820312e+00,5.772519111633300781e+00,-1.139379215240478516e+01,-1.496780204772949219e+01,-1.197309112548828125e+01,-1.253809356689453125e+01,-8.380334854125976562e+00,-1.034014511108398438e+01,-1.588819313049316406e+01,-1.444843006134033203e+01,-1.986014366149902344e+01,-1.115741825103759766e+01,-2.361075210571289062e+01,-7.777912616729736328e+00,-1.039675331115722656e+01,-1.895115470886230469e+01,-7.207200527191162109e+00,-5.264397338032722473e-02
-5.631064891815185547e+00,-4.443835735321044922e+00,-7.359030723571777344e+00,-6.585948467254638672e+00,7.315617561340332031e+00,-1.129445266723632812e+01,-1.461667823791503906e+01,-1.168998432159423828e+01,-1.227682495117187500e+01,-8.389070510864257812e+00,-1.056860542297363281e+01,-1.484083461761474609e+01,-1.521456336975097656e+01,-1.946398735046386719e+01,-1.225977134704589844e+01,-2.338984489440917969e+01,-7.003106594085693359e+00,-1.011431026458740234e+01,-1.899765777587890625e+01,-6.620971679687500000e+00,-5.004697665572166443e-02
-3.784562826156616211e+00,-3.444687604904174805e+00,-5.461931705474853516e+00,-4.921043395996093750e+00,8.939983367919921875e+00,-1.043802261352539062e+01,-1.321507930755615234e+01,-1.021974468231201172e+01,-1.067296028137207031e+01,-7.003725528717041016e+00,-9.822951316833496094e+00,-1.265980052947998047e+01,-1.472028350830078125e+01,-1.753335380554199219e+01,-1.186064338684082031e+01,-2.172057151794433594e+01,-5.056450843811035156e+00,-8.375484466552734375e+00,-1.753588104248046875e+01,-6.376788616180419922e+00,-4.697564244270324707e-02
-1.996630787849426270e+00,-2.065192937850952148e+00,-2.830472230911254883e+00,-2.396241903305053711e+00,1.019864368438720703e+01,-9.059305191040039062e+00,-1.122891712188720703e+01,-7.872830390930175781e+00,-8.166919708251953125e+00,-4.572507381439208984e+00,-8.493021965026855469e+00,-9.668108940124511719e+00,-1.337062549591064453e+01,-1.449782752990722656e+01,-1.035331344604492188e+01,-1.897704696655273438e+01,-2.366542577743530273e+00,-5.605683326721191406e+00,-1.503086185455322266e+01,-6.447098255157470703e+00,-4.426006227731704712e-02
-7.080866694450378418e-01,-6.896397471427917480e-01,-2.173714935779571533e-01,2.996779084205627441e-01,1.069814395904541016e+01,-7.546628952026367188e+00,-9.392272949218750000e+00,-5.246912956237792969e+00,-5.587298393249511719e+00,-1.859227538108825684e+00,-7.245727539062500000e+00,-6.474420070648193359e+00,-1.193309497833251953e+01,-1.116476726531982422e+01,-8.505335807800292969e+00,-1.588078498840332031e+01,3.128480613231658936e-01,-2.645262002944946289e+00,-1.232897663116455078e+01,-6.630472660064697266e+00,-4.245758429169654846e-02
-2.349012494087219238e-01,2.474312484264373779e-01,1.560830831527709961e+00,2.352020740509033203e+00,1.025017929077148438e+01,-6.334983348846435547e+00,-8.434400558471679688e+00,-3.049074888229370117e+00,-3.846933841705322266e+00,2.350150495767593384e-01,-6.754781246185302734e+00,-3.766592025756835938e+00,-1.123423767089843750e+01,-8.415075302124023438e+00,-7.144207000732421875e+00,-1.322455596923828125e+01,2.164844274520874023e+00,-4.601062834262847900e-01,-1.034635353088378906e+01,-6.676078796386718750e+00,-4.166306927800178528e-02
-6.233140826225280762e-01,4.533700942993164062e-01,1.974345922470092773e+00,3.169944524765014648e+00,8.956831932067871094e+00,-5.725397586822509766e+00,-8.763337135314941406e+00,-1.799028754234313965e+00,-3.539810657501220703e+00,1.057485699653625488e+00,-7.385719776153564453e+00,-2.009129047393798828e+00,-1.176558876037597656e+01,-6.815407276153564453e+00,-6.778705120086669922e+00,-1.150361824035644531e+01,2.656548023223876953e+00,2.977243661880493164e-01,-9.659643173217773438e+00,-6.394841194152832031e+00,-4.137846454977989197e-02
-1.642127037048339844e+00,-1.063105985522270203e-01,9.978208541870117188e-01,2.618922233581542969e+00,7.167947769165039062e+00,-5.761520862579345703e+00,-1.028840827941894531e+01,-1.633541226387023926e+00,-4.679792404174804688e+00,4.921151399612426758e-01,-9.018965721130371094e+00,-1.247413277626037598e+00,-1.343927478790283203e+01,-6.365761280059814453e+00,-7.360584259033203125e+00,-1.069124984741210938e+01,1.760788321495056152e+00,-4.403468966484069824e-01,-1.023319339752197266e+01,-5.722150325775146484e+00,-4.074997082352638245e-02
-2.918340444564819336e+00,-1.206950306892395020e+00,-9.263793826103210449e-01,1.031504392623901367e+00,5.319599628448486328e+00,-6.217581272125244141e+00,-1.249836349487304688e+01,-2.296859025955200195e+00,-6.732612133026123047e+00,-1.050485491752624512e+00,-1.112468719482421875e+01,-1.113935112953186035e+00,-1.562920951843261719e+01,-6.541273593902587891e+00,-8.340128898620605469e+00,-1.027615833282470703e+01,-7.104894518852233887e-02,-2.184984683990478516e+00,-1.147020149230957031e+01,-4.716914176940917969e+00,-3.884076327085494995e-02
-4.100533485412597656e+00,-2.482982873916625977e+00,-3.133833169937133789e+00,-9.993141293525695801e-01,3.758662462234497070e+00,-6.733848094940185547e+00,-1.471989345550537109e+01,-3.332181692123413086e+00,-8.917665481567382812e+00,-2.897612333297729492e+00,-1.303500175476074219e+01,-1.069442391395568848e+00,-1.749099731445312500e+01,-6.589748382568359375e+00,-8.962944984436035156e+00,-9.529706001281738281e+00,-2.162323474884033203e+00,-4.180682659149169922e+00,-1.253204441070556641e+01,-3.512151718139648438e+00,-3.492748364806175232e-02
-5.003747463226318359e+00,-3.588549137115478516e+00,-5.074644088745117188e+00,-2.948340415954589844e+00,2.630823135375976562e+00,-7.007785320281982422e+00,-1.644657135009765625e+01,-4.359298229217529297e+00,-1.060684299468994141e+01,-4.481399059295654297e+00,-1.427451896667480469e+01,-7.028222084045410156e-01,-1.837520790100097656e+01,-5.941188812255859375e+00,-8.672004699707031250e+00,-7.910315036773681641e+00,-3.946830987930297852e+00,-5.820712089538574219e+00,-1.276921463012695312e+01,-2.199074268341064453e+00,-2.879667468369007111e-02
-5.606403827667236328e+00,-4.333476543426513672e+00,-6.524132251739501953e+00,-4.573425769805908203e+00,1.901394724845886230e+00,-6.937043190002441406e+00,-1.751441001892089844e+01,-5.251016139984130859e+00,-1.160072803497314453e+01,-5.633357048034667969e+00,-1.475185394287109375e+01,5.533401295542716980e-02,-1.813081550598144531e+01,-4.475244045257568359e+00,-7.373742103576660156e+00,-5.314656734466552734e+00,-5.198440074920654297e+00,-6.912127494812011719e+00,-1.201274871826171875e+01,-7.472782135009765625e-01,-2.075666189193725586e-02
-5.968614101409912109e+00,-4.697071552276611328e+00,-7.576716423034667969e+00,-5.941295623779296875e+00,1.466314435005187988e+00,-6.636013031005859375e+00,-1.805652809143066406e+01,-6.138630867004394531e+00,-1.211366653442382812e+01,-6.541944026947021484e+00,-1.470324611663818359e+01,9.487481713294982910e-01,-1.706262207031250000e+01,-2.512850284576416016e+00,-5.410265922546386719e+00,-2.074092149734497070e+00,-6.024081707000732422e+00,-7.671120643615722656e+00,-1.056492233276367188e+01,9.011944532394409180e-01,-1.143593899905681610e-02
-6.099626541137695312e+00,-4.755207538604736328e+00,-8.466691970825195312e+00,-7.253201961517333984e+00,1.255216240882873535e+00,-6.333477973937988281e+00,-1.832276535034179688e+01,-7.251910686492919922e+00,-1.253915977478027344e+01,-7.565351963043212891e+00,-1.449520111083984375e+01,1.586773991584777832e+00,-1.570884323120117188e+01,-5.688434839248657227e-01,-3.315209150314331055e+00,1.260892510414123535e+00,-6.687574863433837891e+00,-8.482418060302734375e+00,-8.948131561279296875e+00,2.750144243240356445e+00,-1.285125268623232841e-03
-5.914668083190917969e+00,-4.565034389495849609e+00,-9.346176147460937500e+00,-8.626453399658203125e+00,1.279992938041687012e+00,-6.225107192993164062e+00,-1.846649360656738281e+01,-8.694797515869140625e+00,-1.314167594909667969e+01,-8.923239707946777344e+00,-1.437368011474609375e+01,1.707794308662414551e+00,-1.448824691772460938e+01,9.723209738731384277e-01,-1.502319693565368652e+00,4.221760272979736328e+00,-7.372980117797851562e+00,-9.586618423461914062e+00,-7.563860416412353516e+00,4.691256523132324219e+00,9.660203009843826294e-03
-5.254982471466064453e+00,-4.107830524444580078e+00,-1.015921878814697266e+01,-9.950198173522949219e+00,1.604073286056518555e+00,-6.350034713745117188e+00,-1.844913101196289062e+01,-1.032505416870117188e+01,-1.387215995788574219e+01,-1.050702667236328125e+01,-1.432507133483886719e+01,1.343843698501586914e+00,-1.349419498443603516e+01,2.065511465072631836e+00,-5.931813642382621765e-02,6.641048908233642578e+00,-8.056632041931152344e+00,-1.089073848724365234e+01,-6.477215290069580078e+00,6.464195728302001953e+00,2.186252363026142120e-02
-4.045045852661132812e+00,-3.348123073577880859e+00,-1.072834873199462891e+01,-1.096506881713867188e+01,2.229439258575439453e+00,-6.617951393127441406e+00,-1.813369941711425781e+01,-1.184453105926513672e+01,-1.444268417358398438e+01,-1.195477485656738281e+01,-1.417341327667236328e+01,7.636584043502807617e-01,-1.253721427917480469e+01,2.956444978713989258e+00,1.193622350692749023e+00,8.630994796752929688e+00,-8.575507164001464844e+00,-1.204026985168457031e+01,-5.466526985168457031e+00,7.748769283294677734e+00,3.598590940237045288e-02
-2.426659345626831055e+00,-2.340106487274169922e+00,-1.094341087341308594e+01,-1.146120452880859375e+01,3.007430315017700195e+00,-6.908445358276367188e+00,-1.747003746032714844e+01,-1.296191310882568359e+01,-1.457171821594238281e+01,-1.289331531524658203e+01,-1.377773952484130859e+01,2.644498646259307861e-01,-1.137702941894531250e+01,3.961043357849121094e+00,2.468492984771728516e+00,1.036974716186523438e+01,-8.811279296875000000e+00,-1.268070602416992188e+01,-4.252771377563476562e+00,8.371103286743164062e+00,5.227938666939735413e-02
-7.435370683670043945e-01,-1.287749171257019043e+00,-1.088571166992187500e+01,-1.143645191192626953e+01,3.702171325683593750e+00,-7.186898231506347656e+00,-1.659705162048339844e+01,-1.357326030731201172e+01,-1.418461513519287109e+01,-1.315665531158447266e+01,-1.315943908691406250e+01,-1.616689958609640598e-03,-9.928515434265136719e+00,5.243118286132812500e+00,3.812077999114990234e+00,1.192856693267822266e+01,-8.823550224304199219e+00,-1.268186855316162109e+01,-2.711936712265014648e+00,8.411008834838867188e+00,7.011446356773376465e-02
5.650441646575927734e-01,-5.063640475273132324e-01,-1.082451438903808594e+01,-1.114479732513427734e+01,4.106528282165527344e+00,-7.536092758178710938e+00,-1.579255580902099609e+01,-1.380302810668945312e+01,-1.348292350769042969e+01,-1.288083457946777344e+01,-1.252169513702392578e+01,-1.003905683755874634e-01,-8.342700958251953125e+00,6.727450370788574219e+00,5.041626453399658203e+00,1.319343852996826172e+01,-8.861238479614257812e+00,-1.221926689147949219e+01,-9.711346626281738281e-01,8.154474258422851562e+00,8.803254365921020508e-02
1.150745987892150879e+00,-2.856448888778686523e-01,-1.106318187713623047e+01,-1.095107841491699219e+01,4.172930240631103516e+00,-8.094503402709960938e+00,-1.534786415100097656e+01,-1.390013217926025391e+01,-1.281749057769775391e+01,-1.238660335540771484e+01,-1.212505054473876953e+01,-2.338687777519226074e-01,-6.913407802581787109e+00,8.164978981018066406e+00,5.863274574279785156e+00,1.395770549774169922e+01,-9.218840599060058594e+00,-1.165089321136474609e+01,6.859599947929382324e-01,7.971099376678466797e+00,1.041718646883964539e-01
9.303371906280517578e-01,-7.054054141044616699e-01,-1.171973514556884766e+01,-1.110282516479492188e+01,4.091662406921386719e+00,-8.938892364501953125e+00,-1.536812114715576172e+01,-1.406151676177978516e+01,-1.244211769104003906e+01,-1.196475887298583984e+01,-1.209685707092285156e+01,-5.622251629829406738e-01,-5.860317230224609375e+00,9.323359489440917969e+00,6.092810153961181641e+00,1.411269664764404297e+01,-1.002519989013671875e+01,-1.127546501159667969e+01,2.012875795364379883e+00,8.123120307922363281e+00,1.173702925443649292e-01
1.550528854131698608e-01,-1.559706687927246094e+00,-1.261583042144775391e+01,-1.157420730590820312e+01,4.226448059082031250e+00,-1.000002384185791016e+01,-1.569512844085693359e+01,-1.432137298583984375e+01,-1.235040664672851562e+01,-1.169892311096191406e+01,-1.232823371887207031e+01,-1.083680033683776855e+00,-5.188920497894287109e+00,1.013907337188720703e+01,5.810642719268798828e+00,1.376708412170410156e+01,-1.113569641113281250e+01,-1.114412307739257812e+01,2.967759132385253906e+00,8.572530746459960938e+00,1.280784457921981812e-01
-6.942148208618164062e-01,-2.411051988601684570e+00,-1.333183193206787109e+01,-1.205312347412109375e+01,4.950921058654785156e+00,-1.106567001342773438e+01,-1.598355102539062500e+01,-1.454977321624755859e+01,-1.227895832061767578e+01,-1.143308639526367188e+01,-1.252266788482666016e+01,-1.625601530075073242e+00,-4.674045562744140625e+00,1.070572757720947266e+01,5.335490226745605469e+00,1.322016143798828125e+01,-1.215854549407958984e+01,-1.103835296630859375e+01,3.718024730682373047e+00,8.972534179687500000e+00,1.383952796459197998e-01
-1.087251543998718262e+00,-2.753954887390136719e+00,-1.338953208923339844e+01,-1.208863830566406250e+01,6.478162288665771484e+00,-1.185587406158447266e+01,-1.586297321319580078e+01,-1.455114078521728516e+01,-1.184173393249511719e+01,-1.087520408630371094e+01,-1.234476089477539062e+01,-1.956627488136291504e+00,-3.990291833877563477e+00,1.120551967620849609e+01,5.067942619323730469e+00,1.281219577789306641e+01,-1.262483119964599609e+01,-1.060248374938964844e+01,4.534945964813232422e+00,8.867070198059082031e+00,1.510245054960250854e-01
-6.757189631462097168e-01,-2.256351470947265625e+00,-1.251441860198974609e+01,-1.134282112121582031e+01,8.737804412841796875e+00,-1.215840911865234375e+01,-1.514818668365478516e+01,-1.424341583251953125e+01,-1.079559612274169922e+01,-9.825586318969726562e+00,-1.162827110290527344e+01,-1.969975352287292480e+00,-2.955049991607666016e+00,1.168190956115722656e+01,5.236073493957519531e+00,1.268214511871337891e+01,-1.222603416442871094e+01,-9.585456848144531250e+00,5.542533874511718750e+00,7.918842315673828125e+00,1.673891395330429077e-01
5.557962656021118164e-01,-9.133149385452270508e-01,-1.079479026794433594e+01,-9.783384323120117188e+00,1.135819721221923828e+01,-1.193263626098632812e+01,-1.395687484741210938e+01,-1.375379180908203125e+01,-9.210926055908203125e+00,-8.341644287109375000e+00,-1.050541400909423828e+01,-1.805352210998535156e+00,-1.690517425537109375e+00,1.194099903106689453e+01,5.724383831024169922e+00,1.264651489257812500e+01,-1.096828937530517578e+01,-8.022140502929687500e+00,6.602826595306396484e+00,6.080343723297119141e+00,1.861728876829147339e-01
2.285158157348632812e+00,9.450613856315612793e-01,-8.660773277282714844e+00,-7.718127250671386719e+00,1.379028606414794922e+01,-1.133810234069824219e+01,-1.265945529937744141e+01,-1.339272785186767578e+01,-7.466295242309570312e+00,-6.742881298065185547e+00,-9.358253479003906250e+00,-1.812471032142639160e+00,-6.072207093238830566e-01,1.156155872344970703e+01,6.100120067596435547e+00,1.222607898712158203e+01,-9.168004989624023438e+00,-6.244957447052001953e+00,7.300387382507324219e+00,3.631863355636596680e+00,2.030118554830551147e-01
3.994482755661010742e+00,2.776833295822143555e+00,-6.704225540161132812e+00,-5.659327030181884766e+00,1.551276874542236328e+01,-1.067132091522216797e+01,-1.172087574005126953e+01,-1.353223037719726562e+01,-6.084240913391113281e+00,-5.469861507415771484e+00,-8.657319068908691406e+00,-2.410453557968139648e+00,-2.461217939853668213e-01,1.006218242645263672e+01,5.782864570617675781e+00,1.084362792968750000e+01,-7.299355983734130859e+00,-4.743244171142578125e+00,7.115921497344970703e+00,1.023761034011840820e+00,2.116803675889968872e-01
5.181299686431884766e+00,4.051880359649658203e+00,-5.437453269958496094e+00,-4.111729145050048828e+00,1.621543884277343750e+01,-1.024235248565673828e+01,-1.149418926239013672e+01,-1.443352127075195312e+01,-5.501986503601074219e+00,-4.900746822357177734e+00,-8.748703002929687500e+00,-3.896510839462280273e+00,-1.032850623130798340e+00,7.106891155242919922e+00,4.294540405273437500e+00,8.066256523132324219e+00,-5.810221195220947266e+00,-3.950544118881225586e+00,5.646393299102783203e+00,-1.295502305030822754e+00,2.065100818872451782e-01
5.565088272094726562e+00,4.442080497741699219e+00,-5.095625877380371094e+00,-3.360530853271484375e+00,1.589135742187500000e+01,-1.024235248565673828e+01,-1.208357429504394531e+01,-1.611985206604003906e+01,-5.880558490753173828e+00,-5.179063796997070312e+00,-9.709206581115722656e+00,-6.303567886352539062e+00,-3.100588083267211914e+00,2.662252902984619141e+00,1.472865819931030273e+00,3.801324129104614258e+00,-4.940755844116210938e+00,-4.049340724945068359e+00,2.773992300033569336e+00,-3.092195034027099609e+00,1.844771355390548706e-01
5.189006328582763672e+00,3.928711175918579102e+00,-5.555475711822509766e+00,-3.365911960601806641e+00,1.482892894744873047e+01,-1.067132091522216797e+01,-1.329031944274902344e+01,-1.835461807250976562e+01,-7.039735317230224609e+00,-6.137572765350341797e+00,-1.131134319305419922e+01,-9.378906250000000000e+00,-6.222789287567138672e+00,-2.940765857696533203e+00,-2.452624559402465820e+00,-1.659000515937805176e+00,-4.663789272308349609e+00,-4.898994445800781250e+00,-1.267210483551025391e+00,-4.391020298004150391e+00,1.461744159460067749e-01
4.416804313659667969e+00,2.797525644302368164e+00,-6.396493434906005859e+00,-3.782407283782958984e+00,1.351873302459716797e+01,-1.130348396301269531e+01,-1.465719223022460938e+01,-2.067691421508789062e+01,-8.513500213623046875e+00,-7.365662574768066406e+00,-1.309819221496582031e+01,-1.263577461242675781e+01,-9.868103027343750000e+00,-9.071992874145507812e+00,-6.920519828796386719e+00,-7.710785865783691406e+00,-4.704107284545898438e+00,-6.072934627532958984e+00,-5.940868377685546875e+00,-5.348749637603759766e+00,9.517131745815277100e-02
3.755578041076660156e+00,1.502771377563476562e+00,-7.068783283233642578e+00,-4.113881587982177734e+00,1.248207187652587891e+01,-1.177459526062011719e+01,-1.562374591827392578e+01,-2.256292343139648438e+01,-9.731328964233398438e+00,-8.354125022888183594e+00,-1.456033706665039062e+01,-1.552424240112304688e+01,-1.338710117340087891e+01,-1.497588920593261719e+01,-1.122174644470214844e+01,-1.362895774841308594e+01,-4.669924736022949219e+00,-7.039982318878173828e+00,-1.058197402954101562e+01,-6.144007205963134766e+00,3.630608692765235901e-02
3.666181325912475586e+00,4.868721067905426025e-01,-7.105501651763916016e+00,-3.913705587387084961e+00,1.210942935943603516e+01,-1.174298763275146484e+01,-1.571827983856201172e+01,-2.359551239013671875e+01,-1.020800971984863281e+01,-8.691101074218750000e+00,-1.531279659271240234e+01,-1.760116386413574219e+01,-1.621548080444335938e+01,-1.997046661376953125e+01,-1.471886825561523438e+01,-1.878642654418945312e+01,-4.207144737243652344e+00,-7.364268779754638672e+00,-1.458597373962402344e+01,-6.878456115722656250e+00,-2.600994519889354706e-02
4.402932643890380859e+00,4.247775673866271973e-02,-6.263608932495117188e+00,-2.941883087158203125e+00,1.256829547882080078e+01,-1.100546360015869141e+01,-1.468806076049804688e+01,-2.356542396545410156e+01,-9.689739227294921875e+00,-8.175652503967285156e+00,-1.519808006286621094e+01,-1.863072586059570312e+01,-1.801548194885253906e+01,-2.359604644775390625e+01,-1.700106239318847656e+01,-2.277700614929199219e+01,-3.112424612045288086e+00,-6.837739467620849609e+00,-1.755138206481933594e+01,-7.568249702453613281e+00,-8.869358897209167480e-02
5.973538398742675781e+00,2.710797190666198730e-01,-4.558843135833740234e+00,-1.216709613800048828e+00,1.380911636352539062e+01,-9.586107254028320312e+00,-1.256492233276367188e+01,-2.250958633422851562e+01,-8.181849479675292969e+00,-6.852710723876953125e+00,-1.429007339477539062e+01,-1.860936927795410156e+01,-1.871845817565917969e+01,-2.567712020874023438e+01,-1.793674659729003906e+01,-2.545104980468750000e+01,-1.375247001647949219e+00,-5.503399372100830078e+00,-1.932473754882812500e+01,-8.216237068176269531e+00,-1.498356312513351440e-01
8.166837692260742188e+00,1.094835162162780762e+00,-2.227247238159179688e+00,1.004599094390869141e+00,1.559304523468017578e+01,-7.736278057098388672e+00,-9.643074989318847656e+00,-2.068238449096679688e+01,-5.929613113403320312e+00,-4.979374408721923828e+00,-1.283667850494384766e+01,-1.773731231689453125e+01,-1.849054145812988281e+01,-2.631732177734375000e+01,-1.767504882812500000e+01,-2.688872909545898438e+01,8.273401260375976562e-01,-3.632069110870361328e+00,-1.999594497680664062e+01,-8.874675750732421875e+00,-2.077166140079498291e-01
1.064528179168701172e+01,2.335394859313964844e+00,3.596263229846954346e-01,3.321691036224365234e+00,1.758212471008300781e+01,-5.845809459686279297e+00,-6.383609294891357422e+00,-1.848044395446777344e+01,-3.320132255554199219e+00,-2.946286678314208984e+00,-1.116260147094726562e+01,-1.634468841552734375e+01,-1.763378906250000000e+01,-2.583758926391601562e+01,-1.656977081298828125e+01,-2.733054161071777344e+01,3.184187173843383789e+00,-1.608475446701049805e+00,-1.982853126525878906e+01,-9.631928443908691406e+00,-2.598462700843811035e-01
1.305590724945068359e+01,3.775981426239013672e+00,2.797004938125610352e+00,5.297622680664062500e+00,1.942551803588867188e+01,-4.336143970489501953e+00,-3.291023254394531250e+00,-1.634278297424316406e+01,-7.959637045860290527e-01,-1.177787423133850098e+00,-9.581852912902832031e+00,-1.480346012115478516e+01,-1.650792884826660156e+01,-2.466917800903320312e+01,-1.505805397033691406e+01,-2.709181976318359375e+01,5.314026832580566406e+00,1.535970568656921387e-01,-1.917747497558593750e+01,-1.052599906921386719e+01,-3.031295239925384521e-01
1.509045028686523438e+01,5.213612079620361328e+00,4.730822086334228516e+00,6.570785522460937500e+00,2.082292938232421875e+01,-3.526373147964477539e+00,-8.003631234169006348e-01,-1.465371513366699219e+01,1.248324990272521973e+00,-4.330205544829368591e-02,-8.341362953186035156e+00,-1.345177078247070312e+01,-1.544522762298583984e+01,-2.324669456481933594e+01,-1.356095886230468750e+01,-2.649857711791992188e+01,6.859255790710449219e+00,1.315914034843444824e+00,-1.839465522766113281e+01,-1.145807456970214844e+01,-3.345899283885955811e-01
1.648688697814941406e+01,6.449244976043701172e+00,5.885691642761230469e+00,6.909793376922607422e+00,2.153154373168945312e+01,-3.582063674926757812e+00,7.806562781333923340e-01,-1.366626071929931641e+01,2.513075351715087891e+00,2.137980461120605469e-01,-7.618068695068359375e+00,-1.253166103363037109e+01,-1.471341896057128906e+01,-2.192283058166503906e+01,-1.241035842895507812e+01,-2.582872962951660156e+01,7.546413898468017578e+00,1.676232218742370605e+00,-1.777305221557617188e+01,-1.216306972503662109e+01,-3.525791466236114502e-01
1.701401901245117188e+01,7.269059181213378906e+00,6.078898429870605469e+00,6.230701446533203125e+00,2.139180374145507812e+01,-4.500205039978027344e+00,1.307341217994689941e+00,-1.347889137268066406e+01,2.834061622619628906e+00,-4.913551509380340576e-01,-7.519879341125488281e+00,-1.216326141357421875e+01,-1.449923038482666016e+01,-2.091656112670898438e+01,-1.180801105499267578e+01,-2.528715133666992188e+01,7.228252887725830078e+00,1.172948956489562988e+00,-1.751727867126464844e+01,-1.230558967590332031e+01,-3.574766814708709717e-01
1.651771354675292969e+01,7.482880592346191406e+00,5.265856266021728516e+00,4.627140045166015625e+00,2.036108970642089844e+01,-6.113726139068603516e+00,8.124888539314270020e-01,-1.399860382080078125e+01,2.217682600021362305e+00,-2.032707691192626953e+00,-8.057489395141601562e+00,-1.229318046569824219e+01,-1.485621070861816406e+01,-2.026800155639648438e+01,-1.178608131408691406e+01,-2.495222854614257812e+01,5.949472427368164062e+00,-8.002864569425582886e-02,-1.768779373168945312e+01,-1.165190124511718750e+01,-3.515356183052062988e-01
1.499951267242431641e+01,7.013852596282958984e+00,3.589065551757812500e+00,2.384307146072387695e+00,1.857716178894042969e+01,-8.118585586547851562e+00,-4.733554720878601074e-01,-1.494229316711425781e+01,8.857490420341491699e-01,-4.055810928344726562e+00,-9.093823432922363281e+00,-1.268560600280761719e+01,-1.564843177795410156e+01,-1.981501197814941406e+01,-1.219690513610839844e+01,-2.474022865295410156e+01,3.974769592285156250e+00,-1.780498266220092773e+00,-1.814818382263183594e+01,-1.020200538635253906e+01,-3.379221558570861816e-01
1.267674160003662109e+01,5.955583095550537109e+00,1.388605713844299316e+00,-6.085426360368728638e-02,1.635517883300781250e+01,-1.012796115875244141e+01,-2.153731107711791992e+00,-1.589692306518554688e+01,-7.682372927665710449e-01,-6.046464443206787109e+00,-1.033139610290527344e+01,-1.297658824920654297e+01,-1.655598449707031250e+01,-1.924000167846679688e+01,-1.272615242004394531e+01,-2.441599464416503906e+01,1.743258714675903320e+00,-3.487941980361938477e+00,-1.859462356567382812e+01,-8.219087600708007812e+00,-3.196127414703369141e-01
9.997926712036132812e+00,4.614517211914062500e+00,-8.372070193290710449e-01,-2.185303688049316406e+00,1.413517951965332031e+01,-1.172342014312744141e+01,-3.736679792404174805e+00,-1.640295982360839844e+01,-2.249466896057128906e+00,-7.428065776824951172e+00,-1.134925842285156250e+01,-1.275590419769287109e+01,-1.712989807128906250e+01,-1.816352653503417969e+01,-1.296445941925048828e+01,-2.364103698730468750e+01,-2.104088068008422852e-01,-4.704887866973876953e+00,-1.863957786560058594e+01,-6.109802722930908203e+00,-2.985996007919311523e-01
7.548768043518066406e+00,3.440961360931396484e+00,-2.549841403961181641e+00,-3.499362707138061523e+00,1.236512565612792969e+01,-1.255275821685791016e+01,-4.757252216339111328e+00,-1.609113121032714844e+01,-3.091922760009765625e+00,-7.731343746185302734e+00,-1.170896148681640625e+01,-1.170142650604248047e+01,-1.692257499694824219e+01,-1.625796508789062500e+01,-1.252147102355957031e+01,-2.210181427001953125e+01,-1.402417778968811035e+00,-5.016388416290283203e+00,-1.790946388244628906e+01,-4.255152225494384766e+00,-2.756061255931854248e-01
5.842525959014892578e+00,2.842851877212524414e+00,-3.375123262405395508e+00,-3.714605808258056641e+00,1.132053661346435547e+01,-1.246094417572021484e+01,-4.944389343261718750e+00,-1.482193851470947266e+01,-3.033270835876464844e+00,-6.770338535308837891e+00,-1.113051986694335938e+01,-9.722390174865722656e+00,-1.566628074645996094e+01,-1.340965175628662109e+01,-1.118958187103271484e+01,-1.965402030944824219e+01,-1.580342650413513184e+00,-4.253908634185791016e+00,-1.622911643981933594e+01,-2.878416061401367188e+00,-2.503713667392730713e-01
5.105774879455566406e+00,2.986713409423828125e+00,-3.251855373382568359e+00,-2.861166954040527344e+00,1.098852825164794922e+01,-1.157140064239501953e+01,-4.323171615600585938e+00,-1.276496982574462891e+01,-2.130029916763305664e+00,-4.744739532470703125e+00,-9.620739936828613281e+00,-7.024350166320800781e+00,-1.339808559417724609e+01,-9.787413597106933594e+00,-9.025811195373535156e+00,-1.641345596313476562e+01,-8.405959010124206543e-01,-2.592957735061645508e+00,-1.369309520721435547e+01,-1.975794196128845215e+00,-2.223736345767974854e-01
5.210584640502929688e+00,3.749377012252807617e+00,-2.472034215927124023e+00,-1.283434987068176270e+00,1.108763504028320312e+01,-1.024837303161621094e+01,-3.199383974075317383e+00,-1.033873081207275391e+01,-7.191829085350036621e-01,-2.162505865097045898e+00,-7.485853672027587891e+00,-4.046896457672119141e+00,-1.046261215209960938e+01,-5.795764446258544922e+00,-6.337178707122802734e+00,-1.272573280334472656e+01,4.136429131031036377e-01,-5.019496679306030273e-01,-1.067498207092285156e+01,-1.429470300674438477e+00,-1.915180087089538574e-01
5.743881702423095703e+00,4.765276432037353516e+00,-1.551460385322570801e+00,4.783296883106231689e-01,1.119169712066650391e+01,-8.961469650268554688e+00,-2.038940906524658203e+00,-8.058833122253417969e+00,6.927306056022644043e-01,3.198830485343933105e-01,-5.218752384185791016e+00,-1.306143760681152344e+00,-7.392584800720214844e+00,-1.941181898117065430e+00,-3.553516387939453125e+00,-9.050480842590332031e+00,1.615293145179748535e+00,1.421684861183166504e+00,-7.677020072937011719e+00,-1.118778347969055176e+00,-1.585160046815872192e-01
6.200112342834472656e+00,5.584105014801025391e+00,-1.037407755851745605e+00,1.864495158195495605e+00,1.091816139221191406e+01,-8.130627632141113281e+00,-1.272064447402954102e+00,-6.341045379638671875e+00,1.645025730133056641e+00,2.137056589126586914e+00,-3.301632642745971680e+00,7.974728345870971680e-01,-4.682283401489257812e+00,1.360119462013244629e+00,-1.038863301277160645e+00,-5.761815071105957031e+00,2.242850780487060547e+00,2.666526317596435547e+00,-5.133248329162597656e+00,-9.724586606025695801e-01,-1.248855069279670715e-01
6.187781810760498047e+00,5.850150108337402344e+00,-1.266458392143249512e+00,2.483319044113159180e+00,1.007971572875976562e+01,-7.986132621765136719e+00,-1.130264639854431152e+00,-5.387782573699951172e+00,1.890297770500183105e+00,2.988232612609863281e+00,-2.029061555862426758e+00,2.108228921890258789e+00,-2.615919113159179688e+00,3.917583227157592773e+00,1.047421693801879883e+00,-3.028980731964111328e+00,2.025484323501586914e+00,2.989650249481201172e+00,-3.252933979034423828e+00,-9.743589162826538086e-01,-9.272545576095581055e-02
5.557381629943847656e+00,5.414624214172363281e+00,-2.261342525482177734e+00,2.209960460662841797e+00,8.742759704589843750e+00,-8.518956184387207031e+00,-1.587496638298034668e+00,-5.137499809265136719e+00,1.469069838523864746e+00,2.898372411727905273e+00,-1.432149052619934082e+00,2.737356185913085938e+00,-1.186626553535461426e+00,5.804757595062255859e+00,2.774052619934082031e+00,-7.842796444892883301e-01,1.007017970085144043e+00,2.468932390213012695e+00,-1.960121035575866699e+00,-1.121628761291503906e+00,-6.420593708753585815e-02
4.378271579742431641e+00,4.310042858123779297e+00,-3.765033721923828125e+00,1.163878917694091797e+00,7.134251117706298828e+00,-9.562025070190429688e+00,-2.432507514953613281e+00,-5.367267608642578125e+00,6.372778415679931641e-01,2.134560346603393555e+00,-1.344653725624084473e+00,2.949141502380371094e+00,-1.802178174257278442e-01,7.260673046112060547e+00,4.350096702575683594e+00,1.189632058143615723e+00,-5.276935100555419922e-01,1.424009442329406738e+00,-9.912864565849304199e-01,-1.352509975433349609e+00,-4.093970358371734619e-02
2.852364063262939453e+00,2.681253910064697266e+00,-5.391118526458740234e+00,-3.783378303050994873e-01,5.516822814941406250e+00,-1.090762901306152344e+01,-3.390379667282104492e+00,-5.824068069458007812e+00,-2.712949216365814209e-01,1.062477946281433105e+00,-1.534227013587951660e+00,3.001642942428588867e+00,6.710419654846191406e-01,8.541076660156250000e+00,5.961229324340820312e+00,3.097628116607666016e+00,-2.196506023406982422e+00,2.582055926322937012e-01,-5.655483528971672058e-02,-1.525433301925659180e+00,-2.382799424231052399e-02
1.213940143585205078e+00,7.341957688331604004e-01,-6.759302616119384766e+00,-2.070148468017578125e+00,4.117430210113525391e+00,-1.236009883880615234e+01,-4.213204383850097656e+00,-6.312324523925781250e+00,-9.537908434867858887e-01,2.159699797630310059e-02,-1.789907813072204590e+00,3.049695253372192383e+00,1.573102712631225586e+00,9.819808959960937500e+00,7.663006305694580078e+00,5.048380374908447266e+00,-3.648828744888305664e+00,-6.669986844062805176e-01,1.047141551971435547e+00,-1.460824608802795410e+00,-1.287080813199281693e-02
-2.888474762439727783e-01,-1.276910305023193359e+00,-7.589829921722412109e+00,-3.558554410934448242e+00,3.114465951919555664e+00,-1.374784755706787109e+01,-4.703233242034912109e+00,-6.713050365447998047e+00,-1.191598057746887207e+00,-7.147576808929443359e-01,-1.957121014595031738e+00,3.129782199859619141e+00,2.635804414749145508e+00,1.116373062133789062e+01,9.372093200683593750e+00,7.018728733062744141e+00,-4.633988857269287109e+00,-1.101705193519592285e+00,2.403509855270385742e+00,-1.075072526931762695e+00,-7.155046798288822174e-03
-1.386267781257629395e+00,-3.052516937255859375e+00,-7.729708194732666016e+00,-4.530376911163330078e+00,2.664519548416137695e+00,-1.491283321380615234e+01,-4.696481227874755859e+00,-6.955127239227294922e+00,-8.482172489166259766e-01,-9.568810462951660156e-01,-1.913373351097106934e+00,3.216987848281860352e+00,3.908575057983398438e+00,1.257952976226806641e+01,1.093790340423583984e+01,8.926724433898925781e+00,-5.008244514465332031e+00,-9.099229574203491211e-01,4.014100551605224609e+00,-4.650900959968566895e-01,-5.139113869518041611e-03
-1.757726073265075684e+00,-4.246765136718750000e+00,-7.107249736785888672e+00,-4.720867156982421875e+00,2.924180269241333008e+00,-1.566841888427734375e+01,-4.043430328369140625e+00,-6.964700698852539062e+00,1.744602620601654053e-01,-5.624945163726806641e-01,-1.524505257606506348e+00,3.321990728378295898e+00,5.440842628479003906e+00,1.408726310729980469e+01,1.226833057403564453e+01,1.072248554229736328e+01,-4.664665699005126953e+00,-2.423743344843387604e-02,5.891314506530761719e+00,1.315904855728149414e-01,-5.020529963076114655e-03
-1.082627654075622559e+00,-4.517737388610839844e+00,-5.684863090515136719e+00,-3.948144435882568359e+00,4.030215740203857422e+00,-1.580839729309082031e+01,-2.617715597152709961e+00,-6.626887321472167969e+00,1.958547353744506836e+00,5.832234621047973633e-01,-6.271920800209045410e-01,3.548903703689575195e+00,7.345192909240722656e+00,1.578388118743896484e+01,1.339115238189697266e+01,1.247370910644531250e+01,-3.521739482879638672e+00,1.604168534278869629e+00,8.134360313415527344e+00,4.650855362415313721e-01,-5.210264585912227631e-03
7.993249297142028809e-01,-3.691025972366333008e+00,-3.501013517379760742e+00,-2.211132764816284180e+00,5.997492313385009766e+00,-1.523493576049804688e+01,-4.125841259956359863e-01,-5.876039028167724609e+00,4.498712062835693359e+00,2.476528644561767578e+00,8.777275085449218750e-01,4.032094955444335938e+00,9.728720664978027344e+00,1.778639221191406250e+01,1.443210124969482422e+01,1.431222629547119141e+01,-1.580342650413513184e+00,3.933451652526855469e+00,1.084554672241210938e+01,3.767235875129699707e-01,-4.652918316423892975e-03
3.726292848587036133e+00,-1.874034404754638672e+00,-7.209331989288330078e-01,2.512482106685638428e-01,8.631760597229003906e+00,-1.403984642028808594e+01,2.379038810729980469e+00,-4.784642219543457031e+00,7.629662036895751953e+00,4.923971652984619141e+00,2.944561481475830078e+00,4.833853721618652344e+00,1.259966278076171875e+01,2.012488365173339844e+01,1.551837348937988281e+01,1.636274337768554688e+01,9.982531666755676270e-01,6.766017913818359375e+00,1.405742740631103516e+01,-1.049914732575416565e-01,-2.957163611426949501e-03
7.195805549621582031e+00,5.430372357368469238e-01,2.360759735107421875e+00,3.000978708267211914e+00,1.156037616729736328e+01,-1.250609874725341797e+01,5.390596389770507812e+00,-3.561949491500854492e+00,1.101868152618408203e+01,7.556127548217773438e+00,5.376931667327880859e+00,5.893671035766601562e+00,1.583170413970947266e+01,2.270742034912109375e+01,1.671575736999511719e+01,1.864129257202148438e+01,3.880986452102661133e+00,9.754334449768066406e+00,1.765839195251464844e+01,-7.919342517852783203e-01,-3.127343370579183102e-04
1.045107460021972656e+01,2.954196929931640625e+00,5.329675674438476562e+00,5.462283611297607422e+00,1.430366134643554688e+01,-1.106717491149902344e+01,8.136881828308105469e+00,-2.569024324417114258e+00,1.417735767364501953e+01,9.847563743591308594e+00,7.841383457183837891e+00,6.990861892700195312e+00,1.912827491760253906e+01,2.524983978271484375e+01,1.798477935791015625e+01,2.103564071655273438e+01,6.575277328491210938e+00,1.240325546264648438e+01,2.134461402893066406e+01,-1.476026654243469238e+00,2.806031843647360802e-03
1.272144031524658203e+01,4.725862026214599609e+00,7.723342418670654297e+00,7.074454307556152344e+00,1.641365242004394531e+01,-1.017311573028564453e+01,1.014426517486572266e+01,-2.203857660293579102e+00,1.655329704284667969e+01,1.123540496826171875e+01,9.944187164306640625e+00,7.777493476867675781e+00,2.206924057006835938e+01,2.733091354370117188e+01,1.918362617492675781e+01,2.327856063842773438e+01,8.544721603393554688e+00,1.417811298370361328e+01,2.465725326538085938e+01,-2.054654836654663086e+00,5.924798082560300827e-03
1.349826622009277344e+01,5.416594982147216797e+00,9.169333457946777344e+00,7.456510543823242188e+00,1.761879539489746094e+01,-1.012344551086425781e+01,1.109924316406250000e+01,-2.775541782379150391e+00,1.768474769592285156e+01,1.128283119201660156e+01,1.135966777801513672e+01,7.917200565338134766e+00,2.422073173522949219e+01,2.848929405212402344e+01,2.012515830993652344e+01,2.502978324890136719e+01,9.374745368957519531e+00,1.464652729034423828e+01,2.709251594543457031e+01,-2.571524620056152344e+00,8.841970935463905334e-03
1.270448589324951172e+01,4.913079261779785156e+00,9.502418518066406250e+00,6.512669563293457031e+00,1.789728546142578125e+01,-1.096181488037109375e+01,1.093236351013183594e+01,-4.386651515960693359e+00,1.733603477478027344e+01,9.813865661621093750e+00,1.192060947418212891e+01,7.198197841644287109e+00,2.525871849060058594e+01,2.835222816467285156e+01,2.066756439208984375e+01,2.596151161193847656e+01,8.913718223571777344e+00,1.362020111083984375e+01,2.823806571960449219e+01,-3.171055555343627930e+00,1.162870135158300400e-02
1.070231056213378906e+01,3.429137229919433594e+00,8.813518524169921875e+00,4.458174228668212891e+00,1.745625877380371094e+01,-1.248201656341552734e+01,9.836549758911132812e+00,-6.885376453399658203e+00,1.557434177398681641e+01,6.983268737792968750e+00,1.166298484802246094e+01,5.612476825714111328e+00,2.505414199829101562e+01,2.674587249755859375e+01,2.073481559753417969e+01,2.583324432373046875e+01,7.331676959991455078e+00,1.122582817077636719e+01,2.788463401794433594e+01,-3.941609621047973633e+00,1.448658201843500137e-02
8.126763343811035156e+00,1.423943161964416504e+00,7.433094978332519531e+00,1.751492619514465332e+00,1.661880493164062500e+01,-1.428669071197509766e+01,8.178360939025878906e+00,-9.905180931091308594e+00,1.275371360778808594e+01,3.242836713790893555e+00,1.079289245605468750e+01,3.348686456680297852e+00,2.368663406372070312e+01,2.373542022705078125e+01,2.035323333740234375e+01,2.454343032836914062e+01,5.083513259887695312e+00,7.887653827667236328e+00,2.606322669982910156e+01,-4.820478439331054688e+00,1.749862357974052429e-02
5.626741409301757812e+00,-5.782948136329650879e-01,5.797393798828125000e+00,-1.054201126098632812e+00,1.568025970458984375e+01,-1.592579936981201172e+01,6.356185436248779297e+00,-1.299063396453857422e+01,9.395620346069335938e+00,-7.821528315544128418e-01,9.588373184204101562e+00,7.102671265602111816e-01,2.137999534606933594e+01,1.956993103027343750e+01,1.956813430786132812e+01,2.212057876586914062e+01,2.751207590103149414e+00,4.198460102081298828e+00,2.300325775146484375e+01,-5.601483821868896484e+00,2.039207890629768372e-02
3.660016059875488281e+00,-2.141065120697021484e+00,4.305941581726074219e+00,-3.463847637176513672e+00,1.480316162109375000e+01,-1.700950813293457031e+01,4.667128086090087891e+00,-1.573143577575683594e+01,6.027929306030273438e+00,-4.463926315307617188e+00,8.295387268066406250e+00,-1.991331934928894043e+00,1.841843414306640625e+01,1.460377025604248047e+01,1.840145301818847656e+01,1.868226623535156250e+01,8.545109033584594727e-01,7.428917288780212402e-01,1.903026199340820312e+01,-6.014789581298828125e+00,2.271633036434650421e-02
2.413087606430053711e+00,-3.008176088333129883e+00,3.199154853820800781e+00,-5.154582023620605469e+00,1.398453617095947266e+01,-1.730602264404296875e+01,3.241413116455078125e+00,-1.786362648010253906e+01,3.039876937866210938e+00,-7.330717086791992188e+00,7.059758186340332031e+00,-4.538095951080322266e+00,1.504772090911865234e+01,9.187964439392089844e+00,1.680493927001953125e+01,1.440130138397216797e+01,-2.927976548671722412e-01,-2.064103603363037109e+00,1.446976375579833984e+01,-5.877020835876464844e+00,2.400889992713928223e-02
1.813513875007629395e+00,-3.138242721557617188e+00,2.487524271011352539e+00,-6.031697750091552734e+00,1.309158134460449219e+01,-1.676868438720703125e+01,2.014410972595214844e+00,-1.934344100952148438e+01,5.850242376327514648e-01,-9.176595687866210938e+00,5.878571510314941406e+00,-6.849938869476318359e+00,1.141888332366943359e+01,3.583274364471435547e+00,1.465578842163085938e+01,9.446925163269042969e+00,-6.714357733726501465e-01,-4.084210395812988281e+00,9.563585281372070312e+00,-5.166325092315673828e+00,2.417491748929023743e-02
1.633179426193237305e+00,-2.672170639038085938e+00,1.985711097717285156e+00,-6.211425781250000000e+00,1.193500137329101562e+01,-1.553446006774902344e+01,7.845147848129272461e-01,-2.028849601745605469e+01,-1.426205992698669434e+00,-1.007270240783691406e+01,4.624471664428710938e+00,-8.961564064025878906e+00,7.564873218536376953e+00,-2.059861660003662109e+00,1.180633544921875000e+01,3.981256484985351562e+00,-5.303229689598083496e-01,-5.449933052062988281e+00,4.432637214660644531e+00,-4.001467704772949219e+00,2.357013709843158722e-02
1.627014160156250000e+00,-1.833634972572326660e+00,1.427946567535400391e+00,-5.917618751525878906e+00,1.038199234008789062e+01,-1.384116649627685547e+01,-6.797850728034973145e-01,-2.088616752624511719e+01,-3.227355480194091797e+00,-1.027987957000732422e+01,3.119552135467529297e+00,-1.094416046142578125e+01,3.455485105514526367e+00,-7.666223526000976562e+00,8.180557250976562500e+00,-1.817554831504821777e+00,-2.437149435281753540e-01,-6.446038246154785156e+00,-8.796766996383666992e-01,-2.565823793411254883e+00,2.290606498718261719e-02
1.628555417060852051e+00,-8.482816219329833984e-01,6.192753314971923828e-01,-5.363368034362792969e+00,8.444447517395019531e+00,-1.195069789886474609e+01,-2.531863927841186523e+00,-2.129783439636230469e+01,-5.053032398223876953e+00,-1.009891128540039062e+01,1.243263483047485352e+00,-1.281285572052001953e+01,-9.243836402893066406e-01,-1.314554786682128906e+01,3.860324382781982422e+00,-7.719693660736083984e+00,-1.245140507817268372e-01,-7.356132507324218750e+00,-6.326852321624755859e+00,-9.886108040809631348e-01,2.295349910855293274e-02
1.560737371444702148e+00,1.055403649806976318e-01,-4.682781100273132324e-01,-4.675666332244873047e+00,6.297787189483642578e+00,-1.008280658721923828e+01,-4.787155628204345703e+00,-2.158094024658203125e+01,-7.016274452209472656e+00,-9.755695343017578125e+00,-1.000505447387695312e+00,-1.447688388824462891e+01,-5.499218463897705078e+00,-1.834070968627929688e+01,-8.853524327278137207e-01,-1.343477344512939453e+01,-2.980565130710601807e-01,-8.325505256652832031e+00,-1.180037975311279297e+01,6.389589905738830566e-01,2.412748336791992188e-02
1.418935775756835938e+00,9.194422364234924316e-01,-1.688715934753417969e+00,-3.869580745697021484e+00,4.247260570526123047e+00,-8.380481719970703125e+00,-7.314471721649169922e+00,-2.169582366943359375e+01,-9.058430671691894531e+00,-9.333851814270019531e+00,-3.463984966278076172e+00,-1.577073287963867188e+01,-1.009052944183349609e+01,-2.302437782287597656e+01,-5.639801025390625000e+00,-1.865459442138671875e+01,-6.723122596740722656e-01,-9.328584671020507812e+00,-1.710339355468750000e+01,2.194319009780883789e+00,2.633315138518810272e-02
1.224729418754577637e+00,1.548097610473632812e+00,-2.784137487411499023e+00,-2.894529581069946289e+00,2.615957021713256836e+00,-6.912961006164550781e+00,-9.903523445129394531e+00,-2.158094024658203125e+01,-1.099394607543945312e+01,-8.799682617187500000e+00,-5.915798664093017578e+00,-1.651642990112304688e+01,-1.445941352844238281e+01,-2.694415092468261719e+01,-9.952723503112792969e+00,-2.309767723083496094e+01,-1.005373597145080566e+00,-1.020148468017578125e+01,-2.200027084350585938e+01,3.489343881607055664e+00,2.900129742920398712e-02
9.996966123580932617e-01,1.972784876823425293e+00,-3.534234762191772461e+00,-1.728988170623779297e+00,1.612992882728576660e+00,-5.723892211914062500e+00,-1.237585544586181641e+01,-2.120483207702636719e+01,-1.262873744964599609e+01,-8.109505653381347656e+00,-8.153734207153320312e+00,-1.663478088378906250e+01,-1.839580345153808594e+01,-2.994123268127441406e+01,-1.349809265136718750e+01,-2.660546875000000000e+01,-1.068479895591735840e+00,-1.078264331817626953e+01,-2.628794479370117188e+01,4.287451744079589844e+00,3.127811476588249207e-02
7.422960400581359863e-01,2.190547943115234375e+00,-3.852457761764526367e+00,-4.493680298328399658e-01,1.270082235336303711e+00,-4.841874122619628906e+00,-1.463790035247802734e+01,-2.064272308349609375e+01,-1.386576175689697266e+01,-7.289531230926513672e+00,-1.007571506500244141e+01,-1.619875335693359375e+01,-2.178985786437988281e+01,-3.200391769409179688e+01,-1.615602302551269531e+01,-2.915658950805664062e+01,-7.713541984558105469e-01,-1.101510620117187500e+01,-2.986720848083496094e+01,4.363461971282958984e+00,3.251139074563980103e-02
4.309492707252502441e-01,2.232918262481689453e+00,-3.806123018264770508e+00,7.710602879524230957e-01,1.448475122451782227e+00,-4.283463478088378906e+00,-1.668483352661132812e+01,-2.002864074707031250e+01,-1.473807621002197266e+01,-6.472052574157714844e+00,-1.170118427276611328e+01,-1.541301059722900391e+01,-2.462098312377929688e+01,-3.326760482788085938e+01,-1.801569557189941406e+01,-3.085614776611328125e+01,-2.060264199972152710e-01,-1.098139953613281250e+01,-3.274115753173828125e+01,3.638514041900634766e+00,3.253510966897010803e-02
3.637119382619857788e-02,2.149163246154785156e+00,-3.590185880661010742e+00,1.698758006095886230e+00,1.892475008964538574e+00,-4.071237564086914062e+00,-1.856777954101562500e+01,-1.953901672363281250e+01,-1.539284610748291016e+01,-5.865496158599853516e+00,-1.313513469696044922e+01,-1.455519104003906250e+01,-2.695782852172851562e+01,-3.397467041015625000e+01,-1.931249618530273438e+01,-3.187873458862304688e+01,3.917309939861297607e-01,-1.087562847137451172e+01,-3.499040603637695312e+01,2.294082641601562500e+00,3.178802877664566040e-02
-4.876778423786163330e-01,1.998404145240783691e+00,-3.437194108963012695e+00,2.122786998748779297e+00,2.334492921829223633e+00,-4.227773189544677734e+00,-2.032822036743164062e+01,-1.929830741882324219e+01,-1.601349067687988281e+01,-5.679535388946533203e+00,-1.450103473663330078e+01,-1.388868999481201172e+01,-2.889787864685058594e+01,-3.435076904296875000e+01,-2.030520057678222656e+01,-3.240962219238281250e+01,7.589749097824096680e-01,-1.091166019439697266e+01,-3.671725463867187500e+01,7.444232702255249023e-01,3.099351190030574799e-02
-1.168941617012023926e+00,1.845674395561218262e+00,-3.506258964538574219e+00,1.948439955711364746e+00,2.587216138839721680e+00,-4.738018989562988281e+00,-2.195650482177734375e+01,-1.935164642333984375e+01,-1.671944808959960938e+01,-6.011518955230712891e+00,-1.586401748657226562e+01,-1.357190132141113281e+01,-3.051389884948730469e+01,-3.454800796508789062e+01,-2.116632270812988281e+01,-3.256818008422851562e+01,7.265452742576599121e-01,-1.121153831481933594e+01,-3.800231933593750000e+01,-5.249481797218322754e-01,3.085121139883995056e-02
-2.005878686904907227e+00,1.744182944297790527e+00,-3.837595701217651367e+00,1.228451848030090332e+00,2.587216138839721680e+00,-5.558325767517089844e+00,-2.338511466979980469e+01,-1.965253257751464844e+01,-1.752031326293945312e+01,-6.814020633697509766e+00,-1.720950126647949219e+01,-1.361283493041992188e+01,-3.183335113525390625e+01,-3.458812713623046875e+01,-2.195873069763183594e+01,-3.240784072875976562e+01,2.848007678985595703e-01,-1.176363849639892578e+01,-3.885489273071289062e+01,-1.180536746978759766e+00,3.169316053390502930e-02
-2.947625637054443359e+00,1.730388045310974121e+00,-4.342905998229980469e+00,1.479315310716629028e-01,2.384046554565429688e+00,-6.583333015441894531e+00,-2.451661872863769531e+01,-2.008334732055664062e+01,-1.830838394165039062e+01,-7.892343521118164062e+00,-1.844804573059082031e+01,-1.388601970672607422e+01,-3.283563995361328125e+01,-3.437751388549804688e+01,-2.264587402343750000e+01,-3.192683601379394531e+01,-4.216398000717163086e-01,-1.243429565429687500e+01,-3.924397659301757812e+01,-1.157733678817749023e+00,3.342448920011520386e-02
-3.880124568939208984e+00,1.840747594833374023e+00,-4.840347766876220703e+00,-1.020838499069213867e+00,2.111501932144165039e+00,-7.626401901245117188e+00,-2.523815727233886719e+01,-2.047997093200683594e+01,-1.889383697509765625e+01,-8.958186149597167969e+00,-1.943285369873046875e+01,-1.415564632415771484e+01,-3.345623779296875000e+01,-3.375736999511718750e+01,-2.311956405639648438e+01,-3.108239936828613281e+01,-1.156127691268920898e+00,-1.300848007202148438e+01,-3.907656097412109375e+01,-6.180607676506042480e-01,3.567758947610855103e-02
-4.653867721557617188e+00,2.122558593750000000e+00,-5.125349998474121094e+00,-2.013109207153320312e+00,1.912296533584594727e+00,-8.448213577270507812e+00,-2.547063255310058594e+01,-2.066733932495117188e+01,-1.909325408935546875e+01,-9.729486465454101562e+00,-2.000935173034667969e+01,-1.416187477111816406e+01,-3.361001205444335938e+01,-3.256890106201171875e+01,-2.328184700012207031e+01,-2.982109260559082031e+01,-1.682890415191650391e+00,-1.327697467803955078e+01,-3.827049255371093750e+01,1.838475465774536133e-01,3.798998519778251648e-02
-5.148631572723388672e+00,2.603410959243774414e+00,-5.054536342620849609e+00,-2.647000074386596680e+00,1.883555412292480469e+00,-8.824501037597656250e+00,-2.518606758117675781e+01,-2.052373504638671875e+01,-1.880745887756347656e+01,-1.003775691986083984e+01,-2.007059860229492188e+01,-1.371071910858154297e+01,-3.324342346191406250e+01,-3.074190139770507812e+01,-2.307278060913085938e+01,-2.812153244018554688e+01,-1.867827057838439941e+00,-1.311773777008056641e+01,-3.679011154174804688e+01,1.050364613533020020e+00,4.006521031260490417e-02
-5.312011718750000000e+00,3.255714893341064453e+00,-4.587692737579345703e+00,-2.870852708816528320e+00,2.051046371459960938e+00,-8.622811317443847656e+00,-2.440568733215332031e+01,-1.999444961547851562e+01,-1.805351448059082031e+01,-9.851796150207519531e+00,-1.957965278625488281e+01,-1.273454761505126953e+01,-3.234547805786132812e+01,-2.829977416992187500e+01,-2.248505401611328125e+01,-2.601222610473632812e+01,-1.713567137718200684e+00,-1.253425407409667969e+01,-3.467572784423828125e+01,1.906430244445800781e+00,4.182025790214538574e-02
-5.202577590942382812e+00,3.969110727310180664e+00,-3.806123018264770508e+00,-2.765383720397949219e+00,2.371162414550781250e+00,-7.886793136596679688e+00,-2.321533966064453125e+01,-1.915059852600097656e+01,-1.698071479797363281e+01,-9.305146217346191406e+00,-1.860164833068847656e+01,-1.133747577667236328e+01,-3.097522544860839844e+01,-2.539964485168457031e+01,-2.157422256469726562e+01,-2.359650039672851562e+01,-1.359470367431640625e+00,-1.166367912292480469e+01,-3.206684875488281250e+01,2.767246484756469727e+00,4.329070076346397400e-02
-4.960590362548828125e+00,4.581015110015869141e+00,-2.878555297851562500e+00,-2.494177341461181641e+00,2.759662389755249023e+00,-6.846734046936035156e+00,-2.174814605712890625e+01,-1.815493965148925781e+01,-1.580767536163330078e+01,-8.631194114685058594e+00,-1.729019165039062500e+01,-9.756204605102539062e+00,-2.927270698547363281e+01,-2.228722763061523438e+01,-2.043824195861816406e+01,-2.105072402954101562e+01,-1.008879542350769043e+00,-1.071522808074951172e+01,-2.918979835510253906e+01,3.672718763351440430e+00,4.454769566655158997e-02
-4.729392528533935547e+00,4.943624973297119141e+00,-1.986831426620483398e+00,-2.233733177185058594e+00,3.147171258926391602e+00,-5.838283538818359375e+00,-2.016519737243652344e+01,-1.721535301208496094e+01,-1.474767398834228516e+01,-8.053342819213867188e+00,-1.584457397460937500e+01,-8.283494949340820312e+00,-2.741503906250000000e+01,-1.921994209289550781e+01,-1.918676376342773438e+01,-1.856373786926269531e+01,-8.476076722145080566e-01,-9.893470764160156250e+00,-2.627554321289062500e+01,4.607645034790039062e+00,4.553194344043731689e-02
-4.587590694427490234e+00,5.005702495574951172e+00,-1.268206954002380371e+00,-2.108892202377319336e+00,3.517832040786743164e+00,-5.188058853149414062e+00,-1.862372779846191406e+01,-1.651647567749023438e+01,-1.394254207611083984e+01,-7.716367244720458984e+00,-1.445923137664794922e+01,-7.164057254791259766e+00,-2.556423568725585938e+01,-1.640171813964843750e+01,-1.789873504638671875e+01,-1.627093505859375000e+01,-9.703145027160644531e-01,-9.328584671020507812e+00,-2.352095413208007812e+01,5.451358795166015625e+00,4.617229849100112915e-02
-4.495111465454101562e+00,4.853958129882812500e+00,-7.646451592445373535e-01,-2.169160366058349609e+00,3.933090925216674805e+00,-5.082698345184326172e+00,-1.723659896850585938e+01,-1.614447021484375000e+01,-1.342000579833984375e+01,-7.637739658355712891e+00,-1.324985122680664062e+01,-6.503785133361816406e+00,-2.380954170227050781e+01,-1.391111564636230469e+01,-1.660047340393066406e+01,-1.420082283020019531e+01,-1.345446705818176270e+00,-9.033355712890625000e+00,-2.100663375854492188e+01,5.990081787109375000e+00,4.646876081824302673e-02
-4.305529117584228516e+00,4.686448097229003906e+00,-4.123268127441406250e-01,-2.386555910110473633e+00,4.520796298980712891e+00,-5.498119831085205078e+00,-1.602406501770019531e+01,-1.605967521667480469e+01,-1.309475421905517578e+01,-7.715119361877441406e+00,-1.220671272277832031e+01,-6.229710102081298828e+00,-2.211251449584960938e+01,-1.166790199279785156e+01,-1.523934364318847656e+01,-1.223403644561767578e+01,-1.829262137413024902e+00,-8.917123794555664062e+00,-1.867523002624511719e+01,6.003383636474609375e+00,4.658734425902366638e-02
-3.860087394714355469e+00,4.690389156341552734e+00,-1.133370399475097656e-01,-2.715877771377563477e+00,5.408796310424804688e+00,-6.243168830871582031e+00,-1.492535781860351562e+01,-1.612532424926757812e+01,-1.282708740234375000e+01,-7.798738956451416016e+00,-1.121704292297363281e+01,-6.124707221984863281e+00,-2.033173370361328125e+01,-9.473163604736328125e+00,-1.369984912872314453e+01,-1.015501594543457031e+01,-2.251724004745483398e+00,-8.839248657226562500e+00,-1.636707878112792969e+01,5.341144084930419922e+00,4.688380286097526550e-02
-3.111005544662475586e+00,4.940669059753417969e+00,1.900239288806915283e-01,-3.137754201889038086e+00,6.625831604003906250e+00,-7.084547996520996094e+00,-1.386427116394042969e+01,-1.618003082275390625e+01,-1.250930023193359375e+01,-7.778769969940185547e+00,-1.015446090698242188e+01,-5.931608676910400391e+00,-1.831204986572265625e+01,-7.087868690490722656e+00,-1.186356735229492188e+01,-7.730382442474365234e+00,-2.519926071166992188e+00,-8.700933456420898438e+00,-1.390391349792480469e+01,4.036617755889892578e+00,4.769017919898033142e-02
-2.190837144851684570e+00,5.323971748352050781e+00,4.645350277423858643e-01,-3.687700271606445312e+00,8.052974700927734375e+00,-7.891308307647705078e+00,-1.280511379241943359e+01,-1.611985206604003906e+01,-1.211473274230957031e+01,-7.633995532989501953e+00,-8.965497016906738281e+00,-5.464435100555419922e+00,-1.596834087371826172e+01,-4.348206520080566406e+00,-9.683713912963867188e+00,-4.826523303985595703e+00,-2.670680284500122070e+00,-8.488229751586914062e+00,-1.118342590332031250e+01,2.336838245391845703e+00,4.917247965931892395e-02
-1.386267781257629395e+00,5.570310115814208984e+00,5.904254317283630371e-01,-4.420603275299072266e+00,9.439483642578125000e+00,-8.704089164733886719e+00,-1.178743457794189453e+01,-1.592427635192871094e+01,-1.169990348815917969e+01,-7.421825408935546875e+00,-7.716258049011230469e+00,-4.670684337615966797e+00,-1.334316539764404297e+01,-1.217402935028076172e+00,-7.223155498504638672e+00,-1.466597557067871094e+00,-2.857369899749755859e+00,-8.259252548217773438e+00,-8.224218368530273438e+00,6.342083811759948730e-01,5.124770477414131165e-02
-1.027140021324157715e+00,5.369297981262207031e+00,4.182003438472747803e-01,-5.370901107788085938e+00,1.050290298461914062e+01,-9.683941841125488281e+00,-1.091830825805664062e+01,-1.564664077758789062e+01,-1.136398696899414062e+01,-7.238360881805419922e+00,-6.565208435058593750e+00,-3.631334066390991211e+00,-1.059030055999755859e+01,2.200906515121459961e+00,-4.660256385803222656e+00,2.167680501937866211e+00,-3.264931678771972656e+00,-8.108151435852050781e+00,-5.159600257873535156e+00,-6.864700317382812500e-01,5.377354845404624939e-02
-1.329238891601562500e+00,4.543571949005126953e+00,-1.334445327520370483e-01,-6.483707904815673828e+00,1.106979560852050781e+01,-1.096934032440185547e+01,-1.030384254455566406e+01,-1.536353397369384766e+01,-1.116137123107910156e+01,-7.128531455993652344e+00,-5.660117626190185547e+00,-2.486091136932373047e+00,-7.896475791931152344e+00,5.716165542602539062e+00,-2.230399370193481445e+00,5.807302951812744141e+00,-3.989778280258178711e+00,-8.089554786682128906e+00,-2.163188695907592773e+00,-1.404767036437988281e+00,5.650098994374275208e-02
-2.267903089523315430e+00,3.138458013534545898e+00,-1.025168418884277344e+00,-7.616962909698486328e+00,1.116196537017822266e+01,-1.252867603302001953e+01,-9.974905967712402344e+00,-1.510231018066406250e+01,-1.106432914733886719e+01,-7.054895877838134766e+00,-5.038900852203369141e+00,-1.353306055068969727e+00,-5.379767417907714844e+00,9.139490127563476562e+00,-1.104884073138237000e-01,9.226017951965332031e+00,-4.973185539245605469e+00,-8.154644012451171875e+00,6.472066044807434082e-01,-1.549186587333679199e+00,5.931143462657928467e-02
-3.613476037979125977e+00,1.401280045509338379e+00,-2.124087095260620117e+00,-8.601699829101562500e+00,1.095582199096679688e+01,-1.413467121124267578e+01,-9.886159896850585938e+00,-1.484655666351318359e+01,-1.098114967346191406e+01,-6.927594184875488281e+00,-4.613090515136718750e+00,-2.890397608280181885e-01,-3.051160097122192383e+00,1.232879734039306641e+01,1.667312860488891602e+00,1.231337356567382812e+01,-6.045993804931640625e+00,-8.191838264465332031e+00,3.243683338165283203e+00,-1.360110998153686523e+00,6.208630651235580444e-02
-5.057693481445312500e+00,-3.487075269222259521e-01,-3.278956890106201172e+00,-9.323841094970703125e+00,1.065850067138671875e+01,-1.543662548065185547e+01,-9.940178871154785156e+00,-1.455797863006591797e+01,-1.082012271881103516e+01,-6.674238204956054688e+00,-4.208667278289794922e+00,7.049279808998107910e-01,-8.145436644554138184e-01,1.522057056427001953e+01,3.241895198822021484e+00,1.511746788024902344e+01,-7.025895118713378906e+00,-8.095366477966308594e+00,5.694447517395019531e+00,-1.147282242774963379e+00,6.476631015539169312e-02
-6.349320411682128906e+00,-1.845459222793579102e+00,-4.379623889923095703e+00,-9.764013290405273438e+00,1.039190292358398438e+01,-1.611845779418945312e+01,-1.002892494201660156e+01,-1.421059226989746094e+01,-1.052899551391601562e+01,-6.291084289550781250e+00,-3.647725105285644531e+00,1.650843501091003418e+00,1.487976670265197754e+00,1.778806304931640625e+01,4.911507606506347656e+00,1.780220222473144531e+01,-7.812095165252685547e+00,-7.822221755981445312e+00,8.140561103820800781e+00,-1.128279685974121094e+00,6.722100824117660522e-02
-7.417455673217773438e+00,-2.999307870864868164e+00,-5.418220043182373047e+00,-1.003414249420166016e+01,1.011142921447753906e+01,-1.606878852844238281e+01,-1.010609436035156250e+01,-1.387004280090332031e+01,-1.015468978881835938e+01,-5.900441646575927734e+00,-2.861239433288574219e+00,2.514892578125000000e+00,3.979970932006835938e+00,1.998447418212890625e+01,7.015336990356445312e+00,2.053147315979003906e+01,-8.459812164306640625e+00,-7.460741043090820312e+00,1.068898296356201172e+01,-1.324956297874450684e+00,6.937924027442932129e-02
-8.405442237854003906e+00,-3.915686607360839844e+00,-6.508396148681640625e+00,-1.035377883911132812e+01,9.604991912841796875e+00,-1.546371841430664062e+01,-1.024693012237548828e+01,-1.372370338439941406e+01,-9.872093200683593750e+00,-5.761907100677490234e+00,-1.959065437316894531e+00,3.136900901794433594e+00,6.635352134704589844e+00,2.162425994873046875e+01,9.763911247253417969e+00,2.331953430175781250e+01,-9.173264503479003906e+00,-7.242225646972656250e+00,1.330096149444580078e+01,-1.566288828849792480e+00,7.126472890377044678e-02
-9.573762893676757812e+00,-4.804475307464599609e+00,-7.818006515502929688e+00,-1.096506881713867188e+01,8.621849060058593750e+00,-1.470813274383544922e+01,-1.061734580993652344e+01,-1.404647254943847656e+01,-9.930745124816894531e+00,-6.193735599517822266e+00,-1.193967342376708984e+00,3.230335712432861328e+00,9.264646530151367188e+00,2.238314056396484375e+01,1.314261054992675781e+01,2.595438575744628906e+01,-1.021451854705810547e+01,-7.478176116943359375e+00,1.574242496490478516e+01,-1.634698033332824707e+00,7.298420369625091553e-02
-1.112433147430419922e+01,-5.847964286804199219e+00,-9.466821670532226562e+00,-1.203482723236083984e+01,7.051001548767089844e+00,-1.426862907409667969e+01,-1.136975288391113281e+01,-1.511325073242187500e+01,-1.054712486267089844e+01,-7.449282646179199219e+00,-8.225983381271362305e-01,2.465950489044189453e+00,1.157540512084960938e+01,2.186997604370117188e+01,1.690581893920898438e+01,2.802806282043457031e+01,-1.175974845886230469e+01,-8.435925483703613281e+00,1.764599037170410156e+01,-1.431370615959167480e+00,7.471553236246109009e-02
-1.305252361297607422e+01,-7.063890457153320312e+00,-1.140500926971435547e+01,-1.355121517181396484e+01,5.056965827941894531e+00,-1.446279335021972656e+01,-1.251090335845947266e+01,-1.704713058471679688e+01,-1.177028560638427734e+01,-9.575974464416503906e+00,-9.431474208831787109e-01,6.355193257331848145e-01,1.330813026428222656e+01,1.980896186828613281e+01,2.069241905212402344e+01,2.908806037902832031e+01,-1.376249885559082031e+01,-1.019334793090820312e+01,1.864737892150878906e+01,-1.050369143486022949e+00,7.667217403650283813e-02
-1.504236888885498047e+01,-8.247300148010253906e+00,-1.335980796813964844e+01,-1.527746486663818359e+01,3.083742856979370117e+00,-1.528611087799072266e+01,-1.383147430419921875e+01,-1.970450401306152344e+01,-1.338374900817871094e+01,-1.232794475555419922e+01,-1.407844901084899902e+00,-2.212905645370483398e+00,1.435161018371582031e+01,1.620511054992675781e+01,2.414275550842285156e+01,2.881727027893066406e+01,-1.590986728668212891e+01,-1.254239082336425781e+01,1.854971885681152344e+01,-7.520288825035095215e-01,7.896085083484649658e-02
-1.659756088256835938e+01,-9.062187194824218750e+00,-1.490808582305908203e+01,-1.682075691223144531e+01,1.691287517547607422e+00,-1.644056129455566406e+01,-1.496490764617919922e+01,-2.267780876159667969e+01,-1.496628570556640625e+01,-1.520846366882324219e+01,-1.896846532821655273e+00,-5.734060764312744141e+00,1.475527191162109375e+01,1.139607524871826172e+01,2.700390434265136719e+01,2.714443397521972656e+01,-1.771541023254394531e+01,-1.502045059204101562e+01,1.738556861877441406e+01,-8.194879889488220215e-01,8.152227103710174561e-02
-1.721717262268066406e+01,-9.179444313049316406e+00,-1.561272239685058594e+01,-1.776136970520019531e+01,1.334501862525939941e+00,-1.745051574707031250e+01,-1.552631950378417969e+01,-2.539672660827636719e+01,-1.601349067687988281e+01,-1.761721801757812500e+01,-2.074753761291503906e+00,-9.367338180541992188e+00,1.466602706909179688e+01,5.988627433776855469e+00,2.911943054199218750e+01,2.426017189025878906e+01,-1.868829917907714844e+01,-1.704404449462890625e+01,1.540449523925781250e+01,-1.400966525077819824e+00,8.414298295974731445e-02
-1.661605644226074219e+01,-8.441413879394531250e+00,-1.519046497344970703e+01,-1.778935241699218750e+01,2.163037538528442383e+00,-1.787346458435058594e+01,-1.527744579315185547e+01,-2.730325317382812500e+01,-1.612972831726074219e+01,-1.904000473022460938e+01,-1.759770512580871582e+00,-1.250585556030273438e+01,1.421019077301025391e+01,6.664282679557800293e-01,3.036798477172851562e+01,2.049940681457519531e+01,-1.851651000976562500e+01,-1.810872650146484375e+01,1.293978023529052734e+01,-2.444207429885864258e+00,8.666882663965225220e-02
-1.486203479766845703e+01,-6.946633338928222656e+00,-1.364131259918212891e+01,-1.682936668395996094e+01,3.950930118560791016e+00,-1.746406364440917969e+01,-1.424722766876220703e+01,-2.804589462280273438e+01,-1.519449520111083984e+01,-1.921972465515136719e+01,-1.043280959129333496e+00,-1.470201683044433594e+01,1.339600276947021484e+01,-4.027269840240478516e+00,3.055658340454101562e+01,1.618993568420410156e+01,-1.719215393066406250e+01,-1.798319625854492188e+01,1.026579666137695312e+01,-3.748733520507812500e+00,8.902865648269653320e-02
-1.236663627624511719e+01,-5.032091617584228516e+00,-1.126425647735595703e+01,-1.508589839935302734e+01,6.181831836700439453e+00,-1.625994300842285156e+01,-1.273758983612060547e+01,-2.759593200683593750e+01,-1.343066978454589844e+01,-1.824249458312988281e+01,-2.636004090309143066e-01,-1.580988597869873047e+01,1.206693840026855469e+01,-7.850093364715576172e+00,2.940452194213867188e+01,1.153129100799560547e+01,-1.502374935150146484e+01,-1.678949737548828125e+01,7.475553035736083984e+00,-5.050409317016601562e+00,9.135290235280990601e-02
-9.701692581176757812e+00,-3.119521141052246094e+00,-8.539253234863281250e+00,-1.293777179718017578e+01,8.265063285827636719e+00,-1.451998901367187500e+01,-1.121251869201660156e+01,-2.620775222778320312e+01,-1.131706523895263672e+01,-1.647898864746093750e+01,1.340172290802001953e-01,-1.598429775238037109e+01,9.979979515075683594e+00,-1.086890316009521484e+01,2.661208724975585938e+01,6.589385509490966797e+00,-1.250212478637695312e+01,-1.495303630828857422e+01,4.477591037750244141e+00,-6.129755020141601562e+00,9.385503083467483521e-02
-7.392794609069824219e+00,-1.568574905395507812e+00,-5.971613407135009766e+00,-1.081978034973144531e+01,9.752661705017089844e+00,-1.258888149261474609e+01,-1.012152862548828125e+01,-2.430122756958007812e+01,-9.417807579040527344e+00,-1.442593097686767578e+01,-2.140197306871414185e-01,-1.557407474517822266e+01,6.919563293457031250e+00,-1.334947681427001953e+01,2.201261138916015625e+01,1.385598063468933105e+00,-1.012073612213134766e+01,-1.301777839660644531e+01,1.098296046257019043e+00,-6.857553482055664062e+00,9.670105576515197754e-02
-5.775949001312255859e+00,-5.930751562118530273e-01,-3.952995300292968750e+00,-9.104292869567871094e+00,1.044839382171630859e+01,-1.080377388000488281e+01,-9.760759353637695312e+00,-2.230990600585937500e+01,-8.196779251098632812e+00,-1.255384254455566406e+01,-1.463258504867553711e+00,-1.497342300415039062e+01,2.817040443420410156e+00,-1.559770393371582031e+01,1.570258617401123047e+01,-4.012373447418212891e+00,-8.241568565368652344e+00,-1.148584461212158203e+01,-2.801844596862792969e+00,-7.171095848083496094e+00,9.993840754032135010e-02
-4.925139904022216797e+00,-2.275090515613555908e-01,-2.646007776260375977e+00,-7.979647636413574219e+00,1.043550968170166016e+01,-9.388932228088378906e+00,-1.017168903350830078e+01,-2.052099990844726562e+01,-7.852332115173339844e+00,-1.114852905273437500e+01,-3.498010873794555664e+00,-1.445819664001464844e+01,-2.162829160690307617e+00,-1.778910064697265625e+01,8.105994224548339844e+00,-9.394311904907226562e+00,-6.987329959869384766e+00,-1.063154220581054688e+01,-7.187177658081054688e+00,-7.064681529998779297e+00,1.035433709621429443e-01
-4.707813739776611328e+00,-3.644731640815734863e-01,-1.995573878288269043e+00,-7.437234878540039062e+00,9.967723846435546875e+00,-8.442193031311035156e+00,-1.117200469970703125e+01,-1.904255294799804688e+01,-8.291688919067382812e+00,-1.026989555358886719e+01,-5.994544506072998047e+00,-1.412005233764648438e+01,-7.656200885772705078e+00,-1.991864776611328125e+01,-1.061023846268653870e-01,-1.443954467773437500e+01,-6.264236450195312500e+00,-1.046765518188476562e+01,-1.183138275146484375e+01,-6.568714618682861328e+00,1.074922233819961548e-01
-4.888148307800292969e+00,-8.266038894653320312e-01,-1.787504911422729492e+00,-7.303784370422363281e+00,9.328483581542968750e+00,-7.942483425140380859e+00,-1.245977783203125000e+01,-1.782806777954101562e+01,-9.211992263793945312e+00,-9.796880722045898438e+00,-8.564962387084960938e+00,-1.389313888549804688e+01,-1.319350814819335938e+01,-2.184092521667480469e+01,-8.160302162170410156e+00,-1.879355239868164062e+01,-5.854045391082763672e+00,-1.078845405578613281e+01,-1.636862945556640625e+01,-5.711698532104492188e+00,1.117731183767318726e-01
-5.213366985321044922e+00,-1.401064872741699219e+00,-1.735050559043884277e+00,-7.304860591888427734e+00,8.730867385864257812e+00,-7.782937526702880859e+00,-1.372536563873291016e+01,-1.674897956848144531e+01,-1.020907592773437500e+01,-9.507331848144531250e+00,-1.087775611877441406e+01,-1.364130973815917969e+01,-1.831479644775390625e+01,-2.335534477233886719e+01,-1.536361408233642578e+01,-2.217485618591308594e+01,-5.503454208374023438e+00,-1.127197837829589844e+01,-2.041758346557617188e+01,-4.497434616088867188e+00,1.163386106491088867e-01
-5.498511314392089844e+00,-1.885858654975891113e+00,-1.586429953575134277e+00,-7.172485828399658203e+00,8.269027709960937500e+00,-7.816051006317138672e+00,-1.475654888153076172e+01,-1.570134735107421875e+01,-1.094169235229492188e+01,-9.186580657958984375e+00,-1.275404453277587891e+01,-1.326223182678222656e+01,-2.268642807006835938e+01,-2.432316970825195312e+01,-2.126135253906250000e+01,-2.447122001647949219e+01,-5.037168502807617188e+00,-1.162764739990234375e+01,-2.368991851806640625e+01,-2.940174341201782227e+00,1.210938394069671631e-01
-5.626441001892089844e+00,-2.103621721267700195e+00,-1.171166300773620605e+00,-6.705408573150634766e+00,7.958822727203369141e+00,-7.882277488708496094e+00,-1.546072483062744141e+01,-1.463730335235595703e+01,-1.120082759857177734e+01,-8.691101074218750000e+00,-1.415883064270019531e+01,-1.273187828063964844e+01,-2.612853813171386719e+01,-2.471765327453613281e+01,-2.568392562866210938e+01,-2.575747108459472656e+01,-4.373675346374511719e+00,-1.167065334320068359e+01,-2.606162452697753906e+01,-1.083623647689819336e+00,1.258727908134460449e-01
-5.523172378540039062e+00,-1.930199623107910156e+00,-4.280631244182586670e-01,-5.826140403747558594e+00,7.811152935028076172e+00,-7.847659111022949219e+00,-1.583210468292236328e+01,-1.357326030731201172e+01,-1.093102836608886719e+01,-7.983451843261718750e+00,-1.514947223663330078e+01,-1.210364151000976562e+01,-2.860817527770996094e+01,-2.461569023132324219e+01,-2.870297241210937500e+01,-2.624738502502441406e+01,-3.522615909576416016e+00,-1.136147689819335938e+01,-2.756525611877441406e+01,9.506011009216308594e-01,1.304619908332824707e-01
-5.125511646270751953e+00,-1.307456254959106445e+00,6.157783865928649902e-01,-4.575578212738037109e+00,7.881519317626953125e+00,-7.626401901245117188e+00,-1.590059375762939453e+01,-1.255845260620117188e+01,-1.019414615631103516e+01,-7.108562469482421875e+00,-1.580082607269287109e+01,-1.146472549438476562e+01,-3.018025970458984375e+01,-2.415601539611816406e+01,-3.053048133850097656e+01,-2.619037628173828125e+01,-2.520802497863769531e+00,-1.076172161102294922e+01,-2.833877372741699219e+01,2.921167373657226562e+00,1.347547471523284912e-01
-4.390301704406738281e+00,-2.895863056182861328e-01,1.845832824707031250e+00,-3.106544017791748047e+00,8.245242118835449219e+00,-7.221516609191894531e+00,-1.569898700714111328e+01,-1.166946983337402344e+01,-9.135210990905761719e+00,-6.175014495849609375e+00,-1.615664100646972656e+01,-1.089788818359375000e+01,-3.096149635314941406e+01,-2.348238182067871094e+01,-3.142523002624511719e+01,-2.580913352966308594e+01,-1.423453211784362793e+00,-9.994591712951660156e+00,-2.855424308776855469e+01,4.489829063415527344e+00,1.387984752655029297e-01
-3.334497213363647461e+00,9.381639361381530762e-01,3.091623544692993164e+00,-1.635357499122619629e+00,8.944938659667968750e+00,-6.721807003021240234e+00,-1.525525951385498047e+01,-1.096785736083984375e+01,-7.933378696441650391e+00,-5.318846225738525391e+00,-1.622469139099121094e+01,-1.044495201110839844e+01,-3.108369255065917969e+01,-2.271179962158203125e+01,-3.160359382629394531e+01,-2.524617767333984375e+01,-2.954270839691162109e-01,-9.197242736816406250e+00,-2.836357688903808594e+01,5.301238536834716797e+00,1.428184807300567627e-01
-2.045953035354614258e+00,2.119602441787719727e+00,4.180051326751708984e+00,-3.643470108509063721e-01,9.954840660095214844e+00,-6.231127738952636719e+00,-1.457616424560546875e+01,-1.048917484283447266e+01,-6.752873897552490234e+00,-4.647390842437744141e+00,-1.596609497070312500e+01,-1.008545017242431641e+01,-3.066630172729492188e+01,-2.187602806091308594e+01,-3.120446586608886719e+01,-2.452822875976562500e+01,7.931575179100036621e-01,-8.469632148742675781e+00,-2.785513114929199219e+01,5.117864131927490234e+00,1.471586674451828003e-01
-6.695536971092224121e-01,3.028098344802856445e+00,4.991344928741455078e+00,5.784177184104919434e-01,1.117088508605957031e+01,-5.803665161132812500e+00,-1.368002796173095703e+01,-1.021017074584960938e+01,-5.709934711456298828e+00,-4.209321975708007812e+00,-1.533321189880371094e+01,-9.736627578735351562e+00,-2.980954933166503906e+01,-2.093494796752929688e+01,-3.031118011474609375e+01,-2.358403015136718750e+01,1.769553065299987793e+00,-7.871038913726806641e+00,-2.705681228637695312e+01,3.925452947616577148e+00,1.520680487155914307e-01
6.097424626350402832e-01,3.521760225296020508e+00,5.464308261871337891e+00,1.138049721717834473e+00,1.242359924316406250e+01,-5.421357154846191406e+00,-1.262279987335205078e+01,-1.006793308258056641e+01,-4.879209041595458984e+00,-4.003392696380615234e+00,-1.432798767089843750e+01,-9.295259475708007812e+00,-2.862190437316894531e+01,-1.980665397644042969e+01,-2.899098777770996094e+01,-2.230490684509277344e+01,2.534717559814453125e+00,-7.406112194061279297e+00,-2.596551704406738281e+01,1.984340667724609375e+00,1.577245146036148071e-01
1.603894352912902832e+00,3.564130544662475586e+00,5.591947555541992188e+00,1.304863095283508301e+00,1.351873302459716797e+01,-5.030018329620361328e+00,-1.151637554168701172e+01,-1.000502109527587891e+01,-4.307618618011474609e+00,-4.009632587432861328e+00,-1.303791809082031250e+01,-8.698166847229003906e+00,-2.723929405212402344e+01,-1.843933105468750000e+01,-2.735938644409179688e+01,-2.061069107055664062e+01,2.974709033966064453e+00,-7.087637424468994141e+00,-2.460914802551269531e+01,-2.427600771188735962e-01,1.640332043170928955e-01
2.168017625808715820e+00,3.191667079925537109e+00,5.397866249084472656e+00,1.083162784576416016e+00,1.430366134643554688e+01,-4.614596843719482422e+00,-1.050544929504394531e+01,-9.988609313964843750e+00,-4.025022506713867188e+00,-4.214314460754394531e+00,-1.162632656097412109e+01,-7.948909282684326172e+00,-2.582373237609863281e+01,-1.684634780883789062e+01,-2.560497665405273438e+01,-1.851029205322265625e+01,2.981720924377441406e+00,-6.933049201965332031e+00,-2.306211280822753906e+01,-2.248481035232543945e+00,1.707806438207626343e-01
2.232753038406372070e+00,2.474329710006713867e+00,4.941513538360595703e+00,4.869394004344940186e-01,1.472486686706542969e+01,-4.242824554443359375e+00,-9.699023246765136719e+00,-1.001049137115478516e+01,-3.999428987503051758e+00,-4.598716259002685547e+00,-1.027306556701660156e+01,-7.112445831298828125e+00,-2.452350044250488281e+01,-1.510125541687011719e+01,-2.393975067138671875e+01,-1.609456634521484375e+01,2.511052846908569336e+00,-6.945834636688232422e+00,-2.141897010803222656e+01,-3.637568712234497070e+00,1.777415424585342407e-01
1.821220517158508301e+00,1.472225427627563477e+00,4.298947811126708984e+00,-4.536729156970977783e-01,1.484379482269287109e+01,-4.086288928985595703e+00,-9.132788658142089844e+00,-1.009528732299804688e+01,-4.161521911621093750e+00,-5.130389690399169922e+00,-9.118127822875976562e+00,-6.291110038757324219e+00,-2.342098236083984375e+01,-1.330267333984375000e+01,-2.253768539428710938e+01,-1.351672267913818359e+01,1.602145910263061523e+00,-7.105072021484375000e+00,-1.977737617492675781e+01,-4.236149311065673828e+00,1.847854554653167725e-01
1.062890768051147461e+00,2.799479067325592041e-01,3.602179288864135742e+00,-1.628900170326232910e+00,1.483289337158203125e+01,-4.315071582794189453e+00,-8.739221572875976562e+00,-1.023342132568359375e+01,-4.358805656433105469e+00,-5.709488868713378906e+00,-8.207203865051269531e+00,-5.562318801879882812e+00,-2.250793838500976562e+01,-1.152247810363769531e+01,-2.145579910278320312e+01,-1.091571998596191406e+01,4.136429131031036377e-01,-7.304990768432617188e+00,-1.817453765869140625e+01,-4.089829444885253906e+00,1.918530762195587158e-01
2.059164643287658691e-01,-9.152856469154357910e-01,3.061025142669677734e+00,-2.804127454757690430e+00,1.493596458435058594e+01,-4.978843212127685547e+00,-8.353372573852539062e+00,-1.033189296722412109e+01,-4.370536327362060547e+00,-6.140069007873535156e+00,-7.469326496124267578e+00,-4.911835193634033203e+00,-2.165255928039550781e+01,-9.720552444458007812e+00,-2.057274627685546875e+01,-8.336095809936523438e+00,-7.774895429611206055e-01,-7.332886219024658203e+00,-1.656084632873535156e+01,-3.412388086318969727e+00,1.989444047212600708e-01
-4.676406681537628174e-01,-1.856298089027404785e+00,2.907159090042114258e+00,-3.672633409500122070e+00,1.537600040435791016e+01,-5.939128875732421875e+00,-7.790996074676513672e+00,-1.023342132568359375e+01,-3.964237928390502930e+00,-6.175014495849609375e+00,-6.770336151123046875e+00,-4.238214969635009766e+00,-2.065987968444824219e+01,-7.781559944152832031e+00,-1.965168190002441406e+01,-5.738655567169189453e+00,-1.660978436470031738e+00,-6.930724620819091797e+00,-1.482159423828125000e+01,-2.443257331848144531e+00,2.060238867998123169e-01
-7.234998941421508789e-01,-2.281970739364624023e+00,3.313680171966552734e+00,-3.950296878814697266e+00,1.625210762023925781e+01,-6.911455631256103516e+00,-6.924763679504394531e+00,-9.782091140747070312e+00,-2.993813991546630859e+00,-5.615884304046630859e+00,-5.993572235107421875e+00,-3.407980680465698242e+00,-1.935003852844238281e+01,-5.570106029510498047e+00,-1.844260215759277344e+01,-3.043232917785644531e+00,-1.994916319847106934e+00,-5.904398918151855469e+00,-1.283897113800048828e+01,-1.362011194229125977e+00,2.130085080862045288e-01
-4.799712300300598145e-01,-2.038588523864746094e+00,4.319929599761962891e+00,-3.505820035934448242e+00,1.749590301513671875e+01,-7.585762977600097656e+00,-5.756603240966796875e+00,-8.899947166442871094e+00,-1.456065297126770020e+00,-4.402771472930908203e+00,-5.101119995117187500e+00,-2.332146167755126953e+00,-1.764340019226074219e+01,-3.029357671737670898e+00,-1.682269668579101562e+01,-2.195413708686828613e-01,-1.690778732299804688e+00,-4.213227748870849609e+00,-1.055872154235839844e+01,-3.254212439060211182e-01,2.198271006345748901e-01
1.334743946790695190e-01,-1.203008890151977539e+00,5.755430221557617188e+00,-2.458662271499633789e+00,1.885168838500976562e+01,-7.822071552276611328e+00,-4.439890861511230469e+00,-7.677254676818847656e+00,4.517242610454559326e-01,-2.699171066284179688e+00,-4.184363365173339844e+00,-1.061433672904968262e+00,-1.561822509765625000e+01,-2.796661853790283203e-01,-1.488261318206787109e+01,2.621965169906616211e+00,-8.739020228385925293e-01,-2.055967330932617188e+00,-8.067654609680175781e+00,5.040407776832580566e-01,2.264678180217742920e-01
7.916183471679687500e-01,-9.842777252197265625e-02,7.260869979858398438e+00,-1.169356226921081543e+00,1.993790245056152344e+01,-7.736278057098388672e+00,-3.247615337371826172e+00,-6.395751953125000000e+00,2.366978645324707031e+00,-8.882378339767456055e-01,-3.436764240264892578e+00,1.816933900117874146e-01,-1.351616287231445312e+01,2.369732618331909180e+00,-1.291621303558349609e+01,5.215842247009277344e+00,1.533292084932327271e-01,1.628955900669097900e-01,-5.596738338470458984e+00,9.962072372436523438e-01,2.330729663372039795e-01
1.065973401069641113e+00,7.962730526924133301e-01,8.375524520874023438e+00,-1.361893415451049805e-01,2.035316085815429688e+01,-7.682092666625976562e+00,-2.487491130828857422e+00,-5.447959899902343750e+00,3.854606389999389648e+00,5.357971787452697754e-01,-3.082894325256347656e+00,1.044852495193481445e+00,-1.166261386871337891e+01,4.472536087036132812e+00,-1.132993507385253906e+01,7.193316936492919922e+00,9.982531666755676270e-01,1.934266567230224609e+00,-3.480803728103637695e+00,1.103571772575378418e+00,2.398085445165634155e-01
6.112837791442871094e-01,1.056406378746032715e+00,8.733088493347167969e+00,2.189617604017257690e-01,1.983879470825195312e+01,-8.038812637329101562e+00,-2.364019393920898438e+00,-5.164853096008300781e+00,4.584023952484130859e+00,1.163570761680603027e+00,-3.253996133804321289e+00,1.209475636482238770e+00,-1.031707382202148438e+01,5.635931491851806641e+00,-1.044834423065185547e+01,8.230154991149902344e+00,1.347967505455017090e+00,2.849009990692138672e+00,-2.008175134658813477e+00,8.926432728767395020e-01,2.468761652708053589e-01
-6.325619816780090332e-01,5.489493608474731445e-01,8.243515014648437500e+00,-2.352011650800704956e-01,1.843048286437988281e+01,-8.950934410095214844e+00,-2.846331596374511719e+00,-5.620285987854003906e+00,4.501911163330078125e+00,8.802614212036132812e-01,-3.857713937759399414e+00,5.741193294525146484e-01,-9.507003784179687500e+00,5.716165542602539062e+00,-1.031530189514160156e+01,8.242625236511230469e+00,1.138489484786987305e+00,2.792056560516357422e+00,-1.262560129165649414e+00,5.363451242446899414e-01,2.543232738971710205e-01
-2.389667510986328125e+00,-4.876423180103302002e-01,7.149841308593750000e+00,-1.286663651466369629e+00,1.644734954833984375e+01,-1.021676540374755859e+01,-3.673014640808105469e+00,-6.585857391357421875e+00,3.853539943695068359e+00,-8.823217451572418213e-02,-4.595591068267822266e+00,-6.698976159095764160e-01,-9.014097213745117188e+00,4.885407924652099609e+00,-1.066179752349853516e+01,7.437383651733398438e+00,5.722852945327758789e-01,2.002843379974365234e+00,-1.064142823219299316e+00,2.722094655036926270e-01,2.620430886745452881e-01
-4.125194549560546875e+00,-1.552809238433837891e+00,5.935523509979248047e+00,-2.471576929092407227e+00,1.439682197570800781e+01,-1.137121582031250000e+01,-4.446643352508544922e+00,-7.618444919586181641e+00,3.103860855102539062e+00,-1.260159373283386230e+00,-5.064177513122558594e+00,-2.099004268646240234e+00,-8.458032608032226562e+00,3.584945678710937500e+00,-1.098051548004150391e+01,6.277621269226074219e+00,3.500479087233543396e-02,9.834913611412048340e-01,-1.034690260887145996e+00,2.674588263034820557e-01,2.697036564350128174e-01
-5.242651939392089844e+00,-2.119387388229370117e+00,5.118109703063964844e+00,-3.299186468124389648e+00,1.279227733612060547e+01,-1.191758441925048828e+01,-4.787155628204345703e+00,-8.265350341796875000e+00,2.729554414749145508e+00,-2.118823766708374023e+00,-4.917379379272460938e+00,-3.226450204849243164e+00,-7.472218990325927734e+00,2.337973356246948242e+00,-1.073782157897949219e+01,5.292447090148925781e+00,-9.033144265413284302e-02,2.756403386592864990e-01,-7.525656223297119141e-01,5.068911910057067871e-01,2.768898606300354004e-01
-5.327424526214599609e+00,-1.902609705924987793e+00,5.014949798583984375e+00,-3.491829156875610352e+00,1.195878696441650391e+01,-1.159849262237548828e+01,-4.507414817810058594e+00,-8.294071197509765625e+00,2.996154546737670898e+00,-2.358451128005981445e+00,-4.031732559204101562e+00,-3.728328227996826172e+00,-5.900134086608886719e+00,1.513901591300964355e+00,-9.603303909301757812e+00,4.841725349426269531e+00,3.742014467716217041e-01,2.093882709741592407e-01,3.180288150906562805e-02,7.843286395072937012e-01,2.833527028560638428e-01
-4.337896823883056641e+00,-9.980553388595581055e-01,5.609432220458984375e+00,-3.116230010986328125e+00,1.192409896850585938e+01,-1.055391883850097656e+01,-3.673979282379150391e+00,-7.789402961730957031e+00,3.845008850097656250e+00,-2.017730951309204102e+00,-2.548200607299804688e+00,-3.577053070068359375e+00,-3.876332759857177734e+00,1.172906398773193359e+00,-7.595967292785644531e+00,4.968212127685546875e+00,1.317290902137756348e+00,7.556772232055664062e-01,1.284312248229980469e+00,8.213836550712585449e-01,2.891158759593963623e-01
-2.614700317382812500e+00,1.587494462728500366e-01,6.571094989776611328e+00,-2.539378404617309570e+00,1.243549156188964844e+01,-9.268520355224609375e+00,-2.561767339706420898e+00,-7.121982097625732422e+00,4.915674209594726562e+00,-1.451112270355224609e+00,-8.109322786331176758e-01,-3.046699523925781250e+00,-1.781135320663452148e+00,1.062584400177001953e+00,-5.060846328735351562e+00,5.397555828094482422e+00,2.379581212997436523e+00,1.554188966751098633e+00,2.674783706665039062e+00,4.185292422771453857e-01,2.944284677505493164e-01
-7.219585776329040527e-01,1.023889660835266113e+00,7.428723812103271484e+00,-2.227276086807250977e+00,1.309356307983398438e+01,-8.335328102111816406e+00,-1.514185190200805664e+00,-6.748609542846679688e+00,5.728271007537841797e+00,-1.140345692634582520e+00,7.960652112960815430e-01,-2.573296785354614258e+00,-7.861584424972534180e-02,7.500055432319641113e-01,-2.522800922393798828e+00,5.670126914978027344e+00,3.129845619201660156e+00,2.109776496887207031e+00,3.731976032257080078e+00,-4.479877948760986328e-01,2.996698915958404541e-01
7.762051224708557129e-01,1.208150744438171387e+00,7.795030117034912109e+00,-2.508168220520019531e+00,1.352567005157470703e+01,-8.196853637695312500e+00,-7.984338998794555664e-01,-7.000260353088378906e+00,5.896762371063232422e+00,-1.447368144989013672e+00,1.998639822006225586e+00,-2.565288066864013672e+00,8.756188750267028809e-01,-1.710157692432403564e-01,-5.052304863929748535e-01,5.347673892974853516e+00,3.267452478408813477e+00,2.022602796554565430e+00,4.037352561950683594e+00,-1.633747935295104980e+00,3.050417602062225342e-01
1.553030729293823242e+00,6.524114608764648438e-01,7.534506797790527344e+00,-3.404655694961547852e+00,1.354350948333740234e+01,-8.931366920471191406e+00,-4.945771992206573486e-01,-7.919331073760986328e+00,5.299578189849853516e+00,-2.447063207626342773e+00,2.738461494445800781e+00,-3.225560426712036133e+00,9.634908437728881836e-01,-1.904407858848571777e+00,6.395214796066284180e-01,4.184348583221435547e+00,2.765231132507324219e+00,1.189221382141113281e+00,3.389395952224731445e+00,-2.921171903610229492e+00,3.104966282844543457e-01
1.583857178688049316e+00,-3.979751765727996826e-01,6.771296024322509766e+00,-4.658446788787841797e+00,1.315996551513671875e+01,-1.029352760314941406e+01,-5.437730550765991211e-01,-9.292467117309570312e+00,4.071085453033447266e+00,-3.923516750335693359e+00,3.115663528442382812e+00,-4.536316394805908203e+00,2.742450535297393799e-01,-4.405039310455322266e+00,7.681781649589538574e-01,2.173024892807006836e+00,1.834412336349487305e+00,-2.113704532384872437e-01,1.847011327743530273e+00,-4.143036842346191406e+00,3.156431913375854492e-01
1.093717217445373535e+00,-1.527190089225769043e+00,5.785154342651367188e+00,-5.862731933593750000e+00,1.251279544830322266e+01,-1.184684276580810547e+01,-8.389481306076049805e-01,-1.077091312408447266e+01,2.504544019699096680e+00,-5.499814987182617188e+00,3.274127244949340820e+00,-6.308907032012939453e+00,-9.847955703735351562e-01,-7.425520896911621094e+00,-9.002029895782470703e-02,-4.974567294120788574e-01,8.106870651245117188e-01,-1.825828671455383301e+00,-3.526306748390197754e-01,-5.243285655975341797e+00,3.198647797107696533e-01
4.109121263027191162e-01,-2.359813690185546875e+00,4.862832069396972656e+00,-6.660207271575927734e+00,1.174075126647949219e+01,-1.318793106079101562e+01,-1.311614036560058594e+00,-1.202643013000488281e+01,9.092098474502563477e-01,-6.809028625488281250e+00,3.302320241928100586e+00,-8.290613174438476562e+00,-2.602189064025878906e+00,-1.062485790252685547e+01,-1.794721245765686035e+00,-3.527803182601928711e+00,-6.189635489135980606e-03,-3.296159505844116211e+00,-2.893302440643310547e+00,-6.242820262908935547e+00,3.225447833538055420e-01
-2.102401107549667358e-01,-2.711584806442260742e+00,4.166937828063964844e+00,-6.888365268707275391e+00,1.089041137695312500e+01,-1.408199024200439453e+01,-1.965629458427429199e+00,-1.287028026580810547e+01,-5.091021060943603516e-01,-7.638987541198730469e+00,3.183715343475341797e+00,-1.025630283355712891e+01,-4.418667793273925781e+00,-1.367709922790527344e+01,-4.147091388702392578e+00,-6.620502471923828125e+00,-4.698460400104522705e-01,-4.407334804534912109e+00,-5.485128879547119141e+00,-7.108387470245361328e+00,3.233037292957305908e-01
-6.371859312057495117e-01,-2.608122587203979492e+00,3.723698377609252930e+00,-6.591329574584960938e+00,9.913215637207031250e+00,-1.448236083984375000e+01,-2.828003644943237305e+00,-1.325596141815185547e+01,-1.652282834053039551e+00,-7.957242488861083984e+00,2.845400094985961914e+00,-1.203067302703857422e+01,-6.303796291351318359e+00,-1.631814002990722656e+01,-6.898589611053466797e+00,-9.515454292297363281e+00,-5.890469551086425781e-01,-5.105886936187744141e+00,-7.894039154052734375e+00,-7.633808135986328125e+00,3.221653103828430176e-01
-8.298510313034057617e-01,-2.166684389114379883e+00,3.503390073776245117e+00,-5.902551651000976562e+00,8.766546249389648438e+00,-1.442215442657470703e+01,-3.848576307296752930e+00,-1.318894577026367188e+01,-2.461680412292480469e+00,-7.816211700439453125e+00,2.270847558975219727e+00,-1.344109249114990234e+01,-8.085949897766113281e+00,-1.833235168457031250e+01,-9.730498313903808594e+00,-1.197215461730957031e+01,-4.304045736789703369e-01,-5.424361705780029297e+00,-9.906114578247070312e+00,-7.506491184234619141e+00,3.194260299205780029e-01
-7.774460911750793457e-01,-1.480878472328186035e+00,3.497270584106445312e+00,-4.946872234344482422e+00,7.487072944641113281e+00,-1.390588760375976562e+01,-4.875901222229003906e+00,-1.267196846008300781e+01,-2.881841897964477539e+00,-7.280794620513916016e+00,1.543664097785949707e+00,-1.430959129333496094e+01,-9.556431770324707031e+00,-1.955592346191406250e+01,-1.227877807617187500e+01,-1.377682304382324219e+01,-4.300167411565780640e-02,-5.397628784179687500e+00,-1.133689022064208984e+01,-6.470851421356201172e+00,3.155246078968048096e-01
-4.414382278919219971e-01,-5.477488636970520020e-01,3.742931604385375977e+00,-3.773797512054443359e+00,6.217510223388671875e+00,-1.288539600372314453e+01,-5.698725700378417969e+00,-1.168314647674560547e+01,-2.862646818161010742e+00,-6.385936737060546875e+00,8.320354819297790527e-01,-1.448400211334228516e+01,-1.050792121887207031e+01,-1.990861892700195312e+01,-1.419400787353515625e+01,-1.476021671295166016e+01,5.828030109405517578e-01,-5.023362636566162109e+00,-1.205770301818847656e+01,-4.534489631652832031e+00,3.107575178146362305e-01
2.259536385536193848e-01,7.056205272674560547e-01,4.289330959320068359e+00,-2.390860795974731445e+00,5.157063961029052734e+00,-1.130950450897216797e+01,-6.139559268951416016e+00,-1.022384738922119141e+01,-2.398762702941894531e+00,-5.161591053009033203e+00,3.022027015686035156e-01,-1.388780021667480469e+01,-1.083469486236572266e+01,-1.941718482971191406e+01,-1.524519157409667969e+01,-1.485107326507568359e+01,1.484697937965393066e+00,-4.298076629638671875e+00,-1.205150222778320312e+01,-2.083158731460571289e+00,3.051840662956237793e-01
1.192361712455749512e+00,2.279229879379272461e+00,5.094505310058593750e+00,-8.647872209548950195e-01,4.425653457641601562e+00,-9.254974365234375000e+00,-6.163674831390380859e+00,-8.417160987854003906e+00,-1.612825989723205566e+00,-3.728819608688354492e+00,9.579437784850597382e-03,-1.261352825164794922e+01,-1.061776065826416016e+01,-1.827217674255371094e+01,-1.541332244873046875e+01,-1.414737701416015625e+01,2.619735956192016602e+00,-3.307782649993896484e+00,-1.146710109710693359e+01,2.684089541435241699e-01,2.986500561237335205e-01
2.283616781234741211e+00,3.988817930221557617e+00,5.969618797302246094e+00,5.999420285224914551e-01,3.966787338256835938e+00,-6.997249126434326172e+00,-5.908049106597900391e+00,-6.522944927215576172e+00,-7.639716863632202148e-01,-2.326001405715942383e+00,-1.343017667531967163e-01,-1.093704128265380859e+01,-1.010837841033935547e+01,-1.678784370422363281e+01,-1.489430999755859375e+01,-1.291457271575927734e+01,3.804733037948608398e+00,-2.257048368453979492e+00,-1.059437465667724609e+01,1.942535042762756348e+00,2.908590734004974365e-01
3.157545566558837891e+00,5.458964824676513672e+00,6.609561920166015625e+00,1.684767246246337891e+00,3.539635658264160156e+00,-4.962286472320556641e+00,-5.623485088348388672e+00,-4.888584613800048828e+00,-1.710533201694488525e-01,-1.262655496597290039e+00,-3.190141320228576660e-01,-9.240088462829589844e+00,-9.642930984497070312e+00,-1.533025741577148438e+01,-1.403903484344482422e+01,-1.152143287658691406e+01,4.732045650482177734e+00,-1.449237942695617676e+00,-9.780553817749023438e+00,2.700737476348876953e+00,2.815739214420318604e-01
3.422652721405029297e+00,6.228526115417480469e+00,6.705728054046630859e+00,2.080814599990844727e+00,2.807233810424804688e+00,-3.582063674926757812e+00,-5.554996967315673828e+00,-3.804026126861572266e+00,-9.000692516565322876e-02,-8.096101284027099609e-01,-7.292699813842773438e-01,-7.875941276550292969e+00,-9.501512527465820312e+00,-1.418190574645996094e+01,-1.321300125122070312e+01,-1.030822563171386719e+01,5.069489479064941406e+00,-1.145873308181762695e+00,-9.300011634826660156e+00,2.781498432159423828e+00,2.706879079341888428e-01
2.793793916702270508e+00,5.952627182006835938e+00,6.084144115447998047e+00,1.638489961624145508e+00,1.503975033760070801e+00,-3.106436252593994141e+00,-5.830879211425781250e+00,-3.385520458221435547e+00,-6.018788814544677734e-01,-1.061717987060546875e+00,-1.434093475341796875e+00,-7.040367603302001953e+00,-9.796707153320312500e+00,-1.346314144134521484e+01,-1.268229198455810547e+01,-9.488731384277343750e+00,4.605833053588867188e+00,-1.470159649848937988e+00,-9.262808799743652344e+00,2.707388401031494141e+00,2.580942511558532715e-01
1.258638501167297363e+00,4.597766399383544922e+00,4.801635265350341797e+00,4.697199463844299316e-01,-4.127568602561950684e-01,-3.476703166961669922e+00,-6.415441989898681641e+00,-3.493566036224365234e+00,-1.570170044898986816e+00,-1.872956156730651855e+00,-2.351822137832641602e+00,-6.693324089050292969e+00,-1.043927097320556641e+01,-1.309707260131835938e+01,-1.253316688537597656e+01,-9.078984260559082031e+00,3.358606100082397461e+00,-2.326787233352661133e+00,-9.588336944580078125e+00,2.927818059921264648e+00,2.438878417015075684e-01
-8.591361045837402344e-01,2.538377761840820312e+00,3.166808128356933594e+00,-1.029448151588439941e+00,-2.686274528503417969e+00,-4.301525592803955078e+00,-7.111900806427001953e+00,-3.761628627777099609e+00,-2.673893928527832031e+00,-2.877643585205078125e+00,-3.258857011795043945e+00,-6.565185070037841797e+00,-1.116558742523193359e+01,-1.283798313140869141e+01,-1.266182422637939453e+01,-8.902615547180175781e+00,1.620551943778991699e+00,-3.417040586471557617e+00,-1.003322601318359375e+01,3.564404249191284180e+00,2.282584458589553833e-01
-2.981534719467163086e+00,4.464726150035858154e-01,1.615907907485961914e+00,-2.323059082031250000e+00,-4.852756500244140625e+00,-5.008945941925048828e+00,-7.657877922058105469e+00,-3.746584177017211914e+00,-3.550474643707275391e+00,-3.636463165283203125e+00,-3.884934663772583008e+00,-6.280431747436523438e+00,-1.167497062683105469e+01,-1.240003871917724609e+01,-1.283141708374023438e+01,-8.692397117614746094e+00,-1.508083641529083252e-01,-4.363166332244873047e+00,-1.031845092773437500e+01,4.355861186981201172e+00,2.115143388509750366e-01
-4.505900859832763672e+00,-9.694800972938537598e-01,5.292286872863769531e-01,-2.970940828323364258e+00,-6.445407867431640625e+00,-5.097749710083007812e+00,-7.868165969848632812e+00,-3.128399372100830078e+00,-3.953573942184448242e+00,-3.831160306930541992e+00,-4.053120136260986328e+00,-5.536513328552246094e+00,-1.177245330810546875e+01,-1.158599662780761719e+01,-1.280948638916015625e+01,-8.223860740661621094e+00,-1.514606833457946777e+00,-4.874586105346679688e+00,-1.026264572143554688e+01,4.797670841217041016e+00,1.940350234508514404e-01
-5.017619132995605469e+00,-1.220745205879211426e+00,9.123491495847702026e-02,-2.777222156524658203e+00,-7.179791927337646484e+00,-4.321092605590820312e+00,-7.692604541778564453e+00,-1.837323307991027832e+00,-3.840535402297973633e+00,-3.381859302520751953e+00,-3.739109277725219727e+00,-4.218638420104980469e+00,-1.143332290649414062e+01,-1.037078285217285156e+01,-1.246006679534912109e+01,-7.427525997161865234e+00,-2.209653139114379883e+00,-4.849015235900878906e+00,-9.845659255981445312e+00,4.474627017974853516e+00,1.763185262680053711e-01
-4.422669410705566406e+00,-2.117433995008468628e-01,2.451009899377822876e-01,-1.853829264640808105e+00,-7.060863494873046875e+00,-2.745200395584106445e+00,-7.232478618621826172e+00,-5.935836583375930786e-02,-3.354257106781005859e+00,-2.453303575515747070e+00,-3.072200298309326172e+00,-2.430030345916748047e+00,-1.080723476409912109e+01,-8.888122558593750000e+00,-1.182116985321044922e+01,-6.415628910064697266e+00,-2.224553346633911133e+00,-4.384088039398193359e+00,-9.199253082275390625e+00,3.348725080490112305e+00,1.589459329843521118e-01
-2.963038921356201172e+00,1.730388045310974121e+00,7.390460968017578125e-01,-5.473036766052246094e-01,-6.369095802307128906e+00,-7.087322473526000977e-01,-6.686501026153564453e+00,1.848534822463989258e+00,-2.753874063491821289e+00,-1.376228809356689453e+00,-2.284742355346679688e+00,-4.474339187145233154e-01,-1.015094089508056641e+01,-7.383732318878173828e+00,-1.108724212646484375e+01,-5.453614234924316406e+00,-1.780179381370544434e+00,-3.716918230056762695e+00,-8.541996002197265625e+00,1.798115611076354980e+00,1.424508690834045410e-01
-1.062590479850769043e+00,4.048924446105957031e+00,1.286319732666015625e+00,7.506121993064880371e-01,-5.522720813751220703e+00,1.372890353202819824e+00,-6.255313873291015625e+00,3.530763149261474609e+00,-2.269728422164916992e+00,-4.539133906364440918e-01,-1.614917159080505371e+00,1.421261072158813477e+00,-9.721192359924316406e+00,-6.084941864013671875e+00,-1.053752708435058594e+01,-4.830086231231689453e+00,-1.177163124084472656e+00,-3.078806400299072266e+00,-8.076954841613769531e+00,4.270803928375244141e-01,1.272246390581130981e-01
8.640604019165039062e-01,6.189111709594726562e+00,1.705954551696777344e+00,1.778397917747497559e+00,-4.904292106628417969e+00,3.173049688339233398e+00,-6.045990467071533203e+00,4.780809402465820312e+00,-2.011659622192382812e+00,1.501470506191253662e-01,-1.230909824371337891e+00,2.953590869903564453e+00,-9.674510002136230469e+00,-5.120460510253906250e+00,-1.042056655883789062e+01,-4.739229202270507812e+00,-6.468944549560546875e-01,-2.587146282196044922e+00,-7.904890060424804688e+00,-2.503611147403717041e-01,1.133740022778511047e-01
2.524062633514404297e+00,7.763706207275390625e+00,1.977842926979064941e+00,2.470404386520385742e+00,-4.737792015075683594e+00,4.533705234527587891e+00,-6.037309169769287109e+00,5.583629131317138672e+00,-1.942343592643737793e+00,4.646578431129455566e-01,-1.186190009117126465e+00,4.070358753204345703e+00,-1.002737140655517578e+01,-4.481930255889892578e+00,-1.084747219085693359e+01,-5.211328983306884766e+00,-2.770210802555084229e-01,-2.217529535293579102e+00,-7.994798183441162109e+00,-1.144927516579627991e-01,1.006973460316658020e-01
3.809524297714233398e+00,8.639685630798339844e+00,2.220007181167602539e+00,2.933177232742309570e+00,-5.032140254974365234e+00,5.462383270263671875e+00,-6.080717086791992188e+00,6.081459045410156250e+00,-1.907152414321899414e+00,6.593550443649291992e-01,-1.412705659866333008e+00,4.824955463409423828e+00,-1.065345859527587891e+01,-4.050671577453613281e+00,-1.173637294769287109e+01,-6.093175888061523438e+00,-3.560204058885574341e-03,-1.840938806533813477e+00,-8.193215370178222656e+00,5.106917023658752441e-01,8.874405175447463989e-02
4.775932312011718750e+00,8.916569709777832031e+00,2.609043598175048828e+00,3.342139005661010742e+00,-5.606961727142333984e+00,6.070463657379150391e+00,-5.955316066741943359e+00,6.480817317962646484e+00,-1.709868431091308594e+00,9.451604485511779785e-01,-1.742271423339843750e+00,5.350859642028808594e+00,-1.131936359405517578e+01,-3.647829294204711914e+00,-1.283580303192138672e+01,-7.113980293273925781e+00,3.198598623275756836e-01,-1.291162848472595215e+00,-8.281573295593261719e+00,1.076968193054199219e+00,7.696863263845443726e-02
5.543509960174560547e+00,8.794385910034179688e+00,3.251609325408935547e+00,3.807064056396484375e+00,-6.211515426635742188e+00,6.455781936645507812e+00,-5.474933147430419922e+00,6.925308704376220703e+00,-1.220390915870666504e+00,1.450624227523803711e+00,-1.994063496589660645e+00,5.746844768524169922e+00,-1.179304885864257812e+01,-3.143022775650024414e+00,-1.383143043518066406e+01,-7.992264270782470703e+00,8.001693487167358398e-01,-4.903265237808227539e-01,-8.087805747985839844e+00,1.145377397537231445e+00,6.488489359617233276e-02
6.255599975585937500e+00,8.486955642700195312e+00,4.144207477569580078e+00,4.319342613220214844e+00,-6.624792098999023438e+00,6.683059692382812500e+00,-4.567221641540527344e+00,7.457330703735351562e+00,-4.109933078289031982e-01,2.172002315521240234e+00,-2.033922433853149414e+00,6.046725749969482422e+00,-1.191112613677978516e+01,-2.492791652679443359e+00,-1.445716953277587891e+01,-8.523154258728027344e+00,1.460156679153442383e+00,5.336747169494628906e-01,-7.528207302093505859e+00,6.351584792137145996e-01,5.219637975096702576e-02
7.020095348358154297e+00,8.148979187011718750e+00,5.186300277709960938e+00,4.781039237976074219e+00,-6.724890232086181641e+00,6.788420200347900391e+00,-3.303563356399536133e+00,8.012602806091308594e+00,6.415434479713439941e-01,2.993224859237670898e+00,-1.820044994354248047e+00,6.199780941009521484e+00,-1.160906696319580078e+01,-1.745611190795898438e+00,-1.459021186828613281e+01,-8.633607864379882812e+00,2.237591981887817383e+00,1.651823520660400391e+00,-6.644629955291748047e+00,-1.724505871534347534e-01,3.897423297166824341e-02
7.892482757568359375e+00,7.854358673095703125e+00,6.238009929656982422e+00,5.066236019134521484e+00,-6.503881454467773438e+00,6.801966667175292969e+00,-1.867237687110900879e+00,8.485815048217773438e+00,1.810317754745483398e+00,3.760781049728393555e+00,-1.403956174850463867e+00,6.140160560607910156e+00,-1.091158294677734375e+01,-1.001773595809936523e+00,-1.426564598083496094e+01,-8.371726036071777344e+00,3.023791790008544922e+00,2.707207441329956055e+00,-5.550234317779541016e+00,-8.299393653869628906e-01,2.576394565403461456e-02
8.845018386840820312e+00,7.606050014495849609e+00,7.200547218322753906e+00,5.132961750030517578e+00,-6.054925918579101562e+00,6.780894756317138672e+00,-4.685323536396026611e-01,8.803112983703613281e+00,2.991888999938964844e+00,4.382314205169677734e+00,-8.935667872428894043e-01,5.863415718078613281e+00,-9.883206367492675781e+00,-3.331556320190429688e-01,-1.360335636138916016e+01,-7.833710193634033203e+00,3.733738422393798828e+00,3.595217466354370117e+00,-4.355080127716064453e+00,-1.022815465927124023e+00,1.334817335009574890e-02
9.774435043334960938e+00,7.380403995513916016e+00,8.046811103820800781e+00,5.042559623718261719e+00,-5.531640529632568359e+00,6.820028305053710938e+00,7.179556488990783691e-01,8.965865135192871094e+00,4.136136054992675781e+00,4.864065170288085938e+00,-4.065094590187072754e-01,5.458531856536865234e+00,-8.587094306945800781e+00,2.485420256853103638e-01,-1.272469043731689453e+01,-7.112198829650878906e+00,4.339384078979492188e+00,4.308879852294921875e+00,-3.113421678543090820e+00,-7.539291381835937500e-01,2.497712848708033562e-03
1.050039768218994141e+01,7.144904613494873047e+00,8.791662216186523438e+00,4.924175739288330078e+00,-5.111425876617431641e+00,6.996130943298339844e+00,1.595763921737670898e+00,9.038352012634277344e+00,5.225996971130371094e+00,5.279668331146240234e+00,-2.444652281701564789e-02,5.076784133911132812e+00,-7.087779045104980469e+00,7.784217596054077148e-01,-1.168958854675292969e+01,-6.273108482360839844e+00,4.853876113891601562e+00,4.914447307586669922e+00,-1.828359484672546387e+00,-2.807652056217193604e-01,-6.277523003518581390e-03
1.082869815826416016e+01,6.862108230590820312e+00,9.440347671508789062e+00,4.888660430908203125e+00,-4.942944049835205078e+00,7.334789752960205078e+00,2.154281377792358398e+00,9.114940643310546875e+00,6.249740600585937500e+00,5.711496829986572266e+00,2.360951155424118042e-01,4.867668628692626953e+00,-5.445671558380126953e+00,1.301615357398986816e+00,-1.048635673522949219e+01,-5.360975742340087891e+00,5.297373771667480469e+00,5.482820034027099609e+00,-4.781916439533233643e-01,2.517610974609851837e-02,-1.298939250409603119e-02
1.064682292938232422e+01,6.489644527435302734e+00,9.952651977539062500e+00,4.948928833007812500e+00,-5.095569133758544922e+00,7.765262603759765625e+00,2.435951709747314453e+00,9.247604370117187500e+00,7.148715972900390625e+00,6.167038440704345703e+00,4.091414213180541992e-01,4.887245178222656250e+00,-3.759627819061279297e+00,1.806421995162963867e+00,-9.094525337219238281e+00,-4.438154220581054688e+00,5.658482074737548828e+00,6.025622367858886719e+00,9.014288187026977539e-01,-1.705503314733505249e-01,-1.800550706684589386e-02
9.959393501281738281e+00,5.948685646057128906e+00,1.020880413055419922e+01,4.970452785491943359e+00,-5.559390544891357422e+00,8.094890594482421875e+00,2.466819763183593750e+00,9.392577171325683594e+00,7.798153400421142578e+00,6.536463737487792969e+00,5.219131708145141602e-01,5.025172710418701172e+00,-2.183424234390258789e+00,2.180848121643066406e+00,-7.585733413696289062e+00,-3.627567768096923828e+00,5.857442378997802734e+00,6.441731452941894531e+00,2.175640106201171875e+00,-9.943115711212158203e-01,-2.194250561296939850e-02
8.886634826660156250e+00,5.115076541900634766e+00,1.004619598388671875e+01,4.710009098052978516e+00,-6.261068820953369141e+00,8.055756568908691406e+00,2.226628303527832031e+00,9.406253814697265625e+00,8.024230003356933594e+00,6.612595081329345703e+00,5.530226230621337891e-01,5.030511856079101562e+00,-9.326215982437133789e-01,2.237680435180664062e+00,-6.144194126129150391e+00,-3.102022647857666016e+00,5.751388549804687500e+00,6.545177936553955078e+00,3.113471984863281250e+00,-2.320690631866455078e+00,-2.533401548862457275e-02
7.650495529174804688e+00,3.866633892059326172e+00,9.338062286376953125e+00,3.941591024398803711e+00,-7.100506305694580078e+00,7.425098896026611328e+00,1.667146086692810059e+00,9.131353378295898438e+00,7.681915760040283203e+00,6.204480171203613281e+00,4.383065402507781982e-01,4.631856918334960938e+00,-2.117968052625656128e-01,1.801407337188720703e+00,-5.012599945068359375e+00,-3.002258062362670898e+00,5.207096576690673828e+00,6.162775516510009766e+00,3.473103284835815430e+00,-3.848497152328491211e+00,-2.857136540114879608e-02
6.486798286437988281e+00,2.185621261596679688e+00,8.088774681091308594e+00,2.604931354522705078e+00,-7.992470264434814453e+00,6.160772800445556641e+00,7.671515345573425293e-01,8.507697105407714844e+00,6.750948905944824219e+00,5.250963211059570312e+00,1.262398660182952881e-01,3.699289083480834961e+00,-1.184328347444534302e-01,8.302396535873413086e-01,-4.373702526092529297e+00,-3.365685939788818359e+00,4.186877250671386719e+00,5.248032093048095703e+00,3.136723995208740234e+00,-5.232833862304687500e+00,-3.180871531367301941e-02
5.562005996704101562e+00,2.158999443054199219e-01,6.456569671630859375e+00,8.668434619903564453e-01,-8.904255867004394531e+00,4.471994400024414062e+00,-4.125841259956359863e-01,7.628288745880126953e+00,5.360363006591796875e+00,3.886834859848022461e+00,-3.637339472770690918e-01,2.328022956848144531e+00,-5.907446742057800293e-01,-5.420987606048583984e-01,-4.258203983306884766e+00,-4.074726581573486328e+00,2.796784400939941406e+00,3.924153089523315430e+00,2.172539710998535156e+00,-6.197214126586914062e+00,-3.506978228688240051e-02
4.931605815887451172e+00,-1.730172872543334961e+00,4.727324962615966797e+00,-9.121406674385070801e-01,-9.843791961669921875e+00,2.790741682052612305e+00,-1.703251600265502930e+00,6.735203266143798828e+00,3.783157587051391602e+00,2.412877559661865234e+00,-9.003719687461853027e-01,8.401858806610107422e-01,-1.385711431503295898e+00,-2.018073081970214844e+00,-4.490663051605224609e+00,-4.879968643188476562e+00,1.287490606307983398e+00,2.468932390213012695e+00,8.487241864204406738e-01,-6.589617252349853516e+00,-3.835456818342208862e-02
4.563230037689208984e+00,-3.245646238327026367e+00,3.234998703002929688e+00,-2.298306226730346680e+00,-1.082098770141601562e+01,1.612209200859069824e+00,-2.861765384674072266e+00,6.132062911987304688e+00,2.353115320205688477e+00,1.191027998924255371e+00,-1.259102821350097656e+00,-3.451006114482879639e-01,-2.161456346511840820e+00,-3.258359432220458984e+00,-4.753824710845947266e+00,-5.476773738861083984e+00,7.833998650312423706e-03,1.220603942871093750e+00,-4.719910919666290283e-01,-6.401492118835449219e+00,-4.173421859741210938e-02
4.376729965209960938e+00,-3.998456239700317383e+00,2.238366127014160156e+00,-2.987084150314331055e+00,-1.181701469421386719e+01,1.252478361129760742e+00,-3.674943923950195312e+00,6.006237506866455078e+00,1.333636999130249023e+00,4.609136879444122314e-01,-1.240631580352783203e+00,-9.341844320297241211e-01,-2.624157190322875977e+00,-4.052343368530273438e+00,-4.761134624481201172e+00,-5.662050724029541016e+00,-7.433069348335266113e-01,4.220922589302062988e-01,-1.507481575012207031e+00,-5.759205341339111328e+00,-4.533918201923370361e-02
4.298122882843017578e+00,-3.883169889450073242e+00,1.833593487739562988e+00,-2.935425758361816406e+00,-1.275159454345703125e+01,1.693487286567687988e+00,-4.040536403656005859e+00,6.319432735443115234e+00,8.196322321891784668e-01,2.275266945362091064e-01,-7.632959485054016113e-01,-9.146076440811157227e-01,-2.654363155364990234e+00,-4.431783676147460938e+00,-4.383936882019042969e+00,-5.437580585479736328e+00,-8.309546113014221191e-01,1.071043834090232849e-01,-2.195741653442382812e+00,-4.906939983367919922e+00,-4.919316992163658142e-02
4.287333488464355469e+00,-3.064341306686401367e+00,1.937627911567687988e+00,-2.366107702255249023e+00,-1.350381851196289062e+01,2.586041212081909180e+00,-4.015456199645996094e+00,6.784439086914062500e+00,7.204570174217224121e-01,2.462475746870040894e-01,7.665918767452239990e-02,-5.773527026176452637e-01,-2.356422185897827148e+00,-4.677501201629638672e+00,-3.733343362808227539e+00,-5.020707607269287109e+00,-3.313626646995544434e-01,9.199426323175430298e-02,-2.716587066650390625e+00,-4.186742782592773438e+00,-5.308273434638977051e-02
4.298122882843017578e+00,-1.926258206367492676e+00,2.313550710678100586e+00,-1.679482340812683105e+00,-1.399538993835449219e+01,3.379255294799804688e+00,-3.815778970718383789e+00,6.973176956176757812e+00,7.940386533737182617e-01,1.326742321252822876e-01,1.010914802551269531e+00,-4.056107401847839355e-01,-2.014545202255249023e+00,-5.212395191192626953e+00,-3.125148057937622070e+00,-4.799800395965576172e+00,4.828846156597137451e-01,5.015084892511367798e-02,-3.418798446655273438e+00,-3.927357673645019531e+00,-5.659282952547073364e-02
4.250341892242431641e+00,-9.113442897796630859e-01,2.665868997573852539e+00,-1.265139341354370117e+00,-1.426099681854248047e+01,3.571914672851562500e+00,-3.725104331970214844e+00,6.499964714050292969e+00,7.556482553482055664e-01,-4.564095139503479004e-01,1.706016540527343750e+00,-8.665555119514465332e-01,-1.956879377365112305e+00,-6.410892963409423828e+00,-2.932163238525390625e+00,-5.154320716857910156e+00,1.257690429687500000e+00,-3.299267888069152832e-01,-4.651155948638916016e+00,-4.333062648773193359e+00,-5.934398248791694641e-02
4.051511764526367188e+00,-3.221029639244079590e-01,2.773400545120239258e+00,-1.315721511840820312e+00,-1.445326423645019531e+01,2.948782444000244141e+00,-3.961437225341796875e+00,5.228035926818847656e+00,4.229314625263214111e-01,-1.630832791328430176e+00,1.919894099235534668e+00,-2.174641847610473633e+00,-2.381136178970336914e+00,-8.396688461303710938e+00,-3.386847496032714844e+00,-6.276671409606933594e+00,1.726605653762817383e+00,-1.177255868911743164e+00,-6.548521518707275391e+00,-5.350649833679199219e+00,-6.111088767647743225e-02
3.644602775573730469e+00,-2.117433995008468628e-01,2.582816362380981445e+00,-1.744055271148681641e+00,-1.476049613952636719e+01,1.660373926162719727e+00,-4.557575225830078125e+00,3.366643428802490234e+00,-1.934477090835571289e-01,-3.185914039611816406e+00,1.636020302772521973e+00,-4.183933734893798828e+00,-3.228276968002319336e+00,-1.095080947875976562e+01,-4.454113006591796875e+00,-8.065305709838867188e+00,1.841424226760864258e+00,-2.352358341217041016e+00,-8.924879074096679688e+00,-6.667527675628662109e+00,-6.201212853193283081e-02
3.065066337585449219e+00,-3.851655721664428711e-01,2.223504066467285156e+00,-2.224047422409057617e+00,-1.530360412597656250e+01,1.492033004760742188e-01,-5.335062503814697266e+00,1.406778931617736816e+00,-8.855412602424621582e-01,-4.662367343902587891e+00,1.081883311271667480e+00,-6.430817127227783203e+00,-4.190749645233154297e+00,-1.356844902038574219e+01,-5.843020439147949219e+00,-1.014432716369628906e+01,1.787082672119140625e+00,-3.490266561508178711e+00,-1.131518745422363281e+01,-7.845686912536621094e+00,-6.245088949799537659e-02
2.471657752990722656e+00,-5.231150388717651367e-01,1.931508183479309082e+00,-2.363955259323120117e+00,-1.604988098144531250e+01,-1.065452814102172852e+00,-5.983290195465087891e+00,-8.260867744684219360e-02,-1.351558089256286621e+00,-5.552233219146728516e+00,6.201024055480957031e-01,-8.337776184082031250e+00,-4.860773563385009766e+00,-1.565453720092773438e+01,-7.144207000732421875e+00,-1.200956630706787109e+01,1.870347976684570312e+00,-4.165572643280029297e+00,-1.316294956207275391e+01,-8.541180610656738281e+00,-6.287779659032821655e-02
2.118695497512817383e+00,-3.122494518756866455e-01,1.947244524955749512e+00,-1.866743803024291992e+00,-1.678525543212890625e+01,-1.577203869819641113e+00,-6.198401451110839844e+00,-6.816461086273193359e-01,-1.331296443939208984e+00,-5.496070861816406250e+00,5.851042270660400391e-01,-9.436746597290039062e+00,-4.926677703857421875e+00,-1.674605560302734375e+01,-8.009716033935546875e+00,-1.321743011474609375e+01,2.375198841094970703e+00,-4.063288688659667969e+00,-1.405117702484130859e+01,-8.664697647094726562e+00,-6.363673508167266846e-02
2.272827386856079102e+00,4.238094985485076904e-01,2.381741285324096680e+00,-6.678397655487060547e-01,-1.722628211975097656e+01,-1.228008985519409180e+00,-5.854030132293701172e+00,-2.850231528282165527e-01,-7.501084804534912109e-01,-4.452693462371826172e+00,1.103271007537841797e+00,-9.540859222412109375e+00,-4.340406894683837891e+00,-1.669590950012207031e+01,-8.324047088623046875e+00,-1.356304264068603516e+01,3.405059337615966797e+00,-3.134597539901733398e+00,-1.388531208038330078e+01,-8.366356849670410156e+00,-6.481071561574935913e-02
3.038863897323608398e+00,1.657471895217895508e+00,3.126593112945556641e+00,1.019666075706481934e+00,-1.720745086669921875e+01,-1.352700591087341309e-01,-5.103552341461181641e+00,8.501390814781188965e-01,1.968546658754348755e-01,-2.732868671417236328e+00,2.013222455978393555e+00,-8.796051025390625000e+00,-3.371068954467773438e+00,-1.572641372680664062e+01,-8.243637084960937500e+00,-1.315685844421386719e+01,4.800411224365234375e+00,-1.634046435356140137e+00,-1.295678138732910156e+01,-7.909345626831054688e+00,-6.616257876157760620e-02
4.282709598541259766e+00,3.198564529418945312e+00,3.887181043624877930e+00,2.811564683914184570e+00,-1.681399726867675781e+01,1.424065470695495605e+00,-4.346322536468505859e+00,2.235584020614624023e+00,1.121423363685607910e+00,-8.607805371284484863e-01,2.924145936965942383e+00,-7.572500705718994141e+00,-2.479992151260375977e+00,-1.431061458587646484e+01,-8.107669830322265625e+00,-1.235339832305908203e+01,6.204527378082275391e+00,-2.772438339889049530e-02,-1.179883003234863281e+01,-7.500790596008300781e+00,-6.731284409761428833e-02
5.626741409301757812e+00,4.787939548492431641e+00,4.301570415496826172e+00,4.294589519500732422e+00,-1.639477348327636719e+01,3.136926174163818359e+00,-4.071404457092285156e+00,3.354334354400634766e+00,1.592772126197814941e+00,6.306496858596801758e-01,3.386898994445800781e+00,-6.283101081848144531e+00,-2.118893384933471680e+00,-1.297003555297851562e+01,-8.272876739501953125e+00,-1.158022308349609375e+01,7.221240997314453125e+00,1.197357654571533203e+00,-1.096485710144042969e+01,-7.152093410491943359e+00,-6.782275438308715820e-02
6.593149185180664062e+00,6.196994781494140625e+00,4.110112190246582031e+00,5.210449218750000000e+00,-1.643441581726074219e+01,4.750447273254394531e+00,-4.669471740722656250e+00,3.853532314300537109e+00,1.327238559722900391e+00,1.406942248344421387e+00,3.082609653472900391e+00,-5.213495731353759766e+00,-2.536285161972045898e+00,-1.205904388427734375e+01,-8.927856445312500000e+00,-1.113840866088867188e+01,7.588484764099121094e+00,1.730861186981201172e+00,-1.079279232025146484e+01,-6.707433223724365234e+00,-6.756187230348587036e-02
6.828971385955810547e+00,7.310443878173828125e+00,3.306686401367187500e+00,5.527932643890380859e+00,-1.729466629028320312e+01,6.135185241699218750e+00,-6.238915443420410156e+00,3.666162014007568359e+00,3.429514467716217041e-01,1.453120350837707520e+00,1.975307822227478027e+00,-4.434873104095458984e+00,-3.651160955429077148e+00,-1.162778472900390625e+01,-9.980502128601074219e+00,-1.105824089050292969e+01,7.316776752471923828e+00,1.566974401473999023e+00,-1.126558399200439453e+01,-5.980585098266601562e+00,-6.666063517332077026e-02
6.298757076263427734e+00,8.142082214355468750e+00,2.178043603897094727e+00,5.460131168365478516e+00,-1.901219177246093750e+01,7.244480609893798828e+00,-8.519287109375000000e+00,3.008315086364746094e+00,-1.023106813430786133e+00,1.058733820915222168e+00,3.449781835079193115e-01,-3.803966045379638672e+00,-5.085945606231689453e+00,-1.142218494415283203e+01,-1.107993125915527344e+01,-1.108318233489990234e+01,6.692725181579589844e+00,9.986014366149902344e-01,-1.201739883422851562e+01,-4.901239395141601562e+00,-6.556965410709381104e-02
5.298439979553222656e+00,8.770737648010253906e+00,1.187530755996704102e+00,5.318070411682128906e+00,-2.125696945190429688e+01,8.061777114868164062e+00,-1.099354934692382812e+01,2.243790149688720703e+00,-2.254798889160156250e+00,6.531147360801696777e-01,-1.336876392364501953e+00,-3.092972040176391602e+00,-6.329883098602294922e+00,-1.103940105438232422e+01,-1.176415157318115234e+01,-1.082130050659179688e+01,6.135285854339599609e+00,4.616110324859619141e-01,-1.252739334106445312e+01,-3.635668277740478516e+00,-6.483443081378936768e-02
