Fp1,Fp2,F7,F3,Fz,F4,F8,T3,C3,Cz,C4,T4,T5,P3,Pz,P4,T6,O1,Oz,O2,A1
5.493526458740234375e-01,-5.179271101951599121e-01,-1.559419929981231689e-01,4.189558923244476318e-01,6.141414046287536621e-01,1.604139804840087891e-01,1.033229101449251175e-02,7.697535213083028793e-03,4.106338918209075928e-01,-8.508170954883098602e-03,1.049395278096199036e-01,-8.277865499258041382e-02,-3.218449652194976807e-01,4.337089061737060547e-01,5.501565933227539062e-01,-1.124439239501953125e-01,-7.783910036087036133e-01,1.559630483388900757e-01,-8.120276033878326416e-02,4.881738424301147461e-01,-6.036800742149353027e-01
4.084407389163970947e-01,-2.797363698482513428e-01,-2.035737633705139160e-01,2.522265315055847168e-01,3.153089582920074463e-01,1.013533622026443481e-01,8.947482332587242126e-03,6.645880639553070068e-02,5.437464714050292969e-01,-2.687025964260101318e-01,2.474216558039188385e-02,-3.094104230403900146e-01,-2.129470407962799072e-01,5.669796466827392578e-01,5.068984031677246094e-01,-3.371788859367370605e-01,-7.418065071105957031e-01,1.109958291053771973e-01,1.136774290353059769e-02,4.960960745811462402e-01,-5.426989197731018066e-01
4.554392993450164795e-01,-1.254938095808029175e-01,-4.403131306171417236e-01,2.472599595785140991e-01,2.340727746486663818e-01,4.414777457714080811e-02,3.379949927330017090e-02,1.193181872367858887e-01,4.428339004516601562e-01,-6.097958236932754517e-02,2.451373338699340820e-01,-8.869472146034240723e-02,-3.359721302986145020e-01,2.731646895408630371e-01,4.717702269554138184e-01,-8.529437333345413208e-02,-6.747491359710693359e-01,4.136591553688049316e-01,-1.905676424503326416e-01,4.833601415157318115e-01,-5.763940215110778809e-01
7.001546621322631836e-01,-2.791766822338104248e-01,-3.245065212249755859e-01,2.546968460083007812e-01,1.225847899913787842e-01,-3.651371225714683533e-02,-1.262846589088439941e-01,2.133679389953613281e-01,4.917390048503875732e-01,8.224322646856307983e-02,2.414741814136505127e-01,9.467479586601257324e-02,-3.146233558654785156e-01,5.995417833328247070e-01,7.044651508331298828e-01,1.544637233018875122e-01,-4.616003632545471191e-01,5.295847058296203613e-01,8.250728249549865723e-02,3.927133679389953613e-01,-8.190848827362060547e-01
3.481649458408355713e-01,-1.690256148576736450e-01,-3.658927679061889648e-01,1.371038854122161865e-01,1.002594921737909317e-02,-1.291345804929733276e-01,-1.527206003665924072e-01,1.345138549804687500e-01,3.197677135467529297e-01,9.827377647161483765e-02,2.162163555622100830e-01,4.351139068603515625e-01,-4.037967026233673096e-01,5.863036513328552246e-01,5.090222358703613281e-01,-5.598242953419685364e-02,-5.099012851715087891e-01,4.008563160896301270e-01,-1.123890746384859085e-02,4.397386908531188965e-01,-7.354618310928344727e-01
7.582474946975708008e-01,-2.440814524888992310e-01,-2.542234361171722412e-01,-5.363520234823226929e-02,-8.388813585042953491e-02,-4.518399015069007874e-03,-2.122744619846343994e-01,2.891898751258850098e-01,3.784513175487518311e-01,2.803201973438262939e-01,2.803955674171447754e-01,1.684768795967102051e-01,-3.618368506431579590e-01,3.195555806159973145e-01,5.806043148040771484e-01,2.279175445437431335e-02,-3.140604496002197266e-01,6.503913998603820801e-01,-8.590522408485412598e-02,3.278460800647735596e-01,-8.598499298095703125e-01
6.984044909477233887e-01,-2.388834357261657715e-01,-1.196544095873832703e-01,2.736047804355621338e-01,1.004137545824050903e-01,-6.558699905872344971e-02,-1.787217110395431519e-01,2.059995979070663452e-01,3.788486123085021973e-01,6.643542647361755371e-02,1.720021814107894897e-01,2.684471309185028076e-01,-3.682488501071929932e-01,3.120001256465911865e-01,6.253211498260498047e-01,1.077126637101173401e-01,-4.976972639560699463e-01,4.968530237674713135e-01,-1.992915421724319458e-01,4.688300788402557373e-01,-7.323759794235229492e-01
5.508670210838317871e-01,-2.436571866273880005e-01,-2.607358992099761963e-01,2.127789407968521118e-01,1.738748550415039062e-01,-2.197371721267700195e-01,-2.805998921394348145e-01,1.726118624210357666e-01,1.788227409124374390e-01,5.633535981178283691e-02,1.518995910882949829e-01,3.498528897762298584e-01,-4.072311818599700928e-01,1.592960953712463379e-01,5.070263743400573730e-01,6.576502323150634766e-02,-3.722838163375854492e-01,6.151791214942932129e-01,9.572173468768596649e-03,2.043759226799011230e-01,-3.880758285522460938e-01
5.166252255439758301e-01,-4.797993898391723633e-01,-2.540932595729827881e-01,2.039592862129211426e-01,1.961209475994110107e-01,-1.926507800817489624e-01,-4.595492184162139893e-01,4.403952062129974365e-01,1.978918015956878662e-01,-7.584828883409500122e-02,1.087225414812564850e-02,2.976073026657104492e-01,-6.214073896408081055e-01,-4.806782305240631104e-02,2.719995975494384766e-01,7.910400629043579102e-02,-5.352414250373840332e-01,4.537037014961242676e-01,-2.530161000322550535e-04,8.172023296356201172e-02,-3.253772258758544922e-01
2.189321070909500122e-01,-4.996981620788574219e-01,-3.211612403392791748e-01,2.256662100553512573e-01,2.132207751274108887e-01,-2.912175357341766357e-01,-6.067422032356262207e-01,3.541015684604644775e-01,1.196486279368400574e-01,3.400597348809242249e-02,-2.199227958917617798e-01,2.195240408182144165e-01,-5.042800903320312500e-01,-1.696917042136192322e-02,2.373983263969421387e-01,1.476840674877166748e-01,-4.413911402225494385e-01,6.893114447593688965e-01,-1.606848463416099548e-02,1.693296581506729126e-01,-4.534713625907897949e-01
3.159735798835754395e-01,-4.933053255081176758e-01,9.193770587444305420e-03,1.994402557611465454e-01,4.599331915378570557e-01,-1.820385903120040894e-01,-5.732284784317016602e-01,5.275069475173950195e-01,2.446808293461799622e-02,4.977639392018318176e-02,-2.522791922092437744e-01,1.996958404779434204e-01,-3.425734937191009521e-01,-7.511395961046218872e-02,2.831616103649139404e-01,-6.749261636286973953e-03,-5.178630352020263672e-01,7.763000726699829102e-01,3.241420164704322815e-02,-1.462961584329605103e-01,-3.105525672435760498e-01
2.708700299263000488e-01,-6.356303095817565918e-01,1.432530879974365234e-01,2.715148031711578369e-01,5.603030323982238770e-01,-1.880651116371154785e-01,-5.152606964111328125e-01,2.225145697593688965e-01,-1.044556573033332825e-01,-1.251146346330642700e-01,-1.051033735275268555e-01,2.918603122234344482e-01,-4.815037846565246582e-01,-9.311661869287490845e-02,-8.613718301057815552e-02,1.041310280561447144e-01,-5.818881988525390625e-01,5.840935111045837402e-01,-1.095554754137992859e-01,-1.568405926227569580e-01,3.390469402074813843e-02
9.766927361488342285e-02,-6.421536207199096680e-01,3.606550991535186768e-01,3.908975720405578613e-01,4.984929561614990234e-01,-4.329017177224159241e-02,-4.924550950527191162e-01,4.194024205207824707e-01,-4.941852763295173645e-02,-1.314152777194976807e-01,-2.205101549625396729e-01,2.450928688049316406e-01,-3.034712076187133789e-01,-2.260689735412597656e-01,3.171431273221969604e-02,-2.320544272661209106e-01,-6.721305251121520996e-01,5.813165307044982910e-01,2.054061554372310638e-02,-2.544161081314086914e-01,-3.008491545915603638e-02
1.368455737829208374e-01,-5.376777648925781250e-01,1.385895609855651855e-01,4.626621901988983154e-01,2.664910256862640381e-01,1.927292495965957642e-01,-2.077430635690689087e-01,3.557028472423553467e-01,-8.233927935361862183e-02,-4.176650345325469971e-01,-2.406782507896423340e-01,2.400033734738826752e-02,-3.120745122432708740e-01,-1.644858568906784058e-01,1.473831236362457275e-01,-7.303811609745025635e-03,-5.994226336479187012e-01,4.188911020755767822e-01,-4.358881711959838867e-02,-5.634433627128601074e-01,5.817474052309989929e-02
-2.557963319122791290e-02,-6.683239340782165527e-01,4.312613010406494141e-01,6.196151375770568848e-01,4.733897745609283447e-01,1.219604462385177612e-01,-2.853310704231262207e-01,3.247679769992828369e-01,5.179246515035629272e-02,-1.830317452549934387e-02,-1.103205829858779907e-01,-9.776819497346878052e-03,-4.090100228786468506e-01,-2.029539942741394043e-01,-1.279504448175430298e-01,-2.984786629676818848e-01,-6.630231142044067383e-01,4.034812450408935547e-01,-4.021796584129333496e-01,-7.005829215049743652e-01,-2.218107581138610840e-01
-3.396825864911079407e-02,-5.282631516456604004e-01,3.438681364059448242e-01,5.555793046951293945e-01,3.201473355293273926e-01,3.078217506408691406e-01,-4.470336064696311951e-02,2.512931525707244873e-01,9.515987336635589600e-02,-2.153847515583038330e-01,-7.123231887817382812e-02,2.896259129047393799e-01,-1.922102272510528564e-01,3.896698355674743652e-02,7.127518206834793091e-02,-2.399968653917312622e-01,-6.619417071342468262e-01,3.149269521236419678e-01,7.252674549818038940e-02,-6.229556202888488770e-01,-2.087404578924179077e-01
6.927273422479629517e-02,-6.130667328834533691e-01,6.268617510795593262e-01,4.885323047637939453e-01,3.746068179607391357e-01,4.491750895977020264e-01,-5.987189942970871925e-04,2.117159813642501831e-01,-9.004347957670688629e-03,-2.772014737129211426e-01,-9.147762507200241089e-02,1.958225071430206299e-01,-1.090182587504386902e-01,1.515469700098037720e-01,1.157119125127792358e-01,-4.263722300529479980e-01,-3.813007473945617676e-01,1.136015802621841431e-01,1.088088974356651306e-01,-8.014052510261535645e-01,-1.492508351802825928e-01
-7.017213106155395508e-02,-2.402166724205017090e-01,6.199591159820556641e-01,4.566435217857360840e-01,3.262675106525421143e-01,4.872715473175048828e-01,-3.677303716540336609e-02,3.236104920506477356e-02,-8.489363640546798706e-02,-2.251119911670684814e-01,1.452260557562112808e-02,1.573705822229385376e-01,3.914908692240715027e-02,2.146635800600051880e-01,5.006271880120038986e-03,-4.883919358253479004e-01,-5.668032169342041016e-01,2.925474047660827637e-01,-3.713076561689376831e-02,-7.556768059730529785e-01,-3.659348487854003906e-01
2.232196480035781860e-01,-3.572364449501037598e-01,6.067274808883666992e-01,5.713089704513549805e-01,1.917726695537567139e-01,7.342479825019836426e-01,6.475172191858291626e-02,2.970503270626068115e-02,3.134603798389434814e-02,-2.039587050676345825e-01,1.536634564399719238e-01,1.804718822240829468e-01,2.550699189305305481e-02,-7.554488629102706909e-02,2.612998783588409424e-01,-5.883932113647460938e-01,-4.703245759010314941e-01,8.355986326932907104e-02,-4.367850720882415771e-03,-6.554177999496459961e-01,-1.868778765201568604e-01
1.804786622524261475e-01,-4.258879125118255615e-01,5.326411128044128418e-01,5.206986069679260254e-01,-5.114055797457695007e-02,7.183216810226440430e-01,4.661341384053230286e-02,6.470173597335815430e-02,-2.658947836607694626e-03,-5.139012336730957031e-01,6.104055419564247131e-02,1.560881584882736206e-01,2.220235764980316162e-02,1.991562992334365845e-01,2.390966117382049561e-01,-5.142447352409362793e-01,-4.964146316051483154e-01,7.702255249023437500e-02,7.161408662796020508e-02,-7.507799267768859863e-01,-2.403969466686248779e-01
1.833460628986358643e-01,-9.035508334636688232e-02,8.042536973953247070e-01,5.655578374862670898e-01,1.001341715455055237e-01,7.823058366775512695e-01,2.482241690158843994e-01,1.849733144044876099e-01,-1.268301159143447876e-01,-3.270798325538635254e-01,4.854949936270713806e-02,2.188069373369216919e-01,2.971262112259864807e-02,2.574752867221832275e-01,2.205943763256072998e-01,-5.914548635482788086e-01,-3.422039151191711426e-01,6.266223639249801636e-02,2.828070223331451416e-01,-4.251819252967834473e-01,-2.405404895544052124e-01
1.916536688804626465e-01,-4.139192700386047363e-01,8.177175521850585938e-01,6.681848764419555664e-01,1.227830871939659119e-01,6.779378652572631836e-01,4.329805970191955566e-01,4.794448912143707275e-01,-6.122091040015220642e-02,-3.329034149646759033e-01,-1.402826309204101562e-01,2.379245869815349579e-02,1.753183305263519287e-01,2.350087463855743408e-01,2.843239903450012207e-01,-5.100334286689758301e-01,-2.696152627468109131e-01,1.257675886154174805e-01,5.541361570358276367e-01,-5.001835823059082031e-01,-3.572623133659362793e-01
2.351645827293395996e-01,-2.361150383949279785e-01,7.541964054107666016e-01,5.066626667976379395e-01,-6.454019248485565186e-02,6.946609020233154297e-01,3.179305791854858398e-01,5.263585448265075684e-01,-1.059959754347801208e-01,-6.057051420211791992e-01,1.137547641992568970e-01,7.009246200323104858e-02,2.998161017894744873e-01,2.262599468231201172e-01,5.255681276321411133e-01,-3.324380218982696533e-01,-4.131488874554634094e-02,1.484482884407043457e-01,2.620275020599365234e-01,-3.266740143299102783e-01,-3.166087865829467773e-01
5.866893753409385681e-02,-1.546289026737213135e-01,8.721773624420166016e-01,5.322033166885375977e-01,-8.612865209579467773e-02,7.168372869491577148e-01,4.550777077674865723e-01,5.037434101104736328e-01,-2.240998744964599609e-01,-6.536703109741210938e-01,1.521759480237960815e-01,2.551808394491672516e-02,6.320934891700744629e-01,1.047119647264480591e-01,1.369546055793762207e-01,-3.146843910217285156e-01,-2.472327351570129395e-01,4.443081617355346680e-01,8.371523022651672363e-01,-4.324084520339965820e-01,-4.354258775711059570e-01
1.557142436504364014e-01,-9.469474107027053833e-02,9.660297036170959473e-01,6.517114043235778809e-01,-3.002651631832122803e-01,6.280211210250854492e-01,3.016670048236846924e-01,5.345296263694763184e-01,1.217630356550216675e-01,-4.668326675891876221e-01,1.239158287644386292e-01,2.691833376884460449e-01,5.602449774742126465e-01,1.569601893424987793e-01,4.164457023143768311e-01,-7.873623073101043701e-02,-1.451991051435470581e-01,2.470614165067672729e-01,7.040597200393676758e-01,-4.001652598381042480e-01,-2.064621597528457642e-01
2.211076021194458008e-01,-1.264613308012485504e-02,6.934586763381958008e-01,6.963631510734558105e-01,-9.560310095548629761e-02,6.795362830162048340e-01,3.340054750442504883e-01,6.196234822273254395e-01,3.975013270974159241e-02,-5.628297924995422363e-01,6.382846087217330933e-02,6.333814468234777451e-03,4.284651577472686768e-01,-9.228343516588211060e-02,2.700194418430328369e-01,-8.277375996112823486e-02,4.722243547439575195e-02,5.661221146583557129e-01,7.988659143447875977e-01,-3.479570150375366211e-01,-6.963074207305908203e-02
1.739059388637542725e-01,9.934350848197937012e-02,7.367746233940124512e-01,2.919812500476837158e-01,-2.433184236288070679e-01,7.175464630126953125e-01,3.287385702133178711e-01,9.249473214149475098e-01,6.861476600170135498e-02,-3.205610513687133789e-01,2.135528326034545898e-01,2.739471495151519775e-01,2.395411282777786255e-01,-4.109227284789085388e-02,1.438383311033248901e-01,-3.326078653335571289e-01,-1.553789675235748291e-01,5.254924893379211426e-01,7.244784235954284668e-01,-3.013649284839630127e-01,-5.899753305129706860e-04
1.774604022502899170e-01,4.115755558013916016e-01,7.063074111938476562e-01,2.736265957355499268e-01,-4.347180724143981934e-01,7.174451947212219238e-01,5.635432600975036621e-01,9.174486994743347168e-01,-1.556846797466278076e-01,-5.726152062416076660e-01,4.656730592250823975e-01,3.375254869461059570e-01,2.492133677005767822e-01,-1.499875485897064209e-01,9.294895455241203308e-03,-1.235690936446189880e-01,2.103178650140762329e-01,8.258338570594787598e-01,4.636133313179016113e-01,-4.049500226974487305e-01,1.941867768764495850e-01
2.293658703565597534e-01,2.446778416633605957e-01,4.194245338439941406e-01,1.547989547252655029e-01,-4.733591079711914062e-01,8.156880736351013184e-01,4.423893690109252930e-01,7.198135852813720703e-01,6.551177054643630981e-02,-1.548538357019424438e-01,1.545504927635192871e-01,3.545108437538146973e-01,1.570843607187271118e-01,-2.179499715566635132e-01,7.605683803558349609e-02,-7.287294417619705200e-02,2.364883124828338623e-01,6.731961369514465332e-01,6.254721879959106445e-01,-3.569183349609375000e-01,5.902390554547309875e-02
1.963256113231182098e-02,5.284997224807739258e-01,4.048869311809539795e-01,-1.386110112071037292e-02,-4.528064727783203125e-01,6.555567979812622070e-01,5.274389386177062988e-01,8.481104969978332520e-01,-1.802704930305480957e-01,-3.193947672843933105e-01,2.986513078212738037e-01,4.380435645580291748e-01,1.565524749457836151e-02,-2.407591491937637329e-01,7.775902003049850464e-02,4.327460378408432007e-02,1.754481345415115356e-01,8.014314174652099609e-01,6.166123747825622559e-01,-4.788955748081207275e-01,8.279953151941299438e-02
-8.012135326862335205e-02,5.068182945251464844e-01,2.680238187313079834e-01,-5.639484897255897522e-02,-7.386462688446044922e-01,5.646291375160217285e-01,6.487478017807006836e-01,8.615080714225769043e-01,6.636299937963485718e-02,-7.653898000717163086e-02,1.696423441171646118e-01,2.196518629789352417e-01,-6.648967415094375610e-02,-2.560019195079803467e-01,-1.820765137672424316e-01,-1.790124177932739258e-01,2.160847485065460205e-01,6.887158751487731934e-01,2.769930660724639893e-01,-6.622337698936462402e-01,1.147846207022666931e-01
1.095135509967803955e-01,3.753148317337036133e-01,2.028906643390655518e-01,-7.774058729410171509e-02,-7.291144728660583496e-01,5.113195776939392090e-01,4.601446390151977539e-01,8.240479230880737305e-01,-1.629694849252700806e-01,-2.029208838939666748e-01,1.611272692680358887e-01,4.241335391998291016e-01,-4.662285745143890381e-02,-2.230001091957092285e-01,-4.143414646387100220e-02,-7.823957502841949463e-02,2.427895069122314453e-01,4.852617681026458740e-01,5.276455879211425781e-01,-7.012529373168945312e-01,2.948407530784606934e-01
8.269328624010086060e-02,4.569670557975769043e-01,1.033376902341842651e-01,-2.307852357625961304e-01,-6.144856214523315430e-01,3.943257331848144531e-01,5.694122910499572754e-01,8.336127400398254395e-01,-2.753712534904479980e-01,7.240854203701019287e-02,2.262231707572937012e-02,3.212251961231231689e-01,-2.089179903268814087e-01,-3.356791734695434570e-01,-1.598805487155914307e-01,6.903545558452606201e-02,4.656925499439239502e-01,6.874746680259704590e-01,4.179742932319641113e-01,-5.630471706390380859e-01,3.531763851642608643e-01
-8.599863946437835693e-02,6.152502894401550293e-01,-5.957383662462234497e-02,-2.292558699846267700e-01,-7.649362683296203613e-01,4.337882399559020996e-01,3.373125493526458740e-01,7.528236508369445801e-01,-5.035108923912048340e-01,-1.298711001873016357e-01,5.059680342674255371e-02,4.141321480274200439e-01,-3.725394904613494873e-01,-3.224952518939971924e-01,-2.882584333419799805e-01,-7.665555179119110107e-02,2.950065135955810547e-01,5.935207605361938477e-01,-9.626341611146926880e-02,-6.593319773674011230e-01,3.892853856086730957e-01
-1.638163477182388306e-01,3.452687561511993408e-01,1.315040290355682373e-01,-3.524300754070281982e-01,-7.174799442291259766e-01,4.155002832412719727e-01,4.255659580230712891e-01,8.676318526268005371e-01,-5.848112106323242188e-01,-9.576092660427093506e-02,1.410369481891393661e-02,3.677213490009307861e-01,-5.531846880912780762e-01,-2.058086693286895752e-01,-1.638365387916564941e-01,6.945086270570755005e-02,2.540146112442016602e-01,7.234752178192138672e-01,1.551438868045806885e-01,-6.073044538497924805e-01,4.428110420703887939e-01
-2.837862968444824219e-01,2.601599991321563721e-01,2.424411922693252563e-01,-4.554324746131896973e-01,-2.782593071460723877e-01,3.983610272407531738e-01,2.292380034923553467e-01,7.946813702583312988e-01,-7.331845760345458984e-01,-1.640054434537887573e-01,-2.208794355392456055e-01,1.754541695117950439e-01,-4.343559741973876953e-01,-1.430919021368026733e-01,-5.310785174369812012e-01,-4.232659637928009033e-01,1.643543392419815063e-01,5.564520955085754395e-01,7.954701036214828491e-02,-8.242866396903991699e-01,4.691063165664672852e-01
-1.386695308610796928e-03,3.827394247055053711e-01,3.802589774131774902e-01,-3.395187854766845703e-01,-4.825593531131744385e-01,1.603285968303680420e-02,9.850255399942398071e-02,8.480061292648315430e-01,-8.159227967262268066e-01,-4.526072740554809570e-01,-8.922382444143295288e-02,-1.582280965521931648e-03,-1.476498544216156006e-01,-2.258928716182708740e-01,-3.598001003265380859e-01,-1.565600186586380005e-01,1.927757412195205688e-01,6.043044924736022949e-01,-1.269477307796478271e-01,-5.378462672233581543e-01,5.869879126548767090e-01
-4.170001447200775146e-01,1.936879158020019531e-01,4.171002805233001709e-01,-1.389182955026626587e-01,-3.812005221843719482e-01,2.123454511165618896e-01,3.016981482505798340e-01,8.847813606262207031e-01,-9.647180438041687012e-01,-4.955721795558929443e-01,-2.867724001407623291e-01,-2.596477791666984558e-02,-2.856745421886444092e-01,-2.536584436893463135e-01,-8.206520676612854004e-01,-1.703483015298843384e-01,-6.901013106107711792e-02,7.683985233306884766e-01,1.199898272752761841e-01,-5.444831848144531250e-01,6.752375960350036621e-01
-5.580561161041259766e-01,-2.202663719654083252e-01,3.117888271808624268e-01,-2.122998535633087158e-01,-1.890404373407363892e-01,2.464117854833602905e-01,1.514615714550018311e-01,6.023328304290771484e-01,-7.838215827941894531e-01,-5.715650320053100586e-01,-4.504985511302947998e-01,-1.377573609352111816e-01,-2.733695507049560547e-01,-3.063320517539978027e-01,-6.172879338264465332e-01,-3.877591192722320557e-01,-1.086902394890785217e-01,5.846259593963623047e-01,-3.926509991288185120e-02,-6.559934616088867188e-01,7.664296627044677734e-01
-5.120103955268859863e-01,2.211580425500869751e-02,6.590478420257568359e-01,-2.291348427534103394e-01,-1.448808908462524414e-01,1.143560372292995453e-02,1.593921184539794922e-01,4.586271941661834717e-01,-9.087851643562316895e-01,-6.756747961044311523e-01,-1.374635249376296997e-01,-3.252025842666625977e-01,1.914484053850173950e-02,-3.165715932846069336e-01,-9.007426500320434570e-01,-4.905687868595123291e-01,-2.460313737392425537e-01,5.795133113861083984e-01,-1.206455677747726440e-01,-5.673778653144836426e-01,7.178511619567871094e-01
-5.687211751937866211e-01,-1.992675215005874634e-01,6.682704091072082520e-01,-4.845124855637550354e-02,-9.385647624731063843e-02,-1.358363628387451172e-01,2.568556964397430420e-01,3.831610679626464844e-01,-7.914208173751831055e-01,-7.074609994888305664e-01,-3.495051860809326172e-01,-3.393621146678924561e-01,-1.757584214210510254e-01,-2.531934380531311035e-01,-8.714102506637573242e-01,-4.874190688133239746e-01,-1.806906908750534058e-01,5.731972455978393555e-01,1.171086579561233521e-01,-6.868500113487243652e-01,7.634118795394897461e-01
-4.818100631237030029e-01,-1.118077039718627930e-01,5.985629558563232422e-01,1.397901028394699097e-01,8.789665298536419868e-04,6.283369660377502441e-02,5.631756782531738281e-01,2.052414268255233765e-01,-8.415330648422241211e-01,-5.257538557052612305e-01,-4.227382540702819824e-01,-5.787593722343444824e-01,-7.552710920572280884e-02,-1.063954308629035950e-01,-8.636986613273620605e-01,-6.105332970619201660e-01,-2.710787653923034668e-01,3.086603879928588867e-01,2.739816904067993164e-02,-7.426879405975341797e-01,6.777310371398925781e-01
-4.441013932228088379e-01,-1.157542914152145386e-01,6.899319291114807129e-01,5.162470415234565735e-02,-9.591703861951828003e-02,3.446816205978393555e-01,2.895903289318084717e-01,2.299740016460418701e-01,-6.651899218559265137e-01,-4.112924337387084961e-01,-7.823275029659271240e-02,-6.415312290191650391e-01,-1.056724488735198975e-01,-2.221202254295349121e-01,-9.090386033058166504e-01,-6.692556142807006836e-01,-3.590769767761230469e-01,4.777925908565521240e-01,-3.125196397304534912e-01,-7.266966700553894043e-01,5.674391388893127441e-01
-3.388978540897369385e-01,-2.047556340694427490e-01,5.877567529678344727e-01,-8.100413531064987183e-02,-1.388286203145980835e-01,2.174692749977111816e-01,6.010878682136535645e-01,1.971939504146575928e-01,-6.479768753051757812e-01,-5.749859213829040527e-01,-7.455749064683914185e-02,-3.710799813270568848e-01,-2.639878392219543457e-01,2.892870008945465088e-01,-6.563875675201416016e-01,-6.057541370391845703e-01,-4.217810928821563721e-02,3.796456456184387207e-01,-1.914772093296051025e-01,-4.313129782676696777e-01,3.305434882640838623e-01
-3.120819032192230225e-01,-5.267158150672912598e-02,6.333166360855102539e-01,6.755307316780090332e-02,-9.677372872829437256e-02,3.905282616615295410e-01,5.306380391120910645e-01,3.581233322620391846e-02,-3.314072191715240479e-01,-4.775821566581726074e-01,-2.431138306856155396e-01,-3.649738729000091553e-01,-5.292029678821563721e-02,3.940252661705017090e-01,-5.458845496177673340e-01,-7.510864138603210449e-01,-2.546463906764984131e-01,8.459250628948211670e-02,-2.366893291473388672e-01,-6.363622546195983887e-01,3.727742135524749756e-01
-2.447861582040786743e-01,7.365183532238006592e-02,6.218029260635375977e-01,-1.394784003496170044e-01,-2.380856275558471680e-01,4.658371508121490479e-01,7.324581742286682129e-01,1.052928790450096130e-01,-6.314380764961242676e-01,-4.795477986335754395e-01,5.787101015448570251e-02,-3.724648654460906982e-01,-2.209728360176086426e-01,5.491420030593872070e-01,-5.606718659400939941e-01,-1.040171504020690918e+00,-5.226250737905502319e-02,2.462984621524810791e-01,-1.434768140316009521e-01,-4.050187170505523682e-01,2.711395323276519775e-01
1.705969870090484619e-02,6.551024317741394043e-02,4.948147237300872803e-01,-1.225815191864967346e-01,-2.840780913829803467e-01,4.456434249877929688e-01,8.708329200744628906e-01,1.440895255655050278e-02,-5.848428606986999512e-01,-5.472156405448913574e-01,-6.440282333642244339e-03,-6.169437170028686523e-01,5.276220291852951050e-02,5.013078451156616211e-01,-3.806356489658355713e-01,-7.192617654800415039e-01,-4.390838369727134705e-02,1.964304596185684204e-01,-3.643937036395072937e-02,-3.326611220836639404e-01,3.448433429002761841e-02
2.313390374183654785e-02,1.742636412382125854e-01,5.473093986511230469e-01,-1.507161408662796021e-01,-1.907174289226531982e-01,4.459953606128692627e-01,7.532537579536437988e-01,-1.795207709074020386e-01,-5.166544914245605469e-01,-2.433366328477859497e-01,1.388831883668899536e-01,-6.113474369049072266e-01,-2.358861267566680908e-02,5.834199190139770508e-01,-2.992179393768310547e-01,-8.440211415290832520e-01,1.748359352350234985e-01,2.864774763584136963e-01,-2.193273156881332397e-01,-1.561404466629028320e-01,8.162072859704494476e-03
8.608897775411605835e-02,-3.058575466275215149e-02,6.146022081375122070e-01,-1.027090549468994141e-01,-2.553231418132781982e-01,3.592195510864257812e-01,7.111862301826477051e-01,-1.834669336676597595e-02,-5.157214999198913574e-01,-3.856008052825927734e-01,-7.723108679056167603e-02,-6.263816952705383301e-01,-5.371815338730812073e-02,7.088668346405029297e-01,-5.230203866958618164e-01,-7.609450817108154297e-01,2.451604008674621582e-01,1.842603683471679688e-01,-3.149476349353790283e-01,-1.412106752395629883e-01,-3.230055049061775208e-02
2.599611282348632812e-01,8.427041023969650269e-02,4.534338116645812988e-01,-1.105580665171146393e-02,-1.070549562573432922e-01,2.583844959735870361e-01,8.311387300491333008e-01,-2.488889731466770172e-03,-5.393611788749694824e-01,-3.006665408611297607e-01,3.389229178428649902e-01,-3.417629897594451904e-01,1.135580167174339294e-01,9.148241877555847168e-01,-3.540715277194976807e-01,-6.532182693481445312e-01,2.306621223688125610e-01,1.523329615592956543e-01,-2.465670257806777954e-01,-6.342228502035140991e-02,1.731653511524200439e-02
2.635664343833923340e-01,6.150130927562713623e-02,4.447770118713378906e-01,1.020477116107940674e-01,-1.100525408983230591e-01,2.128846198320388794e-01,6.000096201896667480e-01,6.137140840291976929e-02,-4.672386050224304199e-01,-1.178352758288383484e-01,2.141273766756057739e-01,-3.919523358345031738e-01,-1.053210720419883728e-01,7.806583046913146973e-01,-3.799056410789489746e-01,-5.575024485588073730e-01,5.310927033424377441e-01,2.490051388740539551e-01,-1.386206597089767456e-01,1.927485167980194092e-01,-1.322189271450042725e-01
2.423779964447021484e-01,3.272108733654022217e-02,4.977869689464569092e-01,-4.871890705544501543e-04,-2.215777784585952759e-01,-2.473933994770050049e-02,4.926594495773315430e-01,1.217949464917182922e-01,-3.691151440143585205e-01,-1.963610053062438965e-01,2.228090316057205200e-01,-2.899617254734039307e-01,1.595817655324935913e-01,8.697060942649841309e-01,-2.138707041740417480e-01,-3.088899552822113037e-01,5.589596629142761230e-01,3.430720567703247070e-01,-2.424207031726837158e-01,2.648802697658538818e-01,-3.463851287961006165e-02
2.315796762704849243e-01,-1.143138334155082703e-01,4.634082615375518799e-01,8.355489373207092285e-02,-2.167735397815704346e-01,7.426781952381134033e-02,2.854714393615722656e-01,-2.131036669015884399e-02,-2.574884891510009766e-01,-8.905375003814697266e-02,-4.958473518490791321e-02,-2.797458469867706299e-01,-2.575294859707355499e-02,8.130613565444946289e-01,-1.030508801341056824e-01,-4.597697854042053223e-01,3.395658731460571289e-01,3.559617698192596436e-01,-7.189848273992538452e-02,3.340697586536407471e-01,6.101421080529689789e-03
1.339160650968551636e-01,9.763242304325103760e-02,4.391882121562957764e-01,-1.600403189659118652e-01,2.502620220184326172e-02,-2.120574750006198883e-02,3.804092407226562500e-01,6.921469420194625854e-02,-2.918152809143066406e-01,9.793605655431747437e-02,-7.241874933242797852e-02,-3.009189665317535400e-01,1.801205426454544067e-02,6.077545285224914551e-01,-4.129472970962524414e-01,-4.168511629104614258e-01,4.822655320167541504e-01,3.658697605133056641e-01,-1.089397519826889038e-01,3.465645909309387207e-01,3.350706025958061218e-02
1.737555414438247681e-01,4.488292336463928223e-02,1.194167658686637878e-01,1.850173808634281158e-02,-2.330674678087234497e-01,-2.342463135719299316e-01,3.222362101078033447e-01,9.366345405578613281e-02,-2.595089673995971680e-01,1.268274337053298950e-01,-1.220247708261013031e-02,-1.860194802284240723e-01,-9.157189726829528809e-02,7.658005952835083008e-01,-6.229324340820312500e-01,-2.132430672645568848e-01,2.466262578964233398e-01,4.777868092060089111e-01,-3.373683989048004150e-01,5.741957947611808777e-02,1.151885017752647400e-01
2.387419193983078003e-01,-2.100485265254974365e-01,2.742702960968017578e-01,-1.596501320600509644e-01,-1.653422415256500244e-01,-1.694591045379638672e-01,2.374735027551651001e-01,2.173767089843750000e-01,-1.753750443458557129e-01,6.394995748996734619e-02,-5.168436840176582336e-02,-1.202028244733810425e-01,-2.726956605911254883e-01,5.366899967193603516e-01,-5.462926626205444336e-01,-2.093911170959472656e-01,2.667808830738067627e-01,4.496431648731231689e-01,-1.873320639133453369e-01,3.050144612789154053e-01,3.797045722603797913e-02
-9.113889932632446289e-02,-1.688544754870235920e-03,2.585936784744262695e-01,-1.695170551538467407e-01,-1.360124945640563965e-01,-2.652786672115325928e-01,1.509118378162384033e-01,1.104162111878395081e-01,-1.569615155458450317e-01,1.440742015838623047e-01,-2.057711184024810791e-01,-1.565701663494110107e-01,-1.730270683765411377e-01,3.629972040653228760e-01,-4.405678808689117432e-01,-3.902203440666198730e-01,3.045718371868133545e-01,2.926681339740753174e-01,-3.709855377674102783e-01,1.370018869638442993e-01,7.200466841459274292e-02
9.893240034580230713e-02,-1.889242827892303467e-01,-9.754578769207000732e-02,-7.401441782712936401e-02,1.555014103651046753e-01,-2.276522964239120483e-01,1.739189922809600830e-01,-8.884233236312866211e-02,-2.881557941436767578e-01,4.778325259685516357e-01,-2.923022210597991943e-01,-1.516397148370742798e-01,-2.680203616619110107e-01,5.852316617965698242e-01,-6.582679748535156250e-01,-1.859676390886306763e-01,5.344071388244628906e-01,1.695720255374908447e-01,-5.971382856369018555e-01,-6.115597113966941833e-02,1.754445582628250122e-01
7.241548597812652588e-02,-1.212895959615707397e-01,-2.224030941724777222e-01,-1.223386004567146301e-01,-1.256295591592788696e-01,-4.299881756305694580e-01,8.438092470169067383e-02,3.417670726776123047e-02,-3.759213387966156006e-01,2.635935246944427490e-01,-1.842665821313858032e-01,1.853154748678207397e-01,-2.663572728633880615e-01,4.796226620674133301e-01,-3.379133045673370361e-01,-3.279334902763366699e-01,4.163047373294830322e-01,2.717079222202301025e-01,-4.831330776214599609e-01,-2.241003364324569702e-01,1.385926306247711182e-01
-7.235088199377059937e-02,-1.672547459602355957e-01,-9.592127799987792969e-02,-1.395809203386306763e-01,-1.357020884752273560e-01,-3.101423084735870361e-01,-4.598327726125717163e-02,-2.740372419357299805e-01,-4.453281462192535400e-01,4.184831380844116211e-01,-3.035145103931427002e-01,6.379499286413192749e-02,-4.462117254734039307e-01,4.994103014469146729e-01,-7.488311529159545898e-01,-1.872496902942657471e-01,2.175902128219604492e-01,1.494857966899871826e-01,-7.368726730346679688e-01,-1.845490783452987671e-01,-2.679356001317501068e-02
6.368646398186683655e-03,-3.604315519332885742e-01,-6.355660408735275269e-02,-6.703014671802520752e-02,5.682745575904846191e-02,-4.850215315818786621e-01,7.824947685003280640e-02,-2.080769836902618408e-01,-2.844755947589874268e-01,6.947427392005920410e-01,-3.197716772556304932e-01,-3.896906226873397827e-02,-5.169976949691772461e-01,4.371089041233062744e-01,-5.811583399772644043e-01,-5.010277628898620605e-01,3.640354871749877930e-01,-1.727727502584457397e-01,-9.281482100486755371e-01,-2.763606607913970947e-01,3.637314960360527039e-02
-7.331226486712694168e-03,-2.977054119110107422e-01,-8.616882562637329102e-02,4.906526952981948853e-02,1.296405494213104248e-01,-2.961441874504089355e-01,-1.649303883314132690e-01,-3.271095156669616699e-01,-7.993519902229309082e-01,7.126216888427734375e-01,-3.601045906543731689e-01,-2.972885221242904663e-02,-5.145030021667480469e-01,6.032248139381408691e-01,-5.955188870429992676e-01,-5.147557258605957031e-01,2.667936682701110840e-01,-2.982714176177978516e-01,-9.757688641548156738e-01,-7.185339182615280151e-02,7.891499251127243042e-02
6.295284628868103027e-02,-4.774392843246459961e-01,-3.233684971928596497e-02,1.842772401869297028e-02,1.476135998964309692e-01,-3.521896600723266602e-01,-3.024641871452331543e-01,-4.442908465862274170e-01,-5.461845993995666504e-01,6.182808279991149902e-01,-6.508123278617858887e-01,1.034823898226022720e-02,-4.761362969875335693e-01,4.638089239597320557e-01,-6.692674160003662109e-01,-5.318046212196350098e-01,1.997174322605133057e-01,-2.827110588550567627e-01,-8.479319214820861816e-01,-8.452299982309341431e-02,4.635111242532730103e-02
-7.568155229091644287e-02,-4.674452841281890869e-01,1.013859286904335022e-01,8.583871275186538696e-02,3.417758643627166748e-01,-5.689554214477539062e-01,-3.448480367660522461e-01,-4.714803099632263184e-01,-5.900247097015380859e-01,5.253184437751770020e-01,-6.113880276679992676e-01,-9.417270123958587646e-02,-4.461131691932678223e-01,6.378213763236999512e-01,-7.356957793235778809e-01,-3.725293278694152832e-01,1.936432868242263794e-01,-4.134973287582397461e-01,-8.771015405654907227e-01,-8.071048557758331299e-02,-9.493928402662277222e-02
-1.882083117961883545e-01,-5.058171153068542480e-01,1.509774923324584961e-01,2.411274760961532593e-01,6.042813658714294434e-01,-5.656091570854187012e-01,-2.462000548839569092e-01,-4.853750765323638916e-01,-6.330631971359252930e-01,4.993955492973327637e-01,-7.397077679634094238e-01,-1.489537805318832397e-01,-4.361878335475921631e-01,4.702615439891815186e-01,-6.864339709281921387e-01,-4.995135664939880371e-01,2.351000159978866577e-01,-6.133549809455871582e-01,-9.131231904029846191e-01,-4.209208488464355469e-02,-8.027765899896621704e-02
-7.790900021791458130e-02,-6.944629549980163574e-01,2.481782436370849609e-01,3.880044221878051758e-01,5.753500461578369141e-01,-5.597732663154602051e-01,-6.029635071754455566e-01,-6.491219997406005859e-01,-6.132837533950805664e-01,5.413565635681152344e-01,-8.331790566444396973e-01,-9.536321461200714111e-02,-4.357893466949462891e-01,6.030012965202331543e-01,-6.314120888710021973e-01,-5.469663739204406738e-01,9.325623512268066406e-02,-5.880113840103149414e-01,-6.118683815002441406e-01,-1.196128576993942261e-01,-1.014401838183403015e-01
-9.121756069362163544e-03,-7.611325979232788086e-01,1.585891991853713989e-01,5.943052768707275391e-01,6.218113303184509277e-01,-5.404754877090454102e-01,-3.828476965427398682e-01,-7.554855942726135254e-01,-6.081649065017700195e-01,4.112268388271331787e-01,-7.479491233825683594e-01,1.825761981308460236e-02,-4.054869413375854492e-01,6.090100407600402832e-01,-5.917336344718933105e-01,-2.839826047420501709e-01,-1.531771719455718994e-01,-5.020957589149475098e-01,-6.884737014770507812e-01,-1.132493838667869568e-01,-2.146975845098495483e-01
-4.639095813035964966e-02,-9.842714667320251465e-01,4.563536643981933594e-01,6.339167952537536621e-01,6.268771290779113770e-01,-6.106765270233154297e-01,-2.449652999639511108e-01,-5.869442224502563477e-01,-6.826681494712829590e-01,2.862974703311920166e-01,-1.000665783882141113e+00,-9.765543043613433838e-02,-1.952045261859893799e-01,6.553499102592468262e-01,-6.501888036727905273e-01,-4.522815048694610596e-01,-1.790783926844596863e-02,-7.851686477661132812e-01,-6.078768372535705566e-01,-5.177878215909004211e-02,-1.285741627216339111e-01
7.309080660343170166e-02,-1.049135684967041016e+00,2.690073847770690918e-01,6.619213819503784180e-01,7.453694939613342285e-01,-3.257374465465545654e-01,-2.131734639406204224e-01,-4.604726731777191162e-01,-4.871278703212738037e-01,2.742364108562469482e-01,-7.749995589256286621e-01,-3.909215927124023438e-01,-1.717429459095001221e-01,5.632365942001342773e-01,-5.492295026779174805e-01,-2.372168898582458496e-01,-1.628068983554840088e-01,-6.264175176620483398e-01,-6.591728925704956055e-01,-4.025228321552276611e-02,-1.882063597440719604e-01
1.064918339252471924e-01,-6.186400055885314941e-01,3.940570354461669922e-01,7.901652455329895020e-01,5.680235624313354492e-01,-2.427428364753723145e-01,-1.505639683455228806e-02,-6.069584488868713379e-01,-3.761275708675384521e-01,3.285128176212310791e-01,-8.483128547668457031e-01,-1.726756095886230469e-01,-9.588258713483810425e-02,7.374034523963928223e-01,-5.100184679031372070e-01,-1.679465174674987793e-01,-2.134820967912673950e-01,-6.795135140419006348e-01,-3.794551789760589600e-01,-1.364343464374542236e-01,-1.527765840291976929e-01
-1.829603500664234161e-02,-4.585305750370025635e-01,3.200845420360565186e-01,7.028604745864868164e-01,5.980436205863952637e-01,-2.516701817512512207e-02,-1.028275862336158752e-02,-6.882179975509643555e-01,-2.521597445011138916e-01,2.471459060907363892e-01,-8.225492238998413086e-01,-1.805628538131713867e-01,-2.549260854721069336e-01,5.508813261985778809e-01,-5.062480568885803223e-01,1.110598631203174591e-02,-1.088841259479522705e-02,-6.784953474998474121e-01,-4.691251814365386963e-01,8.677627891302108765e-02,-2.169456332921981812e-01
1.315639913082122803e-01,-6.728277206420898438e-01,1.388837546110153198e-01,9.020087122917175293e-01,5.310737490653991699e-01,7.411918789148330688e-02,4.049926251173019409e-02,-7.245323061943054199e-01,-3.048987090587615967e-01,3.569158613681793213e-01,-8.473119139671325684e-01,-1.022328212857246399e-01,-2.580910325050354004e-01,7.524340152740478516e-01,-3.528183400630950928e-01,-1.976887881755828857e-01,-7.537543773651123047e-02,-5.526597499847412109e-01,-3.219767808914184570e-01,9.802825748920440674e-03,-2.857071459293365479e-01
2.844748198986053467e-01,-5.276127457618713379e-01,1.327929794788360596e-01,7.488048076629638672e-01,3.539673089981079102e-01,6.977946311235427856e-02,1.001203656196594238e-01,-6.270278692245483398e-01,-2.393168210983276367e-01,3.984506130218505859e-01,-5.012744069099426270e-01,2.235767692327499390e-01,-1.185344606637954712e-01,7.532219886779785156e-01,-3.094457983970642090e-01,-2.038983702659606934e-01,9.112300723791122437e-02,-7.174497246742248535e-01,-3.553152382373809814e-01,1.325786262750625610e-01,-4.677495360374450684e-01
4.758279621601104736e-01,-2.759578526020050049e-01,-8.104611933231353760e-02,5.546757578849792480e-01,3.454800546169281006e-01,1.002270355820655823e-01,9.759939275681972504e-03,-3.923574388027191162e-01,4.323140904307365417e-02,5.287086963653564453e-01,-7.521903514862060547e-01,2.065223157405853271e-01,5.607394035905599594e-03,6.753274202346801758e-01,-7.046202570199966431e-02,1.445824652910232544e-01,3.692715987563133240e-02,-5.929791331291198730e-01,-5.758174061775207520e-01,1.647305935621261597e-01,-1.762620657682418823e-01
3.573673367500305176e-01,-6.732334196567535400e-02,-2.100130468606948853e-01,5.095947980880737305e-01,1.488582491874694824e-01,1.884138435125350952e-01,1.434200704097747803e-01,-5.225561261177062988e-01,-4.600152373313903809e-02,5.868920087814331055e-01,-6.689031720161437988e-01,3.518625795841217041e-01,-2.759999036788940430e-01,6.595423817634582520e-01,-3.681338578462600708e-02,-1.277480125427246094e-01,1.608448773622512817e-01,-6.553829908370971680e-01,-3.218530118465423584e-01,3.805244266986846924e-01,-5.819206833839416504e-01
5.761861801147460938e-01,-1.775232404470443726e-01,-1.340242028236389160e-01,4.230265915393829346e-01,7.566755171865224838e-03,-1.033343076705932617e-01,2.473139911890029907e-01,-5.838849544525146484e-01,1.268470436334609985e-01,6.485260725021362305e-01,-5.308035016059875488e-01,4.563826620578765869e-01,-3.701720833778381348e-01,6.650454401969909668e-01,1.122602075338363647e-02,8.433936163783073425e-03,3.573247790336608887e-01,-6.811060309410095215e-01,-1.698140203952789307e-01,3.645122647285461426e-01,-5.232380032539367676e-01
5.728225111961364746e-01,1.207234710454940796e-01,-1.131997108459472656e-01,4.690019488334655762e-01,-3.160344362258911133e-01,-5.244554206728935242e-02,1.099782735109329224e-01,-3.279382884502410889e-01,1.956461071968078613e-01,7.549727559089660645e-01,-6.431314945220947266e-01,6.474866867065429688e-01,-3.448936939239501953e-01,6.281005740165710449e-01,-9.445451200008392334e-03,1.402267217636108398e-01,2.599285244941711426e-01,-5.840552449226379395e-01,-1.682207584381103516e-01,5.198019146919250488e-01,-3.834607601165771484e-01
8.933666944503784180e-01,1.564813107252120972e-01,-3.254289627075195312e-01,4.065457582473754883e-01,-1.869086176156997681e-01,-1.946413367986679077e-01,1.644073724746704102e-01,-2.916945219039916992e-01,-4.380492493510246277e-02,7.471455931663513184e-01,-4.711752235889434814e-01,6.419697403907775879e-01,-4.526356756687164307e-01,6.981164216995239258e-01,-1.080070361495018005e-01,3.533394038677215576e-01,3.751119077205657959e-01,-6.601071357727050781e-01,-1.977198868989944458e-01,5.052054524421691895e-01,-4.865747988224029541e-01
8.130429983139038086e-01,6.240490451455116272e-02,-4.247114062309265137e-01,4.538878798484802246e-01,-2.294072657823562622e-01,-2.882763445377349854e-01,1.115379258990287781e-01,-3.364656269550323486e-01,9.615939110517501831e-02,8.556783795356750488e-01,-3.993007242679595947e-01,4.544624686241149902e-01,-3.026905059814453125e-01,4.259365797042846680e-01,-6.985651561990380287e-04,5.534084439277648926e-01,2.503361701965332031e-01,-3.469790220260620117e-01,-2.721245884895324707e-01,4.858713448047637939e-01,-3.641839325428009033e-01
5.903996229171752930e-01,3.330417908728122711e-03,-3.625291883945465088e-01,4.066239297389984131e-01,-1.339680254459381104e-01,-4.409377872943878174e-01,-2.064463347196578979e-01,7.270566374063491821e-02,-1.300390660762786865e-01,8.201799392700195312e-01,-5.637220144271850586e-01,6.992225050926208496e-01,-3.880779743194580078e-01,2.733256518840789795e-01,-8.005073666572570801e-02,7.300904393196105957e-01,1.992134153842926025e-01,-8.954849094152450562e-02,-1.417000591754913330e-01,4.644130766391754150e-01,-2.194276005029678345e-01
5.003312826156616211e-01,4.060922935605049133e-02,-6.237192153930664062e-01,3.921295106410980225e-01,-1.197270452976226807e-01,-4.887896776199340820e-01,-3.037922084331512451e-01,1.193955168128013611e-01,-2.225265949964523315e-01,7.624126076698303223e-01,-6.279566287994384766e-01,7.470471858978271484e-01,-5.270583033561706543e-01,2.253855913877487183e-01,-1.286650300025939941e-01,6.391099095344543457e-01,4.193706810474395752e-01,-3.187700212001800537e-01,-2.075596302747726440e-01,6.415453553199768066e-01,-8.687911927700042725e-02
5.209954380989074707e-01,1.499679386615753174e-01,-5.293093919754028320e-01,6.249004602432250977e-01,1.219117417931556702e-01,-7.791650295257568359e-01,-2.649921476840972900e-01,-6.495333742350339890e-03,4.534137248992919922e-02,5.751101374626159668e-01,-6.912732720375061035e-01,5.773374438285827637e-01,-3.521580696105957031e-01,9.505577385425567627e-02,-1.753314584493637085e-01,7.938717007637023926e-01,2.515184879302978516e-01,-2.111053615808486938e-01,-2.437326610088348389e-01,4.612391591072082520e-01,-1.967654097825288773e-03
3.788376152515411377e-01,1.219493746757507324e-01,-6.000639200210571289e-01,5.234948396682739258e-01,-2.184926867485046387e-01,-7.453325986862182617e-01,-2.033157795667648315e-01,2.084709256887435913e-01,-1.587901078164577484e-02,6.682372093200683594e-01,-7.648386359214782715e-01,5.383630394935607910e-01,-5.069360733032226562e-01,-1.133121773600578308e-01,-4.087134003639221191e-01,7.473021745681762695e-01,-8.058733306825160980e-03,1.158157363533973694e-01,-1.451166868209838867e-01,2.611978948116302490e-01,3.260779380798339844e-01
3.854112029075622559e-01,2.690145969390869141e-01,-3.847206234931945801e-01,4.287216067314147949e-01,-1.805381923913955688e-01,-7.686299681663513184e-01,-2.034433186054229736e-01,3.271531546488404274e-03,4.707533121109008789e-02,5.112991929054260254e-01,-9.525221586227416992e-01,7.487470507621765137e-01,-4.253281354904174805e-01,-5.902778822928667068e-03,-3.559468686580657959e-01,7.873851656913757324e-01,-1.563149243593215942e-01,-1.275185048580169678e-01,-3.852168023586273193e-01,3.012921214103698730e-01,1.489667445421218872e-01
4.391846656799316406e-01,-3.910521417856216431e-02,-4.890314936637878418e-01,3.159359693527221680e-01,-1.525936871767044067e-01,-8.636654019355773926e-01,-2.519663870334625244e-01,1.122826412320137024e-01,2.388328909873962402e-01,5.348335504531860352e-01,-9.960475564002990723e-01,5.805768966674804688e-01,-7.252110838890075684e-01,-2.086957730352878571e-02,-3.418738842010498047e-01,8.494153022766113281e-01,-9.313812851905822754e-02,-1.321816593408584595e-01,-5.305032730102539062e-01,2.592790722846984863e-01,2.887614071369171143e-01
2.758990526199340820e-01,-1.097473055124282837e-01,-5.667963027954101562e-01,2.784222066402435303e-01,-1.950453817844390869e-01,-6.513975858688354492e-01,-1.974081546068191528e-01,-2.831821257132105529e-05,6.098742783069610596e-02,5.634741187095642090e-01,-9.821422100067138672e-01,6.842803359031677246e-01,-5.187084674835205078e-01,-1.794560402631759644e-01,-3.421007394790649414e-01,7.591904401779174805e-01,-1.907634884119033813e-01,-1.316579729318618774e-01,-4.527882635593414307e-01,2.027849704027175903e-01,2.358312904834747314e-01
3.052576184272766113e-01,2.365181781351566315e-02,-5.388430356979370117e-01,3.360804915428161621e-01,-3.452141880989074707e-01,-5.720403194427490234e-01,-2.909193336963653564e-01,-2.226927727460861206e-01,2.442020550370216370e-02,5.852278470993041992e-01,-8.651157617568969727e-01,5.511963963508605957e-01,-7.927019596099853516e-01,-3.580957651138305664e-01,-5.144240856170654297e-01,3.952087461948394775e-01,-2.925148606300354004e-01,-2.469372600317001343e-01,-4.431346356868743896e-01,2.883210219442844391e-02,3.846459686756134033e-01
5.525898337364196777e-01,1.281951516866683960e-01,-4.998351037502288818e-01,3.552555143833160400e-01,-3.139024376869201660e-01,-4.495244622230529785e-01,-7.600295543670654297e-02,-3.673252463340759277e-01,-6.787290424108505249e-02,5.779116749763488770e-01,-6.568249464035034180e-01,4.544562995433807373e-01,-7.462790012359619141e-01,-1.343677341938018799e-01,-3.700251579284667969e-01,5.520826578140258789e-01,-4.442397952079772949e-01,-1.630069911479949951e-01,-7.012855410575866699e-01,5.461131036281585693e-02,3.996290862560272217e-01
3.024778962135314941e-01,6.200939044356346130e-02,-5.694615840911865234e-01,3.831511139869689941e-01,-3.435136079788208008e-01,-7.127582430839538574e-01,2.800521440804004669e-02,-4.087133109569549561e-01,1.254778504371643066e-01,4.091972410678863525e-01,-8.817564845085144043e-01,6.046305298805236816e-01,-6.894930005073547363e-01,-1.517779231071472168e-01,-2.829857468605041504e-01,3.229692578315734863e-01,-3.212976753711700439e-01,-7.641040533781051636e-02,-5.270198583602905273e-01,8.929008035920560360e-04,5.119270086288452148e-01
4.963234663009643555e-01,5.152877792716026306e-02,-5.498138666152954102e-01,4.512575268745422363e-01,-2.203786075115203857e-01,-5.434060692787170410e-01,4.927133321762084961e-01,-3.470324873924255371e-01,-1.424504518508911133e-01,2.993558943271636963e-01,-6.699953079223632812e-01,6.009293794631958008e-01,-6.212591528892517090e-01,-8.491744101047515869e-02,-2.419153004884719849e-01,4.496291875839233398e-01,-3.444761037826538086e-01,-1.883172839879989624e-01,-6.035458445549011230e-01,-1.468753907829523087e-03,4.492693841457366943e-01
4.835980832576751709e-01,-8.742433786392211914e-02,-4.875017106533050537e-01,4.369560182094573975e-01,-4.272216260433197021e-01,-4.932532608509063721e-01,2.522514462471008301e-01,-4.082368314266204834e-01,-1.599163003265857697e-02,4.554536640644073486e-01,-6.079325675964355469e-01,5.279945731163024902e-01,-7.416094541549682617e-01,1.695513352751731873e-02,-2.730893790721893311e-01,3.030700683593750000e-01,-4.189440310001373291e-01,-2.232471406459808350e-01,-5.589416623115539551e-01,-3.984467312693595886e-02,4.096752107143402100e-01
3.965825438499450684e-01,1.165536493062973022e-01,-2.713249027729034424e-01,3.942449390888214111e-01,-3.630859255790710449e-01,-3.423743844032287598e-01,1.470866054296493530e-01,-5.701734423637390137e-01,-8.257797360420227051e-02,2.859748899936676025e-01,-6.475055813789367676e-01,4.375132024288177490e-01,-5.565525293350219727e-01,-5.144421383738517761e-02,-2.080547660589218140e-01,2.700935006141662598e-01,-2.412186712026596069e-01,-3.579109609127044678e-01,-5.355693697929382324e-01,2.509899437427520752e-01,3.995508253574371338e-01
5.523635149002075195e-01,3.843317180871963501e-02,-3.680051863193511963e-01,4.814014732837677002e-01,-2.702177762985229492e-01,-3.542716205120086670e-01,3.484690189361572266e-01,-5.109669566154479980e-01,1.817254116758704185e-03,7.382948696613311768e-02,-4.080182313919067383e-01,3.824413716793060303e-01,-5.772538185119628906e-01,-8.373641967773437500e-02,5.886493250727653503e-02,1.159441024065017700e-01,-4.652110934257507324e-01,-4.258546531200408936e-01,-3.968592286109924316e-01,1.454666256904602051e-01,3.592002391815185547e-01
6.032164096832275391e-01,1.004123762249946594e-01,-8.711928874254226685e-02,4.785985052585601807e-01,-2.031761109828948975e-01,-4.279600381851196289e-01,1.956339329481124878e-01,-4.688991606235504150e-01,1.974703185260295868e-02,-5.346025153994560242e-02,-4.859912395477294922e-01,2.633333504199981689e-01,-3.289420306682586670e-01,4.238652065396308899e-02,-1.362188309431076050e-01,1.573741137981414795e-01,-4.556930959224700928e-01,-3.595563471317291260e-01,-3.210534453392028809e-01,3.185424506664276123e-01,4.675982296466827393e-01
5.158100128173828125e-01,-1.207739952951669693e-02,-1.463164538145065308e-01,6.302798986434936523e-01,-1.148238405585289001e-01,-2.185879945755004883e-01,3.282221555709838867e-01,-3.793927133083343506e-01,1.030713692307472229e-01,-2.963673472404479980e-01,-3.985156416893005371e-01,2.880193591117858887e-01,-1.584595888853073120e-01,-6.244959682226181030e-02,1.121608633548021317e-02,2.484049946069717407e-01,-4.570281505584716797e-01,-2.540245354175567627e-01,-3.732903301715850830e-01,4.651131331920623779e-01,2.274319231510162354e-01
7.269303798675537109e-01,1.426843404769897461e-01,-1.404865235090255737e-01,7.058472037315368652e-01,-1.577785313129425049e-01,-1.611137837171554565e-01,3.925974667072296143e-01,-2.945373058319091797e-01,6.384481489658355713e-02,-4.031347632408142090e-01,-4.281335175037384033e-01,8.981163054704666138e-02,-7.508804649114608765e-02,1.877614706754684448e-01,8.070589601993560791e-02,3.778433501720428467e-01,-3.463318645954132080e-01,-1.813150048255920410e-01,-2.181083112955093384e-01,3.880053758621215820e-01,3.457002341747283936e-01
6.688638329505920410e-01,-6.870594806969165802e-03,1.181841362267732620e-02,8.048252463340759277e-01,-1.866064816713333130e-01,-2.045714855194091797e-01,2.870080173015594482e-01,-1.893047690391540527e-01,1.730881184339523315e-01,-1.714708358049392700e-01,-3.834261894226074219e-01,2.796135246753692627e-01,-9.045201539993286133e-02,1.013486608862876892e-01,6.009358167648315430e-02,3.706767559051513672e-01,-3.833871185779571533e-01,-8.665851503610610962e-02,-7.183885574340820312e-02,4.667286872863769531e-01,1.527192145586013794e-01
6.929030418395996094e-01,-4.068077076226472855e-03,-2.867333292961120605e-01,8.705508112907409668e-01,-3.096871972084045410e-01,-1.906669288873672485e-01,5.214305520057678223e-01,-2.187108397483825684e-01,6.380147933959960938e-01,-2.908002734184265137e-01,-2.447061985731124878e-01,3.007266521453857422e-01,-2.590936236083507538e-02,6.442394573241472244e-03,2.240988165140151978e-01,3.787725865840911865e-01,-1.722216755151748657e-01,4.788872227072715759e-02,1.073790863156318665e-01,5.031193494796752930e-01,2.682396471500396729e-01
8.125042319297790527e-01,1.769870817661285400e-01,1.723678857088088989e-01,7.727605104446411133e-01,-3.361164331436157227e-01,-2.311744540929794312e-01,8.368238210678100586e-01,-2.142095118761062622e-01,5.296413898468017578e-01,-3.633500933647155762e-01,-2.374856173992156982e-02,3.654428124427795410e-01,1.507178097963333130e-01,-1.978299021720886230e-02,1.785483211278915405e-02,1.977520883083343506e-01,-3.637362420558929443e-01,1.826834380626678467e-01,1.931859552860260010e-01,3.140713274478912354e-01,2.880237810313701630e-02
9.006255865097045898e-01,2.633303105831146240e-01,1.200252771377563477e-01,8.279663324356079102e-01,-5.722994804382324219e-01,-1.917973309755325317e-01,8.001012802124023438e-01,-2.777305841445922852e-01,6.613281369209289551e-01,-2.286855876445770264e-01,1.024758368730545044e-01,5.478034019470214844e-01,2.610020935535430908e-01,-9.933971799910068512e-03,2.205705940723419189e-01,3.462031185626983643e-01,-1.707916408777236938e-01,1.045423969626426697e-01,2.228444069623947144e-01,3.385948836803436279e-01,2.276890575885772705e-01
7.964562177658081055e-01,3.002648055553436279e-01,-8.251248300075531006e-02,6.850597262382507324e-01,-7.589854001998901367e-01,4.348962008953094482e-02,8.461269736289978027e-01,-2.194408476352691650e-01,6.441604495048522949e-01,-1.795956343412399292e-01,1.412034481763839722e-01,3.104077577590942383e-01,2.077527940273284912e-01,6.232666596770286560e-02,3.505107164382934570e-01,1.991291940212249756e-01,-1.721150875091552734e-01,1.849227696657180786e-01,2.650436572730541229e-02,5.010219812393188477e-01,2.213372886180877686e-01
8.947030305862426758e-01,5.721464157104492188e-01,-1.193953305482864380e-01,5.134018063545227051e-01,-8.416616916656494141e-01,-6.707333028316497803e-02,8.890115022659301758e-01,-1.453632414340972900e-01,8.922430872917175293e-01,8.354095369577407837e-02,2.395640499889850616e-02,5.851755738258361816e-01,2.091354578733444214e-01,-3.477667644619941711e-02,2.764845490455627441e-01,1.986473947763442993e-01,1.026962697505950928e-01,1.124868839979171753e-01,-3.382312133908271790e-02,2.773139476776123047e-01,2.323830127716064453e-01
1.086022853851318359e+00,6.104032397270202637e-01,-3.721358478069305420e-01,5.142086744308471680e-01,-8.745301365852355957e-01,-4.867239668965339661e-02,6.036290526390075684e-01,-2.033393085002899170e-01,8.203832507133483887e-01,8.452136814594268799e-02,1.223299279808998108e-01,5.604836344718933105e-01,-1.464636065065860748e-02,1.340254545211791992e-01,7.009698152542114258e-01,1.955254524946212769e-01,2.246518880128860474e-01,3.267681300640106201e-01,5.225127935409545898e-02,3.448714911937713623e-01,2.674507200717926025e-01
1.092616558074951172e+00,6.184494495391845703e-01,-2.253786027431488037e-01,3.421191573143005371e-01,-8.811274170875549316e-01,4.389462620019912720e-02,6.604663729667663574e-01,8.231993764638900757e-03,6.966628432273864746e-01,2.707470357418060303e-01,3.606933057308197021e-01,7.821398973464965820e-01,3.511158376932144165e-02,1.389095634222030640e-01,4.897666275501251221e-01,2.303641438484191895e-01,2.234065979719161987e-01,2.648150920867919922e-01,9.328150749206542969e-02,3.945819437503814697e-01,8.405803889036178589e-02
1.115767121315002441e+00,6.602777242660522461e-01,-6.554633378982543945e-02,3.138768076896667480e-01,-9.320977330207824707e-01,-2.481768131256103516e-01,6.836352944374084473e-01,9.854055196046829224e-02,9.203423261642456055e-01,2.846205234527587891e-01,3.765170574188232422e-01,7.957984805107116699e-01,-6.151416152715682983e-02,7.725904881954193115e-02,4.179667830467224121e-01,3.992600440979003906e-01,3.517542779445648193e-01,2.839053571224212646e-01,4.760806635022163391e-02,2.988898754119873047e-01,4.731324966996908188e-03
1.025061011314392090e+00,6.118143796920776367e-01,-8.317867666482925415e-02,1.153980940580368042e-01,-7.832245230674743652e-01,-3.520310819149017334e-01,5.778866410255432129e-01,8.232882618904113770e-02,7.277288436889648438e-01,3.264186084270477295e-01,3.004050254821777344e-01,6.462048292160034180e-01,6.708361208438873291e-02,-1.102042496204376221e-01,4.644230306148529053e-01,2.501106858253479004e-01,4.246372878551483154e-01,3.074690997600555420e-01,-6.852194201201200485e-03,4.766960144042968750e-01,2.580411732196807861e-01
9.833307862281799316e-01,6.753247380256652832e-01,-1.914260089397430420e-01,3.115710914134979248e-01,-8.923436999320983887e-01,-3.804262876510620117e-01,5.158059000968933105e-01,1.292042434215545654e-01,5.781192779541015625e-01,3.614380955696105957e-01,2.160962671041488647e-01,8.033339977264404297e-01,3.734642639756202698e-02,-7.292310148477554321e-02,3.389760851860046387e-01,2.047324627637863159e-01,4.070962071418762207e-01,3.817967772483825684e-01,8.470419049263000488e-02,2.954136133193969727e-01,3.068728744983673096e-01
6.475533843040466309e-01,5.083945393562316895e-01,-2.279892265796661377e-01,2.291798293590545654e-01,-6.660796403884887695e-01,-4.083424508571624756e-01,3.012465536594390869e-01,5.740434303879737854e-02,6.143103241920471191e-01,1.450972706079483032e-01,2.047787457704544067e-01,8.761935234069824219e-01,1.009835973381996155e-01,-3.565989434719085693e-01,2.605121433734893799e-01,9.880911558866500854e-02,1.966711580753326416e-01,1.289124041795730591e-01,-8.973507583141326904e-02,2.209975272417068481e-01,6.398355364799499512e-01
6.497310400009155273e-01,4.302420318126678467e-01,-2.345048189163208008e-01,6.095530837774276733e-02,-6.534377336502075195e-01,-3.895761370658874512e-01,3.683537244796752930e-01,2.832695282995700836e-02,3.994022011756896973e-01,4.200088977813720703e-01,2.351191043853759766e-01,8.389436006546020508e-01,2.503080293536186218e-02,-1.067305132746696472e-01,2.050264030694961548e-01,3.091173470020294189e-01,3.606503605842590332e-01,3.898070752620697021e-01,-3.092871606349945068e-02,1.989127993583679199e-01,3.102110624313354492e-01
4.443754851818084717e-01,2.523230612277984619e-01,1.070031896233558655e-01,1.181038990616798401e-01,-6.531907320022583008e-01,-5.126630663871765137e-01,1.482276320457458496e-01,1.328591406345367432e-01,3.745959699153900146e-01,3.556746244430541992e-01,-5.197038128972053528e-02,5.513333082199096680e-01,1.224307119846343994e-01,-4.295322000980377197e-01,1.424679607152938843e-01,3.152641654014587402e-01,4.298110902309417725e-01,3.897732496261596680e-01,2.217789292335510254e-01,5.164502933621406555e-02,5.324696898460388184e-01
1.942932456731796265e-01,2.969036102294921875e-01,5.014549009501934052e-03,2.273273915052413940e-01,-2.873300611972808838e-01,-4.183147251605987549e-01,1.319136172533035278e-01,2.374385446310043335e-01,2.147815674543380737e-01,2.727681994438171387e-01,7.915931940078735352e-02,7.612889409065246582e-01,1.146947816014289856e-01,-5.452161431312561035e-01,-1.642634719610214233e-01,1.875912845134735107e-01,2.166179418563842773e-01,1.852436065673828125e-01,8.921384066343307495e-02,5.455926060676574707e-02,6.805145740509033203e-01
1.795543879270553589e-01,4.507266879081726074e-01,2.685433030128479004e-01,3.551994264125823975e-01,-3.936174809932708740e-01,-4.339699745178222656e-01,6.178196519613265991e-03,2.381263226270675659e-01,-4.056322574615478516e-02,-4.368956387042999268e-02,-1.979041397571563721e-01,3.549925982952117920e-01,2.666558027267456055e-01,-7.035408616065979004e-01,-1.595315188169479370e-01,-4.492559656500816345e-02,1.443057507276535034e-02,5.081828832626342773e-01,1.797736138105392456e-01,-2.854467332363128662e-01,6.351991891860961914e-01
2.279484570026397705e-01,1.874342411756515503e-01,1.215134561061859131e-01,2.868312895298004150e-01,-4.707308411598205566e-01,-2.348553687334060669e-01,7.089637964963912964e-02,-1.107038185000419617e-01,1.129547655582427979e-01,8.680761605501174927e-02,-3.127076476812362671e-02,4.006293714046478271e-01,1.388087123632431030e-01,-6.490771770477294922e-01,-2.590786218643188477e-01,1.367428898811340332e-01,1.529333144426345825e-01,2.098711431026458740e-01,8.851119875907897949e-02,-2.592265009880065918e-01,8.961399793624877930e-01
2.106119394302368164e-01,3.471668660640716553e-01,5.918202176690101624e-02,3.470607399940490723e-01,-1.789666712284088135e-01,-1.179076582193374634e-01,2.088981121778488159e-01,-2.945329993963241577e-02,8.448246866464614868e-02,5.825661867856979370e-02,-2.270790487527847290e-01,5.399711728096008301e-01,3.411082029342651367e-01,-7.604307532310485840e-01,-3.661606311798095703e-01,-8.259262144565582275e-02,2.165255397558212280e-01,1.593580991029739380e-01,6.471432000398635864e-02,-2.591921687126159668e-01,8.196895718574523926e-01
5.781498551368713379e-02,2.232623696327209473e-01,3.375653624534606934e-01,1.464591175317764282e-01,-2.506698369979858398e-01,9.402684867382049561e-03,1.745988279581069946e-01,-4.818083718419075012e-02,2.341719120740890503e-01,-3.219064325094223022e-02,-1.092538982629776001e-01,3.755288720130920410e-01,4.268400371074676514e-01,-5.272648930549621582e-01,-2.845312058925628662e-01,-7.646482437849044800e-02,2.569496333599090576e-01,-7.991768419742584229e-02,-2.465187571942806244e-02,-5.190899372100830078e-01,5.962002873420715332e-01
-7.569306343793869019e-02,2.454099357128143311e-01,1.865904927253723145e-01,3.655014634132385254e-01,-2.575023770332336426e-01,-5.084862466901540756e-03,3.527123332023620605e-01,-2.307381629943847656e-01,7.200245559215545654e-02,2.835151553153991699e-01,-6.338525563478469849e-02,3.439790010452270508e-01,4.454887509346008301e-01,-5.244275331497192383e-01,-1.182877421379089355e-01,-2.069527506828308105e-01,3.338849842548370361e-01,-1.998217105865478516e-01,-4.137612506747245789e-02,-6.672475337982177734e-01,8.466999530792236328e-01
1.105956453830003738e-02,3.630399703979492188e-01,2.199761122465133667e-01,2.262218296527862549e-01,-2.541600167751312256e-01,1.936897933483123779e-01,5.689369440078735352e-01,-3.252300024032592773e-01,3.704771399497985840e-01,2.349573746323585510e-02,-6.295094639062881470e-02,3.826572000980377197e-01,5.268107056617736816e-01,-4.901878237724304199e-01,-4.741441458463668823e-02,-3.463525474071502686e-01,2.337664216756820679e-01,-3.868952691555023193e-01,6.326486915349960327e-02,-5.577352643013000488e-01,6.714772582054138184e-01
1.498681008815765381e-01,4.253604710102081299e-01,3.342375755310058594e-01,1.366424113512039185e-01,-4.265376925468444824e-01,1.947663724422454834e-01,4.395076334476470947e-01,-2.151002585887908936e-01,7.646281272172927856e-02,8.883717656135559082e-02,6.543298810720443726e-02,3.762544319033622742e-02,7.473672032356262207e-01,-3.598263859748840332e-01,-8.249504119157791138e-02,-4.980865120887756348e-01,3.097820281982421875e-01,-4.111802279949188232e-01,1.153447031974792480e-01,-4.461536705493927002e-01,4.679247140884399414e-01
4.208652302622795105e-02,5.807400941848754883e-01,2.830893993377685547e-01,1.846776902675628662e-01,-3.449735641479492188e-01,4.227453172206878662e-01,2.743398845195770264e-01,-3.118677437305450439e-01,6.121938582509756088e-03,-7.187561132013797760e-03,2.242626100778579712e-01,3.956334590911865234e-01,6.011764407157897949e-01,-1.891610324382781982e-01,1.040366478264331818e-03,-4.510717093944549561e-01,4.741124510765075684e-01,-4.716983735561370850e-01,-1.065954566001892090e-01,-4.486031830310821533e-01,1.918096393346786499e-01
2.742793858051300049e-01,4.345941543579101562e-01,2.231713533401489258e-01,9.580971300601959229e-02,-4.043506383895874023e-01,3.787789940834045410e-01,3.309219777584075928e-01,-1.876065731048583984e-01,4.118080064654350281e-02,-1.615532934665679932e-01,2.307592034339904785e-01,3.343204259872436523e-01,7.754954695701599121e-01,-3.051131367683410645e-01,8.944805711507797241e-02,-3.854723274707794189e-01,5.369070172309875488e-01,-4.507400393486022949e-01,2.135143131017684937e-01,-3.836785852909088135e-01,7.964602857828140259e-02
1.902951300144195557e-01,5.507569909095764160e-01,4.908963143825531006e-01,2.166138887405395508e-01,-1.430948227643966675e-01,2.840826213359832764e-01,5.579172372817993164e-01,-1.029481813311576843e-01,1.120184436440467834e-01,1.738027483224868774e-02,1.187718212604522705e-01,2.225755751132965088e-01,6.145746111869812012e-01,-2.111282199621200562e-01,-1.355450898408889771e-01,-5.453552603721618652e-01,4.651926159858703613e-01,-4.534151256084442139e-01,3.999123871326446533e-01,-1.441015899181365967e-01,2.736321985721588135e-01
1.843831241130828857e-01,2.459327280521392822e-01,4.430613815784454346e-01,3.108716309070587158e-01,-1.885661184787750244e-01,3.492958545684814453e-01,4.842498302459716797e-01,-2.795802652835845947e-01,-7.187635451555252075e-02,1.013331580907106400e-02,1.228999122977256775e-01,2.291144132614135742e-01,7.926623821258544922e-01,-9.265419095754623413e-02,1.580283343791961670e-01,-1.524386852979660034e-01,5.440091490745544434e-01,-3.448745012283325195e-01,4.399097561836242676e-01,-2.606461346149444580e-01,3.068336546421051025e-01
2.050677686929702759e-01,4.697034657001495361e-01,5.713946819305419922e-01,1.973503828048706055e-01,-2.841072976589202881e-01,2.575620412826538086e-01,4.676170051097869873e-01,-6.800664961338043213e-02,-8.532898873090744019e-02,-1.452864259481430054e-01,1.428475230932235718e-01,2.187849879264831543e-01,1.031708359718322754e+00,5.802220851182937622e-02,-9.543631970882415771e-02,-2.091977186501026154e-02,4.208900630474090576e-01,-2.374790310859680176e-01,5.076493024826049805e-01,-7.177226245403289795e-02,2.318897545337677002e-01
-5.806842818856239319e-02,2.510619759559631348e-01,6.643761396408081055e-01,2.256964296102523804e-01,-3.406260013580322266e-01,2.451171576976776123e-01,2.509333491325378418e-01,6.822205334901809692e-02,-5.917515978217124939e-02,-1.794311106204986572e-01,2.192638963460922241e-01,1.583550274372100830e-01,9.797688126564025879e-01,-7.035189867019653320e-02,1.604160070419311523e-01,-1.130479648709297180e-01,6.943985819816589355e-01,-4.253044128417968750e-01,4.215694665908813477e-01,1.433547586202621460e-01,4.378699362277984619e-01
2.455663233995437622e-01,5.276993513107299805e-01,5.952262282371520996e-01,9.834939986467361450e-02,-3.479925096035003662e-01,3.366164565086364746e-01,4.805549383163452148e-01,2.752047777175903320e-02,1.951228380203247070e-01,-6.628305464982986450e-02,1.118669733405113220e-01,2.152031064033508301e-01,9.225988388061523438e-01,1.785076968371868134e-02,-5.276260152459144592e-02,-9.461252950131893158e-03,8.718349337577819824e-01,-1.161326840519905090e-01,6.419270038604736328e-01,2.069975435733795166e-01,2.602975070476531982e-01
1.637661606073379517e-01,4.904882609844207764e-01,4.628455042839050293e-01,8.777946978807449341e-02,-3.875477015972137451e-01,5.170937776565551758e-01,2.506509125232696533e-01,2.506636679172515869e-01,2.179067730903625488e-01,-1.134683564305305481e-01,1.272879447788000107e-02,1.140872091054916382e-01,7.001792192459106445e-01,-1.967446655035018921e-01,-1.918821781873703003e-02,2.566041983664035797e-02,7.758938074111938477e-01,-1.255008876323699951e-01,6.594527959823608398e-01,1.221820786595344543e-01,3.600923120975494385e-01
9.029247611761093140e-02,6.141325235366821289e-01,4.193424582481384277e-01,8.804924041032791138e-02,-4.623084068298339844e-01,2.675971090793609619e-01,4.817363023757934570e-01,2.985230684280395508e-01,4.986632987856864929e-02,1.916423738002777100e-01,1.683338135480880737e-01,1.786892116069793701e-01,8.586820960044860840e-01,-3.316553235054016113e-01,-1.849806308746337891e-01,4.337149113416671753e-02,8.675848841667175293e-01,-1.627486646175384521e-01,6.808662414550781250e-01,1.140446811914443970e-01,4.091399610042572021e-01
1.783780381083488464e-02,6.858595609664916992e-01,2.308359146118164062e-01,-1.715582981705665588e-02,-4.761765599250793457e-01,2.806097865104675293e-01,2.854810655117034912e-01,1.595466732978820801e-01,2.754375934600830078e-01,1.280574798583984375e-01,2.325405329465866089e-01,1.829681694507598877e-01,8.540683984756469727e-01,-4.152477383613586426e-01,-3.155278041958808899e-02,5.985060334205627441e-02,6.923655867576599121e-01,-1.649010181427001953e-01,6.654778718948364258e-01,2.768419384956359863e-01,3.707267642021179199e-01
5.934428423643112183e-03,6.683122515678405762e-01,-1.000851988792419434e-01,-2.177004218101501465e-01,-6.189467310905456543e-01,9.730020910501480103e-02,3.453299999237060547e-01,2.961055338382720947e-01,2.435638755559921265e-01,2.435421049594879150e-01,2.466556429862976074e-01,1.914233863353729248e-01,7.096976041793823242e-01,-1.975034028291702271e-01,-2.509765028953552246e-01,2.592159509658813477e-01,7.206486463546752930e-01,-8.912889659404754639e-02,7.646256685256958008e-01,1.215140074491500854e-01,3.045202195644378662e-01
1.371535807847976685e-01,9.092921018600463867e-01,-1.955862343311309814e-01,-3.250930309295654297e-01,-6.817134022712707520e-01,1.682485044002532959e-01,3.008338510990142822e-01,5.109594389796257019e-02,8.564114570617675781e-02,4.577287733554840088e-01,2.070291489362716675e-01,4.180326163768768311e-01,6.285607814788818359e-01,-4.402796328067779541e-01,-1.718746274709701538e-01,3.009229898452758789e-01,6.451390981674194336e-01,6.680200994014739990e-02,4.031543731689453125e-01,8.662082254886627197e-02,5.135606527328491211e-01
4.285882785916328430e-02,9.306287765502929688e-01,-4.078558385372161865e-01,-3.938634097576141357e-01,-6.218767762184143066e-01,1.258185207843780518e-01,3.230953216552734375e-01,1.688851416110992432e-01,6.683602929115295410e-02,3.647741079330444336e-01,9.753010421991348267e-02,2.794871032238006592e-01,3.483552932739257812e-01,-4.165339171886444092e-01,-1.266464143991470337e-01,1.735354661941528320e-01,8.298932909965515137e-01,4.626831412315368652e-02,2.430631667375564575e-01,1.540923267602920532e-01,3.910858631134033203e-01
-9.681334346532821655e-02,8.659342527389526367e-01,-5.605871677398681641e-01,-5.756932497024536133e-01,-7.004749774932861328e-01,-1.366625539958477020e-02,3.674679398536682129e-01,1.812666207551956177e-01,-1.028422191739082336e-01,4.437175095081329346e-01,-8.631502836942672729e-02,4.078985750675201416e-01,2.015546560287475586e-01,-3.691534996032714844e-01,-2.323357760906219482e-01,-3.947318065911531448e-03,9.709985852241516113e-01,-1.870044767856597900e-01,2.526485621929168701e-01,5.132594704627990723e-02,4.316824674606323242e-01
-2.167756855487823486e-01,7.986233234405517578e-01,-5.187865495681762695e-01,-6.970444917678833008e-01,-6.121397018432617188e-01,-3.823814690113067627e-01,1.509464085102081299e-01,8.096198737621307373e-02,-1.098171845078468323e-01,7.788676619529724121e-01,1.953985728323459625e-02,4.000448882579803467e-01,1.923644244670867920e-01,-3.801240622997283936e-01,-3.679111003875732422e-01,-1.948022842407226562e-02,9.891752004623413086e-01,-1.053685322403907776e-01,6.741487234830856323e-02,3.885423019528388977e-02,6.470495462417602539e-01
-5.116580799221992493e-02,8.968543410301208496e-01,-5.891126394271850586e-01,-7.034023404121398926e-01,-5.764853358268737793e-01,-2.286220639944076538e-01,4.976743087172508240e-02,1.489428281784057617e-01,-2.375687360763549805e-01,5.151198506355285645e-01,1.744852811098098755e-01,4.287899136543273926e-01,1.326189637184143066e-01,-2.445539981126785278e-01,-6.131986379623413086e-01,3.726365864276885986e-01,7.704845666885375977e-01,-1.071702539920806885e-01,-1.063397526741027832e-01,1.666497141122817993e-01,6.875933408737182617e-01
-3.184738755226135254e-01,7.385349869728088379e-01,-3.135675489902496338e-01,-7.590575814247131348e-01,-5.268667936325073242e-01,-1.725860834121704102e-01,2.752133011817932129e-01,9.897625446319580078e-02,-2.156989723443984985e-01,4.348518252372741699e-01,5.771766230463981628e-02,1.150136962532997131e-01,-1.039412394165992737e-01,-4.399212896823883057e-01,-3.500576317310333252e-01,7.934334874153137207e-02,6.769798994064331055e-01,-2.355519533157348633e-01,-1.154118627309799194e-01,2.354869395494461060e-01,5.630440115928649902e-01
-3.201804161071777344e-01,4.520310759544372559e-01,-4.777118265628814697e-01,-5.255488157272338867e-01,-4.043895304203033447e-01,-2.901384830474853516e-01,-4.151779413223266602e-02,8.328044414520263672e-02,-6.291598677635192871e-01,3.997660279273986816e-01,-1.399413198232650757e-01,1.095211654901504517e-01,3.874448314309120178e-02,-5.345981717109680176e-01,-6.061198115348815918e-01,1.490233689546585083e-01,6.609508395195007324e-01,-2.447066456079483032e-01,-2.389198392629623413e-01,9.164889156818389893e-02,5.877952575683593750e-01
-4.758294224739074707e-01,4.540545344352722168e-01,-4.505011737346649170e-01,-8.283798098564147949e-01,-1.829990595579147339e-01,-5.116558670997619629e-01,-1.519590914249420166e-01,7.713083177804946899e-02,-4.368724822998046875e-01,3.798994719982147217e-01,-1.888336539268493652e-01,-4.190596565604209900e-02,-1.083636805415153503e-01,-2.958107292652130127e-01,-6.810816526412963867e-01,1.135073825716972351e-01,5.003632903099060059e-01,-3.709047436714172363e-01,-3.993560075759887695e-01,1.670214086771011353e-01,4.763714671134948730e-01
-3.887642621994018555e-01,2.609300613403320312e-01,-3.688280880451202393e-01,-6.061797738075256348e-01,-1.959081888198852539e-01,-7.460848093032836914e-01,8.329937234520912170e-03,-2.048639506101608276e-01,-3.811384439468383789e-01,2.551503479480743408e-01,-3.083581924438476562e-01,8.840492367744445801e-02,-9.876767545938491821e-02,-3.219895660877227783e-01,-5.941960215568542480e-01,1.613046824932098389e-01,3.038569390773773193e-01,-5.008483529090881348e-01,-2.342662364244461060e-01,2.009779661893844604e-01,5.298185944557189941e-01
-3.948867022991180420e-01,3.062350749969482422e-01,-4.259152114391326904e-01,-5.894410014152526855e-01,-8.199707418680191040e-02,-5.515567064285278320e-01,-1.725056320428848267e-01,-2.521642446517944336e-01,-5.273479819297790527e-01,2.540937066078186035e-01,-3.051134645938873291e-01,-4.484146088361740112e-02,-3.909479081630706787e-02,-3.519694805145263672e-01,-7.387017011642456055e-01,1.399924457073211670e-01,2.888854146003723145e-01,-5.856422781944274902e-01,-2.760833799839019775e-01,1.402755081653594971e-01,7.821637392044067383e-01
-6.105938553810119629e-01,1.484767943620681763e-01,-3.575920760631561279e-01,-3.825061917304992676e-01,1.521608978509902954e-01,-6.298458576202392578e-01,-8.169361203908920288e-02,-2.423197776079177856e-01,-5.957432389259338379e-01,2.109164595603942871e-01,-5.229851603507995605e-01,-3.055531978607177734e-01,9.808003902435302734e-02,-3.359407782554626465e-01,-7.647130489349365234e-01,9.750976460054516792e-04,1.273932605981826782e-01,-2.800688147544860840e-01,-2.312348037958145142e-01,8.398240059614181519e-02,6.672564148902893066e-01
-4.904726445674896240e-01,-3.130078688263893127e-02,-1.815545260906219482e-01,-2.687606215476989746e-01,9.233576804399490356e-02,-5.231233835220336914e-01,-1.561837345361709595e-01,-4.094303846359252930e-01,-4.513002336025238037e-01,1.841355711221694946e-01,-5.130569934844970703e-01,-4.072929322719573975e-01,1.160293444991111755e-02,-3.751500844955444336e-01,-7.332750558853149414e-01,3.203470632433891296e-02,5.545235425233840942e-02,-3.394098877906799316e-01,-3.573918044567108154e-01,1.579676270484924316e-01,6.762576103210449219e-01
-3.506208062171936035e-01,-3.325166925787925720e-02,-2.321881353855133057e-01,-2.602017223834991455e-01,3.334998190402984619e-01,-4.983034729957580566e-01,-1.765873432159423828e-01,-1.626772880554199219e-01,-2.813950777053833008e-01,-8.001285605132579803e-03,-4.941919744014739990e-01,-3.289171457290649414e-01,1.284416168928146362e-01,-1.533437520265579224e-01,-5.913299322128295898e-01,-1.894375681877136230e-01,-6.488806754350662231e-02,-4.274866282939910889e-01,-1.546392142772674561e-01,2.405353337526321411e-01,4.728661179542541504e-01
-4.341672062873840332e-01,-7.445690035820007324e-02,-2.502048909664154053e-01,-3.567505776882171631e-01,8.518800139427185059e-02,-3.361181318759918213e-01,1.506950110197067261e-01,-5.857517719268798828e-01,-2.595779001712799072e-01,1.721656322479248047e-01,-4.110672175884246826e-01,-4.951596856117248535e-01,2.004449516534805298e-01,-7.187051326036453247e-02,-6.937666535377502441e-01,3.579720109701156616e-02,-2.418559342622756958e-01,-5.936021208763122559e-01,-3.908931612968444824e-01,4.403313994407653809e-01,3.615885376930236816e-01
-1.513646841049194336e-01,-8.075009286403656006e-02,-3.368208408355712891e-01,-3.311051987111568451e-03,2.118986845016479492e-01,-3.177172243595123291e-01,1.461789906024932861e-01,-5.559142827987670898e-01,-3.414738476276397705e-01,8.254826813936233521e-02,-2.557025253772735596e-01,-5.362019538879394531e-01,1.549378633499145508e-01,-1.111103873699903488e-02,-4.895079731941223145e-01,-8.219476044178009033e-02,-4.679758474230766296e-02,-6.461382508277893066e-01,-4.229090213775634766e-01,4.481290876865386963e-01,1.440731883049011230e-01
-4.075471162796020508e-01,1.970574259757995605e-01,-2.030810117721557617e-01,-2.668381929397583008e-01,1.172890290617942810e-01,-3.768076598644256592e-01,1.023394614458084106e-01,-6.449455618858337402e-01,-2.399518936872482300e-01,3.988428413867950439e-02,-1.965464800596237183e-01,-5.238457918167114258e-01,8.968397974967956543e-02,2.420528531074523926e-01,-1.603835076093673706e-01,-7.408227771520614624e-02,-5.156377330422401428e-02,-5.558973550796508789e-01,-3.571716248989105225e-01,5.153218507766723633e-01,-7.303440570831298828e-02
-1.017455011606216431e-01,-5.639513954520225525e-02,-5.414417386054992676e-01,-6.807810813188552856e-02,1.189996488392353058e-02,-3.466887474060058594e-01,2.810231596231460571e-02,-1.094299197196960449e+00,4.049812257289886475e-02,1.106012836098670959e-01,-1.133158206939697266e-01,-3.993736207485198975e-01,9.960514307022094727e-02,1.201955676078796387e-01,-2.252409309148788452e-01,-2.265439778566360474e-01,3.491024672985076904e-02,-5.712811946868896484e-01,-2.704723775386810303e-01,7.865647673606872559e-01,-1.542959064245223999e-01
1.164419949054718018e-01,8.884556591510772705e-02,-4.679179191589355469e-01,9.815237484872341156e-03,-1.925130560994148254e-02,-2.078212350606918335e-01,3.719977661967277527e-02,-9.135073423385620117e-01,4.492101073265075684e-02,7.760836184024810791e-02,4.591181129217147827e-02,-4.811024963855743408e-01,7.505021989345550537e-02,3.691999018192291260e-01,-1.927214115858078003e-01,-2.310595363378524780e-01,1.898406632244586945e-02,-5.758127570152282715e-01,-2.914378345012664795e-01,7.455036640167236328e-01,-2.711549103260040283e-01
1.269197016954421997e-01,1.569520831108093262e-01,-2.608650922775268555e-01,-3.054703213274478912e-02,3.275677859783172607e-01,-3.624243438243865967e-01,1.243941411375999451e-01,-6.474494934082031250e-01,-4.146496579051017761e-02,1.983810812234878540e-01,-1.241837516427040100e-01,-4.293495416641235352e-01,2.018060237169265747e-01,3.531529605388641357e-01,1.370244920253753662e-01,-4.114320129156112671e-02,1.239661648869514465e-01,-7.371327877044677734e-01,-9.149379283189773560e-02,6.968528628349304199e-01,-4.160827994346618652e-01
2.300932407379150391e-01,3.130476772785186768e-01,-6.364080905914306641e-01,-3.116693198680877686e-01,-7.227088510990142822e-02,-2.571566402912139893e-01,1.307500526309013367e-02,-8.679279088973999023e-01,1.232903227210044861e-01,3.676941990852355957e-02,2.293102294206619263e-01,-2.845597267150878906e-01,4.815808683633804321e-02,3.466940224170684814e-01,1.233568340539932251e-01,-1.205018311738967896e-01,1.392543762922286987e-01,-7.801254987716674805e-01,-2.941292710602283478e-02,8.157656192779541016e-01,-4.538253843784332275e-01
2.723569571971893311e-01,1.252518892288208008e-01,-5.688489675521850586e-01,-7.964190840721130371e-02,-1.582895368337631226e-01,-5.265783071517944336e-01,2.548125684261322021e-01,-7.711653113365173340e-01,1.545847356319427490e-01,3.017610907554626465e-01,-1.185594126582145691e-02,-1.934609860181808472e-01,1.429623067378997803e-01,6.290812492370605469e-01,3.897633254528045654e-01,7.799829542636871338e-02,1.457817703485488892e-01,-8.277280926704406738e-01,-3.073088824748992920e-01,1.051525473594665527e+00,-5.094639062881469727e-01
2.807174026966094971e-01,4.118318855762481689e-02,-6.343025565147399902e-01,-2.177747339010238647e-01,2.147197723388671875e-01,-5.097810029983520508e-01,-1.401023119688034058e-01,-6.640470027923583984e-01,2.539838850498199463e-01,-1.163526531308889389e-02,5.281640961766242981e-02,-2.081257700920104980e-01,1.120668053627014160e-01,4.232333600521087646e-01,1.799273788928985596e-01,6.242653727531433105e-02,-2.087968587875366211e-02,-5.747655034065246582e-01,-1.844716966152191162e-01,1.228393912315368652e+00,-5.835826396942138672e-01
4.149516224861145020e-01,1.063985452055931091e-01,-3.956817984580993652e-01,4.948075860738754272e-02,-2.013374865055084229e-02,-3.220693469047546387e-01,-1.661360561847686768e-01,-5.108252167701721191e-01,4.168663024902343750e-01,1.134346947073936462e-01,3.725949674844741821e-02,-1.381568610668182373e-01,1.625334024429321289e-01,5.027356743812561035e-01,5.083515867590904236e-02,1.396567970514297485e-01,1.932391077280044556e-01,-3.764453530311584473e-01,8.504363149404525757e-02,1.199375510215759277e+00,-2.456842064857482910e-01
3.291497826576232910e-01,-2.491301111876964569e-02,-4.585272967815399170e-01,-6.413033604621887207e-02,-5.014283582568168640e-02,-6.247242689132690430e-01,-6.275771558284759521e-02,-3.200604021549224854e-01,3.154487609863281250e-01,4.170256257057189941e-01,3.081823699176311493e-02,-2.211598008871078491e-01,5.572429671883583069e-02,4.589333236217498779e-01,1.000646799802780151e-01,4.921326041221618652e-01,2.030226141214370728e-01,-2.040042132139205933e-01,-1.615036576986312866e-01,1.078579187393188477e+00,-5.684504508972167969e-01
4.102233648300170898e-01,2.565872371196746826e-01,-7.098854780197143555e-01,-1.324362307786941528e-01,1.915196031332015991e-01,-4.971388876438140869e-01,-3.690889477729797363e-01,-3.744937181472778320e-01,4.725989103317260742e-01,4.210675060749053955e-01,1.151419505476951599e-01,-1.986508965492248535e-01,3.230887353420257568e-01,2.745240330696105957e-01,3.895952701568603516e-01,4.746850132942199707e-01,1.775204539299011230e-01,-1.137671023607254028e-01,-1.476111561059951782e-01,1.127369284629821777e+00,-2.526600360870361328e-01
2.961798012256622314e-01,-1.149079427123069763e-01,-5.956078767776489258e-01,-1.631165593862533569e-01,2.205467969179153442e-01,-6.276666522026062012e-01,-2.888863384723663330e-01,-4.013392627239227295e-01,5.480808615684509277e-01,2.953020334243774414e-01,7.552012056112289429e-02,-1.963964290916919708e-02,1.504360791295766830e-02,2.110155820846557617e-01,3.211703896522521973e-01,4.202672541141510010e-01,-7.220406550914049149e-03,-1.576938480138778687e-01,7.224556058645248413e-02,1.175083279609680176e+00,-2.138776332139968872e-01
3.145343661308288574e-01,-2.308418452739715576e-01,-6.838298439979553223e-01,-1.167956143617630005e-01,2.234941571950912476e-01,-7.893763780593872070e-01,-2.600320875644683838e-01,-4.744416773319244385e-01,6.009606719017028809e-01,6.121404170989990234e-01,2.589835599064826965e-02,8.190326392650604248e-02,4.440911859273910522e-02,-1.255925893783569336e-01,2.038351297378540039e-01,6.016509532928466797e-01,4.724268615245819092e-02,-2.799979150295257568e-01,1.116610020399093628e-01,1.112592339515686035e+00,-2.841098904609680176e-01
3.401694595813751221e-01,-1.040414050221443176e-01,-8.187616467475891113e-01,8.706177771091461182e-02,8.355022966861724854e-02,-6.957471370697021484e-01,-6.871354579925537109e-01,-3.853104710578918457e-01,6.284269690513610840e-01,6.946060061454772949e-01,-3.679032996296882629e-02,1.202747374773025513e-01,-6.635586172342300415e-02,7.791167497634887695e-02,2.184290885925292969e-01,5.040329098701477051e-01,-9.657115675508975983e-03,-2.095252573490142822e-01,-7.240391522645950317e-02,7.538080215454101562e-01,-2.445440590381622314e-01
2.294260710477828979e-01,5.349125713109970093e-02,-8.206421136856079102e-01,-1.633190810680389404e-01,2.169014215469360352e-01,-6.929329633712768555e-01,-6.986467838287353516e-01,-3.678130209445953369e-01,4.138142466545104980e-01,6.591486334800720215e-01,-1.435971111059188843e-01,1.061758249998092651e-01,-5.518317967653274536e-02,-8.346048742532730103e-02,2.310172319412231445e-01,5.162729620933532715e-01,-6.366921216249465942e-02,-2.006200700998306274e-01,-2.797859609127044678e-01,8.427523970603942871e-01,-3.209397196769714355e-01
1.916860193014144897e-01,4.819532483816146851e-02,-1.053466320037841797e+00,-1.471030805259943008e-02,1.730499118566513062e-01,-7.106974124908447266e-01,-6.205439567565917969e-01,-4.740501940250396729e-01,5.311070680618286133e-01,7.496376037597656250e-01,-1.369874626398086548e-01,3.230907022953033447e-01,1.353097707033157349e-02,-1.832360476255416870e-01,2.255686074495315552e-01,5.493156909942626953e-01,-7.938152551651000977e-02,-3.271100223064422607e-01,-2.734962850809097290e-02,5.221828818321228027e-01,-2.612467110157012939e-01
2.946277856826782227e-01,1.999308355152606964e-02,-8.207566738128662109e-01,-7.759117335081100464e-02,2.436779290437698364e-01,-5.425832867622375488e-01,-6.153287291526794434e-01,-4.364486038684844971e-01,4.244206249713897705e-01,6.592401862144470215e-01,-4.913743585348129272e-02,3.287216722965240479e-01,-3.134446442127227783e-01,-6.525635719299316406e-02,3.061584830284118652e-01,1.298888623714447021e-01,-8.164763450622558594e-02,-3.106200098991394043e-01,-4.236354827880859375e-01,6.749017834663391113e-01,-4.217341244220733643e-01
-3.134240955114364624e-02,-2.695157825946807861e-01,-8.659951686859130859e-01,-1.304541081190109253e-01,3.453799784183502197e-01,-5.427317619323730469e-01,-8.998047709465026855e-01,-4.824633002281188965e-01,2.406378686428070068e-01,8.005235791206359863e-01,-6.043409928679466248e-02,3.278612792491912842e-01,-1.903782635927200317e-01,1.147523224353790283e-01,2.624110579490661621e-01,1.943613290786743164e-01,-5.424860492348670959e-02,-4.177423715591430664e-01,-4.620497226715087891e-01,5.171946287155151367e-01,-3.563602566719055176e-01
1.658852249383926392e-01,-2.732478082180023193e-01,-8.620386719703674316e-01,-1.278736740350723267e-01,2.669748961925506592e-01,-9.087675809860229492e-01,-6.564392447471618652e-01,-7.336715459823608398e-01,2.583749294281005859e-01,6.958177685737609863e-01,-2.943071424961090088e-01,3.445789515972137451e-01,-3.748550415039062500e-01,1.678839623928070068e-01,2.951500117778778076e-01,3.392882645130157471e-01,-3.345041871070861816e-01,-6.654435992240905762e-01,-4.153682887554168701e-01,6.562541127204895020e-01,-4.897243976593017578e-01
2.116240262985229492e-01,-2.381298393011093140e-01,-5.907871723175048828e-01,-3.467734158039093018e-02,3.536088466644287109e-01,-8.349016308784484863e-01,-5.998405814170837402e-01,-5.954893827438354492e-01,4.056533873081207275e-01,7.496920228004455566e-01,-1.266264915466308594e-01,3.448344767093658447e-01,-1.948333717882633209e-02,2.999660372734069824e-02,1.728088110685348511e-01,-7.388758473098278046e-03,-3.075630366802215576e-01,-7.218596935272216797e-01,-4.283165037631988525e-01,4.986460208892822266e-01,-3.107640743255615234e-01
2.448731362819671631e-01,-2.865180969238281250e-01,-6.200355887413024902e-01,7.769086956977844238e-02,3.382602632045745850e-01,-7.686235308647155762e-01,-7.328864336013793945e-01,-6.164737939834594727e-01,3.108044564723968506e-01,5.754685997962951660e-01,-3.998974263668060303e-01,2.331083416938781738e-01,-3.792920410633087158e-01,1.650167405605316162e-01,5.506855845451354980e-01,2.097586989402770996e-01,-3.797112405300140381e-01,-6.796070933341979980e-01,-3.060832023620605469e-01,4.254429936408996582e-01,-2.122629284858703613e-01
-2.715102583169937134e-02,-4.049092829227447510e-01,-7.363933324813842773e-01,-1.118030771613121033e-02,5.563920736312866211e-01,-3.573842942714691162e-01,-9.603823423385620117e-01,-4.434248507022857666e-01,1.533054262399673462e-01,5.054894685745239258e-01,-2.938665449619293213e-01,1.928656846284866333e-01,-5.713664367794990540e-02,-7.862808555364608765e-02,4.212514758110046387e-01,2.803525626659393311e-01,-3.003633916378021240e-01,-8.817700743675231934e-01,-2.769375741481781006e-01,5.045461058616638184e-01,-3.559934794902801514e-01
9.949137456715106964e-03,-3.463549315929412842e-01,-4.106871783733367920e-01,3.419543504714965820e-01,6.062901616096496582e-01,-7.097042798995971680e-01,-8.770397305488586426e-01,-5.500894188880920410e-01,3.544975817203521729e-02,4.748558998107910156e-01,-3.289252817630767822e-01,2.040303945541381836e-01,1.490117330104112625e-02,-3.482371196150779724e-02,3.922939598560333252e-01,2.253288775682449341e-01,-4.160406887531280518e-01,-7.769408822059631348e-01,6.346410140395164490e-03,3.305114209651947021e-01,-4.682995378971099854e-01
2.970775961875915527e-01,-6.395877599716186523e-01,-2.474942207336425781e-01,4.744442999362945557e-01,7.286191582679748535e-01,-3.961845040321350098e-01,-8.771813511848449707e-01,-7.097160816192626953e-01,1.538342237472534180e-01,3.278793692588806152e-01,-3.997968435287475586e-01,-7.984911650419235229e-02,-3.897594660520553589e-02,-1.362624764442443848e-01,3.228229582309722900e-01,2.348209917545318604e-01,-5.499412417411804199e-01,-8.432951569557189941e-01,1.350397467613220215e-01,4.446960091590881348e-01,-3.407846689224243164e-01
-1.942875385284423828e-01,-4.903050661087036133e-01,-2.080779671669006348e-01,3.730069398880004883e-01,7.669537067413330078e-01,-3.444955050945281982e-01,-6.755822896957397461e-01,-4.515020251274108887e-01,1.957020312547683716e-01,1.326336860656738281e-01,-3.688112795352935791e-01,1.110281348228454590e-01,2.226415276527404785e-01,-1.771923005580902100e-01,3.779209256172180176e-01,1.248560622334480286e-01,-5.620407462120056152e-01,-7.766718864440917969e-01,2.121033333241939545e-02,4.036593139171600342e-01,-3.441435396671295166e-01
6.513857096433639526e-02,-5.664278864860534668e-01,4.692743346095085144e-02,3.806307613849639893e-01,7.740392684936523438e-01,-3.013207614421844482e-01,-6.328885555267333984e-01,-4.136633276939392090e-01,3.464135229587554932e-01,1.482134610414505005e-01,-2.196358442306518555e-01,9.982421062886714935e-03,2.500519156455993652e-01,-1.092385053634643555e-01,3.989732861518859863e-01,4.881131649017333984e-01,-5.347659587860107422e-01,-6.639523506164550781e-01,-1.824424229562282562e-02,3.117044568061828613e-01,-4.731402993202209473e-01
8.944859291659668088e-05,-5.298780798912048340e-01,-7.401642948389053345e-02,7.319235205650329590e-01,6.173862814903259277e-01,-2.623959481716156006e-01,-5.141808986663818359e-01,-6.282460093498229980e-01,4.567381143569946289e-01,3.165195286273956299e-01,-1.951807141304016113e-01,9.912505000829696655e-02,2.801671922206878662e-01,-1.973358541727066040e-01,5.263308286666870117e-01,2.111511230468750000e-01,-4.177921712398529053e-01,-7.120478153228759766e-01,3.678368031978607178e-01,3.706013560295104980e-01,-4.099170863628387451e-01
2.121550887823104858e-01,-2.932516634464263916e-01,-2.107395231723785400e-01,6.817138791084289551e-01,5.966506004333496094e-01,-2.691071480512619019e-03,-4.669308066368103027e-01,-4.648859500885009766e-01,3.530307412147521973e-01,7.467432320117950439e-02,-1.833005249500274658e-01,3.364875912666320801e-02,4.446157515048980713e-01,-1.231036633253097534e-01,4.255280494689941406e-01,2.818202674388885498e-01,-5.593147277832031250e-01,-6.771959662437438965e-01,4.014803767204284668e-01,4.181022644042968750e-01,-3.519822359085083008e-01
-1.497548073530197144e-02,-2.433106154203414917e-01,-1.271373182535171509e-01,5.277565717697143555e-01,4.866684079170227051e-01,1.445223540067672729e-01,-4.072327315807342529e-01,-4.719177484512329102e-01,6.154912114143371582e-01,5.323816463351249695e-02,-1.096346750855445862e-01,6.545634567737579346e-02,3.147205412387847900e-01,1.170267071574926376e-02,7.037482261657714844e-01,4.624176919460296631e-01,-4.774487614631652832e-01,-4.858252704143524170e-01,3.380959928035736084e-01,4.879175722599029541e-01,-5.292049050331115723e-01
1.443812400102615356e-01,-9.238363802433013916e-02,-1.446762979030609131e-01,4.951092898845672607e-01,3.662176728248596191e-01,-1.373201608657836914e-02,-2.138084024190902710e-01,-4.213389158248901367e-01,7.349646091461181641e-01,-2.976349368691444397e-02,6.590151041746139526e-02,3.480068147182464600e-01,4.832102060317993164e-01,-1.026246622204780579e-01,7.032513618469238281e-01,1.894605308771133423e-01,-5.164463520050048828e-01,-6.166585683822631836e-01,4.509193897247314453e-01,4.494782686233520508e-01,-5.715982317924499512e-01
3.745815455913543701e-01,-1.272985637187957764e-01,-1.445709466934204102e-01,3.454064428806304932e-01,1.538200229406356812e-01,2.865316569805145264e-01,-1.096214950084686279e-01,-3.747412562370300293e-01,8.638789653778076172e-01,1.182707101106643677e-01,2.137645632028579712e-01,3.324293196201324463e-01,3.250448405742645264e-01,-1.985017396509647369e-02,1.039362311363220215e+00,1.832449436187744141e-02,-3.322483301162719727e-01,-6.033384203910827637e-01,5.615048408508300781e-01,2.726276218891143799e-01,-6.175264120101928711e-01
3.685337305068969727e-01,1.057919189333915710e-01,-3.474608361721038818e-01,1.867120712995529175e-01,1.342330873012542725e-01,2.920234203338623047e-01,-4.412486776709556580e-02,2.120727300643920898e-02,7.168495655059814453e-01,3.925771266222000122e-02,2.542405128479003906e-01,5.107237100601196289e-01,2.898167669773101807e-01,-1.166648194193840027e-01,7.508458495140075684e-01,1.192016974091529846e-01,-1.009441837668418884e-01,-6.281874179840087891e-01,7.084893584251403809e-01,3.897230029106140137e-01,-5.349233150482177734e-01
4.348924160003662109e-01,1.127591654658317566e-01,-4.056638479232788086e-01,3.064032495021820068e-01,-1.352078467607498169e-01,3.165302276611328125e-01,8.973467350006103516e-02,5.218963697552680969e-02,7.813405990600585938e-01,4.098660647869110107e-01,3.715584576129913330e-01,4.615895748138427734e-01,3.245285153388977051e-01,-3.950551748275756836e-01,8.317264914512634277e-01,3.325298726558685303e-01,-7.190839946269989014e-02,-7.185238003730773926e-01,6.829252243041992188e-01,2.726503312587738037e-01,-6.847579479217529297e-01
5.095314383506774902e-01,2.688937485218048096e-01,-4.517216384410858154e-01,1.369359642267227173e-01,-1.584602892398834229e-01,2.822105288505554199e-01,-2.931255996227264404e-01,7.319681346416473389e-02,5.781412124633789062e-01,3.217361867427825928e-01,2.798131108283996582e-01,7.215803861618041992e-01,2.208775132894515991e-01,-2.078211754560470581e-01,9.401339888572692871e-01,5.718674063682556152e-01,-3.531701862812042236e-02,-1.481289565563201904e-01,6.974327564239501953e-01,4.540127813816070557e-01,-4.751255214214324951e-01
4.744439721107482910e-01,3.173048794269561768e-01,-5.435054898262023926e-01,9.355206042528152466e-02,-3.160759806632995605e-01,8.875665813684463501e-02,-1.028061881661415100e-01,1.735771745443344116e-01,5.430282950401306152e-01,1.987221837043762207e-01,5.278503894805908203e-01,4.818366169929504395e-01,2.258351892232894897e-01,-2.019842118024826050e-01,9.466215372085571289e-01,5.931963324546813965e-01,-1.993413120508193970e-01,-8.638587594032287598e-02,8.214794993400573730e-01,4.991314411163330078e-01,-5.710843801498413086e-01
3.649326860904693604e-01,4.308727681636810303e-01,-4.534446597099304199e-01,1.448097676038742065e-01,-6.016507148742675781e-01,4.308528453111648560e-02,-2.438020557165145874e-01,2.739433050155639648e-01,5.344814062118530273e-01,2.269501984119415283e-01,3.396500349044799805e-01,6.766844987869262695e-01,3.394339084625244141e-01,-5.074775815010070801e-01,7.770889401435852051e-01,6.719498634338378906e-01,-9.746172279119491577e-02,3.972958773374557495e-02,6.679797172546386719e-01,6.868289709091186523e-01,-4.570151269435882568e-01
4.066067636013031006e-01,4.313047230243682861e-01,-4.211049973964691162e-01,-9.030915051698684692e-02,-1.161060780286788940e-01,1.149404495954513550e-01,-3.943715393543243408e-01,2.798219621181488037e-01,8.187890648841857910e-01,1.437929868698120117e-01,3.918068706989288330e-01,4.872108995914459229e-01,4.347473978996276855e-01,-5.952393412590026855e-01,7.904882431030273438e-01,6.162016987800598145e-01,1.192302405834197998e-01,-2.900143712759017944e-02,8.450752496719360352e-01,5.594610571861267090e-01,-2.739857435226440430e-01
9.604481048882007599e-03,5.264459848403930664e-01,-4.106334447860717773e-01,-7.800370454788208008e-02,-1.869686692953109741e-01,-5.549490451812744141e-02,-2.836112380027770996e-01,4.686250984668731689e-01,5.484697818756103516e-01,1.090799570083618164e-01,1.523765176534652710e-01,6.292273998260498047e-01,1.782827824354171753e-01,-6.914913654327392578e-01,5.158472061157226562e-01,7.865304946899414062e-01,-3.004403598606586456e-02,6.455749273300170898e-02,7.866520285606384277e-01,6.105797290802001953e-01,-3.666197955608367920e-01
-7.331946864724159241e-03,4.769597649574279785e-01,-5.163655281066894531e-01,-2.166452854871749878e-01,-1.740832924842834473e-01,-2.238182425498962402e-01,-4.515772759914398193e-01,7.762674689292907715e-01,4.953380823135375977e-01,-5.935210734605789185e-02,9.304682910442352295e-02,5.226845741271972656e-01,2.646275162696838379e-01,-6.731887459754943848e-01,4.993703067302703857e-01,7.394294738769531250e-01,-6.833511590957641602e-02,2.243611365556716919e-01,7.818826436996459961e-01,3.838221132755279541e-01,-1.390195637941360474e-01
1.202013716101646423e-01,2.678078413009643555e-01,-4.146500229835510254e-01,-1.480160057544708252e-01,-1.629085540771484375e-01,-5.135171487927436829e-02,-4.273402392864227295e-01,6.290925145149230957e-01,4.876312911510467529e-01,-1.145017966628074646e-01,1.897332519292831421e-01,5.268065929412841797e-01,1.682898998260498047e-01,-8.807472586631774902e-01,3.980097174644470215e-01,1.096404910087585449e+00,-2.501503229141235352e-01,4.863942563533782959e-01,5.853788852691650391e-01,4.156367480754852295e-01,1.077447533607482910e-01
-2.032395005226135254e-01,4.832209944725036621e-01,-5.401552915573120117e-01,-3.039726987481117249e-03,-2.985738515853881836e-01,-5.038175731897354126e-02,-2.921881377696990967e-01,6.050485372543334961e-01,3.379577398300170898e-01,-6.370530277490615845e-02,1.828097552061080933e-01,5.229057073593139648e-01,1.519555896520614624e-01,-8.974516391754150391e-01,4.395053386688232422e-01,9.320774078369140625e-01,-2.783783376216888428e-01,5.035235881805419922e-01,6.872159838676452637e-01,2.118432074785232544e-01,3.703029751777648926e-01
-1.894682049751281738e-01,3.603088259696960449e-01,-4.719950854778289795e-01,-4.010502398014068604e-01,-4.510099887847900391e-01,9.473215043544769287e-02,-1.782780140638351440e-01,7.042573094367980957e-01,2.339515686035156250e-01,-2.136704921722412109e-01,-1.137812063097953796e-02,3.524541258811950684e-01,-3.366012824699282646e-03,-1.219547748565673828e+00,3.261194229125976562e-01,6.528037786483764648e-01,-1.378715485334396362e-01,3.436789512634277344e-01,7.531530261039733887e-01,-2.051457464694976807e-01,3.120489716529846191e-01
-3.112977147102355957e-01,3.857672512531280518e-01,-6.457746028900146484e-01,-3.146321177482604980e-01,-1.104609146714210510e-01,-3.584734722971916199e-02,-8.366871625185012817e-02,5.484580397605895996e-01,3.547022640705108643e-01,-6.821153312921524048e-02,1.335500646382570267e-02,2.084139734506607056e-01,1.774601191282272339e-01,-9.715915322303771973e-01,3.500295877456665039e-01,5.420118570327758789e-01,-4.735452830791473389e-01,4.786819219589233398e-01,6.398916244506835938e-01,-2.038191407918930054e-01,4.644678831100463867e-01
-2.477640807628631592e-01,5.121496915817260742e-01,-3.335590064525604248e-01,-4.095449447631835938e-01,-2.450777739286422729e-01,2.609940990805625916e-02,-2.143877744674682617e-01,5.275014638900756836e-01,1.286887526512145996e-01,-2.331438064575195312e-01,5.514253303408622742e-02,2.801391780376434326e-01,-6.166399270296096802e-02,-9.841383695602416992e-01,1.347475200891494751e-01,4.254446625709533691e-01,-2.308954447507858276e-01,3.922479152679443359e-01,5.442249774932861328e-01,-3.358252048492431641e-01,4.388700723648071289e-01
-2.559863030910491943e-01,5.027896165847778320e-01,-2.535213232040405273e-01,-4.147656261920928955e-01,-4.257410764694213867e-02,-1.285505741834640503e-01,-1.997747868299484253e-01,3.505769670009613037e-01,9.984235465526580811e-02,-5.243495702743530273e-01,1.197813600301742554e-01,1.814271807670593262e-01,-1.193570643663406372e-01,-1.190927147865295410e+00,4.296265840530395508e-01,2.590683400630950928e-01,-5.046876668930053711e-01,1.777398586273193359e-01,5.819202065467834473e-01,-1.427866071462631226e-01,5.841920971870422363e-01
-3.358919322490692139e-01,4.793876111507415771e-01,-3.130152225494384766e-01,-3.684924244880676270e-01,-1.345868259668350220e-01,1.632530987262725830e-01,3.896102681756019592e-02,3.316202461719512939e-01,1.426766365766525269e-01,-2.600064277648925781e-01,2.463131248950958252e-01,2.073210179805755615e-01,1.584214717149734497e-01,-8.185152411460876465e-01,1.936203837394714355e-01,2.682810649275779724e-02,-5.731311440467834473e-01,1.833314821124076843e-02,2.312033325433731079e-01,-3.080474436283111572e-01,2.624946534633636475e-01
-1.957731544971466064e-01,2.383789271116256714e-01,-1.893709003925323486e-01,-2.749868929386138916e-01,-7.459761947393417358e-02,1.171044334769248962e-01,-7.374761998653411865e-02,2.565959990024566650e-01,4.834464937448501587e-02,-2.590964138507843018e-01,1.831904053688049316e-01,2.615106701850891113e-01,-3.099375404417514801e-02,-8.082758188247680664e-01,2.892041802406311035e-01,7.306075096130371094e-02,-2.230120748281478882e-01,3.030571639537811279e-01,2.497799694538116455e-01,-1.990013271570205688e-01,5.333267450332641602e-01
-1.669744700193405151e-01,4.277627170085906982e-01,-2.034643441438674927e-01,-2.357653826475143433e-01,-1.668165177106857300e-01,2.104153484106063843e-01,-2.485978305339813232e-01,-2.159697236493229866e-03,8.468172699213027954e-02,-5.389872193336486816e-01,2.780871093273162842e-01,1.693391613662242889e-02,2.579982951283454895e-02,-6.007434129714965820e-01,1.897422373294830322e-01,-7.103560119867324829e-02,-5.749932527542114258e-01,3.183853924274444580e-01,4.315354228019714355e-01,-3.816258013248443604e-01,3.111489117145538330e-01
-1.939949691295623779e-01,2.541731595993041992e-01,-9.654256701469421387e-02,-5.668586492538452148e-01,-3.379278481006622314e-01,3.534601926803588867e-01,1.283553689718246460e-01,7.294472306966781616e-02,1.220925226807594299e-01,-3.952981829643249512e-01,3.916320502758026123e-01,-2.582911550998687744e-01,1.686534881591796875e-01,-5.386360287666320801e-01,2.854209244251251221e-01,-2.460563182830810547e-01,-4.207006692886352539e-01,1.021482422947883606e-01,4.137938618659973145e-01,-1.191582679748535156e-01,1.571224778890609741e-01
-3.096148967742919922e-01,2.185165137052536011e-01,2.120115794241428375e-02,-2.836540937423706055e-01,-1.797975450754165649e-01,3.257034718990325928e-01,1.868335902690887451e-01,1.868313550949096680e-01,5.945729557424783707e-03,-6.365886330604553223e-01,1.970446407794952393e-01,-1.034926325082778931e-01,2.604495286941528320e-01,-6.096113324165344238e-01,2.905549108982086182e-01,-4.141576588153839111e-01,-4.511656463146209717e-01,6.673520058393478394e-02,4.217008352279663086e-01,-2.955504059791564941e-01,1.776565909385681152e-01
-1.522764563560485840e-01,2.866910398006439209e-01,1.667907238006591797e-01,-3.404848277568817139e-01,2.630740217864513397e-02,2.985126972198486328e-01,2.167425602674484253e-01,1.387891769409179688e-01,-1.503529772162437439e-02,-8.098802566528320312e-01,5.888954401016235352e-01,-2.368930429220199585e-01,3.109412789344787598e-01,-5.735725760459899902e-01,3.354468643665313721e-01,-2.425873428583145142e-01,-4.939752817153930664e-01,3.956861793994903564e-02,4.467113018035888672e-01,1.194006949663162231e-01,2.025769948959350586e-01
-2.007201761007308960e-01,8.320314437150955200e-02,2.277985066175460815e-01,-1.910162419080734253e-01,6.049111485481262207e-02,2.373803108930587769e-01,1.887010037899017334e-01,1.351692676544189453e-01,3.713281452655792236e-02,-7.922698855400085449e-01,5.720447897911071777e-01,-4.037159085273742676e-01,4.756961762905120850e-01,-5.471238493919372559e-01,1.794247776269912720e-01,2.761350944638252258e-03,-6.387475132942199707e-01,1.213653832674026489e-01,5.566574335098266602e-01,-2.673191390931606293e-02,1.282505989074707031e-01
-1.449883282184600830e-01,7.705906778573989868e-02,3.213602602481842041e-01,-1.175309047102928162e-01,5.698078125715255737e-02,4.497252702713012695e-01,2.960702776908874512e-01,4.004930257797241211e-01,1.043604034930467606e-02,-9.759577512741088867e-01,4.310075342655181885e-01,-5.174339413642883301e-01,5.388815402984619141e-01,-2.120474427938461304e-01,4.771172106266021729e-01,-4.875577092170715332e-01,-4.966419339179992676e-01,2.455099374055862427e-01,6.775456070899963379e-01,-1.927164755761623383e-02,5.731687322258949280e-02
-4.636410623788833618e-02,2.447007447481155396e-01,4.085261225700378418e-01,-1.360485404729843140e-01,2.774132415652275085e-02,2.824089825153350830e-01,6.696838140487670898e-02,4.410919547080993652e-01,1.904290765523910522e-01,-1.116765499114990234e+00,5.808193087577819824e-01,-5.778480172157287598e-01,7.181508541107177734e-01,-2.622033953666687012e-01,4.694904386997222900e-01,-4.218013584613800049e-01,-4.663046598434448242e-01,3.403031527996063232e-01,6.960023641586303711e-01,-1.439223140478134155e-01,1.021110564470291138e-01
-2.150414288043975830e-01,7.119159400463104248e-02,3.688466846942901611e-01,7.765419036149978638e-02,-2.464804202318191528e-01,4.383710324764251709e-01,4.046088159084320068e-01,3.626548349857330322e-01,4.606781601905822754e-01,-1.006202220916748047e+00,4.674469530582427979e-01,-5.350447297096252441e-01,8.527703285217285156e-01,-3.052695095539093018e-01,6.134476661682128906e-01,-2.336824685335159302e-01,-4.686284065246582031e-01,4.224637746810913086e-01,8.630947470664978027e-01,1.349330879747867584e-02,9.257710538804531097e-03
-5.410571768879890442e-02,1.813440024852752686e-01,5.297344923019409180e-01,-2.794163823127746582e-01,-2.684017121791839600e-01,3.848265111446380615e-01,2.887818217277526855e-01,3.074526488780975342e-01,5.513085126876831055e-01,-8.379021286964416504e-01,6.914531588554382324e-01,-5.050061345100402832e-01,8.615023493766784668e-01,-4.989055395126342773e-01,4.345840513706207275e-01,-3.553861975669860840e-01,-5.211972594261169434e-01,5.512041449546813965e-01,1.106041312217712402e+00,5.606991425156593323e-02,1.357441022992134094e-02
7.168544083833694458e-02,3.985099792480468750e-01,3.422649502754211426e-01,-3.169032037258148193e-01,-7.285703718662261963e-02,4.871930181980133057e-01,5.380803942680358887e-01,2.786574661731719971e-01,3.698166608810424805e-01,-9.627437591552734375e-01,1.023273944854736328e+00,-4.343130290508270264e-01,8.872033953666687012e-01,-2.775952517986297607e-01,5.997743010520935059e-01,-3.970398604869842529e-01,-2.692979574203491211e-01,4.753000140190124512e-01,6.929885745048522949e-01,2.457770705223083496e-02,2.028549648821353912e-02
-1.634754985570907593e-01,4.708570241928100586e-01,1.360959261655807495e-01,-2.794513106346130371e-01,-2.364958524703979492e-01,7.176759243011474609e-01,3.502719700336456299e-01,3.848603963851928711e-01,2.621078193187713623e-01,-8.649497032165527344e-01,8.394251465797424316e-01,-3.465001583099365234e-01,8.515291213989257812e-01,-2.291800081729888916e-01,3.902644515037536621e-01,-2.516653537750244141e-01,-1.468557119369506836e-01,4.768371582031250000e-01,8.689815402030944824e-01,2.130800485610961914e-01,-1.540817767381668091e-01
-5.773292854428291321e-02,4.849931001663208008e-01,1.550355553627014160e-01,-2.997302114963531494e-01,-3.288848102092742920e-01,6.940479874610900879e-01,4.755785167217254639e-01,4.518159925937652588e-01,5.591401457786560059e-01,-7.675449252128601074e-01,1.018455386161804199e+00,-3.862547576427459717e-01,6.932414770126342773e-01,-2.762925028800964355e-01,4.432718157768249512e-01,-4.540895521640777588e-01,-1.687490940093994141e-01,4.581304490566253662e-01,5.851638913154602051e-01,1.791831552982330322e-01,-2.122780978679656982e-01
3.599806502461433411e-02,3.495440185070037842e-01,-3.619673103094100952e-02,-4.815576970577239990e-01,-2.692795395851135254e-01,6.809213757514953613e-01,2.961957752704620361e-01,5.759416818618774414e-01,3.127190172672271729e-01,-4.837563931941986084e-01,1.174178838729858398e+00,-1.888251006603240967e-01,5.177434086799621582e-01,-8.021600544452667236e-03,5.311597585678100586e-01,-4.025085866451263428e-01,-2.904777042567729950e-02,4.929518699645996094e-01,8.128437995910644531e-01,-3.608363866806030273e-02,-1.036891043186187744e-01
1.018795743584632874e-01,5.538172125816345215e-01,-8.654138445854187012e-02,-4.709342718124389648e-01,-4.268030822277069092e-01,4.883577227592468262e-01,2.325030416250228882e-01,4.783949553966522217e-01,5.089958906173706055e-01,-3.187716603279113770e-01,1.082363486289978027e+00,-2.495495229959487915e-01,6.894400715827941895e-01,-2.671431899070739746e-01,4.709639251232147217e-01,-4.717293083667755127e-01,1.308664381504058838e-01,4.592099785804748535e-01,6.065978407859802246e-01,-3.978206589818000793e-02,-2.326305210590362549e-01
9.532281756401062012e-02,6.322749257087707520e-01,3.010082431137561798e-02,-7.649071216583251953e-01,-2.120838016271591187e-01,5.055028200149536133e-01,1.129297167062759399e-01,5.091497302055358887e-01,2.740186452865600586e-01,-3.948506116867065430e-01,1.203921675682067871e+00,-3.389170765876770020e-02,3.944001495838165283e-01,-1.415263861417770386e-01,5.859987735748291016e-01,-3.857403397560119629e-01,1.949327439069747925e-01,5.456756353378295898e-01,5.317829251289367676e-01,8.589337766170501709e-02,-9.799067676067352295e-02
-2.207307815551757812e-01,2.845147848129272461e-01,-5.963243916630744934e-02,-8.948101401329040527e-01,-3.100799322128295898e-01,3.790014386177062988e-01,1.472074836492538452e-01,4.691893458366394043e-01,2.174160480499267578e-01,-4.336965978145599365e-01,9.080461859703063965e-01,-1.069856435060501099e-01,4.306091964244842529e-01,-1.377835720777511597e-01,5.112773180007934570e-01,-3.160638511180877686e-01,2.971093058586120605e-01,7.161180377006530762e-01,4.855386018753051758e-01,3.000820279121398926e-01,-1.242562085390090942e-01
-1.539865881204605103e-01,2.413260936737060547e-01,5.200753733515739441e-02,-7.087020874023437500e-01,-2.428530454635620117e-01,2.890501618385314941e-01,-1.088795661926269531e-01,4.866895079612731934e-01,1.313758343458175659e-01,-2.868829667568206787e-01,7.953965663909912109e-01,-7.189871370792388916e-02,4.685502052307128906e-01,-1.080099865794181824e-01,4.828566312789916992e-01,-3.484708368778228760e-01,2.344526648521423340e-01,4.593844711780548096e-01,6.381989717483520508e-01,2.252222150564193726e-01,-9.271391481161117554e-02
-2.079676389694213867e-01,1.902256906032562256e-01,4.281572625041007996e-02,-7.522447705268859863e-01,4.321738705039024353e-02,5.467627570033073425e-02,-1.629572361707687378e-01,4.291329681873321533e-01,-2.906173467636108398e-02,-1.291038990020751953e-01,9.577309489250183105e-01,-2.871886193752288818e-01,4.505160152912139893e-01,-1.532557606697082520e-01,2.643895149230957031e-01,-2.687400281429290771e-01,3.712679147720336914e-01,6.120157241821289062e-01,3.934517502784729004e-01,-1.394264027476310730e-02,5.086656659841537476e-03
-2.584905624389648438e-01,1.243217214941978455e-01,6.016787886619567871e-02,-7.287083864212036133e-01,5.727620422840118408e-02,1.857615858316421509e-01,-5.446058511734008789e-01,6.593874096870422363e-01,-2.201548516750335693e-01,-2.655855715274810791e-01,5.990332365036010742e-01,-2.662606537342071533e-01,1.990911215543746948e-01,-1.979159414768218994e-01,1.838248670101165771e-01,-5.613651871681213379e-01,2.488245218992233276e-01,8.103541135787963867e-01,4.598851799964904785e-01,-6.391968578100204468e-02,-4.360843822360038757e-02
-4.672205150127410889e-01,7.307216525077819824e-02,1.531793922185897827e-01,-7.197879552841186523e-01,1.947835981845855713e-01,7.326610386371612549e-02,-3.977113664150238037e-01,3.577310740947723389e-01,-3.274661004543304443e-01,-1.805429011583328247e-01,5.730172991752624512e-01,-2.011615037918090820e-01,4.371574521064758301e-01,-3.118672370910644531e-01,1.353078633546829224e-01,-3.434336185455322266e-01,1.739170998334884644e-01,6.125643253326416016e-01,3.870792090892791748e-01,-1.442204862833023071e-01,1.512124091386795044e-01
-5.504150390625000000e-01,-6.279387325048446655e-02,3.137140572071075439e-01,-6.528334021568298340e-01,2.601102590560913086e-01,1.686015278100967407e-01,-4.077928364276885986e-01,5.473110675811767578e-01,-2.252796739339828491e-01,-3.090946674346923828e-01,4.782694578170776367e-01,-6.047016382217407227e-01,5.692120194435119629e-01,-1.620409488677978516e-01,-1.563467830419540405e-01,-3.047708272933959961e-01,-9.177844040095806122e-03,4.188795983791351318e-01,4.371664822101593018e-01,-2.753181457519531250e-01,-1.428679525852203369e-01
-6.574078798294067383e-01,6.957935635000467300e-03,2.829029560089111328e-01,-4.476127624511718750e-01,4.491050243377685547e-01,8.232221007347106934e-02,-6.361404657363891602e-01,4.663315713405609131e-01,-2.053592056035995483e-01,-2.377015501260757446e-01,4.196455776691436768e-01,-4.478163421154022217e-01,4.737223684787750244e-01,-3.994167745113372803e-01,-1.029461696743965149e-01,-4.157791137695312500e-01,4.143011756241321564e-03,3.205489814281463623e-01,1.875915974378585815e-01,-3.849751651287078857e-01,-1.910984143614768982e-02
-7.791379690170288086e-01,-2.897781729698181152e-01,4.409102797508239746e-01,-4.694529771804809570e-01,3.519928753376007080e-01,-1.542580220848321915e-02,-2.652608752250671387e-01,3.478059172630310059e-01,-3.636767864227294922e-01,-3.211889863014221191e-01,3.558449447154998779e-01,-5.274903774261474609e-01,6.249140501022338867e-01,-3.125274777412414551e-01,-2.476177960634231567e-01,-6.342781186103820801e-01,1.446772515773773193e-01,1.483610570430755615e-01,1.681940108537673950e-01,-3.178932964801788330e-01,9.182629734277725220e-02
-9.141388535499572754e-01,-1.953144371509552002e-01,4.712466001510620117e-01,-4.867399334907531738e-01,4.661904275417327881e-01,3.514690697193145752e-01,-5.104920268058776855e-01,2.203974127769470215e-01,-2.846265733242034912e-01,-4.035949707031250000e-01,4.318546950817108154e-01,-4.562157690525054932e-01,5.440047979354858398e-01,-2.691196799278259277e-01,-2.003835588693618774e-01,-6.955159306526184082e-01,-1.144758686423301697e-01,1.860838532447814941e-01,1.042238622903823853e-01,-5.017763972282409668e-01,-6.205782294273376465e-02
-9.125744104385375977e-01,-3.468870520591735840e-01,3.611548244953155518e-01,-5.335894227027893066e-01,5.944619774818420410e-01,2.381229996681213379e-01,-7.247284650802612305e-01,2.795837521553039551e-01,-1.868422180414199829e-01,-2.560527324676513672e-01,2.536767423152923584e-01,-6.353916525840759277e-01,3.633224368095397949e-01,-3.198243975639343262e-01,-2.172697335481643677e-01,-4.913695454597473145e-01,-9.883894026279449463e-02,2.571364305913448334e-02,2.513695955276489258e-01,-5.670083761215209961e-01,-3.536093980073928833e-02
-9.001222252845764160e-01,-4.178132712841033936e-01,4.559383690357208252e-01,-5.050516724586486816e-01,7.002941370010375977e-01,3.918000757694244385e-01,-3.390896916389465332e-01,-4.318204894661903381e-02,-4.130350351333618164e-01,-3.447577655315399170e-01,3.988793194293975830e-01,-6.991862654685974121e-01,2.264322936534881592e-01,-1.201187297701835632e-01,-1.133982185274362564e-02,-6.720325350761413574e-01,-9.880568087100982666e-02,-4.041843488812446594e-02,1.417741179466247559e-01,-5.436083078384399414e-01,2.699996344745159149e-02
-9.503376483917236328e-01,-3.020664155483245850e-01,5.298653841018676758e-01,-5.586370229721069336e-01,5.523739457130432129e-01,4.996615052223205566e-01,-4.447932839393615723e-01,6.807433813810348511e-02,-3.588322699069976807e-01,-1.955295205116271973e-01,-1.565910689532756805e-02,-7.888770699501037598e-01,2.435696311295032501e-02,2.271164767444133759e-02,-9.913457930088043213e-02,-7.770197391510009766e-01,1.437149755656719208e-02,-2.757855057716369629e-01,8.792766183614730835e-02,-5.904755592346191406e-01,-2.180675230920314789e-02
-6.822339892387390137e-01,-5.042896866798400879e-01,4.530758261680603027e-01,-3.878739476203918457e-01,3.920180201530456543e-01,7.032994627952575684e-01,-3.508608937263488770e-01,8.197952411137521267e-04,-5.255295634269714355e-01,-2.716940343379974365e-01,2.631728649139404297e-01,-7.922306656837463379e-01,3.333665132522583008e-01,1.393119394779205322e-01,-5.037171393632888794e-02,-1.079006075859069824e+00,-1.554977148771286011e-01,-3.669003248214721680e-01,-4.779440909624099731e-02,-5.397496819496154785e-01,-2.812720239162445068e-01
-7.784652709960937500e-01,-3.719779849052429199e-01,4.783436357975006104e-01,-3.975074887275695801e-01,5.316196084022521973e-01,6.790317296981811523e-01,-1.245542094111442566e-01,-2.303710281848907471e-01,-5.405692458152770996e-01,-2.759769856929779053e-01,1.569439023733139038e-01,-5.487146377563476562e-01,2.898787856101989746e-01,2.700777947902679443e-01,-9.439406543970108032e-02,-8.549351692199707031e-01,-1.536353491246700287e-02,-4.475306868553161621e-01,1.314189136028289795e-01,-4.848491251468658447e-01,-5.660759806632995605e-01
-6.276453733444213867e-01,-3.677648603916168213e-01,3.274133503437042236e-01,-4.446087479591369629e-01,6.031742095947265625e-01,4.365329146385192871e-01,-2.818567454814910889e-01,-1.946844458580017090e-01,-4.938034713268280029e-01,-5.892954394221305847e-02,2.152572721242904663e-01,-6.016649603843688965e-01,4.931335449218750000e-01,2.247074693441390991e-01,-5.733993276953697205e-02,-9.293293356895446777e-01,-1.043080464005470276e-01,-3.277884125709533691e-01,1.303844749927520752e-01,-5.177989006042480469e-01,-6.723761558532714844e-01
-5.773277282714843750e-01,-3.290455937385559082e-01,4.535499513149261475e-01,-2.799144387245178223e-01,6.062521338462829590e-01,4.036351442337036133e-01,-3.469783961772918701e-01,-8.813721686601638794e-02,-4.995798170566558838e-01,-2.172957956790924072e-01,7.436562329530715942e-02,-6.297961473464965820e-01,4.874792993068695068e-01,5.292552113533020020e-01,1.080649942159652710e-01,-1.011466741561889648e+00,1.766408048570156097e-02,-3.264529407024383545e-01,3.440453708171844482e-01,-1.834009885787963867e-01,-7.764218449592590332e-01
-5.676187276840209961e-01,-3.273877203464508057e-01,4.301301836967468262e-01,-3.328706622123718262e-01,5.200709104537963867e-01,5.584750175476074219e-01,-3.681812882423400879e-01,1.321274638175964355e-01,-6.035143136978149414e-01,-2.888184487819671631e-01,1.343103051185607910e-01,-4.642091393470764160e-01,5.280733704566955566e-01,4.230031669139862061e-01,4.776323959231376648e-02,-9.387129545211791992e-01,2.027145475149154663e-01,-3.299314081668853760e-01,2.005315572023391724e-01,-1.792174875736236572e-01,-5.055482983589172363e-01
-5.600461363792419434e-01,-3.843360543251037598e-01,3.959264755249023438e-01,-1.400393992662429810e-01,7.807743549346923828e-01,6.874417066574096680e-01,-2.201021164655685425e-01,-7.428821176290512085e-02,-4.918111562728881836e-01,-3.683681488037109375e-01,4.210537299513816833e-02,-6.323645710945129395e-01,5.661754012107849121e-01,5.579761266708374023e-01,5.598071962594985962e-02,-7.585782408714294434e-01,1.396141648292541504e-01,-3.481689691543579102e-01,3.614034354686737061e-01,-5.106954649090766907e-02,-5.230175852775573730e-01
-4.424661695957183838e-01,-4.361395239830017090e-01,5.609768629074096680e-01,-3.803546726703643799e-02,6.572454571723937988e-01,3.836157023906707764e-01,-2.687626183032989502e-01,3.067203462123870850e-01,-7.323451042175292969e-01,-3.898264467716217041e-01,3.028582409024238586e-02,-7.845439314842224121e-01,3.607040345668792725e-01,3.528040647506713867e-01,-3.125232830643653870e-02,-5.089844465255737305e-01,6.244698073714971542e-03,-8.257342129945755005e-02,5.105453133583068848e-01,1.975696384906768799e-01,-5.764316916465759277e-01
