Fp1,Fp2,F7,F3,Fz,F4,F8,T3,C3,Cz,C4,T4,T5,P3,Pz,P4,T6,O1,Oz,O2,A1
2.672037780284881592e-01,2.384371906518936157e-01,5.570913553237915039e-01,-1.032814309000968933e-01,2.143355309963226318e-01,3.665241897106170654e-01,-1.785614639520645142e-01,4.532959163188934326e-01,-4.072064161300659180e-01,6.185725331306457520e-02,2.311273366212844849e-01,-3.382273763418197632e-02,-2.603329122066497803e-01,1.521253436803817749e-01,1.047493219375610352e-01,-2.969557940959930420e-01,-3.583835661411285400e-01,-5.678918957710266113e-02,-1.037708222866058350e-01,2.582105398178100586e-01,-6.738634109497070312e-01
2.561807632446289062e-01,3.552094399929046631e-01,6.810380220413208008e-01,-6.759727373719215393e-03,-4.501518607139587402e-02,2.877388298511505127e-01,-2.285393327474594116e-01,3.857232332229614258e-01,-5.467562079429626465e-01,7.529745250940322876e-02,3.296773433685302734e-01,-1.546865701675415039e-01,-2.067576348781585693e-01,-8.558816462755203247e-02,-5.469793826341629028e-02,-2.402744144201278687e-01,-1.041342094540596008e-01,-6.766069680452346802e-02,7.195451110601425171e-02,1.853554248809814453e-01,-6.808697581291198730e-01
1.561190336942672729e-01,1.246020421385765076e-01,5.900124311447143555e-01,9.133394807577133179e-02,-1.148618981242179871e-01,1.915160119533538818e-01,-4.164133667945861816e-01,6.064904332160949707e-01,-5.323087573051452637e-01,7.850714772939682007e-02,3.931862711906433105e-01,-5.345350876450538635e-02,-9.754522144794464111e-02,-2.046429961919784546e-01,1.817568987607955933e-01,-3.025039136409759521e-01,-2.033583074808120728e-01,-3.635512292385101318e-02,4.285914450883865356e-02,1.895673424005508423e-01,-7.688196301460266113e-01
4.515082538127899170e-01,1.814419925212860107e-01,7.713806629180908203e-01,8.054654300212860107e-02,3.022102825343608856e-02,1.085351929068565369e-01,-4.079414010047912598e-01,3.964907526969909668e-01,-5.222414731979370117e-01,-1.038046032190322876e-01,7.962680608034133911e-02,-7.485990971326828003e-02,-1.273528486490249634e-02,-1.812081336975097656e-01,-1.647921837866306305e-02,-2.191663384437561035e-01,-1.775105595588684082e-01,-2.684342861175537109e-01,3.903859853744506836e-02,1.784123331308364868e-01,-7.515850067138671875e-01
3.745697140693664551e-01,-1.228637620806694031e-01,8.538175225257873535e-01,9.930796921253204346e-02,-8.176099509000778198e-02,-6.885201483964920044e-02,-6.431655883789062500e-01,8.002433180809020996e-01,-4.713111817836761475e-01,-3.335675895214080811e-01,1.770174503326416016e-01,1.107054576277732849e-01,1.387050896883010864e-01,-5.842278897762298584e-02,-2.281140163540840149e-02,-2.910392284393310547e-01,-1.265544742345809937e-01,-1.508277803659439087e-01,4.235832393169403076e-02,1.025881171226501465e-01,-6.506124138832092285e-01
2.483878135681152344e-01,1.130609735846519470e-01,6.593852043151855469e-01,2.657444179058074951e-01,-2.616203203797340393e-02,-1.484821140766143799e-01,-4.257140159606933594e-01,6.294183731079101562e-01,-4.366282820701599121e-01,-2.806144356727600098e-01,8.120011538267135620e-02,3.479811549186706543e-02,1.295101195573806763e-01,-1.649657487869262695e-01,-1.993731111288070679e-01,-2.245081216096878052e-01,1.982494294643402100e-01,-2.871518731117248535e-01,2.750632539391517639e-02,3.470753431320190430e-01,-7.898308038711547852e-01
1.326214522123336792e-01,-1.495350301265716553e-01,6.408419609069824219e-01,1.213730126619338989e-01,-4.082393348217010498e-01,-1.188324093818664551e-01,-3.835115432739257812e-01,6.962729692459106445e-01,-4.690123200416564941e-01,-3.923827707767486572e-01,-1.483486592769622803e-01,2.920833528041839600e-01,3.555462360382080078e-01,3.813622891902923584e-02,-3.362891972064971924e-01,-1.612385064363479614e-01,1.253552921116352081e-02,-2.887153625488281250e-01,2.713639140129089355e-01,2.634910345077514648e-01,-5.549223423004150391e-01
7.743245363235473633e-02,-2.873494923114776611e-01,5.067887306213378906e-01,2.160305678844451904e-01,-3.228801786899566650e-01,-1.942559927701950073e-01,-2.844558954238891602e-01,6.070119142532348633e-01,-1.902800053358078003e-01,-3.452242314815521240e-01,6.448578834533691406e-02,3.380617201328277588e-01,3.150259256362915039e-01,-2.361661493778228760e-01,-2.165116220712661743e-01,-1.759212762117385864e-01,-4.027560353279113770e-02,-5.173024535179138184e-01,2.879071235656738281e-01,2.747745215892791748e-01,-4.872176945209503174e-01
2.044482901692390442e-02,-2.570752203464508057e-01,2.423964589834213257e-01,-2.289053052663803101e-02,-2.735820114612579346e-01,-1.697627902030944824e-01,-1.266453564167022705e-01,7.699314951896667480e-01,-3.676586151123046875e-01,-4.678151607513427734e-01,-1.760183274745941162e-01,3.014900684356689453e-01,3.836402893066406250e-01,-3.725113868713378906e-01,-3.709249198436737061e-01,-5.512933805584907532e-02,-2.658609747886657715e-01,-4.108151495456695557e-01,2.373708784580230713e-01,4.286033213138580322e-01,-5.083353519439697266e-01
-2.306037247180938721e-01,-3.115771114826202393e-01,1.738089621067047119e-01,9.993533790111541748e-02,-3.071791231632232666e-01,-2.306876331567764282e-01,-7.947681844234466553e-02,9.099285006523132324e-01,-2.496841102838516235e-01,-6.080066561698913574e-01,-2.550478577613830566e-01,4.326301515102386475e-01,3.892106413841247559e-01,-5.070255994796752930e-01,-2.940073013305664062e-01,2.849349379539489746e-02,-3.406459093093872070e-01,-3.404327034950256348e-01,1.677262336015701294e-01,5.996871590614318848e-01,-4.816475510597229004e-01
-1.435144394636154175e-01,-1.751957684755325317e-01,2.293618582189083099e-02,2.362688928842544556e-01,-3.227757513523101807e-01,-1.496605277061462402e-01,-3.901627659797668457e-02,9.167392849922180176e-01,-3.321450948715209961e-01,-4.112879931926727295e-01,-4.863199591636657715e-01,4.378229677677154541e-01,2.382763773202896118e-01,-5.860249996185302734e-01,-3.447105288505554199e-01,5.844128504395484924e-02,-4.240066409111022949e-01,-4.337430298328399658e-01,2.062197178602218628e-01,6.132564544677734375e-01,-3.129343986511230469e-01
-1.520976126194000244e-01,-2.597283124923706055e-01,2.694811224937438965e-01,1.506545674055814743e-02,-4.859369397163391113e-01,-1.399381756782531738e-01,4.324300214648246765e-02,8.084421753883361816e-01,-1.705611944198608398e-01,-3.804698586463928223e-01,-4.106376171112060547e-01,3.682589828968048096e-01,1.172190383076667786e-01,-6.929187774658203125e-01,-5.641869902610778809e-01,-8.495170623064041138e-02,-4.356901645660400391e-01,-3.854390084743499756e-01,1.240599378943443298e-01,6.269804835319519043e-01,-3.639130294322967529e-01
-1.234428435564041138e-01,-2.566453516483306885e-01,-8.017419278621673584e-02,4.284503310918807983e-02,-9.126090258359909058e-02,-1.581942886114120483e-01,1.441298425197601318e-01,9.927932620048522949e-01,-3.729945421218872070e-01,-5.741458535194396973e-01,-3.354279994964599609e-01,3.808124661445617676e-01,1.755475699901580811e-01,-5.237602591514587402e-01,-7.310006022453308105e-01,-6.003107875585556030e-02,-3.213871419429779053e-01,-2.505240142345428467e-01,1.924469172954559326e-01,5.283361673355102539e-01,-4.282421767711639404e-01
-1.911539584398269653e-01,2.059528790414333344e-02,-9.626597166061401367e-02,-3.254537004977464676e-03,-4.164932370185852051e-01,-2.841519936919212341e-02,-2.011040784418582916e-02,6.825196743011474609e-01,-4.179359376430511475e-01,-6.418061256408691406e-01,-4.636021852493286133e-01,2.143342792987823486e-01,2.779279947280883789e-01,-5.120572447776794434e-01,-7.036129832267761230e-01,-2.061604335904121399e-02,-5.822994112968444824e-01,-1.562917828559875488e-01,4.750399589538574219e-01,7.855807542800903320e-01,-3.099089562892913818e-01
-2.693329453468322754e-01,-1.107604727149009705e-01,6.252074986696243286e-02,5.604840070009231567e-02,-5.167734622955322266e-01,-4.605099558830261230e-02,4.622273612767457962e-03,7.092790007591247559e-01,-6.305806040763854980e-01,-6.426400542259216309e-01,-1.777688264846801758e-01,1.967559158802032471e-01,2.786665260791778564e-01,-2.654982805252075195e-01,-9.460858106613159180e-01,-4.431753233075141907e-02,-3.898881971836090088e-01,1.446517407894134521e-01,1.501906365156173706e-01,7.888392210006713867e-01,-4.330980777740478516e-01
-2.637435197830200195e-01,-1.835494637489318848e-01,-4.452277719974517822e-02,1.578732021152973175e-02,-2.648399472236633301e-01,2.148630283772945404e-02,5.876120179891586304e-02,5.957732796669006348e-01,-6.550131440162658691e-01,-7.380217909812927246e-01,-1.614167988300323486e-01,1.996990591287612915e-01,2.448421120643615723e-01,-3.243528306484222412e-01,-8.586199879646301270e-01,1.484787464141845703e-01,-3.211828172206878662e-01,1.915025413036346436e-01,7.907911390066146851e-02,8.506806492805480957e-01,-3.937664628028869629e-01
-5.378105212002992630e-03,-1.664450764656066895e-01,-1.186302583664655685e-02,-2.081375867128372192e-01,-4.707429707050323486e-01,2.123726010322570801e-01,1.104865446686744690e-01,2.070834040641784668e-01,-6.916010379791259766e-01,-7.659017443656921387e-01,-2.273196578025817871e-01,1.302303522825241089e-01,4.572555050253868103e-02,-3.617966175079345703e-02,-9.413993358612060547e-01,1.118075326085090637e-01,-8.460381627082824707e-02,1.676619350910186768e-01,-8.357130736112594604e-02,1.081583261489868164e+00,-3.730002939701080322e-01
7.931040972471237183e-02,-1.174144595861434937e-01,-7.917242497205734253e-02,-1.553714126348495483e-01,-5.260573625564575195e-01,7.146950066089630127e-02,6.149423774331808090e-03,3.306720554828643799e-01,-1.046140909194946289e+00,-8.887250423431396484e-01,-3.581888601183891296e-02,-8.168976008892059326e-02,3.911117017269134521e-01,-1.158165037631988525e-01,-6.315118670463562012e-01,2.722441554069519043e-01,-1.313017457723617554e-01,2.693770527839660645e-01,-2.535815238952636719e-01,8.831937313079833984e-01,-3.024112582206726074e-01
4.401997923851013184e-01,3.553896024823188782e-02,-9.235719591379165649e-02,1.997214704751968384e-01,-4.470588862895965576e-01,1.945949047803878784e-01,2.319438904523849487e-01,2.539096474647521973e-01,-1.046222686767578125e+00,-9.024322032928466797e-01,8.036558330059051514e-02,-3.635986009612679482e-03,2.750838994979858398e-01,6.666962057352066040e-02,-6.904772520065307617e-01,2.796695232391357422e-01,7.492212951183319092e-02,2.638474404811859131e-01,-6.704133003950119019e-02,1.137857079505920410e+00,-5.405486822128295898e-01
2.182409763336181641e-01,-1.664274185895919800e-02,1.274690479040145874e-01,-2.739093601703643799e-01,-3.210079967975616455e-01,2.326973229646682739e-01,1.947826743125915527e-01,-1.000611558556556702e-01,-9.827239513397216797e-01,-7.500488162040710449e-01,-4.521345347166061401e-02,1.714637875556945801e-01,2.379239052534103394e-01,6.495004147291183472e-02,-5.384038686752319336e-01,4.297201335430145264e-01,5.385771021246910095e-02,6.255435943603515625e-01,-2.193210124969482422e-01,9.230761528015136719e-01,-4.918989837169647217e-01
5.312385559082031250e-01,1.304298192262649536e-01,4.243548959493637085e-02,-1.583373993635177612e-01,-2.693385779857635498e-01,2.120838165283203125e-01,-1.247693970799446106e-01,7.108120620250701904e-02,-1.159067273139953613e+00,-7.455530762672424316e-01,1.266123801469802856e-01,1.069976240396499634e-01,-2.512038126587867737e-02,1.745686829090118408e-01,-3.538071811199188232e-01,3.984201550483703613e-01,2.079338282346725464e-01,3.604815304279327393e-01,-4.551961123943328857e-01,9.489712119102478027e-01,-4.961662292480468750e-01
4.139418601989746094e-01,2.348352223634719849e-01,6.865217536687850952e-02,-2.814845144748687744e-01,8.770071715116500854e-02,2.573261559009552002e-01,8.724940568208694458e-02,-1.376760154962539673e-01,-1.109733700752258301e+00,-5.955988168716430664e-01,1.648094952106475830e-01,2.002028822898864746e-01,2.050641179084777832e-01,1.521878987550735474e-01,-3.708850145339965820e-01,4.484810829162597656e-01,2.296056151390075684e-01,6.324338316917419434e-01,-5.638388395309448242e-01,9.600772857666015625e-01,-4.967027008533477783e-01
5.356013178825378418e-01,1.438490599393844604e-01,9.826844930648803711e-02,-2.642804980278015137e-01,7.549235224723815918e-02,2.026580572128295898e-01,1.430881172418594360e-01,-1.160938069224357605e-01,-8.730464577674865723e-01,-6.516311764717102051e-01,1.944153606891632080e-01,2.586809396743774414e-01,3.161285445094108582e-02,-4.378309100866317749e-02,-3.152725696563720703e-01,3.893368244171142578e-01,9.044019132852554321e-02,7.057224512100219727e-01,-5.655240416526794434e-01,9.901937842369079590e-01,-4.472122192382812500e-01
4.173927605152130127e-01,2.138444781303405762e-01,1.606339216232299805e-01,-2.858057022094726562e-01,6.173093989491462708e-02,2.077681422233581543e-01,4.803611338138580322e-02,-8.372394740581512451e-02,-6.841855645179748535e-01,-6.201003789901733398e-01,1.414918899536132812e-01,3.897992074489593506e-01,5.623123794794082642e-02,1.284803077578544617e-02,-9.669101238250732422e-02,2.758426666259765625e-01,9.336125850677490234e-02,4.856636226177215576e-01,-3.267652094364166260e-01,1.012474298477172852e+00,-5.314460992813110352e-01
5.175825953483581543e-01,2.063393294811248779e-01,-3.571812808513641357e-02,-1.069289967417716980e-01,3.036228716373443604e-01,1.006191447377204895e-01,-9.878238290548324585e-02,-5.868553370237350464e-02,-6.793266534805297852e-01,-2.165418863296508789e-01,2.864662706851959229e-01,5.180706381797790527e-01,1.772020310163497925e-01,1.433221399784088135e-01,-2.278281152248382568e-01,1.805273294448852539e-01,1.402370929718017578e-01,8.703534603118896484e-01,-2.713959515094757080e-01,8.696492910385131836e-01,-6.157689094543457031e-01
5.579530000686645508e-01,2.652395665645599365e-01,-1.215599477291107178e-01,-3.080128431320190430e-01,5.416305735707283020e-03,2.073468416929244995e-01,-3.729547932744026184e-02,-1.197126656770706177e-01,-4.759751558303833008e-01,-2.954663038253784180e-01,3.101987242698669434e-01,4.945581257343292236e-01,4.956690594553947449e-03,-1.470834910869598389e-01,-3.101076781749725342e-01,1.020000949501991272e-01,1.156673356890678406e-01,6.404472589492797852e-01,-3.998091220855712891e-01,8.353880643844604492e-01,-6.559698581695556641e-01
5.453276634216308594e-01,3.065463304519653320e-01,1.017259433865547180e-01,4.658690467476844788e-02,1.215842366218566895e-01,1.561749577522277832e-01,-1.816557794809341431e-01,-1.136989146471023560e-02,-3.678567707538604736e-01,-2.990645468235015869e-01,4.555262327194213867e-01,4.547435641288757324e-01,1.002148240804672241e-01,-2.154720276594161987e-01,-3.253026008605957031e-01,1.346959546208381653e-02,1.380960941314697266e-01,8.811659812927246094e-01,-2.709342837333679199e-01,7.463659644126892090e-01,-9.773625731468200684e-01
3.189069032669067383e-01,2.189839929342269897e-01,-2.997669763863086700e-02,1.358385570347309113e-02,2.127404808998107910e-01,3.824194967746734619e-01,-1.499840319156646729e-01,-1.431706398725509644e-01,-2.106445878744125366e-01,-3.029015064239501953e-01,5.035809874534606934e-01,3.379958570003509521e-01,1.530311703681945801e-01,-1.521494090557098389e-01,-5.107027292251586914e-01,-2.018339037895202637e-01,-3.200967982411384583e-02,8.093237280845642090e-01,-1.368353608995676041e-02,7.599700689315795898e-01,-1.064065694808959961e+00
3.534208536148071289e-01,3.072449564933776855e-01,-9.320841729640960693e-02,2.106315493583679199e-01,1.747215539216995239e-01,-4.604226350784301758e-02,-3.306189775466918945e-01,1.872324496507644653e-01,-1.547975689172744751e-01,-3.097096383571624756e-01,6.789569854736328125e-01,5.913088917732238770e-01,3.596375286579132080e-01,-8.783034235239028931e-02,-5.019932985305786133e-01,-2.431800961494445801e-01,-1.140309348702430725e-01,6.669889092445373535e-01,-1.024113446474075317e-01,4.408144056797027588e-01,-7.871556878089904785e-01
4.663361012935638428e-01,4.086086452007293701e-01,-1.346530765295028687e-02,3.343357443809509277e-01,-3.739447891712188721e-02,1.266426891088485718e-01,-4.078336954116821289e-01,6.050513312220573425e-02,-2.882688045501708984e-01,-1.436072289943695068e-01,5.906726717948913574e-01,4.352986514568328857e-01,3.491512238979339600e-01,-2.018248736858367920e-01,-3.672783672809600830e-01,-3.772186338901519775e-01,1.643012762069702148e-01,6.486355662345886230e-01,-3.448816239833831787e-01,4.088614881038665771e-01,-9.802892804145812988e-01
3.468777537345886230e-01,2.293237149715423584e-01,-1.265891914954409003e-04,3.501961827278137207e-01,-7.997104525566101074e-02,-6.768915802240371704e-02,-5.242751240730285645e-01,8.038391172885894775e-02,-1.344611495733261108e-01,-4.238441586494445801e-01,6.801428794860839844e-01,3.440800309181213379e-01,6.180982589721679688e-01,-2.922468781471252441e-01,-3.051459789276123047e-01,-4.295237660408020020e-01,2.949191816151142120e-02,7.431250214576721191e-01,3.393861278891563416e-02,2.002566605806350708e-01,-9.063282012939453125e-01
3.248148262500762939e-01,-1.138733699917793274e-01,-5.899215862154960632e-02,4.535506963729858398e-01,5.857134237885475159e-02,-2.939061820507049561e-02,-6.377686262130737305e-01,3.176025673747062683e-02,4.650418460369110107e-02,-5.094738006591796875e-01,6.935396790504455566e-01,2.049195915460586548e-01,7.903616428375244141e-01,-2.060707956552505493e-01,-3.848344385623931885e-01,-3.503905832767486572e-01,8.014955371618270874e-02,6.153493523597717285e-01,-1.602943092584609985e-01,2.685656547546386719e-01,-9.095441699028015137e-01
5.727291107177734375e-01,-9.943123906850814819e-02,-1.446932256221771240e-01,5.670884251594543457e-01,-3.271525204181671143e-01,-3.554546535015106201e-01,-5.186001658439636230e-01,5.524435266852378845e-02,6.089583621360361576e-04,-4.930396676063537598e-01,7.052584886550903320e-01,2.798759341239929199e-01,6.715471744537353516e-01,-3.801385462284088135e-01,-3.280828893184661865e-01,-5.342251658439636230e-01,2.000938057899475098e-01,2.941822111606597900e-01,-3.124839961528778076e-01,2.068247199058532715e-01,-9.023318886756896973e-01
3.630015850067138672e-01,-3.212669491767883301e-01,-1.659218519926071167e-01,6.140623092651367188e-01,-3.220565319061279297e-01,-2.491265833377838135e-01,-4.525820314884185791e-01,-8.081908524036407471e-02,9.000167995691299438e-02,-6.544302701950073242e-01,5.640543103218078613e-01,1.488936543464660645e-01,7.626637220382690430e-01,-4.986515045166015625e-01,-5.539535880088806152e-01,-5.699394345283508301e-01,2.141580358147621155e-02,4.788542389869689941e-01,-2.771009802818298340e-01,-8.462328463792800903e-02,-8.188077807426452637e-01
1.825309991836547852e-01,-4.432059526443481445e-01,-3.457922637462615967e-01,4.716479778289794922e-01,-3.598908782005310059e-01,-1.608236283063888550e-01,-4.768305718898773193e-01,5.971391499042510986e-02,3.473774194717407227e-01,-6.123442053794860840e-01,3.855269849300384521e-01,-9.829699248075485229e-02,9.260722994804382324e-01,-5.327327847480773926e-01,-4.804532229900360107e-01,-3.584567904472351074e-01,4.045930225402116776e-03,2.461392879486083984e-01,-5.140189528465270996e-01,2.428773231804370880e-02,-7.200438380241394043e-01
6.116859912872314453e-01,-4.220334589481353760e-01,-3.631597161293029785e-01,4.635244607925415039e-01,-3.197983205318450928e-01,-2.744294404983520508e-01,-3.575088083744049072e-01,1.898323446512222290e-01,2.416018247604370117e-01,-5.533857345581054688e-01,3.222468495368957520e-01,1.465069502592086792e-01,7.580347657203674316e-01,-5.489131212234497070e-01,-4.019273221492767334e-01,-3.658829629421234131e-02,-1.267542243003845215e-01,1.523196399211883545e-01,-4.684589207172393799e-01,1.573101282119750977e-01,-4.309571087360382080e-01
4.560551643371582031e-01,-4.112322628498077393e-01,-4.128014445304870605e-01,3.707544803619384766e-01,-4.003063738346099854e-01,-3.603721559047698975e-01,-3.091027736663818359e-01,5.693413317203521729e-03,2.083814740180969238e-01,-4.447844028472900391e-01,3.199155628681182861e-01,-1.936641149222850800e-02,8.783217668533325195e-01,-5.349986553192138672e-01,-3.929115235805511475e-01,-3.400470614433288574e-01,-2.543842792510986328e-01,2.230796515941619873e-01,-4.568331539630889893e-01,2.794374525547027588e-01,-4.462668001651763916e-01
5.228074193000793457e-01,-4.155422449111938477e-01,-4.686240553855895996e-01,3.278646469116210938e-01,-1.771627664566040039e-01,-2.779462635517120361e-01,-3.922574222087860107e-01,2.420322299003601074e-01,4.582120180130004883e-01,-5.377441644668579102e-01,8.702407777309417725e-02,5.152677744626998901e-02,8.729639053344726562e-01,-8.068598508834838867e-01,-5.577660202980041504e-01,-3.210052847862243652e-01,-5.637477636337280273e-01,2.190742045640945435e-01,-3.273883461952209473e-01,1.503548026084899902e-01,-4.425780773162841797e-01
2.435759902000427246e-01,-4.848420023918151855e-01,-6.531131863594055176e-01,2.457959800958633423e-01,-4.364879131317138672e-01,-2.838064730167388916e-01,-2.982963323593139648e-01,1.615019440650939941e-01,2.462631613016128540e-01,-4.633835852146148682e-01,2.330720275640487671e-01,-2.929416485130786896e-02,8.243653774261474609e-01,-8.305224776268005371e-01,-5.905399322509765625e-01,-1.286038607358932495e-01,-5.477885007858276367e-01,-1.367279142141342163e-01,-4.543797373771667480e-01,2.884600758552551270e-01,-3.217260837554931641e-01
4.524331986904144287e-01,-3.601262867450714111e-01,-6.899301409721374512e-01,1.740620136260986328e-01,-3.230761289596557617e-01,-2.124173194169998169e-02,-3.130545616149902344e-01,1.255008727312088013e-01,3.374825716018676758e-01,-3.903950452804565430e-01,1.451469659805297852e-01,-3.512150943279266357e-01,6.286609768867492676e-01,-6.654788255691528320e-01,-5.494990348815917969e-01,-1.275932490825653076e-01,-4.658989012241363525e-01,7.560351490974426270e-02,-5.784555673599243164e-01,1.890009641647338867e-01,-4.945154115557670593e-02
4.441363215446472168e-01,-4.407033324241638184e-01,-6.671000123023986816e-01,2.426224499940872192e-01,-1.870990991592407227e-01,-1.151157915592193604e-01,7.137740403413772583e-02,3.217024803161621094e-01,3.948738276958465576e-01,-2.619999647140502930e-01,-1.002057222649455070e-03,-4.984003603458404541e-01,6.823748350143432617e-01,-7.390242815017700195e-01,-5.564420819282531738e-01,-2.115011811256408691e-01,-4.216607213020324707e-01,2.473918646574020386e-01,-6.906936764717102051e-01,3.356327414512634277e-01,-1.812686324119567871e-01
6.140682101249694824e-01,-3.645492792129516602e-01,-7.395566105842590332e-01,2.794342935085296631e-01,-2.040759027004241943e-01,7.888308167457580566e-02,-3.712569475173950195e-01,7.950821518898010254e-02,3.084733486175537109e-01,-1.340730339288711548e-01,2.249494493007659912e-01,-5.684323906898498535e-01,5.567643642425537109e-01,-5.664307475090026855e-01,-5.743947029113769531e-01,-2.400322854518890381e-01,-4.877857863903045654e-01,2.513554096221923828e-01,-6.885563135147094727e-01,4.030409455299377441e-01,-2.795519530773162842e-01
4.359555244445800781e-01,-5.685107707977294922e-01,-6.473144888877868652e-01,2.600492238998413086e-01,-2.850595116615295410e-01,1.702365577220916748e-01,-1.454757004976272583e-01,9.538668394088745117e-02,3.188592791557312012e-01,-1.829395443201065063e-01,1.938996315002441406e-01,-4.404850304126739502e-01,3.695605099201202393e-01,-4.804884493350982666e-01,-8.187078833580017090e-01,8.085535466670989990e-02,-5.282724499702453613e-01,2.582482099533081055e-01,-7.367573976516723633e-01,4.308116734027862549e-01,-1.803253293037414551e-01
8.673655986785888672e-01,-2.844915390014648438e-01,-5.779715180397033691e-01,2.328402101993560791e-01,-8.643884956836700439e-02,1.199572384357452393e-01,-4.674690961837768555e-01,7.838115841150283813e-02,2.614574432373046875e-01,-1.096770241856575012e-01,5.092964768409729004e-01,-6.958312392234802246e-01,4.013029634952545166e-01,-5.679397583007812500e-01,-7.098061442375183105e-01,-2.467814236879348755e-01,-3.844887316226959229e-01,2.865624427795410156e-01,-7.527070641517639160e-01,2.637293934822082520e-01,-2.486636489629745483e-01
7.879765033721923828e-01,-2.912198901176452637e-01,-5.567600727081298828e-01,2.867904901504516602e-01,-2.286067008972167969e-01,1.599503457546234131e-01,-4.833036363124847412e-01,-1.043089628219604492e-01,6.314764916896820068e-02,-1.074953842908143997e-02,3.484413921833038330e-01,-6.969172954559326172e-01,2.239201068878173828e-01,-4.488301277160644531e-01,-3.664590120315551758e-01,-2.251546382904052734e-01,-3.380057215690612793e-01,5.625531673431396484e-01,-9.189816713333129883e-01,4.282535612583160400e-01,-1.463329046964645386e-01
9.411562085151672363e-01,-2.353424131870269775e-01,-4.787676632404327393e-01,6.411024928092956543e-01,-1.148494407534599304e-01,2.304070889949798584e-01,-2.755466103553771973e-01,-6.390725076198577881e-02,4.906998947262763977e-02,1.311343759298324585e-01,3.297498524188995361e-01,-6.204464435577392578e-01,1.825190782546997070e-01,-2.260812073945999146e-01,-3.448076844215393066e-01,-6.783959269523620605e-02,-8.614417165517807007e-02,4.114786684513092041e-01,-1.004497170448303223e+00,2.633927166461944580e-01,-9.162665158510208130e-02
6.532819271087646484e-01,-3.603065311908721924e-01,-2.726986110210418701e-01,3.977102935314178467e-01,9.509479999542236328e-02,2.160903364419937134e-01,-4.841765463352203369e-01,-1.884123384952545166e-01,1.677456647157669067e-01,-1.146092545241117477e-02,6.045377850532531738e-01,-5.835699439048767090e-01,1.318446099758148193e-01,-3.776302039623260498e-01,-2.796567678451538086e-01,3.621451184153556824e-02,-2.892538439482450485e-03,1.842125505208969116e-01,-9.863859415054321289e-01,1.835132241249084473e-01,-2.085932642221450806e-01
1.054007172584533691e+00,-2.890103161334991455e-01,-2.707759737968444824e-01,5.870880484580993652e-01,5.005597695708274841e-02,2.192834019660949707e-01,-4.498341679573059082e-01,-4.048338532447814941e-01,-3.733686869964003563e-03,1.987545788288116455e-01,5.468664765357971191e-01,-6.506120562553405762e-01,2.215500473976135254e-01,-3.492212295532226562e-01,-2.324144095182418823e-01,-1.521395295858383179e-01,-2.369902655482292175e-02,2.777456939220428467e-01,-1.098668098449707031e+00,-9.962236881256103516e-02,-1.128329336643218994e-01
7.827671170234680176e-01,-4.139344096183776855e-01,-1.088020950555801392e-01,6.558928489685058594e-01,1.818437129259109497e-01,1.795162409543991089e-01,-5.934889316558837891e-01,-2.212130427360534668e-01,1.434266567230224609e-01,3.199250698089599609e-01,1.537649184465408325e-01,-5.654087066650390625e-01,7.169730216264724731e-02,-2.609885334968566895e-01,-1.017837151885032654e-01,-1.863629966974258423e-01,6.819173693656921387e-02,2.381820529699325562e-01,-1.023337006568908691e+00,2.568296492099761963e-01,-1.353624165058135986e-01
1.010645985603332520e+00,-5.170832872390747070e-01,-1.305680125951766968e-01,6.098089218139648438e-01,1.948727667331695557e-01,-2.921639382839202881e-01,-6.173583865165710449e-01,-2.157532423734664917e-01,6.116558983922004700e-02,2.142722904682159424e-01,4.739270508289337158e-01,-4.132099449634552002e-01,4.958229139447212219e-02,-2.891059815883636475e-01,1.204709410667419434e-01,-1.056215018033981323e-01,1.485755443572998047e-01,3.813756704330444336e-01,-8.185433745384216309e-01,-6.862599402666091919e-02,-2.597614228725433350e-01
9.551452994346618652e-01,-4.983228743076324463e-01,-8.107289671897888184e-02,6.679610013961791992e-01,3.745640069246292114e-02,-2.855453789234161377e-01,-6.945542693138122559e-01,-3.446000441908836365e-02,2.477509975433349609e-01,4.750429093837738037e-01,2.403832376003265381e-01,-3.355219066143035889e-01,9.712689369916915894e-02,-4.801514446735382080e-01,2.459826320409774780e-01,-2.538321316242218018e-01,-6.345716118812561035e-02,4.602169618010520935e-02,-8.237802386283874512e-01,-6.214656680822372437e-02,-2.355688810348510742e-02
8.064088821411132812e-01,-5.840688943862915039e-01,-1.631669551134109497e-01,9.178958535194396973e-01,1.537770330905914307e-01,-3.357925713062286377e-01,-7.246924638748168945e-01,-3.990816324949264526e-02,5.507068634033203125e-01,4.354231953620910645e-01,3.762639760971069336e-01,-2.878275811672210693e-01,7.909213751554489136e-02,-3.731206357479095459e-01,1.423809975385665894e-01,-3.680087327957153320e-01,8.119376748800277710e-02,6.863811053335666656e-03,-6.150618791580200195e-01,-9.384328871965408325e-02,-1.908650398254394531e-01
6.899948120117187500e-01,-5.185338854789733887e-01,-2.011713534593582153e-01,7.888037562370300293e-01,1.978147029876708984e-01,-2.785440981388092041e-01,-6.520470380783081055e-01,-5.331484973430633545e-02,4.624975025653839111e-01,7.330399751663208008e-01,2.432236522436141968e-01,-2.727620005607604980e-01,-1.619598269462585449e-01,-3.628495335578918457e-01,1.483160853385925293e-01,-4.259862899780273438e-01,-7.111299037933349609e-02,3.771558031439781189e-02,-6.930045485496520996e-01,7.361660152673721313e-02,-1.948736608028411865e-01
5.703383684158325195e-01,-5.897637605667114258e-01,-3.644942343235015869e-01,9.749359488487243652e-01,3.659554421901702881e-01,-3.243319094181060791e-01,-7.875101566314697266e-01,1.341783106327056885e-01,4.973594546318054199e-01,7.906041145324707031e-01,1.593120694160461426e-01,-1.562964916229248047e-01,-1.847845129668712616e-02,-4.490150213241577148e-01,6.391818076372146606e-02,-5.698322057723999023e-01,-1.573152989149093628e-01,-1.711730360984802246e-01,-4.708964526653289795e-01,-5.763425678014755249e-02,-1.280287057161331177e-01
4.303107559680938721e-01,-4.585359990596771240e-01,-2.078428715467453003e-01,9.860104322433471680e-01,2.563943564891815186e-01,-2.254460752010345459e-01,-8.656481504440307617e-01,1.888162791728973389e-01,6.826604008674621582e-01,6.382501125335693359e-01,6.021329760551452637e-02,-1.832907050848007202e-01,-1.223439536988735199e-02,-6.211954951286315918e-01,-8.733837306499481201e-02,-5.564312338829040527e-01,1.125129833817481995e-01,-1.548075526952743530e-01,-2.413701117038726807e-01,-1.758015751838684082e-01,-2.367137074470520020e-01
3.100645244121551514e-01,-4.550521969795227051e-01,-5.247377753257751465e-01,9.236288070678710938e-01,3.134089708328247070e-01,-3.053055405616760254e-01,-7.503005862236022949e-01,2.900016009807586670e-01,5.687370896339416504e-01,5.602160096168518066e-01,1.282738894224166870e-01,-1.313064545392990112e-01,9.859207272529602051e-02,-6.529722809791564941e-01,1.443315893411636353e-01,-6.586635708808898926e-01,-2.250572144985198975e-01,-3.278891369700431824e-02,-2.835672199726104736e-01,-1.403374969959259033e-01,-2.634025514125823975e-01
1.428627967834472656e-01,-6.280640959739685059e-01,-5.080086588859558105e-01,1.122997760772705078e+00,1.778798550367355347e-01,-3.972243666648864746e-01,-9.743226766586303711e-01,3.430665731430053711e-01,6.587451100349426270e-01,6.181508302688598633e-01,7.710168510675430298e-02,-2.666208148002624512e-01,-1.853520572185516357e-01,-4.888880550861358643e-01,-1.616154313087463379e-01,-5.206888318061828613e-01,-2.031865566968917847e-01,-6.132765859365463257e-02,3.362788259983062744e-02,-2.083489149808883667e-01,-2.788114845752716064e-01
1.244120448827743530e-01,-8.993043303489685059e-01,-2.377262562513351440e-01,1.069302797317504883e+00,2.281381785869598389e-01,-2.907648086547851562e-01,-6.952683925628662109e-01,5.856660604476928711e-01,6.808029413223266602e-01,4.485505819320678711e-01,-1.384944766759872437e-01,-3.472949564456939697e-01,-1.507049649953842163e-01,-7.832427024841308594e-01,-9.762527048587799072e-02,-6.415003538131713867e-01,-4.006615877151489258e-01,-2.143308222293853760e-01,7.121615856885910034e-02,-2.302263081073760986e-01,-1.640352755784988403e-01
-5.052461102604866028e-02,-7.627866268157958984e-01,-4.602439105510711670e-01,9.788030385971069336e-01,-7.364405691623687744e-02,-4.595184624195098877e-01,-6.994429826736450195e-01,5.803638100624084473e-01,5.504251122474670410e-01,3.695285320281982422e-01,-1.693417280912399292e-01,-5.302378535270690918e-01,-3.114663623273372650e-02,-4.496622681617736816e-01,-1.898662149906158447e-01,-6.540310978889465332e-01,-3.731108009815216064e-01,-2.141768783330917358e-01,5.609069392085075378e-02,-4.651205539703369141e-01,4.333924129605293274e-02
-1.363773178309202194e-02,-8.383305072784423828e-01,-4.888945221900939941e-01,1.127360105514526367e+00,6.966535747051239014e-02,-3.757515251636505127e-01,-6.625609993934631348e-01,3.131564259529113770e-01,4.866603016853332520e-01,2.126022726297378540e-01,-3.004381060600280762e-01,-3.430703282356262207e-01,-3.723017871379852295e-02,-3.850496709346771240e-01,-2.853254079818725586e-01,-9.173339605331420898e-01,-2.626503705978393555e-01,-2.206046134233474731e-01,-8.213131129741668701e-02,-3.864901661872863770e-01,2.227154821157455444e-01
2.852938324213027954e-02,-9.828612804412841797e-01,-4.231492578983306885e-01,1.058977484703063965e+00,-7.947085052728652954e-02,-4.056764841079711914e-01,-7.163157463073730469e-01,5.174994468688964844e-01,3.615266978740692139e-01,7.129883766174316406e-02,-4.094216525554656982e-01,-4.033071696758270264e-01,-3.614389896392822266e-02,-4.883290231227874756e-01,-3.781132400035858154e-01,-6.802147626876831055e-01,-5.054268836975097656e-01,-3.025845289230346680e-01,-5.477522313594818115e-02,-3.824236094951629639e-01,2.591295540332794189e-01
2.664930000901222229e-02,-1.092062830924987793e+00,-4.779444038867950439e-01,9.112238883972167969e-01,-2.578060925006866455e-01,-2.755640447139739990e-01,-7.880495786666870117e-01,3.791025876998901367e-01,1.675306260585784912e-01,2.379766851663589478e-02,-4.783355295658111572e-01,-4.999541044235229492e-01,-2.446296066045761108e-01,-3.699438273906707764e-01,-1.753204166889190674e-01,-5.150737762451171875e-01,-3.386512100696563721e-01,-2.837713062763214111e-01,-1.751138418912887573e-01,-3.821613490581512451e-01,3.921897411346435547e-01
-1.132512092590332031e-01,-1.252051115036010742e+00,-5.611817240715026855e-01,9.067173600196838379e-01,-2.012816816568374634e-01,-3.775956034660339355e-01,-4.245833754539489746e-01,6.686773896217346191e-01,4.255362749099731445e-01,-9.935594350099563599e-02,-5.144374370574951172e-01,-6.280919909477233887e-01,-9.469497203826904297e-02,-3.032491505146026611e-01,-4.898230731487274170e-02,-4.634386301040649414e-01,-5.115873813629150391e-01,-1.624504625797271729e-01,-6.068644672632217407e-02,-2.315515428781509399e-01,3.036378920078277588e-01
-6.741473078727722168e-02,-1.141734123229980469e+00,-6.885336637496948242e-01,6.253390908241271973e-01,-2.264257222414016724e-01,-1.829047948122024536e-01,-3.276134729385375977e-01,5.148268938064575195e-01,3.081520199775695801e-01,2.909066714346408844e-02,-6.209579706192016602e-01,-7.212700247764587402e-01,-2.345037162303924561e-01,-1.367348432540893555e-01,8.287522941827774048e-03,-4.198220372200012207e-01,-5.303294658660888672e-01,-3.902693390846252441e-01,1.304972022771835327e-01,1.186425518244504929e-02,6.340424418449401855e-01
-1.589800119400024414e-01,-1.053585052490234375e+00,-7.072201371192932129e-01,4.497625231742858887e-01,-9.959320724010467529e-02,-5.590436980128288269e-03,-1.567852050065994263e-01,2.810771465301513672e-01,6.523718684911727905e-02,-7.432201504707336426e-02,-5.389352440834045410e-01,-6.619387865066528320e-01,-2.474645227193832397e-01,-1.137826889753341675e-01,-6.047723442316055298e-02,-1.941768676042556763e-01,-3.297628164291381836e-01,-3.170163333415985107e-01,-1.666161566972732544e-01,2.653220482170581818e-02,4.532743096351623535e-01
-1.380873620510101318e-01,-1.023581504821777344e+00,-7.789185047149658203e-01,2.663689851760864258e-01,-3.515025973320007324e-02,-1.224602982401847839e-01,-1.321189999580383301e-01,2.974001765251159668e-01,1.478006690740585327e-01,9.083478897809982300e-02,-9.753943681716918945e-01,-7.545771598815917969e-01,-3.066471517086029053e-01,-1.038087606430053711e-01,-1.826712978072464466e-03,-1.956702172756195068e-01,-6.726098656654357910e-01,-3.268997967243194580e-01,4.847805202007293701e-02,2.168205380439758301e-01,6.193779110908508301e-01
-1.072053089737892151e-01,-9.053448438644409180e-01,-7.967329025268554688e-01,2.703683376312255859e-01,4.813897237181663513e-02,1.280999183654785156e-01,6.619736552238464355e-02,1.185358539223670959e-01,1.038165241479873657e-01,-3.544078022241592407e-02,-9.198842048645019531e-01,-6.310462951660156250e-01,-4.801605343818664551e-01,1.213428215123713017e-03,1.737219542264938354e-01,-2.582695782184600830e-01,-7.097743153572082520e-01,-3.809335827827453613e-01,4.246849939227104187e-02,1.511718481779098511e-01,6.033490300178527832e-01
-2.398811280727386475e-01,-7.534035444259643555e-01,-6.387382745742797852e-01,8.361800014972686768e-02,-3.843833925202488899e-03,-3.767431899905204773e-02,2.380387783050537109e-01,2.818869352340698242e-01,1.690612435340881348e-01,9.966769814491271973e-02,-8.357456922531127930e-01,-5.019642114639282227e-01,-3.450278937816619873e-01,1.261103004217147827e-01,-1.899148225784301758e-01,-4.799893125891685486e-02,-6.852795481681823730e-01,-2.745181918144226074e-01,-7.934506982564926147e-02,2.302296012639999390e-01,6.118590831756591797e-01
-1.673179119825363159e-01,-6.755493879318237305e-01,-7.907122969627380371e-01,3.212359249591827393e-01,2.208131700754165649e-01,2.981449961662292480e-01,8.716356754302978516e-02,3.432605266571044922e-01,2.152328491210937500e-01,1.237023100256919861e-01,-6.868498325347900391e-01,-6.606400609016418457e-01,-7.521782517433166504e-01,3.046560585498809814e-01,2.313936501741409302e-01,-2.337446361780166626e-01,-5.805204510688781738e-01,-1.240447908639907837e-01,-3.053805418312549591e-02,2.317830622196197510e-01,4.190690815448760986e-01
-3.456942737102508545e-01,-5.665991902351379395e-01,-6.727139353752136230e-01,1.859482824802398682e-01,2.901536822319030762e-01,5.326093435287475586e-01,1.278150379657745361e-01,1.822342127561569214e-01,-1.029243599623441696e-02,-3.261856362223625183e-02,-7.427585721015930176e-01,-5.300257802009582520e-01,-9.118784666061401367e-01,2.684652507305145264e-01,1.893382072448730469e-01,-4.721037447452545166e-01,-5.486745834350585938e-01,6.065131351351737976e-02,9.043605625629425049e-02,2.649214565753936768e-01,3.904556632041931152e-01
-3.401750624179840088e-01,-1.776280552148818970e-01,-5.638522505760192871e-01,2.974496781826019287e-01,2.492348849773406982e-01,4.864080846309661865e-01,1.275301873683929443e-01,2.005739212036132812e-01,-1.357796136289834976e-03,5.352174118161201477e-02,-5.631967186927795410e-01,-7.492417693138122559e-01,-8.014007210731506348e-01,3.141892552375793457e-01,1.497713178396224976e-01,-2.413879483938217163e-01,-4.152233898639678955e-01,2.971368730068206787e-01,-9.050103835761547089e-03,3.282063901424407959e-01,1.104088872671127319e-01
-1.073927208781242371e-01,-2.547590136528015137e-01,-4.098644852638244629e-01,9.476790577173233032e-02,3.244315981864929199e-01,7.585703730583190918e-01,2.406336069107055664e-01,1.008930578827857971e-01,-2.088444828987121582e-01,2.981827035546302795e-02,-5.081347227096557617e-01,-7.806591391563415527e-01,-9.028950929641723633e-01,5.716600418090820312e-01,5.138823986053466797e-01,-1.885777860879898071e-01,-4.304047822952270508e-01,-4.850029363296926022e-04,-8.994858711957931519e-02,3.404667675495147705e-01,6.247377395629882812e-02
-2.658282518386840820e-01,-2.831269241869449615e-02,-4.311379194259643555e-01,3.103042542934417725e-01,2.445673644542694092e-01,6.694504022598266602e-01,1.925099939107894897e-01,4.545491561293601990e-02,-2.360139340162277222e-01,1.420557945966720581e-01,-3.464353978633880615e-01,-7.766298651695251465e-01,-7.793041467666625977e-01,6.045315265655517578e-01,3.947095572948455811e-01,-4.235254228115081787e-01,-3.482476770877838135e-01,3.899798095226287842e-01,2.395673654973506927e-02,1.895046532154083252e-01,8.061481267213821411e-02
-1.855064779520034790e-01,-2.098568975925445557e-01,-3.243405520915985107e-01,9.412965923547744751e-02,1.197664067149162292e-01,7.656335830688476562e-01,7.416527718305587769e-02,-2.225830592215061188e-02,-2.681852132081985474e-02,1.873387098312377930e-01,-1.837510317564010620e-01,-7.678226828575134277e-01,-6.582711338996887207e-01,6.659885644912719727e-01,7.540228366851806641e-01,-4.879720807075500488e-01,-2.426850199699401855e-01,4.223059415817260742e-01,2.243966013193130493e-01,5.756559222936630249e-02,-7.199376076459884644e-02
-2.052043825387954712e-01,-1.487169507890939713e-02,-1.142579317092895508e-01,1.848292648792266846e-01,3.444074094295501709e-01,5.952020883560180664e-01,-4.881977662444114685e-02,1.448271423578262329e-01,1.063499525189399719e-01,-8.117341250181198120e-02,-3.776538074016571045e-01,-5.221943855285644531e-01,-7.670540809631347656e-01,8.450555205345153809e-01,5.969422459602355957e-01,-5.701283812522888184e-01,-1.971944123506546021e-01,4.189108312129974365e-01,1.428339332342147827e-01,-4.647199437022209167e-02,-1.095687896013259888e-01
-2.715670168399810791e-01,1.210634484887123108e-01,3.110915049910545349e-02,3.202810585498809814e-01,1.525884866714477539e-01,7.833915352821350098e-01,7.956103235483169556e-02,-2.424276918172836304e-01,-1.038302332162857056e-01,5.273052677512168884e-02,-2.946930229663848877e-01,-5.571032166481018066e-01,-6.926887631416320801e-01,5.553057789802551270e-01,7.996720075607299805e-01,-4.567306637763977051e-01,-7.708492130041122437e-02,3.572765588760375977e-01,3.158046007156372070e-01,-8.970467746257781982e-02,-3.048105537891387939e-01
-1.533611863851547241e-01,-3.180022165179252625e-02,6.822492927312850952e-02,1.541863530874252319e-01,8.476813137531280518e-02,4.629705548286437988e-01,2.041130065917968750e-01,1.080387532711029053e-01,-4.167663399130105972e-03,1.890953928232192993e-01,-2.331318557262420654e-01,-4.690967202186584473e-01,-7.250688672065734863e-01,6.728760600090026855e-01,7.375964522361755371e-01,-4.572056829929351807e-01,-2.204936891794204712e-01,3.117158412933349609e-01,2.135546654462814331e-01,-3.279137238860130310e-02,-1.676169782876968384e-01
-1.611530929803848267e-01,-6.090039759874343872e-02,1.052522137761116028e-01,1.696129292249679565e-01,-7.230421900749206543e-02,5.172972679138183594e-01,1.852581053972244263e-01,5.394612625241279602e-02,-5.548254027962684631e-02,-1.003709137439727783e-01,-4.170169532299041748e-01,-4.029280841350555420e-01,-5.918378233909606934e-01,7.180558443069458008e-01,7.480663061141967773e-01,-3.684605956077575684e-01,-3.445404469966888428e-01,2.077711820602416992e-01,3.453407287597656250e-01,-2.283203899860382080e-01,-3.266308009624481201e-01
-1.150001287460327148e-01,-2.461484223604202271e-01,2.703225612640380859e-01,2.250341922044754028e-01,2.695216238498687744e-02,3.490063846111297607e-01,2.405744343996047974e-01,-1.680303551256656647e-02,5.090671032667160034e-02,3.595241159200668335e-02,-2.452646940946578979e-01,-4.064490497112274170e-01,-6.107078194618225098e-01,6.432110667228698730e-01,7.848922014236450195e-01,-6.616103649139404297e-01,-6.464349478483200073e-02,1.547904610633850098e-01,2.142897546291351318e-01,-2.838814556598663330e-01,-3.392778038978576660e-01
-3.829893767833709717e-01,-1.234739571809768677e-01,1.376484036445617676e-01,2.481751292943954468e-01,-5.785494670271873474e-02,2.630629837512969971e-01,7.796924561262130737e-02,1.719548255205154419e-01,2.700853943824768066e-01,-1.133972555398941040e-01,-2.013838291168212891e-01,-3.068386316299438477e-01,-5.921652317047119141e-01,6.624729037284851074e-01,6.696516871452331543e-01,-5.374743342399597168e-01,-3.802872896194458008e-01,2.219484299421310425e-01,3.721209168434143066e-01,-2.707298994064331055e-01,-3.165808320045471191e-01
-4.210742413997650146e-01,-2.230187803506851196e-01,1.051538661122322083e-01,2.348334491252899170e-01,1.274601276963949203e-02,2.319034785032272339e-01,1.763692945241928101e-01,4.358548820018768311e-01,3.431467413902282715e-01,4.639968648552894592e-02,-5.095400810241699219e-01,-2.664190530776977539e-01,-3.410922288894653320e-01,5.678548216819763184e-01,7.563228011131286621e-01,-6.636178493499755859e-01,-3.764407038688659668e-01,1.347638666629791260e-01,5.108605623245239258e-01,-1.314889639616012573e-01,-3.742707073688507080e-01
-5.635787248611450195e-01,-6.092533841729164124e-02,1.097435057163238525e-01,1.831591129302978516e-03,-3.011975288391113281e-01,4.345191717147827148e-01,1.998754888772964478e-01,5.055944919586181641e-01,2.536160349845886230e-01,-2.698968723416328430e-02,-5.167914628982543945e-01,-1.554344743490219116e-01,-4.379394054412841797e-01,3.472443819046020508e-01,6.337874531745910645e-01,-6.044920682907104492e-01,-3.862634599208831787e-01,-2.856083586812019348e-02,4.953888058662414551e-01,-1.332587748765945435e-01,-3.796168863773345947e-01
-5.021683573722839355e-01,-8.394070714712142944e-02,1.545757353305816650e-01,1.485498547554016113e-01,-5.000859498977661133e-01,3.590607643127441406e-01,3.817573487758636475e-01,6.001162528991699219e-01,3.806264102458953857e-01,-1.602731496095657349e-01,-4.219501018524169922e-01,4.239027947187423706e-02,-1.577740758657455444e-01,4.478030800819396973e-01,5.503749251365661621e-01,-7.049637436866760254e-01,-7.787313461303710938e-01,2.061017602682113647e-01,7.351274490356445312e-01,-2.918552160263061523e-01,-6.428588032722473145e-01
-9.121959209442138672e-01,1.113867089152336121e-01,-2.038944065570831299e-01,3.574690595269203186e-02,-4.400089085102081299e-01,4.755054116249084473e-01,2.569948732852935791e-01,6.825772523880004883e-01,4.201953709125518799e-01,-9.790495783090591431e-02,-6.583103537559509277e-01,-2.410970479249954224e-01,-3.681518733501434326e-01,3.864255845546722412e-01,2.598099708557128906e-01,-7.251242995262145996e-01,-6.227304339408874512e-01,9.453979134559631348e-02,7.791471481323242188e-01,-2.263635993003845215e-01,-4.856431186199188232e-01
-7.530490756034851074e-01,-6.049530208110809326e-02,-1.768638789653778076e-01,-4.066070169210433960e-02,-5.013206601142883301e-01,4.273860454559326172e-01,4.229285120964050293e-01,9.276876449584960938e-01,3.376065790653228760e-01,-2.323445379734039307e-01,-4.968136548995971680e-01,-5.300499796867370605e-01,-2.333656847476959229e-01,2.257621288299560547e-01,3.914203643798828125e-01,-5.244297385215759277e-01,-6.712772846221923828e-01,9.845220297574996948e-02,4.919725656509399414e-01,-2.702289223670959473e-01,-3.798733055591583252e-01
-6.404319405555725098e-01,-1.280943769961595535e-02,6.221716478466987610e-02,-2.777292132377624512e-01,-6.445941329002380371e-01,5.433907508850097656e-01,3.294259607791900635e-01,6.896748542785644531e-01,2.929504215717315674e-01,-2.607291340827941895e-01,-5.413538217544555664e-01,-3.116336762905120850e-01,-3.506534397602081299e-01,1.920328289270401001e-01,6.345693767070770264e-02,-6.975076794624328613e-01,-6.675468087196350098e-01,8.507438004016876221e-02,7.909927964210510254e-01,-2.438901215791702271e-01,-4.380156397819519043e-01
-5.211339592933654785e-01,2.161786891520023346e-02,3.628399223089218140e-02,-1.274404376745223999e-01,-7.478401660919189453e-01,5.433361530303955078e-01,3.887223899364471436e-01,7.492554187774658203e-01,3.024400472640991211e-01,-4.353597760200500488e-01,-5.189451575279235840e-01,-4.227446913719177246e-01,-2.710672020912170410e-01,3.178708553314208984e-01,2.005802243947982788e-01,-4.935425817966461182e-01,-7.890684604644775391e-01,5.817742273211479187e-02,7.608706951141357422e-01,-1.603354066610336304e-01,-2.738512158393859863e-01
-5.277493000030517578e-01,3.114069439470767975e-02,-5.838040262460708618e-02,-6.373880058526992798e-02,-6.649511456489562988e-01,7.536671757698059082e-01,4.240773320198059082e-01,7.767906188964843750e-01,2.048960626125335693e-01,-4.726280868053436279e-01,-5.744788050651550293e-01,-6.356539726257324219e-01,-4.020865634083747864e-02,2.973234653472900391e-01,1.992160677909851074e-01,-4.017063975334167480e-01,-6.788487434387207031e-01,3.369254171848297119e-01,5.393911004066467285e-01,-1.543381214141845703e-01,-3.497455120086669922e-01
-5.997782349586486816e-01,3.138241544365882874e-02,-4.917667433619499207e-02,-1.836646944284439087e-01,-8.391663432121276855e-01,6.208611130714416504e-01,5.767320394515991211e-01,5.563535094261169434e-01,9.683861583471298218e-02,-5.652437806129455566e-01,-4.384571611881256104e-01,-4.319798052310943604e-01,-1.434371434152126312e-02,5.445348024368286133e-01,1.175052970647811890e-01,-1.882704496383666992e-01,-5.973455905914306641e-01,-6.478362530469894409e-02,4.029847085475921631e-01,-2.105976492166519165e-01,-3.635177910327911377e-01
-5.037780404090881348e-01,2.387440763413906097e-02,1.794011145830154419e-01,-3.858658075332641602e-01,-7.958914637565612793e-01,8.591772317886352539e-01,6.826097965240478516e-01,6.369279026985168457e-01,6.506305932998657227e-02,-7.187750339508056641e-01,-3.320814371109008789e-01,-8.023260831832885742e-01,6.234914995729923248e-03,1.727253198623657227e-01,2.012683898210525513e-01,-1.873657703399658203e-01,-6.113029718399047852e-01,1.630005538463592529e-01,2.786653935909271240e-01,-1.940889656543731689e-01,-3.888664245605468750e-01
-4.500451683998107910e-01,3.365505486726760864e-03,2.855911254882812500e-01,-2.202615141868591309e-01,-1.022092342376708984e+00,6.799542307853698730e-01,6.874619126319885254e-01,4.825344085693359375e-01,5.243994295597076416e-03,-5.369963049888610840e-01,-3.840410709381103516e-01,-8.003925681114196777e-01,7.691653817892074585e-02,4.160001575946807861e-01,7.610260695219039917e-02,-1.016848459839820862e-01,-4.330613315105438232e-01,-2.009236253798007965e-02,3.012143671512603760e-01,-6.507023423910140991e-02,-6.006496772170066833e-02
-7.691435515880584717e-02,-5.297970771789550781e-02,1.474597752094268799e-01,-4.481922686100006104e-01,-1.091791391372680664e+00,6.600672006607055664e-01,8.287768959999084473e-01,5.550833344459533691e-01,-2.658819034695625305e-02,-4.742483198642730713e-01,-6.725983619689941406e-01,-5.158975124359130859e-01,-1.559036821126937866e-01,5.246574282646179199e-01,2.394223511219024658e-01,8.364430069923400879e-02,-4.835281968116760254e-01,6.676120311021804810e-02,1.232310943305492401e-02,-6.351582705974578857e-02,-2.018725425004959106e-01
-1.927385479211807251e-01,-6.716079264879226685e-02,8.879566192626953125e-02,-4.500190019607543945e-01,-9.777053594589233398e-01,8.776533007621765137e-01,7.626619338989257812e-01,4.792546629905700684e-01,-5.382877960801124573e-02,-4.983353912830352783e-01,-5.276715159416198730e-01,-4.961763918399810791e-01,-1.640640199184417725e-01,6.440817117691040039e-01,1.749056428670883179e-01,1.575848907232284546e-01,-4.668424129486083984e-01,1.924180686473846436e-01,1.281896829605102539e-01,2.426885254681110382e-02,-7.389564067125320435e-02
-8.856146037578582764e-02,1.683292984962463379e-01,2.787215411663055420e-01,-2.803435623645782471e-01,-7.853963971138000488e-01,9.071769714355468750e-01,6.311316490173339844e-01,2.945461273193359375e-01,-9.068673104047775269e-02,-2.913490831851959229e-01,-3.126978874206542969e-01,-5.767651796340942383e-01,-3.454339802265167236e-01,4.866176545619964600e-01,1.640026271343231201e-01,4.709744155406951904e-01,-1.835506856441497803e-01,1.196214109659194946e-01,1.415531188249588013e-01,2.501496672630310059e-01,-1.639454960823059082e-01
-2.053892463445663452e-01,1.204682067036628723e-01,3.390024304389953613e-01,-5.329442024230957031e-01,-6.669778823852539062e-01,6.776915788650512695e-01,5.717152953147888184e-01,2.659615278244018555e-01,6.948716193437576294e-02,-2.573917210102081299e-01,-3.233771622180938721e-01,-5.221390128135681152e-01,-1.942799687385559082e-01,2.558562457561492920e-01,1.882142573595046997e-01,2.967707514762878418e-01,-4.791264235973358154e-01,2.386845946311950684e-01,1.152611598372459412e-01,3.010610640048980713e-01,8.250140398740768433e-02
-8.625671267509460449e-03,2.584185600280761719e-01,1.925343126058578491e-01,-6.468788981437683105e-01,-6.473686695098876953e-01,8.483764529228210449e-01,6.934545636177062988e-01,2.225185185670852661e-01,-7.339621335268020630e-02,-1.586688607931137085e-01,-2.695793211460113525e-01,-4.195217788219451904e-01,-3.303454220294952393e-01,3.217558860778808594e-01,3.757840096950531006e-01,3.659282028675079346e-01,-1.357430815696716309e-01,3.624862432479858398e-01,5.632672831416130066e-02,5.113037824630737305e-01,-1.538829784840345383e-02
-1.023732218891382217e-02,2.630023360252380371e-01,2.182702124118804932e-01,-5.818330645561218262e-01,-7.192053198814392090e-01,9.483000636100769043e-01,5.866020321846008301e-01,2.869343757629394531e-01,-3.890896961092948914e-02,-1.053646653890609741e-01,-1.166258603334426880e-01,-3.955008983612060547e-01,-3.776569366455078125e-01,4.187179207801818848e-01,2.690884470939636230e-01,4.803959429264068604e-01,4.102825000882148743e-02,2.516792118549346924e-01,2.113321572542190552e-01,4.430705904960632324e-01,-4.052150249481201172e-01
1.262200325727462769e-01,4.868710339069366455e-01,5.270754694938659668e-01,-3.572178781032562256e-01,-6.250268220901489258e-01,7.492024898529052734e-01,5.842693448066711426e-01,3.575790226459503174e-01,-7.589020580053329468e-02,2.002125233411788940e-01,-2.920418083667755127e-01,-1.815980672836303711e-01,-6.028243899345397949e-01,3.917786478996276855e-01,3.091362416744232178e-01,4.127663075923919678e-01,-1.363448612391948700e-02,4.104800522327423096e-01,2.310833185911178589e-01,4.425468742847442627e-01,-1.999817341566085815e-01
5.507303401827812195e-03,7.327488064765930176e-01,2.540270686149597168e-01,-3.444849848747253418e-01,-4.441500306129455566e-01,7.831911444664001465e-01,4.848089218139648438e-01,1.386822164058685303e-01,9.068775922060012817e-02,2.829347252845764160e-01,-1.451514065265655518e-01,-3.799662366509437561e-02,-4.042687714099884033e-01,3.830579817295074463e-01,2.631318867206573486e-01,4.748881459236145020e-01,2.129082195460796356e-02,6.037280559539794922e-01,2.037932723760604858e-01,1.203935444355010986e-01,-5.243182182312011719e-01
-4.003697633743286133e-02,7.851442694664001465e-01,3.537040352821350098e-01,-2.088755518198013306e-01,-4.884690046310424805e-01,7.534595727920532227e-01,2.395112514495849609e-01,3.229678273200988770e-01,5.192977190017700195e-02,1.932296156883239746e-01,-1.747745722532272339e-01,-4.025054723024368286e-02,-3.180288672447204590e-01,2.960147857666015625e-01,1.069925054907798767e-01,3.582612872123718262e-01,3.040411174297332764e-01,8.071615099906921387e-01,2.566825449466705322e-01,1.848647147417068481e-01,-5.471742749214172363e-01
1.222849935293197632e-01,4.632431864738464355e-01,2.014978379011154175e-01,3.582555800676345825e-02,-5.517808794975280762e-01,8.880204558372497559e-01,2.021304816007614136e-01,3.088530004024505615e-01,1.340387314558029175e-01,1.342711448669433594e-01,7.883352786302566528e-02,-4.487564414739608765e-02,-4.451016485691070557e-01,3.356246948242187500e-01,3.501196205615997314e-02,2.959720492362976074e-01,3.081302046775817871e-01,5.229922533035278320e-01,2.871803045272827148e-01,2.219765782356262207e-01,-7.045781016349792480e-01
3.547155298292636871e-03,4.740637838840484619e-01,5.378715395927429199e-01,5.996361747384071350e-02,-7.101756334304809570e-01,7.610673904418945312e-01,1.795923858880996704e-01,2.706851661205291748e-01,-9.600581973791122437e-02,1.927990019321441650e-01,9.845978021621704102e-02,-1.337998956441879272e-01,-3.081170320510864258e-01,2.763439118862152100e-01,9.639810025691986084e-02,1.812100708484649658e-01,2.899086475372314453e-01,6.933111548423767090e-01,3.031763136386871338e-01,1.271246224641799927e-01,-3.233711123466491699e-01
-7.308721542358398438e-02,4.606330692768096924e-01,5.555867552757263184e-01,1.153301522135734558e-01,-6.656400561332702637e-01,3.644804060459136963e-01,-2.481601014733314514e-02,1.264234036207199097e-01,3.575032576918601990e-02,1.150080487132072449e-01,3.424981534481048584e-01,-1.061589568853378296e-01,-1.437724828720092773e-01,1.551216691732406616e-01,-2.115115895867347717e-02,3.115393519401550293e-01,4.747775495052337646e-01,6.095972061157226562e-01,2.625115215778350830e-01,1.243080943822860718e-01,-6.485128998756408691e-01
6.665140390396118164e-02,2.646380364894866943e-01,7.873099446296691895e-01,3.718614280223846436e-01,-7.862907052040100098e-01,4.004557132720947266e-01,-1.067254133522510529e-02,2.208475172519683838e-01,-2.255011349916458130e-02,1.726477593183517456e-01,4.703126475214958191e-02,2.687542736530303955e-01,-1.388061493635177612e-01,2.232669293880462646e-01,-4.717865958809852600e-02,1.973612755537033081e-01,4.546326398849487305e-01,5.563181042671203613e-01,5.601053833961486816e-01,-7.435080409049987793e-02,-5.078856348991394043e-01
2.499287426471710205e-01,1.165194809436798096e-01,6.080499291419982910e-01,2.805294990539550781e-01,-5.834695100784301758e-01,3.400758802890777588e-01,-1.436764746904373169e-01,1.582010984420776367e-01,2.136931382119655609e-02,7.316451519727706909e-04,1.799236983060836792e-01,1.026364788413047791e-01,-9.460437297821044922e-02,2.117935717105865479e-01,-3.416851395741105080e-03,2.710352540016174316e-01,4.419659972190856934e-01,3.742835521697998047e-01,2.839457690715789795e-01,-3.188890591263771057e-02,-2.359994798898696899e-01
6.677788496017456055e-02,2.244704514741897583e-01,5.299076437950134277e-01,2.084760218858718872e-01,-8.278487324714660645e-01,2.404226958751678467e-01,-4.382271692156791687e-02,3.779000043869018555e-01,-2.826259937137365341e-03,6.547804176807403564e-02,2.124924212694168091e-01,2.963615357875823975e-01,-4.777731746435165405e-02,9.617435187101364136e-02,-5.933809652924537659e-02,3.672300279140472412e-02,5.568088889122009277e-01,3.717027604579925537e-01,2.985274493694305420e-01,-9.111735224723815918e-02,-1.557250618934631348e-01
-1.029485613107681274e-01,-1.279452592134475708e-01,5.459713339805603027e-01,1.111317351460456848e-01,-8.070362210273742676e-01,-1.058921590447425842e-01,-2.392512261867523193e-01,2.171078324317932129e-01,1.919213384389877319e-01,1.499221622943878174e-01,1.527913063764572144e-01,3.377270400524139404e-01,1.391448974609375000e-01,6.850184872746467590e-03,-4.542396962642669678e-02,3.896727263927459717e-01,5.786056518554687500e-01,3.370578289031982422e-01,4.102109968662261963e-01,1.533907800912857056e-01,-4.812775552272796631e-01
4.276667162775993347e-02,-1.308274716138839722e-01,3.151250779628753662e-01,7.219804078340530396e-02,-7.213569283485412598e-01,-1.177304536104202271e-01,-1.231976598501205444e-01,1.709731295704841614e-02,3.659548759460449219e-01,1.692979186773300171e-01,-1.693854779005050659e-01,5.435888171195983887e-01,1.309324800968170166e-01,-9.690715372562408447e-02,-1.635332033038139343e-02,5.096402168273925781e-01,4.275988340377807617e-01,2.268007099628448486e-01,4.767325520515441895e-01,8.738488703966140747e-02,-2.184484302997589111e-01
-2.129844725131988525e-01,3.513301722705364227e-03,1.501919627189636230e-01,3.336299061775207520e-01,-8.532029986381530762e-01,-3.101913928985595703e-01,-2.158426493406295776e-01,1.460812538862228394e-01,3.663318157196044922e-01,-1.039173975586891174e-01,-2.551013603806495667e-02,3.651573956012725830e-01,1.152528524398803711e-01,-9.106802195310592651e-02,-4.101766049861907959e-01,5.059121251106262207e-01,5.592659115791320801e-01,1.149163618683815002e-01,4.272826910018920898e-01,6.726901233196258545e-02,-1.190937086939811707e-01
-3.127797245979309082e-01,-1.186902672052383423e-01,-3.927614912390708923e-02,3.466679751873016357e-01,-6.062663793563842773e-01,-1.088748499751091003e-01,1.315062195062637329e-01,1.200519502162933350e-01,2.929555773735046387e-01,-1.376994419842958450e-03,-3.313399851322174072e-01,3.267209827899932861e-01,1.731483191251754761e-01,-1.925058513879776001e-01,-3.530035018920898438e-01,3.110541403293609619e-01,3.349104523658752441e-01,-6.649930775165557861e-02,2.292930632829666138e-01,2.352359592914581299e-01,-8.136150240898132324e-02
-4.108895361423492432e-01,-2.159840613603591919e-01,-1.862270385026931763e-02,2.408050000667572021e-01,-9.003597497940063477e-01,-2.215434908866882324e-01,9.340059012174606323e-02,2.761430740356445312e-01,4.313873052597045898e-01,2.797035872936248779e-01,-2.563956975936889648e-01,5.222824215888977051e-01,2.484644353389739990e-01,-3.498603776097297668e-02,-2.124695628881454468e-01,4.314931631088256836e-01,2.837692797183990479e-01,-5.852651223540306091e-02,4.502293765544891357e-01,2.400479018688201904e-01,-1.261893659830093384e-01
-3.218175768852233887e-01,-1.905072927474975586e-01,-8.082877844572067261e-02,3.300245702266693115e-01,-6.759793162345886230e-01,-2.205183207988739014e-01,2.207290232181549072e-01,9.102108329534530640e-02,3.286168277263641357e-01,8.976742625236511230e-03,-1.835350394248962402e-01,2.413918226957321167e-01,1.618409007787704468e-01,-3.451901078224182129e-01,-4.545501470565795898e-01,4.385831952095031738e-01,2.168169915676116943e-01,2.244347929954528809e-01,5.016442537307739258e-01,-1.286447234451770782e-02,-1.375933438539505005e-01
-3.668625056743621826e-01,-1.365378648042678833e-01,-5.147989392280578613e-01,1.024624779820442200e-01,-7.799296975135803223e-01,-4.557058513164520264e-01,2.757173180580139160e-01,-1.501284725964069366e-02,4.748597443103790283e-01,4.465983808040618896e-02,-2.830865979194641113e-01,2.139912843704223633e-01,1.053050458431243896e-01,-3.681964576244354248e-01,-5.589431524276733398e-01,5.325617194175720215e-01,2.395125031471252441e-01,1.466310769319534302e-01,5.321651101112365723e-01,1.165088042616844177e-01,6.677170097827911377e-02
-2.148562967777252197e-01,-1.547895222902297974e-01,-2.980092465877532959e-01,1.893946081399917603e-01,-8.570806384086608887e-01,-8.203410357236862183e-02,2.643874883651733398e-01,3.579015657305717468e-02,1.433964818716049194e-01,1.453425083309412003e-02,-1.260420382022857666e-01,2.373623102903366089e-01,9.139335155487060547e-02,-3.237617909908294678e-01,-6.320239305496215820e-01,3.977607488632202148e-01,3.892793953418731689e-01,1.803801208734512329e-01,5.089127421379089355e-01,1.643241383135318756e-02,1.061118617653846741e-01
-2.441934198141098022e-01,-1.709950715303421021e-01,-1.804255694150924683e-01,-2.844663336873054504e-03,-8.038614392280578613e-01,-8.020436018705368042e-02,1.506777554750442505e-01,-7.496069371700286865e-02,1.501166969537734985e-01,8.452023565769195557e-02,-3.666328489780426025e-01,1.346311122179031372e-01,-1.828788071870803833e-01,-2.978416979312896729e-01,-5.026741027832031250e-01,5.922294855117797852e-01,3.088245987892150879e-01,3.679773807525634766e-01,4.918768703937530518e-01,2.687843441963195801e-01,2.594629526138305664e-01
-2.710389792919158936e-01,-2.131690233945846558e-01,-3.852763473987579346e-01,3.760550171136856079e-02,-5.114651918411254883e-01,5.488940328359603882e-02,1.270138323307037354e-01,-1.762986481189727783e-01,9.139876067638397217e-02,-3.354502469301223755e-02,-8.888532966375350952e-02,7.620768994092941284e-02,5.044728145003318787e-02,1.789759099483489990e-01,-3.980888724327087402e-01,6.229801177978515625e-01,1.852083504199981689e-01,4.850772619247436523e-01,1.881106793880462646e-01,1.554198861122131348e-01,2.923961579799652100e-01
-8.335988968610763550e-02,-3.202249482274055481e-02,-3.992468714714050293e-01,9.883659332990646362e-02,-5.601387023925781250e-01,1.996328383684158325e-01,2.352561354637145996e-01,-8.466095477342605591e-02,5.102342367172241211e-02,-1.638576984405517578e-01,-1.790499985218048096e-01,-8.751738816499710083e-02,6.601045280694961548e-02,3.669326752424240112e-02,-3.639915585517883301e-01,5.296301841735839844e-01,4.455518722534179688e-01,2.798379063606262207e-01,1.188983395695686340e-01,8.435960859060287476e-02,3.024508953094482422e-01
-9.198458492755889893e-02,1.420545391738414764e-02,-3.674105703830718994e-01,-3.479762002825737000e-02,-5.874384045600891113e-01,-1.639579981565475464e-02,2.539480328559875488e-01,-5.746821761131286621e-01,1.243416368961334229e-01,-2.054985314607620239e-01,-1.051266416907310486e-01,-1.250132918357849121e-03,-8.823399245738983154e-02,1.621801555156707764e-01,-4.722660183906555176e-01,6.458693742752075195e-01,3.848985731601715088e-01,4.776567518711090088e-01,9.358157962560653687e-02,1.873040050268173218e-01,3.857813775539398193e-01
7.798355072736740112e-02,-1.515618413686752319e-01,-2.567512989044189453e-01,-1.571407467126846313e-01,-5.475603342056274414e-01,3.442169865593314171e-03,1.550869345664978027e-01,-5.699020028114318848e-01,6.434106081724166870e-02,-1.110665202140808105e-01,-3.660770133137702942e-02,-1.750411391258239746e-01,-1.255132108926773071e-01,4.395565390586853027e-02,-2.746164798736572266e-01,6.453000903129577637e-01,5.520705580711364746e-01,6.259814500808715820e-01,-1.376163810491561890e-01,2.951296567916870117e-01,2.207279652357101440e-01
1.355715394020080566e-01,-4.356458410620689392e-02,-3.998827338218688965e-01,-1.238080263137817383e-01,-1.250420808792114258e-01,-5.855397880077362061e-02,2.656728625297546387e-01,-8.636364936828613281e-01,-1.977326720952987671e-01,1.256306320428848267e-01,9.655569493770599365e-02,-1.250740438699722290e-01,-1.720836013555526733e-01,1.453134715557098389e-01,-2.870191037654876709e-01,6.848747134208679199e-01,5.626693367958068848e-01,5.554393529891967773e-01,-5.220111086964607239e-02,1.830956041812896729e-01,4.895189106464385986e-01
2.566756904125213623e-01,1.388823240995407104e-01,-1.343679577112197876e-01,-1.947013288736343384e-01,-2.872437536716461182e-01,-1.449649967253208160e-02,1.952347457408905029e-01,-8.864821195602416992e-01,-6.613136082887649536e-02,2.602083981037139893e-01,1.985750049352645874e-01,1.541949063539505005e-01,-1.088792309165000916e-01,2.709005773067474365e-01,2.589556574821472168e-02,9.573171138763427734e-01,5.963819026947021484e-01,5.285491943359375000e-01,-1.975948512554168701e-01,1.435087323188781738e-01,4.049643576145172119e-01
2.399866580963134766e-01,1.075833365321159363e-01,-2.186979949474334717e-01,-1.007387787103652954e-01,3.547070175409317017e-02,-1.671546995639801025e-01,2.473149746656417847e-01,-1.032716035842895508e+00,1.514719128608703613e-01,9.417242556810379028e-02,1.829204559326171875e-01,-4.416425153613090515e-02,-2.000019885599613190e-02,2.344008535146713257e-01,1.388208866119384766e-01,7.036182880401611328e-01,8.363601565361022949e-01,6.398407816886901855e-01,-2.922525703907012939e-01,1.998479217290878296e-01,3.182953894138336182e-01
2.301587909460067749e-01,-1.156685966998338699e-02,-2.302348762750625610e-01,3.337127342820167542e-02,2.489604204893112183e-01,1.386601384729146957e-02,3.797229826450347900e-01,-8.755922913551330566e-01,-1.801309548318386078e-02,4.059425592422485352e-01,2.322039604187011719e-01,1.073938980698585510e-01,-1.583881825208663940e-01,3.458692431449890137e-01,3.426776528358459473e-01,8.023506999015808105e-01,9.152292609214782715e-01,5.882664918899536133e-01,-3.333654105663299561e-01,3.226176500320434570e-01,3.535281121730804443e-01
1.129995509982109070e-01,1.695253103971481323e-01,-1.836718767881393433e-01,-1.089126020669937134e-01,2.950210869312286377e-01,-1.848627328872680664e-01,1.638691574335098267e-01,-7.745314240455627441e-01,2.476778179407119751e-01,4.772110283374786377e-01,2.532201409339904785e-01,1.929468065500259399e-01,-2.849686741828918457e-01,3.073052465915679932e-01,2.825957834720611572e-01,6.264454126358032227e-01,6.863915324211120605e-01,6.287273764610290527e-01,-2.312417924404144287e-01,1.022140830755233765e-01,3.815831542015075684e-01
2.148735672235488892e-01,1.691984087228775024e-01,-1.341738104820251465e-01,-9.064606577157974243e-02,1.667325347661972046e-01,-1.763330847024917603e-01,2.582984566688537598e-01,-7.588840126991271973e-01,2.851085960865020752e-01,5.344623923301696777e-01,2.324138134717941284e-01,2.627831101417541504e-01,-1.795100271701812744e-01,2.383102625608444214e-01,3.717006146907806396e-01,3.308555483818054199e-01,7.818924784660339355e-01,5.781058669090270996e-01,-1.175244376063346863e-01,-5.460149608552455902e-03,2.624709010124206543e-01
3.414993584156036377e-01,2.815906703472137451e-01,-1.909658312797546387e-01,1.280255615711212158e-01,4.663524329662322998e-01,-8.252459764480590820e-02,-9.098061919212341309e-02,-9.599615335464477539e-01,6.208606362342834473e-01,6.182437539100646973e-01,2.533643543720245361e-01,2.451603561639785767e-01,-1.876924186944961548e-01,1.162075772881507874e-01,5.118054151535034180e-01,3.843850493431091309e-01,6.179206371307373047e-01,4.560307264328002930e-01,-1.404635608196258545e-01,1.632041484117507935e-02,3.586476296186447144e-02
1.323323696851730347e-01,4.062982499599456787e-01,-1.704620718955993652e-01,1.213666647672653198e-01,2.879461348056793213e-01,-3.843746334314346313e-02,1.679856926202774048e-01,-6.369873285293579102e-01,7.018262743949890137e-01,8.216068148612976074e-01,4.120715260505676270e-01,3.309379816055297852e-01,-2.000076472759246826e-01,2.475162446498870850e-01,4.375993311405181885e-01,2.382370829582214355e-01,7.182034254074096680e-01,4.535880088806152344e-01,-5.143423099070787430e-03,-1.870029866695404053e-01,-9.892053902149200439e-02
-1.737543344497680664e-01,4.425583183765411377e-01,-1.994016617536544800e-01,1.880317777395248413e-01,1.635689586400985718e-01,-1.408679336309432983e-01,7.632954418659210205e-02,-6.200218200683593750e-01,5.221917033195495605e-01,9.037882685661315918e-01,2.797289192676544189e-01,5.077685415744781494e-02,-1.775761842727661133e-01,6.184959784150123596e-02,3.708861768245697021e-01,-4.740802105516195297e-03,5.041691064834594727e-01,5.816426873207092285e-01,3.269282281398773193e-01,-3.327687084674835205e-01,3.846496343612670898e-02
1.950501203536987305e-01,4.331843554973602295e-01,-6.926522403955459595e-02,3.879586756229400635e-01,2.661430239677429199e-01,-5.751388892531394958e-02,-1.796145923435688019e-02,-6.158959269523620605e-01,7.427358031272888184e-01,4.795739650726318359e-01,3.158555924892425537e-01,2.748318612575531006e-01,-1.939691603183746338e-01,7.198792695999145508e-02,2.989757955074310303e-01,-2.351058721542358398e-01,4.704917967319488525e-01,3.875738978385925293e-01,2.142939120531082153e-01,-3.984867036342620850e-01,-6.962396949529647827e-02
3.839840181171894073e-03,3.487036228179931641e-01,-2.308181524276733398e-01,2.643689811229705811e-01,1.809223592281341553e-01,-1.352990567684173584e-01,-7.807534933090209961e-02,-6.499597430229187012e-01,7.758603692054748535e-01,6.230110526084899902e-01,5.922292470932006836e-01,-5.769755691289901733e-02,-1.568025350570678711e-01,1.050473600625991821e-01,4.320635199546813965e-01,-2.809778749942779541e-01,3.314913809299468994e-01,2.532181441783905029e-01,8.812893182039260864e-02,-6.890623569488525391e-01,-1.278420984745025635e-01
-3.792860731482505798e-02,2.212558835744857788e-01,-1.029990389943122864e-01,3.634050488471984863e-01,3.528160229325294495e-02,-2.502816021442413330e-01,-2.659678161144256592e-01,-4.382650256156921387e-01,4.592767059803009033e-01,6.097626686096191406e-01,5.266070961952209473e-01,1.836994439363479614e-01,-2.553015016019344330e-03,3.814679756760597229e-02,1.421830952167510986e-01,-1.470505446195602417e-01,4.701584577560424805e-01,2.711105346679687500e-01,1.943669319152832031e-01,-6.987439990043640137e-01,1.463484950363636017e-02
-1.297994405031204224e-01,4.673214629292488098e-02,-3.555713295936584473e-01,4.647708535194396973e-01,7.406697422266006470e-02,-3.261625170707702637e-01,-5.338222980499267578e-01,-6.578043103218078613e-01,9.660167694091796875e-01,5.431246757507324219e-01,5.193262696266174316e-01,5.415793135762214661e-02,1.888202130794525146e-01,-1.781482696533203125e-01,1.310211718082427979e-01,-2.717164456844329834e-01,3.632538020610809326e-01,1.984374038875102997e-02,1.802027374505996704e-01,-8.351698517799377441e-01,2.119609713554382324e-02
-1.061684638261795044e-01,-1.105625107884407043e-01,-8.135531842708587646e-02,4.684825837612152100e-01,5.662887543439865112e-02,-3.986089825630187988e-01,-6.535840686410665512e-03,-4.046014249324798584e-01,8.405063748359680176e-01,6.171218752861022949e-01,2.938878834247589111e-01,8.312769234180450439e-02,2.647388279438018799e-01,1.381689868867397308e-02,4.460264146327972412e-01,-1.294694691896438599e-01,4.601990282535552979e-01,1.833480447530746460e-01,1.192193254828453064e-01,-8.509954810142517090e-01,1.654574722051620483e-01
-2.536720633506774902e-01,-1.774447709321975708e-01,-2.799630463123321533e-01,1.465511471033096313e-01,-1.754627376794815063e-01,-3.898313343524932861e-01,-1.382434666156768799e-01,-4.811694025993347168e-01,7.774114608764648438e-01,2.398571074008941650e-01,3.059399127960205078e-01,-3.898721770383417606e-04,2.572287917137145996e-01,-1.507486999034881592e-01,4.313229620456695557e-01,-3.700799345970153809e-01,2.185601741075515747e-01,-2.232404649257659912e-01,5.187448486685752869e-02,-1.007000684738159180e+00,2.550325691699981689e-01
-6.194733828306198120e-02,-1.263919919729232788e-01,-3.381628394126892090e-01,3.989698588848114014e-01,-1.777203381061553955e-01,-6.339856386184692383e-01,-3.264794871211051941e-02,-4.322600364685058594e-01,1.083898782730102539e+00,2.834620773792266846e-01,1.723797619342803955e-01,-2.562125325202941895e-01,3.056421577930450439e-01,-8.728642016649246216e-02,5.200578570365905762e-01,-2.286098748445510864e-01,2.486578822135925293e-01,-2.314927577972412109e-01,-3.949570655822753906e-02,-8.154643774032592773e-01,4.201464653015136719e-01
-2.532740831375122070e-01,-3.366853594779968262e-01,-1.697229743003845215e-01,2.814691960811614990e-01,-1.475265622138977051e-01,-5.116556882858276367e-01,-1.225932687520980835e-02,-3.573431968688964844e-01,8.366622328758239746e-01,3.352961242198944092e-01,1.590858250856399536e-01,-1.786935031414031982e-01,1.865902692079544067e-01,-2.925043692812323570e-03,4.398905634880065918e-01,-3.396210670471191406e-01,1.309531647711992264e-02,-3.643083274364471436e-01,-8.498562872409820557e-02,-9.613290429115295410e-01,2.678250968456268311e-01
-1.743720024824142456e-01,-3.872934281826019287e-01,-2.960351407527923584e-01,1.165624931454658508e-01,1.535048335790634155e-02,-5.342418551445007324e-01,1.346883624792098999e-01,-2.851966023445129395e-01,1.007623910903930664e+00,4.488885700702667236e-01,1.434740722179412842e-01,1.487153931520879269e-03,2.792865931987762451e-01,-1.764531284570693970e-01,4.238983094692230225e-01,-2.705843374133110046e-02,4.284782335162162781e-02,-3.956333696842193604e-01,-3.783854842185974121e-02,-8.000680208206176758e-01,4.646317958831787109e-01
-3.584589958190917969e-01,-3.431515395641326904e-01,-3.738390207290649414e-01,2.499433755874633789e-01,-5.902241542935371399e-02,-4.811477363109588623e-01,3.402524590492248535e-01,-3.532852530479431152e-01,1.011780619621276855e+00,3.512101173400878906e-01,-8.537197113037109375e-02,-1.477019935846328735e-01,2.440664470195770264e-01,-1.272432804107666016e-01,5.149493217468261719e-01,-1.287343651056289673e-01,-6.496645510196685791e-02,-2.832595407962799072e-01,3.605433180928230286e-02,-6.819001436233520508e-01,6.339251399040222168e-01
-2.882219254970550537e-01,-3.995978236198425293e-01,-2.675323486328125000e-01,1.906346995383501053e-03,-3.186792507767677307e-02,-3.638294041156768799e-01,3.018164336681365967e-01,-4.284132122993469238e-01,8.727703094482421875e-01,4.724074006080627441e-01,4.741647839546203613e-02,-2.254781872034072876e-01,2.528952360153198242e-01,-2.724476158618927002e-01,2.962535321712493896e-01,-2.627578005194664001e-02,-2.347422540187835693e-01,-4.612683951854705811e-01,-1.438735872507095337e-01,-5.951120257377624512e-01,7.637153863906860352e-01
4.481565579771995544e-02,-3.286936283111572266e-01,-3.542158305644989014e-01,-1.647903323173522949e-01,-9.947654604911804199e-02,-1.878129690885543823e-01,4.161202609539031982e-01,-2.706367075443267822e-01,8.951158523559570312e-01,4.841245412826538086e-01,-1.189027130603790283e-01,-3.235537409782409668e-01,-7.146739959716796875e-02,-2.188237160444259644e-01,4.663256406784057617e-01,-4.934674873948097229e-02,-2.772993743419647217e-01,-4.770113825798034668e-01,3.004446066915988922e-02,-6.899010539054870605e-01,7.673574686050415039e-01
-2.687729001045227051e-01,-3.066974878311157227e-01,-3.866315484046936035e-01,-2.061591148376464844e-01,-2.764677256345748901e-02,-3.619710206985473633e-01,3.777832686901092529e-01,-2.804977595806121826e-01,1.139678716659545898e+00,6.659687161445617676e-01,-1.729924976825714111e-01,-5.671542882919311523e-01,-1.703106611967086792e-01,-2.634226679801940918e-01,5.377420783042907715e-01,-3.683341294527053833e-02,-2.812507152557373047e-01,-4.054407775402069092e-01,-1.664058566093444824e-01,-5.957346558570861816e-01,5.233087539672851562e-01
-1.000702083110809326e-01,2.781276963651180267e-02,-3.294905126094818115e-01,2.149386890232563019e-02,7.755421102046966553e-02,-5.095907021313905716e-03,2.025366127490997314e-01,-2.658570110797882080e-01,8.261672258377075195e-01,5.868215560913085938e-01,-3.022914379835128784e-02,-6.433172821998596191e-01,-1.047924086451530457e-01,-2.336595952510833740e-01,3.236346244812011719e-01,5.604235082864761353e-02,-2.881724238395690918e-01,-2.478270828723907471e-01,-3.836946561932563782e-02,-6.993927359580993652e-01,7.094656825065612793e-01
-2.196797132492065430e-01,-4.460235312581062317e-02,-2.676086723804473877e-01,-1.351346373558044434e-01,-5.124618485569953918e-02,-1.602152362465858459e-02,2.857031822204589844e-01,-3.774558305740356445e-01,6.185068488121032715e-01,3.757794499397277832e-01,-4.298359528183937073e-02,-7.016612291336059570e-01,-2.897352278232574463e-01,-2.390082478523254395e-01,3.226419389247894287e-01,1.951995864510536194e-02,-2.064433246850967407e-01,-2.859393954277038574e-01,-1.504499167203903198e-01,-4.846978783607482910e-01,5.872117877006530762e-01
-5.257305502891540527e-02,4.118470847606658936e-02,-5.487550050020217896e-02,-1.357521265745162964e-01,-1.861437261104583740e-01,8.176262676715850830e-02,4.375716745853424072e-01,-3.724314868450164795e-01,5.234596729278564453e-01,6.997461915016174316e-01,-1.394420024007558823e-02,-6.615558862686157227e-01,-1.985092908143997192e-01,7.612324506044387817e-02,3.813271820545196533e-01,6.345138698816299438e-02,-1.170061007142066956e-01,-3.369784057140350342e-01,-2.441814243793487549e-01,-6.355641484260559082e-01,4.960842132568359375e-01
4.255670122802257538e-03,1.984716579318046570e-02,-6.781741231679916382e-02,-3.946519643068313599e-02,-5.140009149909019470e-02,1.353762000799179077e-01,2.923354506492614746e-01,-3.015995323657989502e-01,4.766731262207031250e-01,7.135511040687561035e-01,5.193286389112472534e-02,-8.320280313491821289e-01,-4.691850841045379639e-01,1.872796751558780670e-02,5.508010387420654297e-01,-2.148051001131534576e-02,-2.294788956642150879e-01,-4.721035659313201904e-01,-3.912546634674072266e-01,-7.043328285217285156e-01,5.123446583747863770e-01
-1.279377192258834839e-01,-1.114127039909362793e-01,1.820527315139770508e-01,-1.990649998188018799e-01,-2.842202037572860718e-02,8.870470523834228516e-02,3.224732279777526855e-01,-5.263776779174804688e-01,3.613082468509674072e-01,8.770995140075683594e-01,-8.429384231567382812e-02,-7.874056696891784668e-01,-4.023316502571105957e-01,2.006640732288360596e-01,5.257684588432312012e-01,1.767785102128982544e-01,-2.722766101360321045e-01,-2.813566923141479492e-01,-1.382676810026168823e-01,-4.282143414020538330e-01,4.006781280040740967e-01
5.147184431552886963e-02,-8.075833320617675781e-02,1.010779887437820435e-01,-2.256629616022109985e-02,4.894556477665901184e-02,2.236853241920471191e-01,3.562958538532257080e-02,-4.973710775375366211e-01,4.137530326843261719e-01,8.334673643112182617e-01,2.523213624954223633e-01,-5.244899392127990723e-01,-6.211309432983398438e-01,6.534592062234878540e-02,6.636853814125061035e-01,-6.446832418441772461e-02,1.535361111164093018e-01,-1.775272190570831299e-01,-2.129597514867782593e-01,-7.082737684249877930e-01,6.118442416191101074e-01
1.647867709398269653e-01,2.996845915913581848e-02,2.884779870510101318e-01,-1.290440708398818970e-01,4.223233833909034729e-02,2.215880304574966431e-01,2.243749350309371948e-01,-4.408168792724609375e-01,3.370848894119262695e-01,6.558426618576049805e-01,1.428635716438293457e-01,-3.487594723701477051e-01,-4.815552830696105957e-01,3.215528130531311035e-01,8.323447108268737793e-01,1.504690647125244141e-01,8.254521340131759644e-02,-4.284595549106597900e-01,-3.442911207675933838e-01,-5.222662687301635742e-01,4.357448220252990723e-01
1.966924071311950684e-01,2.338059991598129272e-02,4.580294489860534668e-01,-1.128227412700653076e-01,1.363476961851119995e-01,1.371303647756576538e-01,-6.700508296489715576e-02,-3.478501439094543457e-01,3.256422281265258789e-01,9.022253155708312988e-01,3.683144748210906982e-01,-5.136975646018981934e-01,-5.190923810005187988e-01,2.777858376502990723e-01,6.577794551849365234e-01,1.084884628653526306e-01,2.572015523910522461e-01,-5.050913691520690918e-01,-1.338036954402923584e-01,-5.710322856903076172e-01,5.327422618865966797e-01
1.940101385116577148e-01,1.410433053970336914e-01,4.906084239482879639e-01,-5.700103193521499634e-02,3.754820302128791809e-02,1.515296548604965210e-01,-1.371869444847106934e-01,-3.416721224784851074e-01,3.110418021678924561e-01,7.861155867576599121e-01,1.577466577291488647e-01,-1.914326846599578857e-01,-4.561507105827331543e-01,2.886138856410980225e-01,8.405014276504516602e-01,3.200205266475677490e-01,2.525850534439086914e-01,-2.958218753337860107e-01,1.198145467787981033e-02,-6.360327005386352539e-01,5.064057707786560059e-01
1.553975343704223633e-01,-5.395827442407608032e-02,3.958609998226165771e-01,-2.539117634296417236e-01,2.997729778289794922e-01,-2.303651720285415649e-01,8.056073635816574097e-02,-4.695807099342346191e-01,3.614890873432159424e-01,9.352492094039916992e-01,3.922873735427856445e-02,-2.385727614164352417e-01,-3.670385181903839111e-01,4.062762260437011719e-01,1.036030530929565430e+00,-2.143468707799911499e-02,2.168041616678237915e-01,-3.020355701446533203e-01,-1.021232157945632935e-01,-7.899774909019470215e-01,4.850981831550598145e-01
1.873677968978881836e-01,1.058494523167610168e-01,6.356180906295776367e-01,1.628496497869491577e-01,4.121229648590087891e-01,-8.748265355825424194e-02,7.878472656011581421e-02,-1.956427395343780518e-01,5.149421095848083496e-01,1.011445641517639160e+00,2.315643057227134705e-02,-8.430770039558410645e-02,-6.236524581909179688e-01,-2.517380006611347198e-02,8.505946993827819824e-01,9.539077430963516235e-02,1.225688159465789795e-01,-5.554172396659851074e-01,1.173274144530296326e-01,-5.969737768173217773e-01,4.465103447437286377e-01
1.360319405794143677e-01,1.266909390687942505e-01,6.820864677429199219e-01,-4.454020410776138306e-02,3.110647499561309814e-01,-1.048972271382808685e-02,5.470616742968559265e-02,-1.964164227247238159e-01,4.071086049079895020e-01,1.030404806137084961e+00,-7.041572779417037964e-02,-1.701034754514694214e-01,-7.882614731788635254e-01,1.100996732711791992e-01,9.482191801071166992e-01,1.830002069473266602e-01,3.195961713790893555e-01,-6.589591503143310547e-01,2.024690210819244385e-01,-3.949879407882690430e-01,5.613813400268554688e-01
-3.591162264347076416e-01,1.023036465048789978e-01,4.850939810276031494e-01,1.991327702999114990e-01,2.317293584346771240e-01,-1.843253523111343384e-01,-1.401125490665435791e-01,-1.794090420007705688e-01,4.068231582641601562e-01,1.114239692687988281e+00,-6.286417692899703979e-02,1.080914288759231567e-01,-5.641515851020812988e-01,-1.068912819027900696e-01,7.678795456886291504e-01,-5.148353427648544312e-02,9.093144908547401428e-03,-4.898164272308349609e-01,2.252345383167266846e-01,-7.291750907897949219e-01,6.181684732437133789e-01
-2.770998477935791016e-01,4.801738634705543518e-02,4.991306066513061523e-01,6.478160619735717773e-02,3.110414557158946991e-02,-1.611271649599075317e-01,4.547896236181259155e-02,1.843661069869995117e-01,5.160307288169860840e-01,9.494689106941223145e-01,-4.274340718984603882e-02,9.923240542411804199e-02,-4.975476264953613281e-01,-3.430812433362007141e-02,7.204045653343200684e-01,-2.027518302202224731e-01,1.191663742065429688e-01,-5.793047547340393066e-01,4.733233451843261719e-01,-5.981734395027160645e-01,4.669558107852935791e-01
-5.381296873092651367e-01,2.275298088788986206e-01,4.417759776115417480e-01,5.918798223137855530e-02,2.497933954000473022e-01,-3.447450399398803711e-01,-8.711549639701843262e-02,7.240168005228042603e-02,6.082589626312255859e-01,1.044488668441772461e+00,1.564744561910629272e-01,2.552182972431182861e-02,-3.381115198135375977e-01,8.451287448406219482e-02,5.573015809059143066e-01,-1.027315184473991394e-01,1.318515837192535400e-01,-4.357815086841583252e-01,6.618694067001342773e-01,-7.541878819465637207e-01,2.781736552715301514e-01
-6.442224979400634766e-01,-2.397307008504867554e-02,5.207504034042358398e-01,3.628320097923278809e-01,-2.240814641118049622e-02,-1.302410215139389038e-01,4.166311770677566528e-02,4.328505992889404297e-01,6.101676821708679199e-01,7.476044297218322754e-01,-1.011371910572052002e-01,3.079310245811939240e-02,-4.774112701416015625e-01,-1.187171861529350281e-01,6.581304669380187988e-01,-8.929783850908279419e-02,1.098753809928894043e-01,-6.315513849258422852e-01,7.694784998893737793e-01,-6.575651168823242188e-01,1.957478225231170654e-01
-8.033546805381774902e-01,-1.028440818190574646e-01,4.331746995449066162e-01,2.436574697494506836e-01,7.663410156965255737e-02,-1.342282593250274658e-01,1.890907250344753265e-02,1.506093442440032959e-01,4.241651296615600586e-01,8.992448449134826660e-01,-1.159784495830535889e-01,1.408529281616210938e-01,-5.458724498748779297e-01,-7.958135008811950684e-02,3.992546200752258301e-01,-3.854880928993225098e-01,1.503076851367950439e-01,-7.013285160064697266e-01,6.867443323135375977e-01,-5.964916944503784180e-01,1.009290888905525208e-01
-7.201023697853088379e-01,-1.961233466863632202e-02,5.064016580581665039e-01,1.839610785245895386e-01,-1.244664117693901062e-01,-3.739227354526519775e-01,5.368933826684951782e-02,2.898518741130828857e-01,4.287221431732177734e-01,5.955740213394165039e-01,-2.029054611921310425e-01,3.769570216536521912e-02,-3.891176581382751465e-01,-1.193861514329910278e-01,4.795548319816589355e-01,-8.457644283771514893e-02,2.636408247053623199e-02,-7.431002259254455566e-01,7.283005118370056152e-01,-7.751640677452087402e-01,3.374071419239044189e-01
-5.002849698066711426e-01,-1.716206669807434082e-01,5.593613386154174805e-01,3.477993905544281006e-01,-2.825095653533935547e-01,-2.627149224281311035e-01,5.571852996945381165e-02,1.856034100055694580e-01,3.060330748558044434e-01,6.164149641990661621e-01,-3.078393638134002686e-01,-8.034238964319229126e-02,-3.298964202404022217e-01,2.271106839179992676e-01,3.620696663856506348e-01,-2.305204570293426514e-01,1.545178145170211792e-01,-5.838442444801330566e-01,7.875096201896667480e-01,-8.987460732460021973e-01,3.708544671535491943e-01
-9.078847765922546387e-01,-2.114893496036529541e-01,4.686344265937805176e-01,-1.099230796098709106e-01,-4.923943877220153809e-01,1.266339141875505447e-02,1.622858196496963501e-01,3.145395815372467041e-01,2.598623633384704590e-01,3.448787331581115723e-01,-3.466654419898986816e-01,-4.436292499303817749e-02,-1.868160367012023926e-01,2.684590220451354980e-01,2.176521420478820801e-01,4.473957791924476624e-02,8.715704828500747681e-02,-7.460235953330993652e-01,6.872932910919189453e-01,-4.027220904827117920e-01,5.554416179656982422e-01
-6.646196842193603516e-01,-1.561849862337112427e-01,2.977162003517150879e-01,-9.695154428482055664e-02,-2.306413054466247559e-01,-3.037947118282318115e-01,4.193523824214935303e-01,1.259356439113616943e-01,5.874390527606010437e-02,2.896766960620880127e-01,-3.574871718883514404e-01,-2.391148209571838379e-01,-3.134329319000244141e-01,1.595015227794647217e-01,3.907705843448638916e-01,-7.391795516014099121e-02,-6.559848040342330933e-02,-7.016178369522094727e-01,6.749657392501831055e-01,-3.975532054901123047e-01,5.308862328529357910e-01
-6.858356595039367676e-01,-9.259610623121261597e-02,3.576278388500213623e-01,-1.581712812185287476e-01,-2.840757369995117188e-01,-1.883470118045806885e-01,4.082829952239990234e-01,3.690654784440994263e-02,1.517144311219453812e-02,1.724908947944641113e-01,-2.635351419448852539e-01,-2.062100917100906372e-01,-2.950931787490844727e-01,1.084534004330635071e-01,2.581127285957336426e-01,1.518581509590148926e-01,-1.210388392210006714e-01,-9.178580641746520996e-01,5.150958895683288574e-01,-4.038670957088470459e-01,6.298117041587829590e-01
-8.881888389587402344e-01,-2.847833037376403809e-01,3.722670078277587891e-01,-2.770599722862243652e-01,-5.385375618934631348e-01,-3.264316320419311523e-01,5.093072056770324707e-01,1.314192712306976318e-01,-1.313850749284029007e-02,8.598564565181732178e-02,-5.846307277679443359e-01,7.567733526229858398e-02,-1.515115350484848022e-01,2.545625269412994385e-01,2.619535028934478760e-01,2.731902003288269043e-01,-8.822365105152130127e-02,-9.182236194610595703e-01,6.944705247879028320e-01,-3.086035251617431641e-01,5.761916637420654297e-01
-7.273573279380798340e-01,-2.567797899246215820e-01,3.255695700645446777e-01,-6.224322915077209473e-01,-3.275885283946990967e-01,-1.522620767354965210e-01,6.798696517944335938e-01,8.186533302068710327e-02,-5.922040343284606934e-02,1.069050878286361694e-01,-5.288069248199462891e-01,-9.371770545840263367e-03,-2.284455597400665283e-01,3.474055603146553040e-02,4.155392646789550781e-01,2.564073204994201660e-01,-3.148697316646575928e-02,-9.511251449584960938e-01,6.258725523948669434e-01,-2.560652792453765869e-01,7.773192524909973145e-01
-6.504440307617187500e-01,-5.006475746631622314e-02,3.467358052730560303e-01,-4.228984117507934570e-01,-2.758394777774810791e-01,-1.120111048221588135e-01,8.548686504364013672e-01,3.732543811202049255e-02,-2.312698364257812500e-01,4.547192249447107315e-03,-5.156513452529907227e-01,1.603550165891647339e-01,-2.859705388545989990e-01,3.720687925815582275e-01,2.724398672580718994e-01,4.612703025341033936e-01,5.958116427063941956e-02,-7.122071385383605957e-01,3.760584890842437744e-01,-1.694153621792793274e-02,6.514173150062561035e-01
-6.298705339431762695e-01,3.260059282183647156e-02,2.638038992881774902e-01,-7.837294340133666992e-01,-5.050904676318168640e-02,-9.714934229850769043e-02,8.134900331497192383e-01,-4.485612362623214722e-02,-2.464599162340164185e-01,1.759330481290817261e-01,-5.904893279075622559e-01,2.245659828186035156e-01,-3.216506838798522949e-01,1.468735337257385254e-01,3.100968599319458008e-01,7.486594915390014648e-01,-1.108670085668563843e-01,-5.888884663581848145e-01,4.040031433105468750e-01,3.561380505561828613e-02,7.945597171783447266e-01
-6.466954946517944336e-01,6.934193521738052368e-02,1.217117905616760254e-01,-8.221851587295532227e-01,5.447388067841529846e-02,-5.380792170763015747e-02,9.189701080322265625e-01,-6.467807292938232422e-02,-4.030503928661346436e-01,5.411275103688240051e-02,-7.111324071884155273e-01,2.881011180579662323e-02,-5.605598688125610352e-01,1.935009658336639404e-01,3.659296631813049316e-01,6.613178849220275879e-01,-5.376243591308593750e-02,-3.442233204841613770e-01,5.645308494567871094e-01,2.795542180538177490e-01,5.872937440872192383e-01
-6.807997822761535645e-01,3.096066415309906006e-01,2.526934444904327393e-01,-1.011406302452087402e+00,6.243374571204185486e-02,6.595246493816375732e-02,8.261476755142211914e-01,6.435734033584594727e-02,-3.539005517959594727e-01,1.458870917558670044e-01,-6.075982451438903809e-01,1.001976057887077332e-02,-5.634119510650634766e-01,5.022012591361999512e-01,3.574732542037963867e-01,4.757001101970672607e-01,6.190885975956916809e-02,-4.748542010784149170e-01,4.505938589572906494e-01,5.232572555541992188e-01,7.294454574584960938e-01
-6.542651653289794922e-01,4.420125484466552734e-01,3.826517760753631592e-01,-7.169985771179199219e-01,1.662835776805877686e-01,2.564396560192108154e-01,9.074118733406066895e-01,-5.663358047604560852e-02,-4.238891601562500000e-01,2.639170587062835693e-01,-5.654729008674621582e-01,1.324785798788070679e-01,-6.724247932434082031e-01,4.035861492156982422e-01,4.135914444923400879e-01,7.161436080932617188e-01,-6.446780264377593994e-02,-5.176481604576110840e-02,2.922625839710235596e-01,3.244899213314056396e-01,2.751836776733398438e-01
-5.658783912658691406e-01,5.347142219543457031e-01,3.258457779884338379e-01,-1.203411221504211426e+00,1.053795292973518372e-01,2.369596511125564575e-01,6.863263845443725586e-01,5.370720848441123962e-02,-4.854629337787628174e-01,9.500249475240707397e-02,-2.993990480899810791e-01,1.209354475140571594e-01,-6.429110765457153320e-01,5.697165131568908691e-01,2.266547232866287231e-01,2.702465951442718506e-01,1.820921897888183594e-02,-9.787566214799880981e-02,6.192811727523803711e-01,3.806404173374176025e-01,2.509263455867767334e-01
-4.569917023181915283e-01,6.169717907905578613e-01,5.776820182800292969e-01,-8.231266736984252930e-01,2.598091363906860352e-01,5.598794221878051758e-01,6.178297996520996094e-01,-3.142090439796447754e-01,-6.550248265266418457e-01,4.845073819160461426e-02,-1.753026247024536133e-01,9.942099452018737793e-02,-5.661984682083129883e-01,7.835882902145385742e-01,2.677648365497589111e-01,4.598294794559478760e-01,2.879180014133453369e-01,4.901377111673355103e-02,6.505704522132873535e-01,4.134665727615356445e-01,1.180457845330238342e-01
-4.706075489521026611e-01,7.743865847587585449e-01,5.183357596397399902e-01,-4.852011501789093018e-01,1.565877944231033325e-01,4.871148169040679932e-01,4.834480881690979004e-01,-2.440898269414901733e-01,-6.768150329589843750e-01,3.856575116515159607e-02,-1.325643528252840042e-02,1.900922507047653198e-01,-4.798165261745452881e-01,5.543836951255798340e-01,2.655650377273559570e-01,4.596683382987976074e-01,1.108462586998939514e-01,1.854419857263565063e-01,4.452619254589080811e-01,1.815461367368698120e-01,-1.684557348489761353e-01
-2.829072475433349609e-01,1.057274103164672852e+00,6.103584170341491699e-01,-5.161988139152526855e-01,2.170435488224029541e-01,5.043365955352783203e-01,9.274814128875732422e-01,-2.817346453666687012e-01,-4.947201609611511230e-01,1.138416379690170288e-01,4.626008123159408569e-02,2.375978082418441772e-01,-4.500451683998107910e-01,6.281332373619079590e-01,3.354583680629730225e-01,3.643130660057067871e-01,4.081144630908966064e-01,2.733235359191894531e-01,5.124545097351074219e-01,1.284334063529968262e-01,-1.310444623231887817e-01
-3.856569826602935791e-01,8.563985228538513184e-01,8.917526006698608398e-01,-7.025470733642578125e-01,1.394225470721721649e-02,1.853816509246826172e-01,5.900904536247253418e-01,-4.621498882770538330e-01,-4.001277685165405273e-01,7.311651855707168579e-02,1.773271709680557251e-01,3.116212785243988037e-01,-5.275987982749938965e-01,6.462360620498657227e-01,5.118690729141235352e-01,4.166787564754486084e-01,4.872889220714569092e-01,4.612674415111541748e-01,3.473289906978607178e-01,3.263873234391212463e-02,-2.702944576740264893e-01
-1.654330343008041382e-01,9.508798122406005859e-01,8.332052230834960938e-01,-6.720426678657531738e-01,1.206042617559432983e-01,1.264723092317581177e-01,4.475790858268737793e-01,-4.180088341236114502e-01,-4.383550882339477539e-01,-2.739885821938514709e-02,3.848259449005126953e-01,4.183870851993560791e-01,-1.798659861087799072e-01,6.660062074661254883e-01,5.927402973175048828e-01,3.956089317798614502e-01,3.798184096813201904e-01,1.238057240843772888e-01,3.616363406181335449e-01,-3.593019768595695496e-02,-1.400461047887802124e-01
-2.003526538610458374e-01,9.114720821380615234e-01,1.081929206848144531e+00,-6.404865980148315430e-01,1.375180929899215698e-01,3.129356801509857178e-01,5.061870813369750977e-01,-5.840478539466857910e-01,-2.801412343978881836e-01,1.616943255066871643e-02,2.154065966606140137e-01,5.331557393074035645e-01,-1.812315173447132111e-02,6.251012682914733887e-01,6.246354579925537109e-01,4.988022148609161377e-01,7.291764020919799805e-01,3.584840595722198486e-01,4.012725353240966797e-01,1.754604466259479523e-02,-3.305088281631469727e-01
-2.185956090688705444e-01,9.191555976867675781e-01,1.059853911399841309e+00,-7.715976238250732422e-01,6.358630210161209106e-02,5.486237257719039917e-02,5.379273891448974609e-01,-4.526385366916656494e-01,-4.064232707023620605e-01,6.928486377000808716e-02,2.631513476371765137e-01,5.991429090499877930e-01,-3.947514295578002930e-02,3.936443924903869629e-01,6.355226039886474609e-01,3.395557105541229248e-01,5.178089737892150879e-01,-4.449856281280517578e-02,2.967680096626281738e-01,1.121542304754257202e-01,-5.244276523590087891e-01
-3.469400703907012939e-01,7.126770615577697754e-01,9.201167821884155273e-01,-5.728222131729125977e-01,-1.422077864408493042e-01,-2.900441549718379974e-02,5.310268402099609375e-01,-2.539274990558624268e-01,-3.729872703552246094e-01,6.168597936630249023e-02,2.234094440937042236e-01,7.865322828292846680e-01,3.539594262838363647e-02,2.305198460817337036e-01,5.597113966941833496e-01,2.370696216821670532e-01,5.897588729858398438e-01,1.507769078016281128e-01,5.523387193679809570e-01,1.495349258184432983e-01,-3.122618794441223145e-01
-1.750509887933731079e-01,7.916836738586425781e-01,9.853324294090270996e-01,-6.339964270591735840e-01,7.990622520446777344e-02,3.349058330059051514e-02,5.860862731933593750e-01,-2.122810482978820801e-01,-2.674001157283782959e-01,-3.538693115115165710e-02,3.085014820098876953e-01,8.152573108673095703e-01,-8.794679492712020874e-02,3.809334933757781982e-01,5.426856875419616699e-01,1.674886792898178101e-02,3.269472718238830566e-01,-1.106292754411697388e-02,4.054462909698486328e-01,9.092110395431518555e-02,-2.880615592002868652e-01
-1.867556124925613403e-01,9.599603414535522461e-01,7.759160995483398438e-01,-6.126229763031005859e-01,-2.054264396429061890e-01,-2.254956811666488647e-01,5.501148700714111328e-01,-1.924326568841934204e-01,-1.082653552293777466e-01,1.177239194512367249e-01,5.139465928077697754e-01,8.949309587478637695e-01,8.511401712894439697e-02,3.488435149192810059e-01,3.390278220176696777e-01,1.459775269031524658e-01,4.702007770538330078e-01,2.687626890838146210e-02,5.371105074882507324e-01,-1.457739062607288361e-02,-2.790839076042175293e-01
-5.606207251548767090e-01,7.286504507064819336e-01,7.899221181869506836e-01,-5.890111923217773438e-01,-1.024310663342475891e-01,-1.606962978839874268e-01,6.273620128631591797e-01,7.140234112739562988e-02,1.809145808219909668e-01,1.880774945020675659e-01,3.441544175148010254e-01,8.126915693283081055e-01,3.791332542896270752e-01,2.884967066347599030e-02,3.188696205615997314e-01,1.998853236436843872e-01,2.991405725479125977e-01,-6.189251318573951721e-02,5.995509624481201172e-01,-1.706910431385040283e-01,-2.804290354251861572e-01
-3.726420700550079346e-01,6.712372303009033203e-01,6.759056448936462402e-01,-6.705242395401000977e-01,-1.157671138644218445e-01,5.073329433798789978e-03,7.339005470275878906e-01,-3.636384308338165283e-01,1.298709511756896973e-01,-1.228851359337568283e-02,1.003404706716537476e-01,9.053004980087280273e-01,2.901930809020996094e-01,-2.853365056216716766e-02,3.788693845272064209e-01,1.608077138662338257e-01,1.630069166421890259e-01,-1.091209426522254944e-01,5.502380132675170898e-01,-1.216503083705902100e-01,-5.403444766998291016e-01
-5.517357587814331055e-01,7.423269152641296387e-01,7.617559432983398438e-01,-6.850995421409606934e-01,-3.622094690799713135e-01,-1.401434540748596191e-01,6.705916523933410645e-01,-2.196676470339298248e-02,4.734576866030693054e-02,1.933878473937511444e-02,2.181285023689270020e-01,5.478271842002868652e-01,5.594410896301269531e-01,-1.718033999204635620e-01,3.810129314661026001e-02,1.762004792690277100e-01,2.065315842628479004e-01,-1.153700500726699829e-01,6.889229416847229004e-01,-3.851443529129028320e-02,-3.531835973262786865e-01
-5.620872974395751953e-01,7.612031698226928711e-01,4.825351536273956299e-01,-6.617736220359802246e-01,-3.480880558490753174e-01,-1.540595293045043945e-01,4.396667778491973877e-01,9.179796092212200165e-03,-1.402897685766220093e-01,-1.163693517446517944e-01,2.311702668666839600e-01,6.166189908981323242e-01,3.749983012676239014e-01,-1.499673873186111450e-01,8.151152171194553375e-03,2.042461782693862915e-01,9.572934359312057495e-04,-1.244278177618980408e-01,5.618018507957458496e-01,-1.743136048316955566e-01,-2.430936098098754883e-01
-4.115945994853973389e-01,7.121511697769165039e-01,4.351137578487396240e-01,-3.516991734504699707e-01,-3.015032708644866943e-01,-1.408767849206924438e-01,5.728366374969482422e-01,2.072797417640686035e-01,2.173728048801422119e-01,-2.280030101537704468e-01,2.256619930267333984e-01,5.012094378471374512e-01,5.099207758903503418e-01,-3.083565235137939453e-01,-2.180666923522949219e-01,2.900196611881256104e-01,3.143147751688957214e-02,-2.233453840017318726e-01,6.678053736686706543e-01,-2.181579731404781342e-02,-4.169350862503051758e-01
-3.358668684959411621e-01,6.224190592765808105e-01,3.096240460872650146e-01,-3.887704908847808838e-01,-2.817359566688537598e-01,-6.980904936790466309e-02,5.128927230834960938e-01,5.360863730311393738e-02,1.507565230131149292e-01,-3.532109856605529785e-01,4.256002902984619141e-01,5.972484946250915527e-01,6.501643061637878418e-01,-2.614032030105590820e-01,-2.459328174591064453e-01,4.501632601022720337e-02,-2.159570530056953430e-02,-3.963283449411392212e-02,3.502518832683563232e-01,-1.664481014013290405e-01,-3.905542194843292236e-01
-1.102266013622283936e-01,5.884329676628112793e-01,5.110667347908020020e-01,-5.268330574035644531e-01,-7.213107347488403320e-01,1.616522371768951416e-01,4.164577722549438477e-01,5.451560765504837036e-02,2.034113556146621704e-02,-4.548179805278778076e-01,2.446218580007553101e-01,3.363139927387237549e-01,6.191525459289550781e-01,-2.230067998170852661e-01,-4.501726925373077393e-01,1.440975964069366455e-01,5.829359591007232666e-02,-1.986223459243774414e-01,3.153102099895477295e-01,-8.465756475925445557e-02,-2.504999935626983643e-01
-3.440812528133392334e-01,3.351661860942840576e-01,2.724032700061798096e-01,-3.420744240283966064e-01,-4.366244673728942871e-01,-5.133941769599914551e-03,5.278661251068115234e-01,-6.269905716180801392e-02,3.589451685547828674e-02,-4.843194186687469482e-01,3.651934266090393066e-01,2.813389599323272705e-01,7.212899327278137207e-01,-6.435086578130722046e-02,-5.065611004829406738e-01,3.095692992210388184e-01,1.875815093517303467e-01,-1.647354066371917725e-01,1.563368141651153564e-01,-5.877961590886116028e-02,-1.131974607706069946e-01
-1.088033765554428101e-01,4.836037158966064453e-01,6.888909339904785156e-01,-7.679885625839233398e-01,-5.936185717582702637e-01,1.074654459953308105e-01,4.492447674274444580e-01,-4.952610470354557037e-03,-1.870154291391372681e-01,-3.141829073429107666e-01,3.991149663925170898e-01,1.808246225118637085e-01,6.482717394828796387e-01,-6.799836456775665283e-02,-4.096616506576538086e-01,4.772489070892333984e-01,1.685196608304977417e-01,-1.302655041217803955e-01,-1.112740263342857361e-01,4.761938750743865967e-02,-1.781628131866455078e-01
1.009908318519592285e-01,2.075230777263641357e-01,3.802647590637207031e-01,-5.291184782981872559e-01,-5.183400511741638184e-01,-2.400972545146942139e-01,4.553487598896026611e-01,-2.090968638658523560e-01,-1.924251466989517212e-01,-4.286136925220489502e-01,4.864288270473480225e-01,2.789387106895446777e-01,7.350236773490905762e-01,-3.660558164119720459e-02,-3.540839254856109619e-01,4.383766949176788330e-01,1.645805537700653076e-01,-3.347700834274291992e-01,-2.442454099655151367e-01,-1.580110006034374237e-02,-2.099818289279937744e-01
2.672371566295623779e-01,4.464907050132751465e-01,5.388788580894470215e-01,-6.395705342292785645e-01,-4.807933270931243896e-01,-6.761682033538818359e-02,5.743843317031860352e-01,-2.969199120998382568e-01,-7.385855168104171753e-02,-2.284960597753524780e-01,4.823616743087768555e-01,6.129157915711402893e-02,6.323091983795166016e-01,-3.623186945915222168e-01,-2.801376283168792725e-01,4.903749525547027588e-01,4.816306382417678833e-02,-1.726431399583816528e-01,-2.513985633850097656e-01,6.232045590877532959e-02,1.405031979084014893e-01
2.333548963069915771e-01,5.326242446899414062e-01,5.476530790328979492e-01,-7.021483778953552246e-01,-3.727555274963378906e-01,-2.457610964775085449e-01,4.731140732765197754e-01,-5.183421969413757324e-01,-3.798740208148956299e-01,-1.407295763492584229e-01,4.185411036014556885e-01,4.698541462421417236e-01,6.211569905281066895e-01,-1.699820011854171753e-01,-2.336727976799011230e-01,5.097168087959289551e-01,3.527652323246002197e-01,-2.692572474479675293e-01,-3.356498181819915771e-01,2.412324249744415283e-01,-2.332229167222976685e-02
4.777649939060211182e-01,7.314769029617309570e-01,3.627765774726867676e-01,-5.716435313224792480e-01,-2.115320116281509399e-01,-1.561692208051681519e-01,2.799374163150787354e-01,-3.434955179691314697e-01,-2.278929799795150757e-01,4.306743294000625610e-02,5.031239390373229980e-01,3.537867367267608643e-01,5.202043056488037109e-01,-1.729885786771774292e-01,-3.008859157562255859e-01,9.392149448394775391e-01,3.251195847988128662e-01,-1.591566950082778931e-01,-6.399003267288208008e-01,2.527099549770355225e-01,2.286046743392944336e-01
5.325908064842224121e-01,3.521781861782073975e-01,6.260592937469482422e-01,-5.337271690368652344e-01,-4.608792066574096680e-02,-7.837523519992828369e-02,5.022423267364501953e-01,-6.178396940231323242e-01,-1.447706371545791626e-01,4.228070750832557678e-02,5.691230297088623047e-01,3.562755584716796875e-01,4.778807759284973145e-01,-3.959725797176361084e-01,-9.631590545177459717e-02,6.347934603691101074e-01,3.447715640068054199e-01,-4.904600232839584351e-02,-6.349215507507324219e-01,3.764851391315460205e-01,-8.260696381330490112e-02
6.039697527885437012e-01,5.301215052604675293e-01,3.565417230129241943e-01,-6.617237329483032227e-01,-1.607692241668701172e-01,-2.791448831558227539e-01,4.424912929534912109e-01,-3.110257387161254883e-01,-1.110998466610908508e-01,1.426238566637039185e-01,7.860910892486572266e-01,4.216431379318237305e-01,5.122106075286865234e-01,-2.214857935905456543e-01,4.943255800753831863e-03,5.738067030906677246e-01,3.278460800647735596e-01,-7.886079698801040649e-02,-5.365617871284484863e-01,2.731984555721282959e-01,1.378823965787887573e-01
3.888080120086669922e-01,4.783381521701812744e-01,4.812397658824920654e-01,-7.088283300399780273e-01,7.756604999303817749e-02,-1.259219497442245483e-01,2.591716349124908447e-01,-4.188836514949798584e-01,-1.277087032794952393e-01,2.771516442298889160e-01,7.438811063766479492e-01,5.590649247169494629e-01,3.043555915355682373e-01,-5.603598952293395996e-01,-2.274961322546005249e-01,9.056784510612487793e-01,4.408544301986694336e-01,-1.917252391576766968e-01,-4.439268708229064941e-01,4.198346138000488281e-01,-8.108138293027877808e-02
6.033300161361694336e-01,3.842149376869201660e-01,4.856931269168853760e-01,-4.143308103084564209e-01,1.586720943450927734e-01,-1.751595586538314819e-01,2.276670336723327637e-01,-5.887187719345092773e-01,-1.381912082433700562e-01,1.129269301891326904e-01,9.325764179229736328e-01,4.734682738780975342e-01,3.343267440795898438e-01,-3.884914815425872803e-01,-3.344551622867584229e-01,6.286882758140563965e-01,5.825369358062744141e-01,-9.515786170959472656e-02,-5.120850205421447754e-01,5.089005827903747559e-01,-2.450855374336242676e-01
6.526677608489990234e-01,6.028708815574645996e-01,4.721519649028778076e-01,-4.082528948783874512e-01,1.015740707516670227e-01,-1.213511750102043152e-01,1.457021236419677734e-01,-2.555437982082366943e-01,-9.520509839057922363e-02,4.494718611240386963e-01,8.060705065727233887e-01,5.714668631553649902e-01,1.842824965715408325e-01,-3.962012827396392822e-01,-2.670555114746093750e-01,7.465573549270629883e-01,4.952844679355621338e-01,2.349859476089477539e-02,-3.616682589054107666e-01,2.258832007646560669e-01,-1.787018775939941406e-01
4.814572334289550781e-01,8.045876622200012207e-01,4.980518221855163574e-01,-3.071329295635223389e-01,2.195024341344833374e-01,-6.241965293884277344e-02,1.036820095032453537e-02,-4.875771105289459229e-01,2.767597325146198273e-02,4.382454454898834229e-01,8.074366450309753418e-01,3.531576693058013916e-01,2.407497167587280273e-01,-2.598260939121246338e-01,-1.987994462251663208e-01,4.294989407062530518e-01,6.206368803977966309e-01,2.177256643772125244e-01,-5.284771919250488281e-01,2.166665643453598022e-01,-4.405900239944458008e-01
6.582833528518676758e-01,5.653938055038452148e-01,5.071929097175598145e-01,5.248178169131278992e-02,9.899452328681945801e-02,-2.309742867946624756e-01,-2.785856723785400391e-01,-3.307102918624877930e-01,-1.081916838884353638e-01,4.377401471138000488e-01,9.303246140480041504e-01,5.910529494285583496e-01,4.176219701766967773e-01,-6.668751835823059082e-01,-4.381195902824401855e-01,4.479007720947265625e-01,8.215061426162719727e-01,2.047521471977233887e-01,-4.893876910209655762e-01,3.502193689346313477e-01,-3.797888457775115967e-01
7.991933226585388184e-01,4.498582184314727783e-01,6.147275567054748535e-01,4.631570726633071899e-02,-7.104680407792329788e-03,-3.493605256080627441e-01,-3.295504152774810791e-01,-4.829127192497253418e-01,-1.688588708639144897e-01,4.039994180202484131e-01,1.021660327911376953e+00,6.790919303894042969e-01,2.281306684017181396e-01,-5.092646479606628418e-01,-3.160039484500885010e-01,1.999204754829406738e-01,8.423570990562438965e-01,2.476107925176620483e-01,-2.011236399412155151e-01,8.866033703088760376e-02,-4.098411202430725098e-01
6.511148214340209961e-01,3.994978666305541992e-01,5.774822831153869629e-01,8.005749434232711792e-02,8.833013474941253662e-02,-7.228704690933227539e-01,-6.761524677276611328e-01,-4.590219557285308838e-01,-1.169249787926673889e-01,5.781907439231872559e-01,1.106875181198120117e+00,4.449487030506134033e-01,5.311499238014221191e-01,-4.754346609115600586e-01,-4.106552302837371826e-01,2.905981540679931641e-01,7.325547337532043457e-01,1.013958081603050232e-01,-1.768471002578735352e-01,1.659687161445617676e-01,-4.641860425472259521e-01
7.484452724456787109e-01,3.298754394054412842e-01,7.985960841178894043e-01,5.236020684242248535e-01,2.307904213666915894e-01,-5.221651792526245117e-01,-6.211181282997131348e-01,-4.055402278900146484e-01,-5.464669317007064819e-02,5.235653519630432129e-01,1.012903451919555664e+00,7.563723325729370117e-01,5.111878514289855957e-01,-5.677371025085449219e-01,-2.789734005928039551e-01,2.829008996486663818e-01,8.299492001533508301e-01,6.894136220216751099e-02,-2.054585218429565430e-01,1.342477798461914062e-01,-2.107345908880233765e-01
7.541252374649047852e-01,-9.437791258096694946e-02,6.182472109794616699e-01,4.004389047622680664e-01,2.675327956676483154e-01,-4.909296631813049316e-01,-6.831744313240051270e-01,-3.815201818943023682e-01,8.355288766324520111e-03,5.413385033607482910e-01,1.049758553504943848e+00,6.941106915473937988e-01,6.542342901229858398e-01,-4.786043465137481689e-01,-3.185813724994659424e-01,-2.051882445812225342e-02,9.168558120727539062e-01,-1.267757862806320190e-01,-2.778593003749847412e-01,-2.729803621768951416e-01,-9.619970619678497314e-02
5.849205851554870605e-01,3.934609517455101013e-02,4.844155907630920410e-01,4.724818468093872070e-01,1.411011815071105957e-01,-8.544144630432128906e-01,-5.911227464675903320e-01,-3.029378354549407959e-01,1.606097072362899780e-01,4.790677130222320557e-01,8.227214813232421875e-01,7.934465408325195312e-01,7.242654561996459961e-01,-7.412348985671997070e-01,-2.839799225330352783e-01,2.882587611675262451e-01,8.219142556190490723e-01,-3.135809898376464844e-01,-3.581090867519378662e-01,-1.503283232450485229e-01,-6.585434824228286743e-02
5.172981619834899902e-01,8.243209682404994965e-03,3.925172686576843262e-01,4.432572424411773682e-01,7.662502676248550415e-02,-1.170619964599609375e+00,-4.690192937850952148e-01,-5.186128020286560059e-01,2.291212677955627441e-01,5.084403157234191895e-01,6.056713461875915527e-01,7.771437168121337891e-01,6.975048780441284180e-01,-8.377952575683593750e-01,-1.830133646726608276e-01,3.087872564792633057e-01,7.137623429298400879e-01,-4.489490091800689697e-01,-4.972678720951080322e-01,-9.535056352615356445e-02,1.222498714923858643e-01
6.373462677001953125e-01,-6.712181866168975830e-02,3.707201182842254639e-01,3.929571807384490967e-01,1.253434568643569946e-01,-1.088393926620483398e+00,-6.506006121635437012e-01,-4.642634093761444092e-01,2.564159631729125977e-01,5.399215221405029297e-01,5.715399384498596191e-01,6.896335482597351074e-01,6.098079681396484375e-01,-1.050296902656555176e+00,-3.211588859558105469e-01,3.440375328063964844e-01,6.595734357833862305e-01,-3.513129055500030518e-01,-2.442824095487594604e-01,-6.616840511560440063e-02,1.185538843274116516e-01
4.228458702564239502e-01,-2.863358259201049805e-01,7.474038004875183105e-02,5.113710165023803711e-01,5.882043391466140747e-02,-1.208630442619323730e+00,-6.068263649940490723e-01,-3.698990941047668457e-01,3.569241464138031006e-01,4.129760563373565674e-01,6.379542350769042969e-01,7.946431040763854980e-01,5.003266334533691406e-01,-1.184842467308044434e+00,-5.212603211402893066e-01,2.145430892705917358e-01,5.011317729949951172e-01,-4.616155624389648438e-01,-1.800332665443420410e-01,-1.150034293532371521e-01,2.320019453763961792e-01
3.238987028598785400e-01,-2.477367222309112549e-01,7.616133242845535278e-02,3.174876868724822998e-01,2.836834192276000977e-01,-1.199873328208923340e+00,-4.410371184349060059e-01,-1.777310222387313843e-01,3.957991898059844971e-01,4.895479083061218262e-01,3.451442420482635498e-01,7.029661536216735840e-01,4.806699752807617188e-01,-8.965918421745300293e-01,-3.283197581768035889e-01,1.677884012460708618e-01,4.149263501167297363e-01,-5.169955492019653320e-01,-1.115717813372612000e-01,-1.688770502805709839e-01,1.749966442584991455e-01
2.944841980934143066e-01,-3.389614522457122803e-01,-1.100723668932914734e-01,3.289546668529510498e-01,4.085480272769927979e-01,-7.269484400749206543e-01,-3.730925619602203369e-01,-1.154527589678764343e-01,3.968712091445922852e-01,1.991582810878753662e-01,2.811483144760131836e-01,6.964316964149475098e-01,7.270094752311706543e-01,-1.018365621566772461e+00,-6.075758337974548340e-01,1.216667816042900085e-01,3.133041262626647949e-01,-4.742037057876586914e-01,9.151175618171691895e-02,-4.042152781039476395e-03,1.448336988687515259e-01
2.171360850334167480e-01,-3.404246568679809570e-01,-1.358434706926345825e-01,3.886122405529022217e-01,3.167057633399963379e-01,-1.094419836997985840e+00,-2.888348698616027832e-01,-3.727109357714653015e-02,3.688220679759979248e-01,2.553119063377380371e-01,3.205635249614715576e-01,4.967266023159027100e-01,4.917135536670684814e-01,-1.044725179672241211e+00,-6.207869052886962891e-01,-4.996551573276519775e-02,1.702288389205932617e-01,-4.702795147895812988e-01,-3.334848880767822266e-01,2.107896208763122559e-01,2.597689926624298096e-01
3.138977885246276855e-01,-3.108015358448028564e-01,-4.216112196445465088e-01,2.916750013828277588e-01,3.938218355178833008e-01,-1.077666521072387695e+00,-4.713624417781829834e-01,-1.098062917590141296e-01,1.804457306861877441e-01,3.709647059440612793e-01,2.279295176267623901e-01,5.845641493797302246e-01,6.338712573051452637e-01,-9.460760354995727539e-01,-7.178192734718322754e-01,-2.770463936030864716e-02,1.514966934919357300e-01,-5.061879754066467285e-01,-2.758375108242034912e-01,6.024514138698577881e-02,3.510355353355407715e-01
2.516394257545471191e-01,-4.181117415428161621e-01,-3.220961987972259521e-01,1.899797320365905762e-01,4.204541444778442383e-01,-7.848889827728271484e-01,-3.876324594020843506e-01,-1.547124981880187988e-01,1.324639469385147095e-01,3.960936367511749268e-01,2.675594687461853027e-01,5.204441547393798828e-01,4.701440036296844482e-01,-1.165424942970275879e+00,-6.511742472648620605e-01,-8.554031699895858765e-02,1.659237742424011230e-01,-4.056302309036254883e-01,-3.100312948226928711e-01,-2.124974271282553673e-03,4.683595299720764160e-01
2.360832542181015015e-01,-3.802296221256256104e-01,-5.165676474571228027e-01,1.350247561931610107e-01,4.160667955875396729e-01,-1.043522953987121582e+00,-3.151184320449829102e-01,-3.428547084331512451e-01,1.065049543976783752e-01,3.620124459266662598e-01,2.680142521858215332e-01,2.933724522590637207e-01,3.422011137008666992e-01,-7.439615130424499512e-01,-5.990561246871948242e-01,1.144492402672767639e-01,-1.596361026167869568e-02,-3.910000324249267578e-01,-1.941941827535629272e-01,9.106571972370147705e-02,5.196226239204406738e-01
2.876486480236053467e-01,-5.635020732879638672e-01,-2.494309544563293457e-01,2.676062285900115967e-01,3.846588134765625000e-01,-5.876485705375671387e-01,-4.873267412185668945e-01,-1.843728572130203247e-01,6.515992432832717896e-02,2.010777592658996582e-01,2.500831484794616699e-01,1.271811872720718384e-01,4.014617502689361572e-01,-8.668206334114074707e-01,-6.850613951683044434e-01,1.076416298747062683e-01,1.739237904548645020e-01,-2.952250838279724121e-01,-1.648784428834915161e-01,2.585033774375915527e-01,5.212479233741760254e-01
3.795825839042663574e-01,-2.867087721824645996e-01,-2.343681901693344116e-01,1.204770356416702271e-01,2.916869521141052246e-01,-7.006489634513854980e-01,-1.745676696300506592e-01,-3.835573196411132812e-01,-6.042176857590675354e-02,1.911731660366058350e-01,3.017208576202392578e-01,-5.910472944378852844e-02,2.545238435268402100e-01,-7.648366689682006836e-01,-4.092674851417541504e-01,1.465249806642532349e-01,5.365936458110809326e-02,-4.024184048175811768e-01,-5.860260128974914551e-01,1.527120023965835571e-01,6.564273834228515625e-01
4.636670053005218506e-01,-2.809493541717529297e-01,-2.143065184354782104e-01,1.258875578641891479e-01,6.154645681381225586e-01,-5.162512063980102539e-01,-4.145964086055755615e-01,-6.645684242248535156e-01,-2.392360419034957886e-01,9.123015403747558594e-02,4.263711273670196533e-01,-1.994214206933975220e-01,3.203662931919097900e-01,-5.687062144279479980e-01,-3.841900527477264404e-01,-2.419986389577388763e-02,9.549915790557861328e-02,-4.033783450722694397e-02,-6.435852050781250000e-01,1.139857899397611618e-02,6.045376658439636230e-01
4.121056795120239258e-01,-1.347884386777877808e-01,-2.035399228334426880e-01,9.060277789831161499e-02,6.920791864395141602e-01,-4.945380985736846924e-01,-3.600790798664093018e-01,-5.941391587257385254e-01,-2.136377096176147461e-01,8.188930153846740723e-02,5.836844444274902344e-01,-1.454282850027084351e-01,2.321758270263671875e-01,-4.318790733814239502e-01,-5.269628167152404785e-01,2.028919607400894165e-01,2.697139680385589600e-01,-1.851045340299606323e-01,-5.390160083770751953e-01,2.185025215148925781e-01,5.726682543754577637e-01
3.364246785640716553e-01,-3.684323430061340332e-01,-1.971102654933929443e-01,1.752241551876068115e-01,5.029466152191162109e-01,-5.814366936683654785e-01,-2.193787097930908203e-01,-6.896680593490600586e-01,-2.337724268436431885e-01,3.228607475757598877e-01,3.758164942264556885e-01,-2.358639985322952271e-02,1.833195686340332031e-01,-2.152898609638214111e-01,-2.721802592277526855e-01,3.194744884967803955e-02,1.794880032539367676e-01,-4.988817870616912842e-01,-6.667978167533874512e-01,1.070954278111457825e-01,5.357659459114074707e-01
4.838527739048004150e-01,-2.987474203109741211e-01,-2.419708073139190674e-01,5.036969110369682312e-02,5.782598257064819336e-01,-5.344963669776916504e-01,-4.794293344020843506e-01,-5.495989322662353516e-01,-2.369715571403503418e-01,3.122993707656860352e-01,5.012308955192565918e-01,4.192493855953216553e-02,2.591941952705383301e-01,-4.952588081359863281e-01,-1.444480121135711670e-01,1.244094446301460266e-01,2.850271165370941162e-01,-1.485440582036972046e-01,-6.502065658569335938e-01,7.254048436880111694e-02,6.822327375411987305e-01
4.511368870735168457e-01,-1.144680455327033997e-01,-2.195719480514526367e-01,-1.086222827434539795e-01,7.143122553825378418e-01,-4.917843937873840332e-01,-9.341488033533096313e-02,-7.587820291519165039e-01,-4.029065072536468506e-01,1.826851963996887207e-01,4.810868203639984131e-01,-1.831805109977722168e-01,7.852509617805480957e-02,-1.882586926221847534e-01,-6.425622850656509399e-02,8.221653848886489868e-02,4.099777340888977051e-01,-2.851964831352233887e-01,-5.694168806076049805e-01,7.917871326208114624e-02,4.308831095695495605e-01
5.443661808967590332e-01,-2.920309007167816162e-01,-2.359466850757598877e-01,1.341539025306701660e-01,8.985727429389953613e-01,-4.967579841613769531e-01,-1.475404649972915649e-01,-9.119901657104492188e-01,-4.504994451999664307e-01,3.224186897277832031e-01,3.552394807338714600e-01,-1.057040505111217499e-02,3.183635324239730835e-02,-2.615106999874114990e-01,1.101105883717536926e-01,1.388765573501586914e-01,2.862285375595092773e-01,-3.111280500888824463e-01,-5.955631136894226074e-01,9.504257887601852417e-02,4.366520643234252930e-01
6.868417263031005859e-01,-1.262062788009643555e-01,-1.560784578323364258e-01,-6.155511364340782166e-02,1.081666111946105957e+00,-5.638196468353271484e-01,-2.126247137784957886e-01,-6.732927560806274414e-01,-3.225363790988922119e-01,5.042039155960083008e-01,4.211429357528686523e-01,2.167958915233612061e-01,-1.295593567192554474e-02,-2.260099947452545166e-01,4.002360403537750244e-01,-5.710934102535247803e-02,1.985485851764678955e-01,-1.359859108924865723e-02,-7.037336826324462891e-01,2.054929435253143311e-01,2.964181900024414062e-01
