Fp1,Fp2,F7,F3,Fz,F4,F8,T3,C3,Cz,C4,T4,T5,P3,Pz,P4,T6,O1,Oz,O2,A1
-3.087641298770904541e-01,-9.595576524734497070e-01,3.474314808845520020e-01,-8.163402080535888672e-01,-4.769236743450164795e-01,3.008010089397430420e-01,-3.811315298080444336e-01,5.327976122498512268e-02,2.435858128592371941e-03,-3.818707168102264404e-01,1.834252476692199707e-01,7.935876399278640747e-02,-1.725259870290756226e-01,4.696019887924194336e-01,-1.942231208086013794e-01,3.851212859153747559e-01,-1.024867177009582520e+00,-1.939872950315475464e-01,3.422806560993194580e-01,3.916190564632415771e-01,-1.402228698134422302e-02
-3.906749188899993896e-01,-8.394389748573303223e-01,1.693543046712875366e-01,-7.267875671386718750e-01,-4.358460009098052979e-01,5.246953368186950684e-01,-1.141842305660247803e-01,-1.441616863012313843e-01,3.522993996739387512e-03,-4.013493284583091736e-02,1.460067480802536011e-01,2.113175690174102783e-01,-7.717887312173843384e-02,4.438289105892181396e-01,-3.497541546821594238e-01,5.507402420043945312e-01,-9.872045516967773438e-01,-1.172243803739547729e-01,2.679725885391235352e-01,5.530261397361755371e-01,1.351957321166992188e-01
-6.114342212677001953e-01,-1.012454032897949219e+00,1.674329638481140137e-01,-4.749138653278350830e-01,-5.732104778289794922e-01,2.572514414787292480e-01,-2.477932274341583252e-01,-1.042670160531997681e-01,-2.686874754726886749e-02,-1.804912239313125610e-01,1.853798329830169678e-01,-2.449752530083060265e-03,9.775255620479583740e-02,1.146245822310447693e-01,-4.526874721050262451e-01,3.398225307464599609e-01,-1.055290818214416504e+00,-7.689022272825241089e-02,1.844206750392913818e-01,3.104261755943298340e-01,1.597744971513748169e-01
-6.853113770484924316e-01,-8.751848340034484863e-01,2.548445165157318115e-01,-5.915899872779846191e-01,-5.306926965713500977e-01,-9.723112918436527252e-03,-1.063941866159439087e-01,-2.056391537189483643e-01,8.014028519392013550e-02,-1.220514625310897827e-01,1.499455720186233521e-01,-6.282148510217666626e-02,1.278466582298278809e-01,3.743295073509216309e-01,-5.893155932426452637e-01,3.214323520660400391e-01,-9.010138511657714844e-01,-1.221612766385078430e-01,4.066254794597625732e-01,2.762390375137329102e-01,4.824241623282432556e-02
-5.472994446754455566e-01,-6.845022439956665039e-01,2.602492272853851318e-01,-4.529181420803070068e-01,-5.760299563407897949e-01,1.053137034177780151e-01,-3.560761809349060059e-01,-4.587472379207611084e-01,3.885360062122344971e-02,1.576960235834121704e-01,7.779168337583541870e-02,-1.438950896263122559e-01,1.105737090110778809e-01,2.113082557916641235e-01,-6.510754227638244629e-01,4.620401561260223389e-01,-1.138451814651489258e+00,1.035579144954681396e-01,1.569084674119949341e-01,3.035619556903839111e-01,7.658535987138748169e-02
-6.519468426704406738e-01,-7.993783950805664062e-01,3.983107209205627441e-01,-3.819889724254608154e-01,-5.088790059089660645e-01,-2.358614094555377960e-02,-9.742110967636108398e-02,-3.897357285022735596e-01,-8.538542687892913818e-02,3.928810730576515198e-02,5.088820457458496094e-01,-4.755156636238098145e-01,8.861815184354782104e-02,2.004887014627456665e-01,-2.674532532691955566e-01,1.496608853340148926e-01,-1.022681474685668945e+00,1.927757076919078827e-02,2.052307724952697754e-01,3.004523515701293945e-01,2.585960030555725098e-01
-6.842740178108215332e-01,-4.948392808437347412e-01,5.706465989351272583e-02,-3.252535760402679443e-01,-4.148707091808319092e-01,-3.324456214904785156e-01,-2.975125908851623535e-01,-4.469810426235198975e-01,-2.348313480615615845e-01,-7.040781527757644653e-02,1.905512809753417969e-02,-4.596444368362426758e-01,1.268843561410903931e-01,4.479682445526123047e-02,-4.751158356666564941e-01,-6.170984823256731033e-03,-7.682905197143554688e-01,-4.902902245521545410e-02,2.118173241615295410e-01,-2.385518513619899750e-02,2.306065112352371216e-01
-1.025753855705261230e+00,-6.619374752044677734e-01,3.920679092407226562e-01,-2.586598694324493408e-01,-4.413294792175292969e-01,-3.395212590694427490e-01,-2.729011178016662598e-01,-5.694827437400817871e-01,-1.562216579914093018e-01,-1.276190876960754395e-01,3.693540096282958984e-01,-6.794242858886718750e-01,1.153298392891883850e-01,1.848921328783035278e-01,-6.883139610290527344e-01,-2.550692856311798096e-01,-5.710395574569702148e-01,1.693410724401473999e-01,-5.192084237933158875e-03,-2.327217534184455872e-02,2.622570395469665527e-01
-9.499309659004211426e-01,-3.725466132164001465e-01,4.259909689426422119e-01,-4.764940440654754639e-01,-4.259740710258483887e-01,-4.074657559394836426e-01,-4.083379209041595459e-01,-4.101398885250091553e-01,-4.036037623882293701e-01,-8.314297348260879517e-02,2.643544077873229980e-01,-5.501394867897033691e-01,-7.483025640249252319e-02,1.105825006961822510e-01,-5.246759653091430664e-01,-1.500946003943681717e-02,-5.833160281181335449e-01,1.212583929300308228e-01,1.257248781621456146e-02,-7.282954454421997070e-02,2.122375816106796265e-01
-7.423938512802124023e-01,-3.658132553100585938e-01,3.510437905788421631e-01,-2.667791843414306641e-01,-4.316573143005371094e-01,-4.398769736289978027e-01,-3.790421485900878906e-01,-5.604317784309387207e-01,-3.430433869361877441e-01,-2.154136896133422852e-01,5.354897975921630859e-01,-7.837848067283630371e-01,3.152756486088037491e-03,1.636329442262649536e-01,-3.102087974548339844e-01,-2.178339511156082153e-01,-5.338381528854370117e-01,-5.321658030152320862e-02,-4.921029880642890930e-02,1.394255161285400391e-01,1.094947606325149536e-01
-1.013163566589355469e+00,-2.358959913253784180e-01,1.020559296011924744e-01,-3.361269533634185791e-01,-1.638132035732269287e-01,-1.863853633403778076e-01,-5.660173892974853516e-01,-5.899703502655029297e-01,-6.083158254623413086e-01,-2.636090219020843506e-01,5.039817690849304199e-01,-8.949906826019287109e-01,-2.614334821701049805e-01,2.382644861936569214e-01,-4.193562567234039307e-01,-4.323876500129699707e-01,-4.339020550251007080e-01,1.669866889715194702e-01,-6.828944385051727295e-02,-4.081096127629280090e-02,3.419649600982666016e-01
-7.816161513328552246e-01,-1.800063103437423706e-01,1.443321406841278076e-01,-2.332837134599685669e-01,-2.413210831582546234e-02,-2.390467226505279541e-01,-5.923386216163635254e-01,-4.045900106430053711e-01,-4.978918731212615967e-01,-2.411009185016155243e-02,6.989456415176391602e-01,-9.166840314865112305e-01,-2.912048399448394775e-01,8.187810331583023071e-02,-8.529798686504364014e-02,-3.145470917224884033e-01,-3.085109591484069824e-01,1.170451045036315918e-01,-1.199818681925535202e-02,1.062479615211486816e-01,6.755375117063522339e-02
-1.180561542510986328e+00,-8.840021491050720215e-02,2.848661541938781738e-01,-3.269361257553100586e-01,-9.982910007238388062e-03,-8.020029217004776001e-02,-4.843035340309143066e-01,-3.386747539043426514e-01,-6.928380727767944336e-01,-2.833782434463500977e-01,7.491984367370605469e-01,-1.011793613433837891e+00,-2.648714184761047363e-01,1.670206896960735321e-02,-2.966758906841278076e-01,-3.427653312683105469e-01,-2.997500598430633545e-01,2.529463171958923340e-01,1.664738059043884277e-01,1.499895658344030380e-02,1.352172940969467163e-01
-8.856061100959777832e-01,-1.195301041007041931e-01,-1.353005063720047474e-03,1.681821234524250031e-02,4.485897254198789597e-03,-1.200750991702079773e-01,-3.326990008354187012e-01,-4.400000572204589844e-01,-4.399405121803283691e-01,-2.309287935495376587e-01,7.029700875282287598e-01,-9.626325964927673340e-01,-2.421693801879882812e-01,-1.513870507478713989e-01,-3.831408321857452393e-01,-5.026686787605285645e-01,-3.079168200492858887e-01,1.978540420532226562e-01,-1.543329209089279175e-01,5.986522138118743896e-02,2.875409722328186035e-01
-9.036691784858703613e-01,-1.068283319473266602e-01,3.461557207629084587e-03,-6.246138364076614380e-02,1.163344830274581909e-01,-6.124258413910865784e-02,-3.942558169364929199e-01,-3.446647524833679199e-01,-4.574234485626220703e-01,-3.225256204605102539e-01,8.963088989257812500e-01,-6.872510313987731934e-01,-3.311062455177307129e-01,-3.097010590136051178e-02,-1.837156862020492554e-01,-4.191563129425048828e-01,-2.765105366706848145e-01,1.691758036613464355e-01,-1.721066981554031372e-02,3.400569558143615723e-01,2.619165778160095215e-01
-8.863676190376281738e-01,-3.280424699187278748e-02,-2.383457124233245850e-01,-1.032240018248558044e-01,1.811646521091461182e-01,1.771365404129028320e-01,-1.873564869165420532e-01,-1.341532468795776367e-01,-6.137224435806274414e-01,-4.514771997928619385e-01,8.638876080513000488e-01,-9.479616284370422363e-01,-2.329772412776947021e-01,9.050673991441726685e-02,-2.229845821857452393e-01,-4.549904465675354004e-01,-3.885210156440734863e-01,2.655866742134094238e-01,-4.261006042361259460e-02,2.074730694293975830e-01,2.989826798439025879e-01
-8.776125907897949219e-01,-1.718660891056060791e-01,-3.374364078044891357e-01,-2.812484502792358398e-01,1.010790467262268066e-01,9.006139636039733887e-02,-7.090550661087036133e-02,-3.123708963394165039e-01,-5.623515248298645020e-01,-1.282678395509719849e-01,6.463431119918823242e-01,-6.495586633682250977e-01,-3.057297766208648682e-01,-8.971671760082244873e-02,-1.927886009216308594e-01,-4.257431328296661377e-01,-3.067069649696350098e-01,1.215874031186103821e-01,-4.048343375325202942e-02,3.635386526584625244e-01,2.992893159389495850e-01
-8.291869163513183594e-01,-1.339712738990783691e-01,-5.141711831092834473e-01,-2.652010023593902588e-01,-2.144747041165828705e-02,2.148689627647399902e-01,2.491234838962554932e-01,-3.881581127643585205e-01,-1.888716518878936768e-01,-2.612217664718627930e-01,6.047648787498474121e-01,-8.811952471733093262e-01,-8.615396218374371529e-04,-8.470784872770309448e-02,-2.057574838399887085e-01,-1.802301257848739624e-01,-4.490964114665985107e-01,-1.500528901815414429e-01,-8.098098635673522949e-02,4.192072749137878418e-01,2.652251124382019043e-01
-6.846398711204528809e-01,-3.838979899883270264e-01,-4.497581422328948975e-01,-1.430275142192840576e-01,-1.830263882875442505e-01,1.523185521364212036e-01,3.024649024009704590e-01,-8.724884688854217529e-02,-1.697553843259811401e-01,-1.957120597362518311e-01,4.449888467788696289e-01,-7.208867073059082031e-01,4.520536214113235474e-02,1.200340464711189270e-01,-2.190551012754440308e-01,-2.461834847927093506e-01,-4.180090129375457764e-01,2.337155863642692566e-03,-2.583760023117065430e-01,1.120443344116210938e-01,2.668627202510833740e-01
-6.935001015663146973e-01,-4.801137745380401611e-01,-4.954493641853332520e-01,-2.374820709228515625e-01,-1.128134503960609436e-01,2.096245586872100830e-01,7.069621980190277100e-02,-1.283018290996551514e-01,-3.219284415245056152e-01,-9.031340479850769043e-02,4.730985164642333984e-01,-9.077184200286865234e-01,-3.014164231717586517e-02,-2.621778659522533417e-02,-3.805560469627380371e-01,-3.516075015068054199e-01,-5.435748696327209473e-01,-2.134995311498641968e-01,-2.090295404195785522e-01,3.223834037780761719e-01,2.441978454589843750e-01
-4.949370622634887695e-01,-4.126112759113311768e-01,-5.298242568969726562e-01,-1.859618127346038818e-01,-1.484293788671493530e-01,-2.165238372981548309e-02,3.578630983829498291e-01,2.360807359218597412e-02,-1.093975976109504700e-01,-2.613851428031921387e-01,1.893722712993621826e-01,-6.608846187591552734e-01,2.203203886747360229e-01,9.005550295114517212e-02,-2.733615934848785400e-01,-4.502483457326889038e-02,-3.393364250659942627e-01,-2.363860607147216797e-01,-2.194263190031051636e-01,2.892196178436279297e-01,2.579312324523925781e-01
-3.845883607864379883e-01,-3.860834538936614990e-01,-4.108689427375793457e-01,-2.488398998975753784e-01,-4.232479631900787354e-01,1.101178117096424103e-03,3.205850422382354736e-01,-1.993526332080364227e-02,1.046330574899911880e-02,-6.184146553277969360e-02,5.441008508205413818e-02,-8.123191595077514648e-01,1.506384462118148804e-01,2.600812315940856934e-01,-1.987590193748474121e-01,-1.013639941811561584e-01,-5.348275303840637207e-01,-2.552512884140014648e-01,-4.185400158166885376e-02,3.020149767398834229e-01,2.415447533130645752e-01
-3.466900587081909180e-01,-3.362336158752441406e-01,-3.864206671714782715e-01,-1.589296460151672363e-01,-3.155750930309295654e-01,-6.998597085475921631e-02,3.815343976020812988e-01,1.772193908691406250e-01,-4.572264105081558228e-02,-6.874306499958038330e-02,4.514766037464141846e-01,-7.089676856994628906e-01,2.034553140401840210e-01,2.583456411957740784e-02,-2.616818845272064209e-01,4.446052014827728271e-02,-6.024456024169921875e-01,-3.987755998969078064e-02,-1.094523966312408447e-01,1.473783254623413086e-01,1.932667791843414307e-01
-2.598730027675628662e-01,-4.272242188453674316e-01,-2.160461544990539551e-01,-1.084314286708831787e-01,-2.740570306777954102e-01,7.552849501371383667e-02,3.796660900115966797e-01,3.459522724151611328e-01,-8.236213773488998413e-02,-5.453589931130409241e-02,1.541214883327484131e-01,-5.309339761734008789e-01,2.721042037010192871e-01,6.562739610671997070e-02,-2.290666550397872925e-01,1.342141628265380859e-01,-3.498866260051727295e-01,-2.713103890419006348e-01,1.291644722223281860e-01,6.759315133094787598e-01,2.949402332305908203e-01
-8.892128616571426392e-02,-2.389871329069137573e-01,-6.761603802442550659e-02,-1.954731494188308716e-01,-3.478371500968933105e-01,2.249933630228042603e-01,1.402613222599029541e-01,4.067255556583404541e-01,6.419023126363754272e-02,7.248998433351516724e-02,1.775604933500289917e-01,-4.466390013694763184e-01,4.847183227539062500e-01,1.721054315567016602e-01,-1.935360133647918701e-01,6.897251307964324951e-02,-1.443987488746643066e-01,-1.055718064308166504e-01,1.158694922924041748e-01,4.671528339385986328e-01,3.650094568729400635e-01
-2.504824101924896240e-01,-3.960208892822265625e-01,-2.683703005313873291e-01,2.726142294704914093e-02,-2.594321370124816895e-01,1.489181518554687500e-01,1.475484371185302734e-01,4.844538271427154541e-01,1.387215405702590942e-01,3.229714184999465942e-02,1.922344416379928589e-01,-5.243077278137207031e-01,3.677391111850738525e-01,2.278831005096435547e-01,-2.607067525386810303e-01,2.649939060211181641e-01,-1.862851381301879883e-01,-5.408476665616035461e-02,6.056230068206787109e-01,4.585161209106445312e-01,4.995277225971221924e-01
-2.386475950479507446e-01,-8.474936336278915405e-02,-9.333118051290512085e-02,-7.375085353851318359e-02,-3.501500189304351807e-01,5.466589704155921936e-02,2.058504372835159302e-01,5.682607293128967285e-01,1.298415660858154297e-01,3.024150431156158447e-01,2.360230833292007446e-01,-4.683338701725006104e-01,6.921023726463317871e-01,-7.190770655870437622e-02,-3.817824721336364746e-01,3.896034359931945801e-01,-3.439942896366119385e-01,-8.174324780702590942e-02,4.089498519897460938e-01,5.602430701255798340e-01,5.622552633285522461e-01
-4.649287164211273193e-01,1.226835325360298157e-01,2.787856571376323700e-02,-9.948424994945526123e-02,-2.615079879760742188e-01,1.403447985649108887e-01,-1.517673432826995850e-01,4.684136807918548584e-01,8.956110477447509766e-02,5.040593147277832031e-01,4.203042089939117432e-01,-2.016545236110687256e-01,5.471290349960327148e-01,-1.398646831512451172e-01,-2.275424450635910034e-01,3.964622914791107178e-01,1.215557102113962173e-02,1.882363110780715942e-01,5.309838652610778809e-01,3.408328294754028320e-01,6.672793626785278320e-01
-5.079454779624938965e-01,-4.575676470994949341e-02,-9.824227541685104370e-02,3.610074222087860107e-01,-1.857049912214279175e-01,8.855351060628890991e-02,1.572080142796039581e-02,5.915764570236206055e-01,6.277810037136077881e-02,5.754759311676025391e-01,3.554510176181793213e-01,-3.195117712020874023e-01,8.073894381523132324e-01,-3.087591826915740967e-01,-4.877569079399108887e-01,6.354705691337585449e-01,-8.623523265123367310e-02,3.932183980941772461e-01,6.470553874969482422e-01,5.358816981315612793e-01,7.775319218635559082e-01
-4.406922161579132080e-01,-1.730299443006515503e-01,1.173820439726114273e-02,2.202287018299102783e-01,-1.515065133571624756e-01,1.379045695066452026e-01,4.756974987685680389e-03,3.292267918586730957e-01,1.879017204046249390e-01,6.825357079505920410e-01,5.226430892944335938e-01,-6.094361469149589539e-02,7.415227890014648438e-01,-3.860231935977935791e-01,-5.614897012710571289e-01,4.758868217468261719e-01,1.281483918428421021e-01,2.941662967205047607e-01,6.067200303077697754e-01,2.248829305171966553e-01,8.171171545982360840e-01
-5.351436734199523926e-01,2.457884252071380615e-01,7.165250182151794434e-02,2.078269124031066895e-01,-2.186972945928573608e-01,2.412803098559379578e-02,-8.822003006935119629e-02,2.360528856515884399e-01,-6.795915216207504272e-02,8.486375808715820312e-01,1.850884705781936646e-01,-3.741808533668518066e-01,8.027664422988891602e-01,-6.012237071990966797e-01,-5.366137027740478516e-01,4.084683358669281006e-01,1.619887501001358032e-01,4.031149744987487793e-01,6.828601360321044922e-01,2.599980533123016357e-01,8.556986451148986816e-01
-4.304416477680206299e-01,4.156181514263153076e-01,1.199166402220726013e-01,3.710167706012725830e-01,-2.327068708837032318e-02,1.114321276545524597e-01,-1.406146138906478882e-01,2.220870107412338257e-01,8.347674272954463959e-03,1.079198479652404785e+00,3.934056460857391357e-01,-3.024429380893707275e-01,8.389320373535156250e-01,-4.949671328067779541e-01,-3.400429785251617432e-01,4.816662669181823730e-01,2.287508845329284668e-01,4.376089572906494141e-01,4.886802136898040771e-01,1.934495866298675537e-01,9.687398076057434082e-01
-4.926732182502746582e-01,1.275618374347686768e-01,9.614929556846618652e-03,6.850520372390747070e-01,3.440796956419944763e-02,-1.438523232936859131e-01,-5.722071230411529541e-02,-2.690562047064304352e-02,-2.713007479906082153e-02,9.564193487167358398e-01,1.897833645343780518e-01,-3.523243665695190430e-01,8.160687685012817383e-01,-6.971927881240844727e-01,-3.566941916942596436e-01,4.586985707283020020e-01,2.222077399492263794e-01,7.552873492240905762e-01,5.017264485359191895e-01,4.341695457696914673e-02,1.062432646751403809e+00
-2.957769632339477539e-01,1.983447819948196411e-01,3.857532143592834473e-01,5.296324491500854492e-01,-1.003632554784417152e-03,7.097734510898590088e-02,-2.084552496671676636e-01,1.143871024250984192e-01,-1.174338161945343018e-01,9.318661689758300781e-01,4.170098900794982910e-01,-4.677795171737670898e-01,8.723159432411193848e-01,-8.423102498054504395e-01,-2.761017084121704102e-01,2.075123339891433716e-01,2.843805253505706787e-01,6.225112676620483398e-01,6.187111139297485352e-01,-1.489948034286499023e-01,7.750173807144165039e-01
-4.092692136764526367e-01,3.854602277278900146e-01,1.425043791532516479e-01,4.289774000644683838e-01,2.380331456661224365e-01,-1.217900961637496948e-01,-3.050607740879058838e-01,9.153604507446289062e-03,-1.927346885204315186e-01,8.053038716316223145e-01,2.605806887149810791e-01,-4.490828216075897217e-01,7.084415555000305176e-01,-6.139037013053894043e-01,-2.857810854911804199e-01,4.592735320329666138e-02,3.074695169925689697e-01,6.599072217941284180e-01,4.593698680400848389e-01,-3.531512022018432617e-01,9.157899022102355957e-01
-5.278073251247406006e-02,3.607443571090698242e-01,3.612043261528015137e-01,4.032198786735534668e-01,4.634304940700531006e-01,-3.280692696571350098e-01,-3.360623419284820557e-01,-3.387289866805076599e-02,-2.414216697216033936e-01,8.861454725265502930e-01,3.768104910850524902e-01,-6.063194274902343750e-01,8.298355937004089355e-01,-7.950940728187561035e-01,-1.878203451633453369e-01,4.477075934410095215e-01,4.529593586921691895e-01,4.327514171600341797e-01,3.536523580551147461e-01,-4.026952385902404785e-01,7.505409121513366699e-01
-1.184463202953338623e-01,3.961143791675567627e-01,2.736420631408691406e-01,4.249161481857299805e-01,8.357944339513778687e-02,-1.407413482666015625e-01,-5.536517500877380371e-01,-8.720695227384567261e-02,-4.530438780784606934e-01,7.374520897865295410e-01,3.379018902778625488e-01,-6.014595031738281250e-01,8.769688010215759277e-01,-7.391249537467956543e-01,5.116415023803710938e-02,2.203422635793685913e-01,3.931645154953002930e-01,6.991645097732543945e-01,1.823571622371673584e-01,-4.394225180149078369e-01,5.347989797592163086e-01
-8.403209596872329712e-02,4.317693412303924561e-01,3.740733861923217773e-01,2.201427519321441650e-01,3.213989436626434326e-01,-2.002872675657272339e-01,-5.564979910850524902e-01,5.277684703469276428e-02,-3.588900268077850342e-01,7.722971439361572266e-01,2.033123821020126343e-01,-7.997434735298156738e-01,6.851180791854858398e-01,-7.964222431182861328e-01,1.535130143165588379e-01,8.960416913032531738e-02,5.907024741172790527e-01,9.244632720947265625e-01,3.684115707874298096e-01,-4.818433821201324463e-01,4.620921909809112549e-01
-9.536175429821014404e-02,5.284019112586975098e-01,3.460577428340911865e-01,1.365533769130706787e-01,4.680595099925994873e-01,3.737016022205352783e-02,-5.128113627433776855e-01,-2.452860623598098755e-01,-3.685876727104187012e-01,6.793375015258789062e-01,1.873404532670974731e-01,-6.551197767257690430e-01,3.971593379974365234e-01,-5.554529428482055664e-01,1.278690248727798462e-01,2.359928637742996216e-01,5.548502802848815918e-01,6.920968890190124512e-01,3.112619519233703613e-01,-4.808510839939117432e-01,3.671836853027343750e-01
-1.388180553913116455e-01,5.449514985084533691e-01,2.713095843791961670e-01,1.211915761232376099e-01,3.484537303447723389e-01,1.881391406059265137e-01,-6.049093604087829590e-01,1.812950670719146729e-01,-4.216360449790954590e-01,5.882825255393981934e-01,3.849322199821472168e-01,-6.916245222091674805e-01,5.563887953758239746e-01,-7.332603335380554199e-01,3.096493482589721680e-01,2.952851653099060059e-01,5.241434574127197266e-01,7.906592488288879395e-01,4.882787764072418213e-01,-4.776521921157836914e-01,1.168076619505882263e-01
1.961912214756011963e-01,3.951155841350555420e-01,4.430111944675445557e-01,-1.014396622776985168e-01,4.007472693920135498e-01,1.897785067558288574e-01,-5.651772618293762207e-01,2.226219326257705688e-01,-5.535321235656738281e-01,6.215440034866333008e-01,2.118195891380310059e-01,-7.066835761070251465e-01,4.510800838470458984e-01,-3.281707167625427246e-01,1.827507466077804565e-01,3.420895338058471680e-01,4.965106546878814697e-01,7.745359539985656738e-01,3.979783058166503906e-01,-6.430500149726867676e-01,2.793121635913848877e-01
1.310822814702987671e-01,3.949630558490753174e-01,-4.767254926264286041e-03,1.116646081209182739e-02,4.517042636871337891e-01,2.826681137084960938e-01,-5.644760727882385254e-01,1.945162266492843628e-01,-5.347288250923156738e-01,7.164913415908813477e-01,6.051370128989219666e-02,-3.118566572666168213e-01,2.849867939949035645e-01,-5.718473792076110840e-01,2.318950891494750977e-01,2.179130911827087402e-01,2.410631179809570312e-01,8.065151572227478027e-01,5.966033339500427246e-01,-3.772673308849334717e-01,3.370905220508575439e-01
2.690990269184112549e-02,2.983132898807525635e-01,2.641758024692535400e-01,-1.726581156253814697e-01,2.722877562046051025e-01,3.203208148479461670e-01,-3.893331587314605713e-01,2.233265787363052368e-01,-4.727823436260223389e-01,4.780797362327575684e-01,1.775360703468322754e-01,-4.283847510814666748e-01,2.989286184310913086e-01,-4.211705327033996582e-01,1.709221899509429932e-01,2.474578469991683960e-01,2.913488745689392090e-01,6.945899128913879395e-01,7.331296801567077637e-01,-3.185709118843078613e-01,1.457705944776535034e-01
7.619985193014144897e-02,2.426366657018661499e-01,8.430721610784530640e-02,-2.450448423624038696e-01,4.655073285102844238e-01,5.368193387985229492e-01,-2.950384616851806641e-01,1.494943052530288696e-01,-2.104482501745223999e-01,5.371937751770019531e-01,-6.097017228603363037e-02,-5.543091297149658203e-01,5.539373755455017090e-01,-4.066770672798156738e-01,1.152481511235237122e-01,3.776876032352447510e-01,1.140426695346832275e-01,7.088491916656494141e-01,4.844389557838439941e-01,-4.145636856555938721e-01,2.459253370761871338e-01
4.013688862323760986e-01,3.256346881389617920e-01,6.767738610506057739e-02,-1.571018546819686890e-01,3.527008593082427979e-01,5.776938199996948242e-01,-2.546466886997222900e-01,2.732360959053039551e-01,-1.858180165290832520e-01,5.950785875320434570e-01,-2.710546255111694336e-01,-2.897413671016693115e-01,2.762178480625152588e-01,-3.980880677700042725e-01,3.050307035446166992e-01,4.463406801223754883e-01,-8.941660076379776001e-02,9.029428958892822266e-01,4.431032836437225342e-01,-2.549811899662017822e-01,-1.879978366196155548e-02
2.925904989242553711e-01,3.186965361237525940e-02,1.434323042631149292e-01,-1.193440854549407959e-01,1.131897866725921631e-01,7.326061725616455078e-01,-1.994174122810363770e-01,2.815076112747192383e-01,-8.088020235300064087e-02,6.602420806884765625e-01,-4.071033000946044922e-01,-1.901751458644866943e-01,4.771428406238555908e-01,-1.341958045959472656e-01,8.801509439945220947e-02,6.191411614418029785e-01,-1.206737384200096130e-01,7.075266838073730469e-01,5.208653211593627930e-01,-4.304786622524261475e-01,2.096038758754730225e-01
5.213899612426757812e-01,-4.846716672182083130e-02,-8.911333978176116943e-03,-9.102729707956314087e-02,9.478623420000076294e-02,8.042663931846618652e-01,-2.433373779058456421e-01,2.826271951198577881e-01,-7.489553838968276978e-02,6.356435418128967285e-01,-4.848262667655944824e-01,-2.228900790214538574e-01,5.097435712814331055e-01,-2.695561561267822981e-04,1.094023417681455612e-02,6.929029226303100586e-01,-2.641172409057617188e-01,5.809385180473327637e-01,5.985604524612426758e-01,-3.654899299144744873e-01,2.254935353994369507e-01
5.140250921249389648e-01,-5.636516585946083069e-02,3.749246299266815186e-01,-1.079816222190856934e-01,-5.610377341508865356e-02,7.137327194213867188e-01,-3.714566230773925781e-01,2.428354322910308838e-01,7.603826373815536499e-02,7.254744768142700195e-01,-5.087705254554748535e-01,-3.379146382212638855e-02,4.833277761936187744e-01,-3.376486152410507202e-02,-3.868636488914489746e-02,5.751419663429260254e-01,-4.136033356189727783e-01,4.830198585987091064e-01,5.413401722908020020e-01,-4.759224057197570801e-01,1.334478557109832764e-01
3.119987249374389648e-01,-5.166203714907169342e-03,3.800152838230133057e-01,-1.043118014931678772e-01,-3.892516195774078369e-01,6.076358556747436523e-01,-3.010418713092803955e-01,2.088570445775985718e-01,5.550200864672660828e-02,8.230351209640502930e-01,-7.291114926338195801e-01,1.759931631386280060e-02,6.176078915596008301e-01,-3.429735451936721802e-02,-1.463249921798706055e-01,5.852265357971191406e-01,-3.165846765041351318e-01,5.428655743598937988e-01,6.811161041259765625e-01,-4.041871726512908936e-01,1.724827736616134644e-01
4.713465869426727295e-01,-1.966869086027145386e-01,2.941200733184814453e-01,6.588978320360183716e-02,-2.300760895013809204e-01,6.968210339546203613e-01,-4.322022795677185059e-01,1.375295817852020264e-01,2.281825095415115356e-01,6.828551888465881348e-01,-7.147896885871887207e-01,-5.524729564785957336e-02,5.193982720375061035e-01,9.857881814241409302e-02,-2.235223352909088135e-01,5.193518996238708496e-01,-5.192332267761230469e-01,4.181050658226013184e-01,7.125850915908813477e-01,-4.552774727344512939e-01,6.413868069648742676e-02
5.727995634078979492e-01,-2.653951756656169891e-02,3.229136168956756592e-01,-2.143603861331939697e-01,-3.228947520256042480e-01,5.441505312919616699e-01,-4.876173436641693115e-01,1.412646844983100891e-02,3.030764460563659668e-01,5.731350779533386230e-01,-8.400879502296447754e-01,-1.089389026165008545e-01,6.773604750633239746e-01,-7.308954000473022461e-02,-2.129267305135726929e-01,7.164949774742126465e-01,-3.302353918552398682e-01,2.616605162620544434e-01,7.900927066802978516e-01,-6.400375962257385254e-01,-1.397660281509160995e-02
5.787938833236694336e-01,1.444694846868515015e-01,3.694159388542175293e-01,6.931833922863006592e-02,-5.834620594978332520e-01,5.478225350379943848e-01,-6.122774481773376465e-01,1.035765260457992554e-01,2.581664323806762695e-01,5.502242445945739746e-01,-8.575251102447509766e-01,-5.114920437335968018e-02,8.072769641876220703e-01,3.748046234250068665e-02,-2.535537183284759521e-01,5.577046871185302734e-01,-4.297386109828948975e-01,2.306149750947952271e-01,7.354336977005004883e-01,-7.719024419784545898e-01,1.310632098466157913e-03
4.258858561515808105e-01,2.290540486574172974e-01,5.917098522186279297e-01,1.606825739145278931e-02,-4.520229995250701904e-01,4.460573494434356689e-01,-8.435688614845275879e-01,5.168635398149490356e-02,2.208633720874786377e-01,6.650752425193786621e-01,-9.108284115791320801e-01,-1.225158199667930603e-01,4.293971359729766846e-01,1.757420152425765991e-01,-5.564234033226966858e-02,6.161903738975524902e-01,-2.366326153278350830e-01,3.121232688426971436e-01,7.463700175285339355e-01,-5.857676267623901367e-01,2.386457845568656921e-02
3.484503626823425293e-01,2.592955529689788818e-01,7.896686196327209473e-01,9.715934842824935913e-02,-4.728949964046478271e-01,4.966675639152526855e-01,-7.018731236457824707e-01,1.172853186726570129e-01,1.465422958135604858e-01,5.524908900260925293e-01,-8.312334418296813965e-01,3.813082724809646606e-02,6.826725006103515625e-01,-5.297794006764888763e-03,-6.996691972017288208e-02,5.195727348327636719e-01,-3.481628596782684326e-01,5.484330654144287109e-01,7.865007519721984863e-01,-6.491317749023437500e-01,2.073337584733963013e-01
3.494079411029815674e-01,5.132340788841247559e-01,8.691344261169433594e-01,-1.435792595148086548e-01,-4.186483323574066162e-01,4.608387649059295654e-01,-9.157592058181762695e-01,-1.865415275096893311e-01,9.238958358764648438e-02,6.945292949676513672e-01,-8.526152968406677246e-01,8.645495772361755371e-02,5.210354328155517578e-01,3.629232943058013916e-01,-2.354649007320404053e-01,6.024100184440612793e-01,-1.499482095241546631e-01,7.226285338401794434e-01,7.919898033142089844e-01,-5.931147336959838867e-01,9.152065962553024292e-02
1.844252049922943115e-01,4.620197415351867676e-01,7.302983999252319336e-01,2.133355736732482910e-01,-4.270431399345397949e-01,3.786035776138305664e-01,-1.033900618553161621e+00,-5.273129940032958984e-01,-6.392311304807662964e-02,7.817398309707641602e-01,-6.082391142845153809e-01,1.289057824760675430e-02,3.406180143356323242e-01,-3.114039264619350433e-02,-4.287638068199157715e-01,5.244168043136596680e-01,8.659268915653228760e-02,7.305217385292053223e-01,1.078589558601379395e+00,-7.642264366149902344e-01,4.535720646381378174e-01
1.476031243801116943e-01,6.445931792259216309e-01,7.956882119178771973e-01,5.167923867702484131e-02,-2.803595960140228271e-01,2.506542205810546875e-01,-1.094467759132385254e+00,-3.569167852401733398e-01,7.578841596841812134e-02,7.129824757575988770e-01,-4.779097735881805420e-01,4.949533194303512573e-02,3.380936980247497559e-01,-1.603813469409942627e-02,-2.396764308214187622e-01,3.606005609035491943e-01,-1.885582208633422852e-01,5.646421909332275391e-01,7.258601188659667969e-01,-5.471893548965454102e-01,2.673008441925048828e-01
-5.890409648418426514e-02,5.831252932548522949e-01,7.801575064659118652e-01,2.723552882671356201e-01,-1.100789904594421387e-01,1.956547498703002930e-01,-7.220134139060974121e-01,-4.779926836490631104e-01,2.649077177047729492e-01,7.133105993270874023e-01,-6.418986916542053223e-01,7.964536547660827637e-02,1.769179850816726685e-01,1.456118226051330566e-01,-1.678292006254196167e-01,3.926937282085418701e-01,-9.375616163015365601e-02,5.216925144195556641e-01,7.631857395172119141e-01,-8.715217113494873047e-01,5.571920275688171387e-01
6.129804067313671112e-03,6.805900931358337402e-01,5.169032812118530273e-01,4.390188455581665039e-01,-1.883571892976760864e-01,2.923862338066101074e-01,-8.325588107109069824e-01,-4.864849448204040527e-01,1.343805640935897827e-01,6.863942146301269531e-01,-3.491547107696533203e-01,1.591196656227111816e-02,1.617688089609146118e-01,-2.959566004574298859e-02,-2.413710802793502808e-01,3.259387910366058350e-01,-1.448206901550292969e-01,7.632467746734619141e-01,6.829070448875427246e-01,-7.597838640213012695e-01,4.538788497447967529e-01
-2.507592141628265381e-01,5.582386255264282227e-01,7.912785410881042480e-01,5.253065228462219238e-01,-2.865047752857208252e-01,2.979080080986022949e-01,-9.605174660682678223e-01,-8.065107464790344238e-01,1.381393522024154663e-01,7.411662936210632324e-01,-5.202578306198120117e-01,9.709956124424934387e-03,1.284584403038024902e-01,-1.833127886056900024e-01,-1.795940101146697998e-01,3.881770670413970947e-01,-1.006344184279441833e-01,8.676390647888183594e-01,5.907716751098632812e-01,-7.602131962776184082e-01,4.095534384250640869e-01
-5.148808285593986511e-02,6.931425929069519043e-01,5.971213579177856445e-01,3.462879061698913574e-01,-2.284293770790100098e-01,1.213688775897026062e-01,-8.254233598709106445e-01,-8.271787166595458984e-01,-1.199687458574771881e-02,6.818326711654663086e-01,-5.165596008300781250e-01,-3.966591358184814453e-01,1.073050573468208313e-01,-4.433789849281311035e-02,-3.103471398353576660e-01,2.505737245082855225e-01,-5.016590282320976257e-02,5.210679173469543457e-01,4.601482748985290527e-01,-9.705479145050048828e-01,4.042124450206756592e-01
7.251426577568054199e-02,4.383911788463592529e-01,6.963304877281188965e-01,5.311532020568847656e-01,-2.752133011817932129e-01,-9.677136689424514771e-02,-8.735660910606384277e-01,-8.093640208244323730e-01,-3.219451010227203369e-02,5.076600313186645508e-01,-3.068207502365112305e-01,-2.733893394470214844e-01,1.013497039675712585e-01,-1.025558114051818848e-01,-9.093441069126129150e-02,6.869985722005367279e-03,-2.458534836769104004e-01,7.083270549774169922e-01,1.835110783576965332e-01,-1.209982752799987793e+00,2.009028643369674683e-01
-4.720954224467277527e-02,4.716561734676361084e-01,6.907750964164733887e-01,4.471915960311889648e-01,-3.655044436454772949e-01,1.738994382321834564e-02,-5.581309199333190918e-01,-8.570074439048767090e-01,3.684189170598983765e-02,4.311424195766448975e-01,-4.626576602458953857e-01,-1.863523274660110474e-01,6.722929328680038452e-02,9.512912482023239136e-02,-7.308086752891540527e-02,1.520860642194747925e-01,-2.830523252487182617e-01,5.933485031127929688e-01,4.307322949171066284e-02,-8.506110906600952148e-01,1.425075083971023560e-01
4.679748415946960449e-02,3.238591551780700684e-01,8.261876702308654785e-01,4.573290422558784485e-02,-3.811246752738952637e-01,-1.872488111257553101e-01,-5.450556278228759766e-01,-8.296309113502502441e-01,-2.211440168321132660e-02,3.591807186603546143e-01,-5.141491293907165527e-01,-2.931349575519561768e-01,-2.551924586296081543e-01,2.085873633623123169e-01,-2.239413186907768250e-02,-1.523487642407417297e-02,-2.973416447639465332e-01,4.339146614074707031e-01,2.254723757505416870e-01,-1.013498783111572266e+00,-9.794931113719940186e-02
4.050757735967636108e-02,6.131883263587951660e-01,4.833309352397918701e-01,9.113310277462005615e-02,-1.662064045667648315e-01,2.982739545404911041e-02,-6.373987793922424316e-01,-6.821331977844238281e-01,-3.574964106082916260e-01,6.811290234327316284e-02,-3.874805569648742676e-01,-2.877655625343322754e-01,-1.472058594226837158e-01,2.270645946264266968e-01,2.195595502853393555e-01,-1.186671480536460876e-01,-2.171011567115783691e-01,2.003491371870040894e-01,-1.067169532179832458e-01,-7.955695986747741699e-01,-2.215894460678100586e-01
3.867503404617309570e-01,4.132836759090423584e-01,6.062941551208496094e-01,-3.806582884863018990e-03,-4.887830317020416260e-01,-1.944301873445510864e-01,-5.554717183113098145e-01,-8.342416286468505859e-01,-1.705790311098098755e-01,5.153340473771095276e-02,-5.363474488258361816e-01,-3.366692960262298584e-01,-3.412657678127288818e-01,3.676952421665191650e-01,1.803102940320968628e-01,-1.746350377798080444e-01,-2.524049282073974609e-01,1.141116619110107422e-01,-1.223118901252746582e-01,-6.218688488006591797e-01,-1.860707700252532959e-01
1.963035166263580322e-01,4.298218488693237305e-01,6.247100830078125000e-01,-3.184480667114257812e-01,-4.966934025287628174e-01,-1.417142301797866821e-01,-4.514381289482116699e-01,-7.338818907737731934e-01,-2.894611656665802002e-01,1.115788798779249191e-02,-4.993464946746826172e-01,-1.463507413864135742e-01,-4.737951755523681641e-01,5.524429678916931152e-01,5.212472081184387207e-01,-1.621640026569366455e-01,-3.471024036407470703e-01,-9.247653186321258545e-02,-3.546362817287445068e-01,-7.104817032814025879e-01,-2.601445019245147705e-01
2.266454845666885376e-01,5.713134407997131348e-01,6.896039843559265137e-01,-6.215293705463409424e-02,-4.993457794189453125e-01,1.295138150453567505e-01,-4.676392674446105957e-01,-6.591860651969909668e-01,-2.315800189971923828e-01,1.664045848883688450e-03,-3.340637385845184326e-01,-1.335020661354064941e-01,-5.266686081886291504e-01,3.948728442192077637e-01,3.203262686729431152e-01,-2.504315376281738281e-01,-2.880753576755523682e-01,3.833319526165723801e-03,-1.829374134540557861e-01,-8.019403815269470215e-01,-3.895938396453857422e-01
3.171026706695556641e-01,1.568784713745117188e-01,5.981251001358032227e-01,-1.186168566346168518e-01,-4.366968274116516113e-01,3.008334711194038391e-02,-2.415539324283599854e-01,-4.239178597927093506e-01,-1.574736833572387695e-01,-1.446085982024669647e-02,-3.408953845500946045e-01,-5.279644206166267395e-02,-7.087801694869995117e-01,6.197468638420104980e-01,3.822242915630340576e-01,9.668822895037010312e-05,-2.966591715812683105e-01,-1.532205939292907715e-01,-2.804492712020874023e-01,-4.913207888603210449e-01,-3.415611088275909424e-01
2.864582538604736328e-01,3.064758181571960449e-01,4.164067506790161133e-01,-4.935859143733978271e-01,-4.144757390022277832e-01,-3.577623516321182251e-02,-1.489774882793426514e-01,-5.243968963623046875e-01,-2.978142499923706055e-01,-9.702157229185104370e-02,-4.790055155754089355e-01,2.214460670948028564e-01,-5.170987844467163086e-01,5.839823484420776367e-01,2.274585962295532227e-01,4.861258342862129211e-02,-3.976069092750549316e-01,-3.242988288402557373e-01,-1.435660719871520996e-01,-2.916380465030670166e-01,-4.671701192855834961e-01
3.239602446556091309e-01,1.774406582117080688e-01,4.295166730880737305e-01,-3.354838192462921143e-01,-3.986639380455017090e-01,1.359093636274337769e-01,-1.311964988708496094e-01,-2.988270819187164307e-01,-5.806313753128051758e-01,-1.720494925975799561e-01,-3.828296065330505371e-01,3.776625096797943115e-01,-6.864727139472961426e-01,5.407909154891967773e-01,2.107842713594436646e-01,8.836519718170166016e-02,-4.803115129470825195e-01,-1.278379112482070923e-01,-9.749457240104675293e-02,-2.111557871103286743e-01,-3.930046260356903076e-01
4.188565015792846680e-01,1.187160760164260864e-01,4.289025962352752686e-01,-2.690451443195343018e-01,-4.777205586433410645e-01,-9.488028474152088165e-03,-1.633259057998657227e-01,-2.742725908756256104e-01,-1.543572992086410522e-01,8.165983110666275024e-02,-5.141352415084838867e-01,1.899509131908416748e-01,-4.633530378341674805e-01,7.270299196243286133e-01,1.777567267417907715e-01,2.445199340581893921e-01,-1.820165365934371948e-01,-2.551149129867553711e-01,-1.933472901582717896e-01,-1.886133477091789246e-02,-3.662023544311523438e-01
2.795565426349639893e-01,5.349845439195632935e-02,3.827319741249084473e-01,-2.307943552732467651e-01,-7.274411320686340332e-01,-1.147581730037927628e-02,-1.311038061976432800e-02,-2.371495962142944336e-01,-3.079847991466522217e-01,-1.175588462501764297e-02,-6.890987157821655273e-01,5.697501897811889648e-01,-4.134107530117034912e-01,7.141816616058349609e-01,-1.420373469591140747e-01,1.311389654874801636e-01,-3.327239453792572021e-01,-5.075214505195617676e-01,-1.739164590835571289e-01,-7.989853620529174805e-02,-2.296900600194931030e-01
4.617043435573577881e-01,5.892793834209442139e-02,2.025029659271240234e-01,4.283037036657333374e-02,-5.816359519958496094e-01,7.857225835323333740e-02,1.310925781726837158e-01,-3.431089520454406738e-01,-2.270754128694534302e-01,1.951531171798706055e-01,-4.546328485012054443e-01,6.310188174247741699e-01,-2.981770336627960205e-01,7.820553183555603027e-01,-7.975563406944274902e-02,2.348810434341430664e-01,-5.834987759590148926e-01,-3.606987893581390381e-01,-3.023306131362915039e-01,-1.622427552938461304e-01,-3.743580579757690430e-01
3.696768283843994141e-01,-3.116500079631805420e-01,5.162299275398254395e-01,-1.766998320817947388e-02,-7.918479442596435547e-01,-2.051501572132110596e-01,2.276373207569122314e-01,-4.247477054595947266e-01,1.318570226430892944e-01,1.120492368936538696e-01,-6.975113749504089355e-01,5.372172594070434570e-01,-2.297459542751312256e-01,6.818440556526184082e-01,-2.692005634307861328e-01,4.212360680103302002e-01,-4.971859753131866455e-01,-4.873609840869903564e-01,4.733280465006828308e-02,-4.586475901305675507e-03,-3.735770881175994873e-01
2.020433098077774048e-01,-7.008193433284759521e-02,5.355458259582519531e-01,-1.339034438133239746e-01,-8.958848714828491211e-01,-1.611995995044708252e-01,6.572248786687850952e-02,-3.909593522548675537e-01,7.562298327684402466e-02,1.903042495250701904e-01,-6.632097959518432617e-01,5.648581981658935547e-01,1.120360940694808960e-01,7.005717754364013672e-01,-1.378249973058700562e-01,2.037225067615509033e-01,-5.506258010864257812e-01,-4.855362772941589355e-01,-2.152805030345916748e-01,1.876129359006881714e-01,-2.702959775924682617e-01
2.824181914329528809e-01,-1.325583010911941528e-01,4.750561416149139404e-01,-8.864040672779083252e-02,-8.028556108474731445e-01,-3.587472140789031982e-01,1.559444665908813477e-01,-3.017359972000122070e-01,-2.891425192356109619e-01,2.508570551872253418e-01,-5.085037350654602051e-01,2.457109540700912476e-01,1.166739836335182190e-01,7.085801959037780762e-01,-4.536173343658447266e-01,1.237780973315238953e-01,-5.263497829437255859e-01,-6.355712413787841797e-01,-1.578797399997711182e-01,-1.259430199861526489e-01,-2.859079241752624512e-01
2.586762309074401855e-01,-1.088179498910903931e-01,5.399122834205627441e-01,2.168259769678115845e-02,-8.138839602470397949e-01,-4.843052029609680176e-01,2.180017828941345215e-01,-5.698552727699279785e-01,-6.081028655171394348e-02,3.868873417377471924e-01,-4.552614688873291016e-01,5.267771482467651367e-01,-1.364927459508180618e-02,6.127068996429443359e-01,-2.286069691181182861e-01,2.012663781642913818e-01,-4.448167085647583008e-01,-5.008552670478820801e-01,-2.612621188163757324e-01,-1.856407895684242249e-02,-2.400898188352584839e-01
3.121203184127807617e-01,-2.809421718120574951e-01,7.465248703956604004e-01,-1.405834499746561050e-02,-9.387377500534057617e-01,-5.650306940078735352e-01,1.579641848802566528e-01,-6.054510474205017090e-01,-2.693619132041931152e-01,1.349284499883651733e-01,-5.756362676620483398e-01,5.098838806152343750e-01,8.012391626834869385e-02,5.072209835052490234e-01,-5.657015442848205566e-01,5.885265022516250610e-02,-2.761397659778594971e-01,-4.818045794963836670e-01,-1.209215000271797180e-01,-1.160870566964149475e-01,-3.369032144546508789e-01
3.668366074562072754e-01,-2.948077395558357239e-02,7.706664800643920898e-01,-3.781571388244628906e-01,-7.907765507698059082e-01,-8.677349090576171875e-01,2.923754602670669556e-02,-6.272224783897399902e-01,-3.914994597434997559e-01,2.417345494031906128e-01,-3.489013910293579102e-01,3.941512107849121094e-01,1.778964549303054810e-01,4.641179442405700684e-01,-3.223177492618560791e-01,6.878037005662918091e-02,-1.040297895669937134e-01,-5.202886462211608887e-01,-2.571056783199310303e-01,-2.789738960564136505e-02,-2.445910871028900146e-01
2.298536598682403564e-01,7.631725072860717773e-02,8.507636189460754395e-01,2.122242748737335205e-01,-7.013624906539916992e-01,-8.178498148918151855e-01,-4.227353632450103760e-02,-4.757231175899505615e-01,-3.280285894870758057e-01,2.588036954402923584e-01,-2.833176851272583008e-01,3.484751880168914795e-01,-1.412150263786315918e-01,5.622224807739257812e-01,-1.445827633142471313e-01,-7.410669326782226562e-02,-2.506254911422729492e-01,-5.785881876945495605e-01,-5.707979947328567505e-02,-3.617328032851219177e-02,-3.414053618907928467e-01
5.166033655405044556e-02,2.511710226535797119e-01,9.522198438644409180e-01,-1.185685023665428162e-01,-3.937183916568756104e-01,-8.308160305023193359e-01,1.144668161869049072e-01,-4.723921716213226318e-01,-3.839910030364990234e-01,3.791034519672393799e-01,4.509241133928298950e-02,3.069181740283966064e-01,1.225839331746101379e-01,4.667261540889739990e-01,-3.853414654731750488e-01,-6.119536980986595154e-02,1.803899742662906647e-02,-1.970927268266677856e-01,-1.463190466165542603e-01,2.532055415213108063e-02,-1.505066454410552979e-01
-6.715831905603408813e-02,1.852537691593170166e-01,8.993179202079772949e-01,1.360613554716110229e-01,-3.687798678874969482e-01,-9.020834565162658691e-01,-2.190249264240264893e-01,-4.668161273002624512e-01,-6.549744009971618652e-01,3.976178765296936035e-01,-1.413726359605789185e-01,2.900401055812835693e-01,-5.229980498552322388e-02,3.363214135169982910e-01,-2.813622057437896729e-01,-1.814044415950775146e-01,7.134576886892318726e-02,-3.340933620929718018e-01,-3.070241808891296387e-01,-1.692087352275848389e-01,-3.843663632869720459e-01
5.414032191038131714e-02,8.093487471342086792e-02,8.543980717658996582e-01,4.799372516572475433e-03,-2.125079631805419922e-01,-9.518344998359680176e-01,-6.644058972597122192e-02,-4.840745627880096436e-01,-5.647488236427307129e-01,2.929529249668121338e-01,2.711307406425476074e-01,2.120109349489212036e-01,3.197061270475387573e-02,3.862205743789672852e-01,-3.708063066005706787e-02,-2.444258332252502441e-01,2.979047596454620361e-01,-4.026114344596862793e-01,-9.614341706037521362e-02,-2.449559047818183899e-02,-2.860957980155944824e-01
-1.277496367692947388e-01,2.767333090305328369e-01,1.084316372871398926e+00,1.102589294314384460e-01,-7.560955360531806946e-03,-7.261596918106079102e-01,-1.375353038311004639e-01,-4.075471758842468262e-01,-8.545801043510437012e-01,3.480820357799530029e-01,1.507074683904647827e-01,1.293397694826126099e-01,-4.410700500011444092e-01,3.265540301799774170e-01,-3.960026204586029053e-01,-2.076327651739120483e-01,2.218620330095291138e-01,-1.033970043063163757e-01,-3.423801064491271973e-01,9.594527073204517365e-03,-2.477289438247680664e-01
7.365235686302185059e-02,3.122369647026062012e-01,9.687767028808593750e-01,9.606219828128814697e-02,1.455845683813095093e-01,-7.710523605346679688e-01,-1.339396387338638306e-01,-5.149570703506469727e-01,-1.013628721237182617e+00,2.775278091430664062e-01,4.350167214870452881e-01,2.968026995658874512e-01,-1.910835355520248413e-01,1.752306371927261353e-01,-1.768538355827331543e-01,-6.159922480583190918e-02,2.214485108852386475e-01,-1.382872611284255981e-01,-3.247849941253662109e-01,-2.731770873069763184e-01,-3.007383346557617188e-01
-2.432136535644531250e-01,2.007494121789932251e-01,7.376549243927001953e-01,6.785912811756134033e-02,1.232450902462005615e-01,-9.510908126831054688e-01,1.987235434353351593e-02,-4.291478097438812256e-01,-1.064262509346008301e+00,3.535569012165069580e-01,3.048630058765411377e-01,3.002462685108184814e-01,-4.900920093059539795e-01,2.792851328849792480e-01,1.724034547805786133e-02,-1.852717250585556030e-01,3.005502223968505859e-01,9.381470829248428345e-02,-4.437506198883056641e-01,-6.700756959617137909e-03,-3.554672896862030029e-01
-3.868526518344879150e-01,6.167559325695037842e-02,7.745019793510437012e-01,2.283623628318309784e-02,2.850668430328369141e-01,-7.795184850692749023e-01,-1.005624085664749146e-01,-3.629146814346313477e-01,-9.906743168830871582e-01,1.344385296106338501e-01,3.290759921073913574e-01,1.872661262750625610e-01,-1.280476748943328857e-01,3.751059174537658691e-01,-1.936869621276855469e-01,-2.979502081871032715e-01,4.074479267001152039e-02,-6.143002305179834366e-03,-4.338341355323791504e-01,-6.606147158890962601e-03,-3.010736107826232910e-01
-2.272597402334213257e-01,-2.061869204044342041e-02,6.149303913116455078e-01,6.350971013307571411e-02,1.785200834274291992e-01,-7.981807589530944824e-01,1.406012177467346191e-01,-3.891096115112304688e-01,-1.125814557075500488e+00,2.075289636850357056e-01,3.130164444446563721e-01,1.200839504599571228e-01,-2.873465716838836670e-01,2.353072613477706909e-01,-2.501504421234130859e-01,-3.831110596656799316e-01,-8.630111813545227051e-02,1.517618820071220398e-02,-4.820736646652221680e-01,-1.688479036092758179e-01,-1.565420329570770264e-01
-5.601717904210090637e-02,-1.665361970663070679e-01,6.475886702537536621e-01,-2.820047363638877869e-02,4.179594218730926514e-01,-8.252750039100646973e-01,2.001520693302154541e-01,-5.271167755126953125e-01,-8.164432644844055176e-01,2.589053809642791748e-01,2.853740155696868896e-01,-1.047839447855949402e-01,-2.162512242794036865e-01,3.038691878318786621e-01,-3.938105702400207520e-01,-5.894039869308471680e-01,2.490530461072921753e-01,-2.737692594528198242e-01,-2.388827949762344360e-01,8.612635545432567596e-03,-5.329085588455200195e-01
-3.854458779096603394e-02,-1.079257428646087646e-01,3.684416413307189941e-01,-1.827751547098159790e-01,3.861496746540069580e-01,-5.679013133049011230e-01,2.954290509223937988e-01,-5.079685449600219727e-01,-8.696569800376892090e-01,1.267604976892471313e-01,2.644905149936676025e-01,3.058579266071319580e-01,-3.094926178455352783e-01,3.040992319583892822e-01,-3.452839851379394531e-01,-4.897482693195343018e-01,7.746385037899017334e-02,-1.592776775360107422e-01,-4.758417010307312012e-01,-2.353687584400177002e-02,-5.733225941658020020e-01
1.212486326694488525e-01,-1.097255051136016846e-01,3.523691892623901367e-01,-1.869977712631225586e-01,3.938290774822235107e-01,-8.630916476249694824e-01,3.582635223865509033e-01,-3.695084750652313232e-01,-1.097931027412414551e+00,-2.285633981227874756e-02,5.222637578845024109e-02,-9.456063061952590942e-02,-3.080741763114929199e-01,3.642435371875762939e-01,-1.162662506103515625e-01,-4.294232428073883057e-01,6.422146409749984741e-02,-3.490557670593261719e-01,-6.061367988586425781e-01,8.421438932418823242e-02,-6.916158795356750488e-01
1.345312446355819702e-01,-3.158886730670928955e-01,2.294701337814331055e-01,-1.144935041666030884e-01,1.341815590858459473e-01,-7.015249729156494141e-01,2.848563492298126221e-01,-2.541127800941467285e-01,-9.852840304374694824e-01,-5.360000953078269958e-02,1.574714928865432739e-01,-5.753142759203910828e-02,-1.616317182779312134e-01,6.906573772430419922e-01,-2.246622443199157715e-01,-5.558279156684875488e-01,2.827594429254531860e-02,-5.300270915031433105e-01,-6.180571913719177246e-01,-5.026855692267417908e-02,-8.606893420219421387e-01
1.204137429594993591e-01,-1.890145242214202881e-01,3.794755637645721436e-01,-3.151508271694183350e-01,3.213533759117126465e-01,-8.530328273773193359e-01,5.848784446716308594e-01,-1.849474757909774780e-01,-7.952877283096313477e-01,-1.104108709841966629e-02,2.193542895838618279e-03,-1.768495142459869385e-01,-2.444198876619338989e-01,6.983979344367980957e-01,-4.056786596775054932e-01,-5.901535749435424805e-01,-5.436219274997711182e-02,-4.441736638545989990e-01,-6.215615272521972656e-01,-1.204925477504730225e-01,-7.953873276710510254e-01
4.469393491744995117e-01,-4.239886701107025146e-01,1.715389043092727661e-01,-3.270758986473083496e-01,7.476965337991714478e-02,-6.034728884696960449e-01,4.498797357082366943e-01,-3.776099905371665955e-02,-9.087245464324951172e-01,-3.357617557048797607e-02,-1.406559348106384277e-01,-1.031911373138427734e-01,-2.648954987525939941e-01,4.860331714153289795e-01,-3.244342505931854248e-01,-5.392683148384094238e-01,3.325425460934638977e-02,-4.275583922863006592e-01,-3.680812120437622070e-01,-5.048307403922080994e-02,-8.215443491935729980e-01
2.170002162456512451e-01,-4.244364500045776367e-01,2.155971676111221313e-01,-7.055937647819519043e-01,1.411765515804290771e-01,-3.717616796493530273e-01,3.287168145179748535e-01,1.708994954824447632e-01,-1.011463046073913574e+00,-3.102365136146545410e-01,5.316285416483879089e-02,-5.295937508344650269e-02,-4.014873206615447998e-01,6.004891395568847656e-01,-2.371337115764617920e-01,-6.171033382415771484e-01,-9.240361861884593964e-03,-3.274041414260864258e-01,-4.325286448001861572e-01,1.280921995639801025e-01,-8.007593750953674316e-01
3.676267564296722412e-01,-4.089294672012329102e-01,1.016916334629058838e-01,-3.089729249477386475e-01,2.671843469142913818e-01,-4.570007026195526123e-01,4.653364121913909912e-01,1.053383573889732361e-01,-1.032452583312988281e+00,-2.875655591487884521e-01,-3.167189657688140869e-01,-1.003081351518630981e-01,-3.224076628684997559e-01,9.836515188217163086e-01,-4.842360615730285645e-01,-5.425709486007690430e-01,1.636348851025104523e-02,-5.145435333251953125e-01,-2.651878297328948975e-01,-1.249747816473245621e-02,-7.469727993011474609e-01
4.402537047863006592e-01,-2.160100191831588745e-01,7.982883602380752563e-02,-2.986940443515777588e-01,4.462742805480957031e-01,-2.938888072967529297e-01,3.722378313541412354e-01,3.087630569934844971e-01,-5.294886827468872070e-01,-2.502549290657043457e-01,-9.461768716573715210e-02,5.587983876466751099e-02,-3.434995114803314209e-01,8.036999106407165527e-01,-5.775205492973327637e-01,-4.248697459697723389e-01,2.156036198139190674e-01,-5.767498612403869629e-01,-2.073140293359756470e-01,1.666503399610519409e-01,-7.208061814308166504e-01
9.456201642751693726e-02,-3.297224044799804688e-01,1.058893352746963501e-01,-1.098803952336311340e-01,2.541802823543548584e-01,-1.252432912588119507e-01,4.566663801670074463e-01,2.171935886144638062e-01,-7.339881062507629395e-01,-7.247859984636306763e-02,-2.529380097985267639e-02,6.406586617231369019e-02,-1.143437400460243225e-01,8.723955154418945312e-01,-6.141018271446228027e-01,-1.712545603513717651e-01,-1.876994520425796509e-01,-3.132711946964263916e-01,5.908367037773132324e-02,3.548916876316070557e-01,-5.225226879119873047e-01
2.350766211748123169e-01,-1.371979862451553345e-01,6.770575046539306641e-02,-9.512883424758911133e-02,3.439502716064453125e-01,-2.643797099590301514e-01,4.808317124843597412e-01,3.540995717048645020e-01,-8.141100406646728516e-01,-3.725489228963851929e-02,-3.983057439327239990e-01,3.081429004669189453e-01,-4.965079482644796371e-03,6.788229942321777344e-01,-7.774252295494079590e-01,-1.686466783285140991e-01,2.139257080852985382e-02,-3.828382790088653564e-01,1.454358827322721481e-02,1.290086358785629272e-01,-4.966527819633483887e-01
4.392400011420249939e-02,-2.843061685562133789e-01,1.084823682904243469e-01,-1.210755035281181335e-01,3.411484658718109131e-01,-1.318950057029724121e-01,4.626704156398773193e-01,1.792115718126296997e-01,-7.222256064414978027e-01,2.724635601043701172e-01,-2.580276727676391602e-01,1.881884038448333740e-01,7.765653729438781738e-02,5.665737390518188477e-01,-9.876931309700012207e-01,-1.836698353290557861e-01,-2.995699644088745117e-01,-1.292618811130523682e-01,2.144665867090225220e-01,1.380871236324310303e-01,-2.634303867816925049e-01
-2.369569242000579834e-01,-1.240647137165069580e-01,1.109463162720203400e-02,5.990478768944740295e-02,4.862653315067291260e-01,-3.840169683098793030e-02,3.912386298179626465e-01,2.006590515375137329e-01,-4.399281740188598633e-01,2.172170877456665039e-01,-2.748322486877441406e-01,1.684657484292984009e-01,3.470986336469650269e-02,6.069164276123046875e-01,-9.478653669357299805e-01,-1.448972672224044800e-01,-1.228580325841903687e-01,-1.790109276771545410e-01,2.728894948959350586e-01,2.917190492153167725e-01,-2.589768469333648682e-01
7.807273883372545242e-03,-2.370896339416503906e-01,-4.687714576721191406e-02,2.778290510177612305e-01,3.516058921813964844e-01,-2.511783242225646973e-01,5.416474342346191406e-01,2.561424076557159424e-01,-4.382209181785583496e-01,1.232421994209289551e-01,-2.294794470071792603e-01,1.235425993800163269e-01,8.669477701187133789e-02,3.570367097854614258e-01,-1.098398685455322266e+00,-5.662645772099494934e-02,-2.554595470428466797e-01,-8.347083628177642822e-02,3.018991053104400635e-01,1.822821050882339478e-01,-1.534904390573501587e-01
-2.360474318265914917e-01,-1.060067787766456604e-01,6.601448357105255127e-02,2.313491106033325195e-01,1.415252685546875000e-01,-2.586569190025329590e-01,2.993071675300598145e-01,2.109889835119247437e-01,-4.306849539279937744e-01,3.608267009258270264e-01,-2.588367164134979248e-01,1.519996523857116699e-01,3.122317790985107422e-01,3.669653832912445068e-01,-9.849639534950256348e-01,-4.284077286720275879e-01,-6.150876730680465698e-02,-2.179146111011505127e-01,1.752127259969711304e-01,-7.686073426157236099e-03,-1.715232431888580322e-01
-2.158252745866775513e-01,-8.699082583189010620e-02,2.264782600104808807e-02,5.825986266136169434e-01,3.880382776260375977e-01,-2.756810188293457031e-01,2.457719445228576660e-01,1.571906208992004395e-01,-3.344145715236663818e-01,3.225435316562652588e-01,-2.247392982244491577e-01,-2.962071076035499573e-02,4.040902853012084961e-01,3.912113010883331299e-01,-1.121677994728088379e+00,-2.274782359600067139e-01,8.530820719897747040e-03,-5.566870793700218201e-02,3.438785076141357422e-01,-1.322605311870574951e-01,-1.433405429124832153e-01
-2.339627146720886230e-01,-7.784522324800491333e-02,2.064592093229293823e-01,4.992230832576751709e-01,1.464062482118606567e-01,-5.991920828819274902e-01,3.904964029788970947e-01,4.764936864376068115e-02,-2.152532488107681274e-01,2.533358335494995117e-01,-2.284043282270431519e-01,-2.739956378936767578e-01,2.829379439353942871e-01,1.927161514759063721e-01,-1.075148105621337891e+00,-5.696483254432678223e-01,5.783057585358619690e-02,-5.164322257041931152e-02,2.548757474869489670e-03,-2.154323309659957886e-01,1.832384169101715088e-01
-3.238165974617004395e-01,5.000225082039833069e-02,1.356952190399169922e-01,6.960900425910949707e-01,5.081093311309814453e-01,-5.534115433692932129e-01,2.234565764665603638e-01,1.188349444419145584e-02,-3.731007575988769531e-01,5.405203104019165039e-01,-3.062608540058135986e-01,-3.028035759925842285e-01,1.052244082093238831e-01,3.953334093093872070e-01,-9.454815983772277832e-01,-6.644702553749084473e-01,1.923728436231613159e-01,-4.241671878844499588e-03,1.970807313919067383e-01,-5.439152717590332031e-01,1.367070972919464111e-01
-2.485992163419723511e-01,3.714785873889923096e-01,-7.682478427886962891e-02,8.388789892196655273e-01,4.341184794902801514e-01,-4.036229550838470459e-01,3.008851706981658936e-01,-1.294170618057250977e-01,-2.315998524427413940e-01,2.675119340419769287e-01,-9.221342625096440315e-04,-5.349767208099365234e-01,2.163500487804412842e-01,3.654562830924987793e-01,-1.015695571899414062e+00,-5.864448547363281250e-01,2.185880690813064575e-01,-8.664100617170333862e-02,3.600791096687316895e-02,-3.074949383735656738e-01,7.312685996294021606e-02
-2.976710498332977295e-01,3.415011167526245117e-01,3.182744383811950684e-01,6.765626668930053711e-01,3.189805150032043457e-01,-4.085531532764434814e-01,1.247218251228332520e-01,-1.277072876691818237e-01,-5.127252340316772461e-01,3.671140670776367188e-01,5.106677114963531494e-02,-5.486345291137695312e-01,1.694835871458053589e-01,6.316671520471572876e-02,-9.067273736000061035e-01,-7.103934288024902344e-01,3.839437067508697510e-01,1.581159532070159912e-01,-6.215961184352636337e-03,-4.448577165603637695e-01,7.549295201897621155e-03
-3.204388618469238281e-01,6.069606542587280273e-01,-3.698658198118209839e-02,6.284791231155395508e-01,6.351571083068847656e-01,-6.734337806701660156e-01,-1.040208712220191956e-01,6.423243880271911621e-02,-5.420148968696594238e-01,2.706449329853057861e-01,2.936222031712532043e-02,-5.743852853775024414e-01,3.410490229725837708e-02,2.840304672718048096e-01,-6.007899641990661621e-01,-7.293837666511535645e-01,5.097298622131347656e-01,1.944437474012374878e-01,-4.492234438657760620e-02,-3.528569042682647705e-01,-1.480541098862886429e-02
-1.345990747213363647e-01,6.258831024169921875e-01,4.148038476705551147e-02,7.217327356338500977e-01,5.126596689224243164e-01,-5.767679214477539062e-01,-4.284885898232460022e-02,-2.477556094527244568e-02,-5.409379601478576660e-01,1.082916483283042908e-01,8.637213706970214844e-02,-5.114839673042297363e-01,4.889636486768722534e-02,1.138391122221946716e-01,-6.118474602699279785e-01,-6.275212168693542480e-01,6.968267560005187988e-01,3.203325346112251282e-02,2.106172405183315277e-02,-4.123614430427551270e-01,1.850143522024154663e-01
-1.514995694160461426e-01,7.241606712341308594e-01,1.973040401935577393e-03,6.799389123916625977e-01,5.611786246299743652e-01,-5.334705710411071777e-01,-7.245257496833801270e-02,1.671966612339019775e-01,-6.424179673194885254e-01,3.186757862567901611e-01,6.045448244549334049e-04,-5.669278502464294434e-01,-2.693898081779479980e-01,1.779320538043975830e-01,-3.941395580768585205e-01,-8.155401349067687988e-01,6.973348259925842285e-01,-6.292593199759721756e-03,1.125400736927986145e-01,-3.807350099086761475e-01,9.086159616708755493e-02
-2.839031219482421875e-01,6.175789237022399902e-01,2.830555848777294159e-02,6.156461238861083984e-01,5.470971465110778809e-01,-5.948096513748168945e-01,-1.335286200046539307e-01,7.838925346732139587e-03,-4.764092862606048584e-01,-2.575032413005828857e-02,2.028165906667709351e-01,-5.275835990905761719e-01,-9.658454358577728271e-02,2.588449120521545410e-01,-2.370013147592544556e-01,-5.641133189201354980e-01,7.930167317390441895e-01,1.450528353452682495e-01,-6.336437165737152100e-02,-2.900140285491943359e-01,1.329545825719833374e-01
-1.841267049312591553e-01,8.127971887588500977e-01,-3.845925629138946533e-02,9.519133567810058594e-01,6.997351050376892090e-01,-4.359439611434936523e-01,1.011966541409492493e-01,1.811702996492385864e-01,-5.920751094818115234e-01,2.197333127260208130e-01,-7.695219013839960098e-03,-5.539653897285461426e-01,-2.551974952220916748e-01,1.221088320016860962e-01,-3.382662236690521240e-01,-7.194130420684814453e-01,8.018860220909118652e-01,2.435761541128158569e-01,1.289127022027969360e-02,-2.408943623304367065e-01,2.254072427749633789e-01
-1.414969116449356079e-01,8.031104803085327148e-01,-1.244434565305709839e-01,8.002837300300598145e-01,9.785790443420410156e-01,-2.101757228374481201e-01,2.819208204746246338e-01,-2.874224819242954254e-02,-3.563931286334991455e-01,-6.094350293278694153e-02,6.916788988746702671e-04,-5.609720945358276367e-01,-4.146226942539215088e-01,-4.958352539688348770e-03,-2.942220270633697510e-01,-8.236944675445556641e-01,6.727907657623291016e-01,3.382112979888916016e-01,-1.009809672832489014e-01,-3.889575302600860596e-01,1.266466230154037476e-01
9.234405308961868286e-02,7.324600815773010254e-01,-4.566708505153656006e-01,7.480419278144836426e-01,7.625481486320495605e-01,-2.445123046636581421e-01,3.945650458335876465e-01,4.098275601863861084e-01,-3.688248991966247559e-01,7.693415880203247070e-02,1.140469592064619064e-02,-1.624788790941238403e-01,-3.491367399692535400e-01,1.116871014237403870e-01,-1.889002174139022827e-01,-6.851337552070617676e-01,7.220927476882934570e-01,7.901542633771896362e-02,-9.761157631874084473e-02,-1.305406540632247925e-01,2.254211604595184326e-01
3.791534155607223511e-02,6.034631133079528809e-01,-4.208565950393676758e-01,8.217876553535461426e-01,7.231947779655456543e-01,-2.277285009622573853e-01,3.399391770362854004e-01,3.431530669331550598e-02,-2.933392226696014404e-01,2.631441354751586914e-01,-9.348764270544052124e-02,-2.664282023906707764e-01,-3.165797293186187744e-01,8.097904920578002930e-02,-2.599123418331146240e-01,-6.619141697883605957e-01,5.176259279251098633e-01,1.817745715379714966e-01,-1.731964051723480225e-01,-2.719473838806152344e-01,8.328704535961151123e-02
-5.674034729599952698e-02,4.475873410701751709e-01,-5.273287296295166016e-01,7.024859786033630371e-01,6.521669626235961914e-01,2.554011717438697815e-02,3.006275892257690430e-01,1.603281050920486450e-01,-1.620784401893615723e-01,2.485793828964233398e-01,2.502291463315486908e-02,-2.316736578941345215e-01,-1.664870977401733398e-01,3.508785739541053772e-02,-1.029503643512725830e-01,-6.576350331306457520e-01,4.606215655803680420e-01,2.638973295688629150e-02,-7.183833420276641846e-02,-2.167151868343353271e-01,2.033057063817977905e-01
1.376911997795104980e-01,3.475155532360076904e-01,-7.835972905158996582e-01,5.717791318893432617e-01,5.342704057693481445e-01,1.312551349401473999e-01,5.487611293792724609e-01,8.495968580245971680e-02,-1.721415966749191284e-01,1.849106848239898682e-01,-2.559057474136352539e-01,-9.967983514070510864e-02,-1.920346170663833618e-01,1.273102015256881714e-01,-2.402098178863525391e-01,-4.835785329341888428e-01,3.734019398689270020e-01,-1.636449098587036133e-01,-3.524347245693206787e-01,-2.520012259483337402e-01,4.349641501903533936e-02
1.762727200984954834e-01,3.355958461761474609e-01,-6.573677659034729004e-01,7.668976187705993652e-01,4.088984727859497070e-01,-5.103627219796180725e-03,7.400304675102233887e-01,5.510241389274597168e-01,1.006920933723449707e-01,8.349488675594329834e-02,-3.352165818214416504e-01,-6.251696497201919556e-02,-2.048752158880233765e-01,9.499009698629379272e-02,-1.315103024244308472e-01,-4.172866642475128174e-01,2.405163794755935669e-01,-1.755827218294143677e-01,-2.249957472085952759e-01,-1.617301106452941895e-01,6.246571242809295654e-02
4.705934524536132812e-01,3.639785051345825195e-01,-3.155314922332763672e-01,6.749248504638671875e-01,4.086455702781677246e-01,2.307614684104919434e-01,6.687596440315246582e-01,4.162259995937347412e-01,1.573042571544647217e-01,1.149014681577682495e-01,-4.200285673141479492e-01,-3.069954551756381989e-02,-1.326472759246826172e-01,2.591951489448547363e-01,-1.210098937153816223e-01,-4.917932450771331787e-01,2.293119430541992188e-01,-3.678029775619506836e-01,-3.475906252861022949e-01,-2.589748799800872803e-02,7.526925951242446899e-02
5.469523668289184570e-01,3.877390027046203613e-01,-4.538584351539611816e-01,7.918998003005981445e-01,2.003401070833206177e-01,-1.094023734331130981e-01,6.451321244239807129e-01,4.400025606155395508e-01,3.129424154758453369e-01,3.111698031425476074e-01,-3.312158286571502686e-01,-1.642646342515945435e-01,3.107811696827411652e-02,3.044067025184631348e-01,-1.040957421064376831e-01,-2.714454233646392822e-01,1.938509345054626465e-01,-3.115349113941192627e-01,-1.785714030265808105e-01,-2.278304547071456909e-01,3.975121304392814636e-03
4.315797388553619385e-01,2.772179245948791504e-01,-3.495625257492065430e-01,4.928479194641113281e-01,1.718732863664627075e-01,-7.575342804193496704e-02,5.635771751403808594e-01,3.298523426055908203e-01,2.767819464206695557e-01,3.523851335048675537e-01,-3.638624846935272217e-01,3.545645773410797119e-01,-4.682376235723495483e-02,2.883549332618713379e-01,2.050344087183475494e-02,-2.558795809745788574e-01,3.368918001651763916e-01,-4.989260137081146240e-01,-1.389957219362258911e-01,7.447347790002822876e-02,1.096236146986484528e-02
7.139813899993896484e-01,4.608449935913085938e-01,-3.803743422031402588e-01,4.659794270992279053e-01,1.194092482328414917e-01,1.381780058145523071e-01,5.011858940124511719e-01,5.543024539947509766e-01,4.146241545677185059e-01,1.455931365489959717e-01,-5.118055343627929688e-01,7.367547601461410522e-02,1.135485898703336716e-02,4.336677193641662598e-01,9.646949917078018188e-02,-1.814852505922317505e-01,3.179487884044647217e-01,-4.328364729881286621e-01,-1.970102488994598389e-01,-1.601356454193592072e-02,-2.252927981317043304e-02
6.321996450424194336e-01,5.609266161918640137e-01,-2.036440968513488770e-01,5.222187042236328125e-01,1.878079771995544434e-01,-7.774035632610321045e-02,6.513764262199401855e-01,6.634678244590759277e-01,4.154739975929260254e-01,2.246112674474716187e-01,-5.186446905136108398e-01,2.829019129276275635e-01,-6.501594185829162598e-02,3.726456463336944580e-01,-1.102269394323229790e-03,-9.955367445945739746e-02,4.165586829185485840e-01,-5.015426874160766602e-01,4.589929059147834778e-02,5.830894038081169128e-02,8.230707608163356781e-03
5.663570165634155273e-01,3.882125020027160645e-01,1.028989404439926147e-01,4.935297071933746338e-01,1.910401731729507446e-01,1.861698031425476074e-01,3.368042111396789551e-01,6.752114892005920410e-01,3.757947087287902832e-01,4.113160967826843262e-01,-3.981970846652984619e-01,3.095246255397796631e-01,-5.308346357196569443e-03,3.175881803035736084e-01,4.547637328505516052e-02,-2.246131561696529388e-02,4.138067662715911865e-01,-2.047313153743743896e-01,2.006540596485137939e-01,-8.867302909493446350e-03,2.511554658412933350e-01
6.443201899528503418e-01,4.408736824989318848e-01,-2.026321738958358765e-01,7.033032774925231934e-01,2.108433544635772705e-01,1.844399124383926392e-01,4.043944478034973145e-01,6.040967702865600586e-01,3.079685270786285400e-01,5.078427195549011230e-01,-3.421204090118408203e-01,4.295539855957031250e-01,5.616264417767524719e-02,4.574622809886932373e-01,-1.433062553405761719e-01,1.302922368049621582e-01,5.417442917823791504e-01,-3.717172145843505859e-01,2.405627965927124023e-01,2.831524908542633057e-01,3.390095233917236328e-01
5.159420371055603027e-01,5.831843614578247070e-01,-5.033807456493377686e-02,8.044192790985107422e-01,1.874490976333618164e-01,5.503350123763084412e-02,2.267021983861923218e-01,7.849459052085876465e-01,2.602034509181976318e-01,3.491221368312835693e-01,-3.447510004043579102e-01,4.236822426319122314e-01,1.374239623546600342e-01,1.162468045949935913e-01,-1.514658033847808838e-01,9.298644214868545532e-02,3.997272551059722900e-01,-1.949142813682556152e-01,2.880312502384185791e-01,1.322982273995876312e-02,4.399243295192718506e-01
6.379140615463256836e-01,4.722397625446319580e-01,2.362661361694335938e-01,8.252111077308654785e-01,2.653600275516510010e-01,2.648205310106277466e-02,2.986527979373931885e-01,6.492206454277038574e-01,3.586493134498596191e-01,6.355354785919189453e-01,-3.636723756790161133e-01,6.436367630958557129e-01,6.347765773534774780e-02,5.539974942803382874e-02,-5.937723815441131592e-02,2.189831286668777466e-01,6.817900538444519043e-01,6.917694583535194397e-03,4.010213911533355713e-01,3.004697524011135101e-02,5.070542097091674805e-01
3.702084124088287354e-01,6.141501665115356445e-01,1.955206692218780518e-01,8.392108678817749023e-01,2.791138291358947754e-01,7.428096234798431396e-02,1.610526889562606812e-01,7.191512584686279297e-01,3.676246106624603271e-01,7.700976729393005371e-01,-2.496631741523742676e-01,6.567159891128540039e-01,3.554362058639526367e-01,-5.940251052379608154e-02,-5.232376977801322937e-02,3.379223644733428955e-01,4.117358326911926270e-01,6.681634485721588135e-02,2.693366706371307373e-01,-8.497674763202667236e-02,6.911941170692443848e-01
3.235233128070831299e-01,7.895137667655944824e-01,1.852774322032928467e-01,7.814788818359375000e-01,2.671625316143035889e-01,-5.856938287615776062e-02,3.098029792308807373e-01,4.575969874858856201e-01,4.144199788570404053e-01,7.198320627212524414e-01,-2.090158015489578247e-01,5.361763238906860352e-01,2.041321545839309692e-01,-1.266287118196487427e-01,1.720879971981048584e-01,3.130335509777069092e-01,8.444159626960754395e-01,-4.296055436134338379e-02,3.384080231189727783e-01,-1.494194716215133667e-01,5.220133662223815918e-01
4.945290088653564453e-01,6.706825494766235352e-01,1.758531332015991211e-01,1.039695978164672852e+00,1.979361623525619507e-01,-1.965620070695877075e-01,1.972109377384185791e-01,3.265045285224914551e-01,3.347339928150177002e-01,7.046941518783569336e-01,-2.746058702468872070e-01,7.235310077667236328e-01,1.895455867052078247e-01,-4.308275878429412842e-01,-5.730773881077766418e-02,1.718665361404418945e-01,5.885641574859619141e-01,1.966205239295959473e-01,1.987471729516983032e-01,-2.002241909503936768e-01,5.497635006904602051e-01
3.358185291290283203e-01,5.110305547714233398e-01,2.544812858104705811e-01,9.850156307220458984e-01,1.614930629730224609e-01,-3.577038347721099854e-01,2.237051576375961304e-01,1.289728879928588867e-01,3.938749432563781738e-01,7.529008388519287109e-01,-2.754769325256347656e-01,7.297815680503845215e-01,1.590223461389541626e-01,-1.924703121185302734e-01,1.588883250951766968e-01,3.445858955383300781e-01,6.931065917015075684e-01,1.682694256305694580e-01,1.603252813220024109e-02,-3.546031117439270020e-01,4.799895286560058594e-01
3.966398537158966064e-01,6.453205347061157227e-01,4.556596875190734863e-01,9.435551762580871582e-01,1.857674121856689453e-01,-3.171032071113586426e-01,-2.401730567216873169e-01,2.843044102191925049e-01,2.027533203363418579e-01,8.088782429695129395e-01,-4.219035208225250244e-01,4.447645843029022217e-01,8.682837337255477905e-02,-4.293518960475921631e-01,3.103175461292266846e-01,2.950522899627685547e-01,5.620757937431335449e-01,1.701982021331787109e-01,1.651987731456756592e-01,-5.838825106620788574e-01,6.047399640083312988e-01
6.021940112113952637e-01,8.223930597305297852e-01,3.682689368724822998e-01,7.528799176216125488e-01,4.222044646739959717e-01,-6.068116426467895508e-01,-5.299085751175880432e-02,2.308110147714614868e-01,3.688186407089233398e-02,8.782629966735839844e-01,-2.850346565246582031e-01,2.193735390901565552e-01,3.091239035129547119e-01,-4.277240335941314697e-01,2.688426971435546875e-01,1.161513403058052063e-01,7.172784805297851562e-01,1.165835559368133545e-01,5.540855973958969116e-02,-5.192944407463073730e-01,2.436628043651580811e-01
6.993845701217651367e-01,5.386894941329956055e-01,5.135369300842285156e-01,8.432083725929260254e-01,3.112840056419372559e-01,-3.636905252933502197e-01,-6.229039654135704041e-02,2.921607717871665955e-02,8.894786983728408813e-02,6.672253012657165527e-01,-2.521513104438781738e-01,2.473128139972686768e-01,-6.337086111307144165e-02,-4.335576295852661133e-01,3.654044270515441895e-01,-5.368756502866744995e-02,7.710186243057250977e-01,9.631089866161346436e-02,-1.375522017478942871e-01,-5.865603685379028320e-01,2.323501855134963989e-01
4.734269082546234131e-01,5.963598489761352539e-01,4.378450810909271240e-01,7.043095231056213379e-01,4.189017415046691895e-01,-3.146663904190063477e-01,-2.769703269004821777e-01,9.056013077497482300e-02,1.651584357023239136e-01,5.763778090476989746e-01,-2.600155174732208252e-01,2.722467184066772461e-01,5.480749160051345825e-02,-3.389894068241119385e-01,5.659113526344299316e-01,-9.307795763015747070e-02,6.127510666847229004e-01,-7.794854044914245605e-02,3.811758384108543396e-02,-7.080224752426147461e-01,7.289551198482513428e-02
6.729227900505065918e-01,6.511479616165161133e-01,4.930339455604553223e-01,4.900170862674713135e-01,5.748862624168395996e-01,-5.291398763656616211e-01,1.099847722798585892e-02,2.126953899860382080e-01,5.704265087842941284e-02,6.977202296257019043e-01,-1.758078634738922119e-01,2.299825400114059448e-01,-1.112143769860267639e-01,-2.192899286746978760e-01,6.534245610237121582e-01,7.385937869548797607e-02,4.740832746028900146e-01,-1.995198242366313934e-02,-2.243767529726028442e-01,-6.913676857948303223e-01,2.939851209521293640e-02
7.769148349761962891e-01,4.653913378715515137e-01,3.137742578983306885e-01,3.315089941024780273e-01,5.541832447052001953e-01,-4.179084002971649170e-01,-2.983877956867218018e-01,3.235085606575012207e-01,-2.240981161594390869e-01,2.884829938411712646e-01,-7.115510106086730957e-02,1.519245654344558716e-01,-1.300719380378723145e-01,-8.037855476140975952e-02,6.889591813087463379e-01,-2.855730950832366943e-01,5.977959632873535156e-01,1.338149905204772949e-01,-4.147991836071014404e-01,-5.913581252098083496e-01,-9.367174468934535980e-03
8.593677282333374023e-01,6.610345244407653809e-01,4.126541912555694580e-01,2.815515995025634766e-01,6.633054614067077637e-01,-9.878329187631607056e-02,-2.253329455852508545e-01,2.800118625164031982e-01,-1.447543352842330933e-01,8.544932305812835693e-02,-2.812909185886383057e-01,2.879648208618164062e-01,-4.907509088516235352e-01,-6.592979282140731812e-02,8.674866557121276855e-01,-1.234280318021774292e-01,6.007663011550903320e-01,1.057208422571420670e-02,-4.445796310901641846e-01,-4.530850946903228760e-01,-1.434925198554992676e-01
7.406305074691772461e-01,5.465165972709655762e-01,3.314466774463653564e-01,1.894008517265319824e-01,5.856721997261047363e-01,-1.630835384130477905e-01,-3.067530095577239990e-01,2.682844400405883789e-01,-1.826190352439880371e-01,2.100663930177688599e-01,-1.485507786273956299e-01,2.130422145128250122e-01,-4.611867666244506836e-01,-1.125684827566146851e-01,8.425712585449218750e-01,-4.804015904664993286e-02,2.842200398445129395e-01,-1.488286703824996948e-01,-2.173293232917785645e-01,-4.385752379894256592e-01,-9.876114130020141602e-02
9.007817506790161133e-01,3.752383291721343994e-01,4.063768088817596436e-01,2.804241329431533813e-02,4.838732779026031494e-01,-6.332072615623474121e-02,-3.966991603374481201e-02,3.285849988460540771e-01,-5.829372256994247437e-02,-1.713719405233860016e-02,-3.260007798671722412e-01,3.944180309772491455e-01,-6.347824335098266602e-01,1.800351887941360474e-01,6.942183375358581543e-01,4.461626708507537842e-02,1.911434531211853027e-01,-9.280449897050857544e-02,-1.954399496316909790e-01,-3.878422975540161133e-01,-4.215998053550720215e-01
9.221560359001159668e-01,2.714089453220367432e-01,3.386867940425872803e-01,7.133849710226058960e-02,5.246306061744689941e-01,8.133281022310256958e-02,-1.840242147445678711e-01,3.329557776451110840e-01,3.474103659391403198e-02,4.406705871224403381e-02,-2.962455749511718750e-01,4.974339902400970459e-01,-4.651013612747192383e-01,1.974792182445526123e-01,8.519436120986938477e-01,2.384532988071441650e-01,1.577294021844863892e-01,-6.459289789199829102e-02,-2.804849743843078613e-01,-3.048050403594970703e-01,-2.611253857612609863e-01
6.056517958641052246e-01,2.264975011348724365e-01,1.867526024580001831e-01,-1.497374027967453003e-01,3.532422184944152832e-01,1.996092796325683594e-01,5.224329233169555664e-02,3.060617744922637939e-01,-1.056434437632560730e-01,-1.402097344398498535e-01,-3.578475415706634521e-01,5.371405482292175293e-01,-5.172182321548461914e-01,2.701571583747863770e-01,4.772456586360931396e-01,7.241696119308471680e-02,5.862811580300331116e-02,-8.447797596454620361e-02,-9.255570173263549805e-02,-3.874690234661102295e-01,-3.957801759243011475e-01
9.699558615684509277e-01,1.604619994759559631e-02,4.578432068228721619e-02,-1.366864591836929321e-01,5.538792610168457031e-01,1.563156843185424805e-01,-5.359463021159172058e-02,3.510971069335937500e-01,3.225072100758552551e-02,5.068257823586463928e-02,-5.428375005722045898e-01,8.278974890708923340e-01,-4.894556105136871338e-01,4.755170345306396484e-01,7.663195729255676270e-01,1.570512801408767700e-01,1.339495880529284477e-03,-9.820003807544708252e-02,-2.679060697555541992e-01,-2.685252726078033447e-01,-3.796780407428741455e-01
8.931292891502380371e-01,8.242987841367721558e-02,-1.025427356362342834e-01,-1.307440102100372314e-01,2.484677284955978394e-01,2.318527400493621826e-01,1.358647551387548447e-02,4.631591737270355225e-01,7.978635281324386597e-02,9.953656792640686035e-02,-4.504839777946472168e-01,7.339648604393005371e-01,-4.220726191997528076e-01,3.922392129898071289e-01,4.366653859615325928e-01,2.583805918693542480e-01,-8.077469468116760254e-02,-1.571186631917953491e-01,-1.491932570934295654e-01,-1.080745533108711243e-01,-4.842342734336853027e-01
7.949181795120239258e-01,-1.790910363197326660e-01,3.646329045295715332e-02,-1.494386196136474609e-01,1.591364741325378418e-01,2.194812148809432983e-01,1.424324214458465576e-01,2.663007974624633789e-01,1.944586783647537231e-01,-3.142338395118713379e-01,-8.119885921478271484e-01,7.193829417228698730e-01,-4.213350713253021240e-01,4.926876425743103027e-01,4.141738414764404297e-01,2.327377945184707642e-01,-1.129435300827026367e-01,-3.564721047878265381e-01,-2.393483668565750122e-01,-4.472936689853668213e-01,-5.048899650573730469e-01
9.303854107856750488e-01,-2.880136072635650635e-01,1.660383641719818115e-01,-1.191604603081941605e-02,-1.398039162158966064e-01,4.612262845039367676e-01,1.750735044479370117e-01,2.101265788078308105e-01,3.357545733451843262e-01,9.200838953256607056e-02,-6.387448906898498535e-01,6.767599582672119141e-01,-5.304608941078186035e-01,5.463275909423828125e-01,1.332455575466156006e-01,1.479277461767196655e-01,-6.247946023941040039e-01,-3.583483397960662842e-01,-2.688742876052856445e-01,-2.811722457408905029e-01,-5.892502665519714355e-01
9.972738623619079590e-01,-3.228976726531982422e-01,2.261425256729125977e-01,-2.357698231935501099e-01,-5.361101124435663223e-03,2.399330288171768188e-01,2.422600686550140381e-01,2.627148032188415527e-01,3.123095929622650146e-01,-9.221386909484863281e-02,-8.991965651512145996e-01,1.010677933692932129e+00,-1.017064824700355530e-01,3.389608561992645264e-01,2.326983213424682617e-01,2.805451154708862305e-01,-3.992335200309753418e-01,-4.687435925006866455e-01,-2.470293939113616943e-01,-1.738692224025726318e-01,-6.923844814300537109e-01
6.952309608459472656e-01,-4.142049252986907959e-01,4.075010120868682861e-02,-1.603304892778396606e-01,-1.845325380563735962e-01,1.136010512709617615e-01,1.697074323892593384e-01,1.518945097923278809e-01,3.684133589267730713e-01,-1.472366601228713989e-01,-7.245587706565856934e-01,6.200058460235595703e-01,-1.515341252088546753e-01,3.908274769783020020e-01,2.105262875556945801e-01,1.395468711853027344e-01,-4.708868861198425293e-01,-4.811035096645355225e-01,-1.842802464962005615e-01,-4.312774911522865295e-02,-6.175134181976318359e-01
8.044563531875610352e-01,-3.173038363456726074e-01,3.149592280387878418e-01,-2.067749500274658203e-01,-1.606539636850357056e-01,1.118945926427841187e-01,1.658187713474035263e-03,2.714096903800964355e-01,4.251032769680023193e-01,-3.168615400791168213e-01,-8.815519809722900391e-01,7.211529016494750977e-01,-4.799655973911285400e-01,6.266314387321472168e-01,2.327909618616104126e-01,1.570636630058288574e-01,-6.000830531120300293e-01,-4.906411767005920410e-01,-2.750197052955627441e-01,-1.625757366418838501e-01,-5.780736207962036133e-01
5.018223524093627930e-01,-2.901379168033599854e-01,3.712161779403686523e-01,-1.204347908496856689e-01,-4.302918314933776855e-01,-1.906084269285202026e-01,-2.421499937772750854e-01,1.987898498773574829e-01,2.654318511486053467e-01,-2.158486694097518921e-01,-7.122005224227905273e-01,7.893350720405578613e-01,-2.610459923744201660e-01,6.861317157745361328e-01,2.534811571240425110e-02,1.964655965566635132e-01,-2.888819575309753418e-01,-4.829174578189849854e-01,-8.868156373500823975e-02,-7.777485996484756470e-02,-3.624328076839447021e-01
7.765088081359863281e-01,-1.057033017277717590e-01,5.195116996765136719e-01,-2.802611589431762695e-01,-1.098261401057243347e-01,2.604292519390583038e-02,-2.339014708995819092e-01,9.796911478042602539e-02,2.679666280746459961e-01,-8.376055955886840820e-02,-8.436689376831054688e-01,6.543178558349609375e-01,-3.939598798751831055e-01,5.043084025382995605e-01,2.140394411981105804e-02,3.056511282920837402e-02,-2.970394492149353027e-01,-6.035770177841186523e-01,-4.699101205915212631e-03,-5.700008478015661240e-03,-5.342206358909606934e-01
5.682846307754516602e-01,9.412527829408645630e-02,5.366057157516479492e-01,-2.501606345176696777e-01,-1.673761457204818726e-01,-1.197443692944943905e-03,-3.589110821485519409e-02,4.836518689990043640e-02,1.976431459188461304e-01,-1.128525957465171814e-01,-4.372834265232086182e-01,7.475292086601257324e-01,-4.011947810649871826e-01,8.775178194046020508e-01,2.120417952537536621e-01,-6.767558306455612183e-02,-3.327986299991607666e-01,-5.960596799850463867e-01,5.152234435081481934e-02,-1.315983682870864868e-01,-4.297864437103271484e-01
1.655275523662567139e-01,-8.936349302530288696e-02,4.515791535377502441e-01,1.873083226382732391e-02,-2.471476495265960693e-01,-7.244899868965148926e-02,-2.034876495599746704e-01,-1.001627892255783081e-01,3.067846894264221191e-01,-1.458259858191013336e-02,-4.403924643993377686e-01,6.202697157859802246e-01,-3.383854627609252930e-01,5.861706137657165527e-01,-4.957494325935840607e-03,-1.683963579125702381e-03,-3.572906255722045898e-01,-4.663759768009185791e-01,7.263990491628646851e-02,-1.366613805294036865e-01,-2.970611453056335449e-01
4.100387096405029297e-01,-1.627818495035171509e-01,6.994103789329528809e-01,4.563553631305694580e-02,-7.876990735530853271e-02,-1.071899831295013428e-01,-3.095391690731048584e-01,1.371794044971466064e-01,1.329234242439270020e-01,-5.468641594052314758e-02,-3.977813720703125000e-01,5.883193016052246094e-01,-4.390869438648223877e-01,8.384217023849487305e-01,-1.515563726425170898e-01,7.885456085205078125e-02,-2.937068045139312744e-01,-5.212271213531494141e-01,5.432913824915885925e-02,6.793442368507385254e-02,-1.662590652704238892e-01
2.712859772145748138e-02,-2.029623836278915405e-02,6.501936912536621094e-01,-5.697541683912277222e-02,-1.927378773689270020e-02,-1.758638173341751099e-01,-2.876821160316467285e-01,-2.601150572299957275e-01,-3.806285932660102844e-02,-3.203648626804351807e-01,-8.534760028123855591e-02,7.020365595817565918e-01,-6.788058280944824219e-01,4.998142719268798828e-01,-7.710575312376022339e-02,-1.127856299281120300e-01,9.324652142822742462e-03,-2.892085015773773193e-01,-1.210521981120109558e-01,-3.416605666279792786e-02,-4.050990939140319824e-02
7.555610965937376022e-03,7.443776726722717285e-02,4.549011290073394775e-01,2.659978270530700684e-01,6.851792335510253906e-02,-1.012727022171020508e-01,-2.800971567630767822e-01,-2.597883641719818115e-01,1.168289855122566223e-01,-1.469464004039764404e-01,-2.455352097749710083e-01,5.865777730941772461e-01,-6.745888590812683105e-01,5.596813559532165527e-01,1.523655802011489868e-01,-1.893529444932937622e-01,-3.166299760341644287e-01,-2.680750787258148193e-01,-8.743378520011901855e-02,4.641548171639442444e-02,-1.498967856168746948e-01
-5.484704673290252686e-02,1.681853681802749634e-01,3.956577479839324951e-01,6.986519694328308105e-02,3.593572229146957397e-02,-2.953634560108184814e-01,-3.933741450309753418e-01,-3.520996570587158203e-01,9.766747057437896729e-02,-2.910210192203521729e-01,1.493468135595321655e-01,5.080257058143615723e-01,-6.161066889762878418e-01,5.814212560653686523e-01,-1.061484590172767639e-01,-2.886990904808044434e-01,-2.689779996871948242e-01,-2.307294011116027832e-01,-6.384219229221343994e-02,-2.843686379492282867e-02,1.437093969434499741e-02
-2.403801530599594116e-01,6.168364547193050385e-03,3.389177024364471436e-01,1.935258656740188599e-01,8.421944826841354370e-02,-5.197957754135131836e-01,-2.432984858751296997e-01,-2.569292187690734863e-01,7.921551913022994995e-02,-4.818406701087951660e-01,2.181774936616420746e-02,3.228746056556701660e-01,-7.205931544303894043e-01,2.973650693893432617e-01,-1.030272319912910461e-01,-4.654104709625244141e-01,-2.308845818042755127e-01,-1.557058990001678467e-01,-2.901377081871032715e-01,-9.587465226650238037e-02,1.037581712007522583e-01
-1.169298514723777771e-01,-5.023643001914024353e-02,1.653026193380355835e-01,3.667402863502502441e-01,5.178427323698997498e-02,-2.902839481830596924e-01,-1.253665685653686523e-01,-4.272930324077606201e-01,5.767175182700157166e-02,-2.972217500209808350e-01,1.072196196764707565e-02,3.252711892127990723e-01,-6.510922908782958984e-01,2.934382557868957520e-01,1.061197295784950256e-01,-2.779999077320098877e-01,-2.025710940361022949e-01,-1.661807149648666382e-01,-6.839164495468139648e-01,-1.598820239305496216e-01,-4.488347098231315613e-02
-1.734525710344314575e-01,4.622041061520576477e-02,3.164233267307281494e-01,1.896548867225646973e-01,6.371057033538818359e-02,-5.088011026382446289e-01,-8.152897469699382782e-03,-5.014667510986328125e-01,8.007512986660003662e-02,-3.431163728237152100e-01,-2.856781333684921265e-02,1.336409598588943481e-01,-7.731704115867614746e-01,4.121283888816833496e-01,1.047750413417816162e-01,-5.807185173034667969e-01,-3.396796882152557373e-01,-2.551266252994537354e-01,-7.221090793609619141e-01,-1.121269389986991882e-01,-2.385487407445907593e-01
-4.880866780877113342e-02,-6.267598830163478851e-03,3.216817975044250488e-01,1.487764120101928711e-01,6.286548823118209839e-02,-5.215103030204772949e-01,-4.220350645482540131e-03,-6.211201548576354980e-01,-3.498119115829467773e-02,-4.738532304763793945e-01,-1.191485673189163208e-02,1.895427145063877106e-02,-6.573539972305297852e-01,3.382590711116790771e-01,6.442085653543472290e-02,-7.612791061401367188e-01,-4.148139059543609619e-01,-4.527921974658966064e-01,-7.618454098701477051e-01,-3.486052528023719788e-02,-8.580977469682693481e-02
-2.948626875877380371e-03,-3.670565411448478699e-02,5.184989422559738159e-02,-3.000454977154731750e-02,1.674521416425704956e-01,-5.509437918663024902e-01,1.687709689140319824e-01,-5.206507444381713867e-01,-1.624905914068222046e-01,-4.439737498760223389e-01,-1.187677029520273209e-03,8.021425455808639526e-02,-7.220398187637329102e-01,4.141971170902252197e-01,1.934875100851058960e-01,-6.519892811775207520e-01,-9.698255360126495361e-02,-4.962614774703979492e-01,-8.716307878494262695e-01,-1.910284161567687988e-01,-2.333976626396179199e-01
-6.956922262907028198e-02,-2.149399667978286743e-01,-3.524185717105865479e-02,-1.082561165094375610e-01,-4.505933821201324463e-02,-5.529732108116149902e-01,2.247862666845321655e-01,-2.752847075462341309e-01,-1.670332849025726318e-01,-7.238703966140747070e-01,1.570220291614532471e-01,6.867815554141998291e-02,-8.871722817420959473e-01,4.057919085025787354e-01,1.812755465507507324e-01,-8.681995272636413574e-01,-2.432825863361358643e-01,-6.302198767662048340e-01,-1.022156715393066406e+00,-4.299037531018257141e-02,-5.741825103759765625e-01
1.709144189953804016e-02,-2.518255412578582764e-01,-7.426416128873825073e-02,7.014845311641693115e-02,1.030867174267768860e-02,-5.203730463981628418e-01,2.059642225503921509e-01,-3.333098292350769043e-01,-5.075545515865087509e-03,-7.531690597534179688e-01,2.942494750022888184e-01,-1.670107543468475342e-01,-9.872153401374816895e-01,5.600186586380004883e-01,2.903779447078704834e-01,-7.775982618331909180e-01,-1.509400457143783569e-01,-5.349735617637634277e-01,-1.025354504585266113e+00,1.481309980154037476e-01,-3.032414615154266357e-01
-5.254218727350234985e-02,-1.583320051431655884e-01,6.664540152996778488e-03,-2.544434666633605957e-01,2.197724878787994385e-01,-3.228985071182250977e-01,3.326400816440582275e-01,-2.197647839784622192e-01,-1.190138384699821472e-01,-8.481352329254150391e-01,2.271065711975097656e-01,2.429501526057720184e-02,-1.154098987579345703e+00,6.473746299743652344e-01,4.711300134658813477e-01,-7.032373547554016113e-01,-2.700413465499877930e-01,-7.327094674110412598e-01,-1.034236669540405273e+00,1.607100069522857666e-01,-3.626349866390228271e-01
3.354259580373764038e-02,-8.936730772256851196e-02,-1.280758976936340332e-01,-3.615624308586120605e-01,2.018565088510513306e-01,-3.870018720626831055e-01,3.211346864700317383e-01,-2.265316545963287354e-01,-3.716247379779815674e-01,-7.327663302421569824e-01,1.452431976795196533e-01,1.243595499545335770e-02,-1.040792226791381836e+00,7.123804092407226562e-01,2.938830256462097168e-01,-7.168820500373840332e-01,-2.947708070278167725e-01,-9.055571556091308594e-01,-9.630962610244750977e-01,1.691174209117889404e-01,-5.190336704254150391e-01
6.525351852178573608e-02,-1.570890843868255615e-01,-3.287045359611511230e-01,-3.078306317329406738e-01,1.687005534768104553e-02,-4.857806861400604248e-01,4.258387684822082520e-01,8.789256960153579712e-02,-2.187449932098388672e-01,-1.027681112289428711e+00,4.518891870975494385e-01,-6.475903838872909546e-02,-1.079884290695190430e+00,7.590935230255126953e-01,1.752886325120925903e-01,-7.885816693305969238e-01,-1.343209147453308105e-01,-8.708734512329101562e-01,-9.431892633438110352e-01,5.158765316009521484e-01,-5.262955427169799805e-01
1.097790896892547607e-01,-1.428467482328414917e-01,-1.282722055912017822e-01,-3.948732912540435791e-01,-9.002327173948287964e-02,-2.570595741271972656e-01,4.143055081367492676e-01,1.530374139547348022e-01,-1.759178191423416138e-01,-8.427566885948181152e-01,1.438380926847457886e-01,1.063834056258201599e-01,-1.051098227500915527e+00,6.810460090637207031e-01,2.994013726711273193e-01,-7.212931513786315918e-01,-3.762908577919006348e-01,-1.010616660118103027e+00,-7.877746820449829102e-01,5.072530508041381836e-01,-2.898882925510406494e-01
-4.202422499656677246e-02,-2.637534737586975098e-01,-5.433677434921264648e-01,-4.605949223041534424e-01,1.287655532360076904e-01,-9.056815505027770996e-02,6.133744120597839355e-01,2.062117606401443481e-01,-2.551048696041107178e-01,-7.280765175819396973e-01,3.278476297855377197e-01,2.751173079013824463e-01,-1.015757679939270020e+00,8.729594349861145020e-01,2.224244922399520874e-01,-5.992106199264526367e-01,-2.676858007907867432e-01,-8.293010592460632324e-01,-9.233231544494628906e-01,7.071071863174438477e-01,-2.059638351202011108e-01
4.009811207652091980e-02,-3.826420307159423828e-01,-3.953591585159301758e-01,-4.473388791084289551e-01,1.451160758733749390e-01,-1.358367502689361572e-01,7.431915998458862305e-01,3.060774803161621094e-01,2.521992623805999756e-01,-8.338192701339721680e-01,2.286417484283447266e-01,2.633934915065765381e-01,-8.759376406669616699e-01,7.137497663497924805e-01,2.320505529642105103e-01,-2.083488255739212036e-01,-2.767345607280731201e-01,-8.639965653419494629e-01,-6.266695857048034668e-01,9.215229153633117676e-01,-4.018270075321197510e-01
3.578316420316696167e-03,-4.744714796543121338e-01,-5.633888840675354004e-01,-1.256962269544601440e-01,-8.202160894870758057e-02,-9.027110785245895386e-02,8.307386040687561035e-01,2.773113250732421875e-01,4.746120888739824295e-03,-6.009734272956848145e-01,1.171101927757263184e-01,4.008848667144775391e-01,-9.322627186775207520e-01,5.999807119369506836e-01,1.478888094425201416e-01,-1.604973897337913513e-02,-4.724930226802825928e-01,-9.622372388839721680e-01,-7.415690422058105469e-01,9.158000349998474121e-01,-4.135563373565673828e-01
2.450314164161682129e-02,-5.217188596725463867e-01,-5.280112624168395996e-01,-1.726213991641998291e-01,-5.387557297945022583e-02,-2.918412089347839355e-01,6.321833133697509766e-01,1.569456458091735840e-01,2.216034084558486938e-01,-4.676472842693328857e-01,2.903135716915130615e-01,3.669480085372924805e-01,-5.276438593864440918e-01,6.645180583000183105e-01,3.696817439049482346e-03,-1.643594652414321899e-01,-4.156015515327453613e-01,-8.770840764045715332e-01,-6.834154129028320312e-01,1.097045779228210449e+00,-1.735184788703918457e-01
-9.164854884147644043e-02,-7.475205659866333008e-01,-6.503444314002990723e-01,-8.749094605445861816e-02,-1.062732040882110596e-01,-3.226884305477142334e-01,8.447392582893371582e-01,3.497371673583984375e-01,1.321643739938735962e-01,-5.633085966110229492e-01,2.743565142154693604e-01,3.814227581024169922e-01,-5.233390331268310547e-01,4.868670701980590820e-01,-1.340312212705612183e-01,-2.921324372291564941e-01,-4.149924218654632568e-01,-1.068256378173828125e+00,-4.988504052162170410e-01,8.488497734069824219e-01,-1.514536142349243164e-01
-4.998850822448730469e-02,-7.041035294532775879e-01,-5.921119451522827148e-01,-5.003440007567405701e-02,-1.066195517778396606e-01,-3.799599409103393555e-01,7.299613356590270996e-01,4.907421171665191650e-01,2.697863876819610596e-01,-3.925229609012603760e-01,2.099106013774871826e-01,2.753179371356964111e-01,-3.688914477825164795e-01,4.164950251579284668e-01,-8.101173490285873413e-02,-5.783225595951080322e-02,-5.863341689109802246e-01,-8.377278447151184082e-01,-7.546792626380920410e-01,9.863085150718688965e-01,-1.409699916839599609e-01
-1.964953839778900146e-01,-6.004138588905334473e-01,-3.899984359741210938e-01,1.370779145509004593e-02,-1.829700171947479248e-01,-4.930726289749145508e-01,7.529728412628173828e-01,4.642511606216430664e-01,3.054707050323486328e-01,-3.813918828964233398e-01,1.540420502424240112e-01,5.619348287582397461e-01,-3.722438514232635498e-01,2.872152030467987061e-01,-6.261519342660903931e-02,-2.349647581577301025e-01,-3.574425578117370605e-01,-6.912367343902587891e-01,-5.202064514160156250e-01,9.174249172210693359e-01,3.014593943953514099e-02
-1.742424517869949341e-01,-4.524588882923126221e-01,-2.580012679100036621e-01,1.193093657493591309e-01,-1.428640335798263550e-01,-5.419861674308776855e-01,7.609967589378356934e-01,4.507999718189239502e-01,1.907707154750823975e-01,-2.363805025815963745e-01,3.633985519409179688e-01,2.409524321556091309e-01,-2.932755351066589355e-01,2.709490656852722168e-01,-1.445411890745162964e-01,-3.153104782104492188e-01,-4.683054983615875244e-01,-1.050501227378845215e+00,-6.325617432594299316e-01,8.019140958786010742e-01,1.411650031805038452e-01
-3.933237791061401367e-01,-4.037920534610748291e-01,-2.184381186962127686e-01,-1.535453181713819504e-02,-1.193459779024124146e-01,-5.942045450210571289e-01,6.298173666000366211e-01,2.799185812473297119e-01,2.649413049221038818e-01,-4.638840258121490479e-01,3.189769387245178223e-01,4.066392779350280762e-01,-3.347785174846649170e-01,2.219658941030502319e-01,-3.746650218963623047e-01,-2.200901508331298828e-01,-2.641127407550811768e-01,-8.617907762527465820e-01,-5.768409967422485352e-01,7.442399859428405762e-01,2.278913855552673340e-01
-4.166220873594284058e-02,-4.296838641166687012e-01,-8.402546495199203491e-02,1.944649070501327515e-01,1.154802888631820679e-01,-4.439555108547210693e-01,5.808616280555725098e-01,5.591543912887573242e-01,1.600527614355087280e-01,-4.372438192367553711e-01,6.154377460479736328e-01,7.983574271202087402e-02,-3.023098595440387726e-02,2.983519136905670166e-01,-2.809423506259918213e-01,-2.565983533859252930e-01,8.751028776168823242e-02,-7.520519495010375977e-01,-4.503432810306549072e-01,8.625690340995788574e-01,2.613106966018676758e-01
-3.187319934368133545e-01,-4.185341596603393555e-01,-9.761109948158264160e-02,1.293834000825881958e-01,1.927653513848781586e-02,-5.815036296844482422e-01,3.918776810169219971e-01,4.601727724075317383e-01,-8.944516628980636597e-02,-3.152315020561218262e-01,6.696590185165405273e-01,9.173948317766189575e-02,-1.445041149854660034e-01,2.111649066209793091e-01,-1.502529978752136230e-01,-2.545925676822662354e-01,1.114932522177696228e-01,-8.132326602935791016e-01,-5.565297007560729980e-01,7.788584232330322266e-01,2.183104902505874634e-01
4.981881473213434219e-03,-2.921190261840820312e-01,1.073412150144577026e-01,-5.741791799664497375e-02,1.603729128837585449e-01,-4.405575692653656006e-01,1.888342201709747314e-01,3.071192204952239990e-01,6.450626999139785767e-02,-2.402022480964660645e-01,7.158022522926330566e-01,-4.242325201630592346e-02,-1.899556517601013184e-01,1.860307306051254272e-01,8.227765560150146484e-02,-3.366264104843139648e-01,2.523602843284606934e-01,-5.544000864028930664e-01,-5.754826068878173828e-01,7.564316987991333008e-01,2.092793136835098267e-01
-2.232481390237808228e-01,-1.401133388280868530e-01,1.154654845595359802e-01,1.236840859055519104e-01,2.845710813999176025e-01,-6.438563466072082520e-01,1.969073414802551270e-01,2.173854857683181763e-01,-1.706948280334472656e-01,-1.034288853406906128e-01,1.021741151809692383e+00,-5.456215143203735352e-02,1.119643915444612503e-02,-1.056096479296684265e-01,-4.420915618538856506e-02,-1.226809695363044739e-01,2.137696892023086548e-01,-4.648636281490325928e-01,-4.580108523368835449e-01,4.742798209190368652e-01,2.389115393161773682e-01
-5.345057845115661621e-01,-1.058290824294090271e-01,-1.283051073551177979e-01,4.489099979400634766e-02,3.368686139583587646e-01,-6.381976008415222168e-01,2.487336546182632446e-01,4.762667715549468994e-01,-1.896609812974929810e-01,-5.595820397138595581e-02,1.066997408866882324e+00,-1.453724503517150879e-01,-2.164880484342575073e-01,-3.963108733296394348e-02,-1.105644404888153076e-01,-1.923970580101013184e-01,2.791479229927062988e-01,-3.467787802219390869e-01,-5.451206564903259277e-01,7.604144811630249023e-01,2.921690344810485840e-01
-5.601882934570312500e-01,-5.637981370091438293e-02,-4.200063273310661316e-02,8.107295259833335876e-03,5.607685446739196777e-01,-5.589499473571777344e-01,2.271034866571426392e-01,5.972798466682434082e-01,-3.264708220958709717e-01,-2.015943825244903564e-01,8.001533746719360352e-01,-3.168790936470031738e-01,-1.299901157617568970e-01,-2.075393348932266235e-01,2.321321815252304077e-01,-2.681582570075988770e-01,3.331236839294433594e-01,-2.695941552519798279e-02,-4.183850884437561035e-01,5.508453249931335449e-01,2.845954000949859619e-01
-5.317978858947753906e-01,-1.518214344978332520e-01,-1.096485182642936707e-01,8.958085440099239349e-03,7.494884133338928223e-01,-6.576679348945617676e-01,3.142038583755493164e-01,6.387819051742553711e-01,-2.359876930713653564e-01,-1.748560220003128052e-01,9.984499216079711914e-01,-2.320715636014938354e-01,-2.208359986543655396e-01,-2.965195775032043457e-01,1.762941479682922363e-01,-3.044526875019073486e-01,3.672760426998138428e-01,-1.389504596590995789e-02,-3.500886261463165283e-01,6.125265955924987793e-01,3.967018723487854004e-01
-6.250023841857910156e-01,7.136427331715822220e-03,-3.167289122939109802e-02,2.567521035671234131e-01,7.640954852104187012e-01,-4.462792277336120605e-01,2.755316495895385742e-01,6.781777739524841309e-01,-4.605636596679687500e-01,-7.396098226308822632e-02,1.011434793472290039e+00,-9.381137788295745850e-03,-2.090654671192169189e-01,-4.501384198665618896e-01,-2.341344393789768219e-02,-2.981368601322174072e-01,4.009190797805786133e-01,-1.952708363533020020e-01,-3.412867784500122070e-01,5.104339718818664551e-01,4.541268050670623779e-01
-3.248678445816040039e-01,-1.213051006197929382e-01,-9.106658399105072021e-02,1.720627993345260620e-01,8.435409665107727051e-01,-4.465090334415435791e-01,2.728606462478637695e-01,3.587362766265869141e-01,-3.686562776565551758e-01,-1.049295961856842041e-01,1.041613340377807617e+00,-5.223824977874755859e-01,6.199366971850395203e-02,-5.014359951019287109e-01,3.649001568555831909e-02,-4.360417425632476807e-01,4.218716025352478027e-01,-8.174837380647659302e-02,-3.173910379409790039e-01,4.245662093162536621e-01,3.767434954643249512e-01
-6.243687272071838379e-01,-2.595797479152679443e-01,-2.364540100097656250e-01,1.638967916369438171e-02,6.375858187675476074e-01,-4.063428640365600586e-01,3.055911362171173096e-01,4.536462724208831787e-01,-3.100813925266265869e-01,-1.194252073764801025e-01,7.640746831893920898e-01,-4.311926662921905518e-01,-4.084203764796257019e-02,-4.875760376453399658e-01,9.786083549261093140e-02,-2.998073697090148926e-01,1.773910671472549438e-01,-2.342452667653560638e-02,-5.389289855957031250e-01,6.073088645935058594e-01,3.733875453472137451e-01
-4.066420793533325195e-01,-2.039546072483062744e-01,-3.733159303665161133e-01,1.384586393833160400e-01,9.074121117591857910e-01,-4.859332144260406494e-01,4.909739494323730469e-01,5.557842850685119629e-01,-4.746132791042327881e-01,-3.466721251606941223e-02,9.120328426361083984e-01,-2.639359831809997559e-01,-2.207963168621063232e-01,-6.252630352973937988e-01,9.504381567239761353e-02,-4.353681802749633789e-01,3.074376583099365234e-01,-1.776380836963653564e-01,-6.684256196022033691e-01,5.010589957237243652e-01,1.359089016914367676e-01
-1.499712318181991577e-01,-3.955032527446746826e-01,-3.880755603313446045e-01,1.406504362821578979e-01,7.386534810066223145e-01,8.947104960680007935e-02,3.143273591995239258e-01,5.317903161048889160e-01,-3.777963519096374512e-01,-1.418783068656921387e-01,8.147853612899780273e-01,-5.462564826011657715e-01,-3.856614977121353149e-02,-4.091070592403411865e-01,1.547558419406414032e-02,-3.356170952320098877e-01,8.280947059392929077e-02,-9.089614450931549072e-02,-4.597706198692321777e-01,2.759004533290863037e-01,6.708979606628417969e-02
-6.201672926545143127e-02,-5.673084259033203125e-01,-5.923570990562438965e-01,-1.440173536539077759e-01,6.556046605110168457e-01,-1.748430877923965454e-01,5.474710464477539062e-01,5.696448683738708496e-01,-6.402666866779327393e-02,-2.269575148820877075e-01,5.033672451972961426e-01,-5.740953087806701660e-01,-1.003524437546730042e-01,-3.535733819007873535e-01,2.315650880336761475e-01,-2.792259752750396729e-01,2.275152355432510376e-01,1.203660294413566589e-01,-4.636628329753875732e-01,2.182459980249404907e-01,1.542236059904098511e-01
-1.519675701856613159e-01,-3.353690803050994873e-01,-6.736619472503662109e-01,1.043896079063415527e-01,4.644163250923156738e-01,9.988297708332538605e-03,5.501955151557922363e-01,7.292762994766235352e-01,-2.125529795885086060e-01,-4.013486504554748535e-01,4.123308360576629639e-01,-4.471697509288787842e-01,-7.946654409170150757e-02,-2.736603319644927979e-01,2.729553580284118652e-01,-5.031083226203918457e-01,2.786659598350524902e-01,-1.967040300369262695e-01,-5.293220877647399902e-01,3.203189074993133545e-01,1.327101290225982666e-01
-8.437328040599822998e-02,-4.543417096138000488e-01,-5.106393098831176758e-01,-2.729755640029907227e-01,5.524685978889465332e-01,9.712722897529602051e-02,3.992989659309387207e-01,6.226005554199218750e-01,8.401396684348583221e-03,-2.925358414649963379e-01,3.987884521484375000e-01,-4.763794243335723877e-01,-2.628467045724391937e-02,-1.766822338104248047e-01,1.444994509220123291e-01,-4.823285043239593506e-01,1.724031567573547363e-01,-2.828869819641113281e-01,-4.211421906948089600e-01,2.709051966667175293e-01,-7.625398784875869751e-02
2.348696440458297729e-01,-3.866382241249084473e-01,-6.721838712692260742e-01,-1.619886606931686401e-01,6.462507843971252441e-01,-4.418065771460533142e-02,2.653941810131072998e-01,8.034131526947021484e-01,-9.114002436399459839e-02,-3.087155520915985107e-01,4.725102782249450684e-01,-4.422962963581085205e-01,-3.979667276144027710e-02,-3.462581709027290344e-02,1.529028713703155518e-01,-4.302045404911041260e-01,3.858870640397071838e-02,-3.463479876518249512e-01,-3.345350623130798340e-01,4.071753323078155518e-01,1.262394785881042480e-01
1.803451627492904663e-01,-3.944160938262939453e-01,-6.962056756019592285e-01,-3.063887059688568115e-01,6.851090192794799805e-01,4.345689713954925537e-01,5.449513792991638184e-01,1.191930770874023438e+00,-1.810237169265747070e-01,-3.802466392517089844e-01,4.561909437179565430e-01,-1.264053285121917725e-01,1.116890273988246918e-02,-1.614756882190704346e-01,3.092117607593536377e-01,-1.849177330732345581e-01,-5.879197269678115845e-02,-1.959915012121200562e-01,-1.203084513545036316e-01,2.762474715709686279e-01,-1.644735969603061676e-02
2.017906159162521362e-01,-6.988421082496643066e-01,-4.741315245628356934e-01,-3.587606847286224365e-01,4.716302454471588135e-01,2.300737500190734863e-01,2.484025359153747559e-01,1.088007569313049316e+00,1.362697035074234009e-01,-4.604092538356781006e-01,4.582746326923370361e-01,-2.281785905361175537e-01,2.957584150135517120e-02,1.681421697139739990e-01,1.563378125429153442e-01,-3.884935751557350159e-02,1.041621342301368713e-01,-3.236710131168365479e-01,-1.009334251284599304e-02,4.460731744766235352e-01,6.612347066402435303e-02
2.674660682678222656e-01,-5.995228290557861328e-01,-3.477704524993896484e-01,-2.977166473865509033e-01,8.409050107002258301e-01,4.886186718940734863e-01,3.144598007202148438e-01,1.177408933639526367e+00,1.004628837108612061e-01,-2.193059921264648438e-01,2.556919455528259277e-01,-1.069168224930763245e-01,3.271340578794479370e-02,-1.201591044664382935e-01,3.007859587669372559e-01,-1.180863380432128906e-02,-7.920309156179428101e-02,-2.487021684646606445e-01,-3.660803660750389099e-02,4.252583384513854980e-01,-8.539748191833496094e-02
1.915288567543029785e-01,-4.715134203433990479e-01,-6.343919038772583008e-01,-2.514946460723876953e-01,4.030491113662719727e-01,5.971566438674926758e-01,1.324165910482406616e-01,1.125118851661682129e+00,7.037050276994705200e-02,-2.644264400005340576e-01,4.848128557205200195e-02,-2.119604498147964478e-03,-2.789773978292942047e-02,-8.947204053401947021e-02,-3.156576771289110184e-03,1.234546378254890442e-01,-2.922894433140754700e-02,1.403601914644241333e-01,1.618146300315856934e-01,4.006739258766174316e-01,2.822494804859161377e-01
5.474846810102462769e-02,-3.679820597171783447e-01,-3.672620952129364014e-01,8.402645587921142578e-02,6.782482266426086426e-01,4.497326314449310303e-01,-1.917819976806640625e-01,9.666954874992370605e-01,3.023104667663574219e-01,-8.759564906358718872e-02,7.728869561105966568e-03,-2.072283327579498291e-01,7.318545132875442505e-02,-2.898306585848331451e-02,2.426411584019660950e-02,1.556643098592758179e-01,-4.408482834696769714e-02,3.687767386436462402e-01,4.303041398525238037e-01,4.535551369190216064e-01,3.345800042152404785e-01
6.242173165082931519e-02,-2.949682474136352539e-01,-4.863036870956420898e-01,8.675115555524826050e-02,1.564152538776397705e-01,6.715213656425476074e-01,1.703926771879196167e-01,1.099173665046691895e+00,3.594120144844055176e-01,1.409328132867813110e-01,9.405034780502319336e-02,-3.935912624001502991e-02,3.488003313541412354e-01,-6.859232485294342041e-02,-9.066288173198699951e-02,1.822768598794937134e-01,-1.695285290479660034e-01,1.223676279187202454e-01,4.204798042774200439e-01,5.067106485366821289e-01,6.066752076148986816e-01
-6.141528487205505371e-02,-4.022377431392669678e-01,-5.612356662750244141e-01,-5.794462934136390686e-02,4.278273880481719971e-01,5.514404177665710449e-01,-9.437619894742965698e-02,9.209352135658264160e-01,3.261323571205139160e-01,1.226665219292044640e-03,9.996568411588668823e-02,-3.816727921366691589e-02,2.998738884925842285e-01,-3.397485986351966858e-02,-2.344360649585723877e-01,3.312704265117645264e-01,-2.811234258115291595e-02,2.874564751982688904e-02,5.230316519737243652e-01,5.941426753997802734e-01,5.547645092010498047e-01
-9.978602826595306396e-02,-3.298681378364562988e-01,-5.067818164825439453e-01,2.131708413362503052e-01,2.497555315494537354e-01,6.742783784866333008e-01,6.309434026479721069e-02,8.273817896842956543e-01,5.274639129638671875e-01,4.216264188289642334e-02,-1.402751952409744263e-01,-1.037258207798004150e-01,3.174250423908233643e-01,-3.657918274402618408e-01,-1.363131105899810791e-01,4.469001591205596924e-01,-1.539625823497772217e-01,1.817748844623565674e-01,5.289781093597412109e-01,2.797459363937377930e-01,6.672555804252624512e-01
-1.828053742647171021e-01,-1.611773669719696045e-01,-4.830062091350555420e-01,2.750501036643981934e-01,3.724818527698516846e-01,6.500412821769714355e-01,-6.882638484239578247e-02,6.999971270561218262e-01,7.076738476753234863e-01,1.449699848890304565e-01,1.230791658163070679e-01,-2.581324875354766846e-01,3.376975953578948975e-01,-1.760086119174957275e-01,-1.889791488647460938e-01,4.177078008651733398e-01,-4.325574934482574463e-01,1.528842747211456299e-01,5.129402279853820801e-01,4.274122714996337891e-01,7.137221097946166992e-01
-3.932287916541099548e-02,-1.843602657318115234e-01,-4.561041295528411865e-01,2.764938771724700928e-01,1.350503116846084595e-01,4.892418384552001953e-01,-1.004486009478569031e-01,3.027627766132354736e-01,7.621138691902160645e-01,2.811588346958160400e-01,7.052109390497207642e-02,-2.955476343631744385e-01,2.647432982921600342e-01,-4.724545180797576904e-01,-3.167183697223663330e-01,2.311251163482666016e-01,-3.322999924421310425e-02,3.928338885307312012e-01,6.750434041023254395e-01,2.707870304584503174e-01,7.124136090278625488e-01
-2.820663750171661377e-01,6.970658432692289352e-04,-4.217230975627899170e-01,1.699930131435394287e-01,2.526131570339202881e-01,4.784284234046936035e-01,-1.700971126556396484e-01,5.790135860443115234e-01,6.420208811759948730e-01,2.417349070310592651e-01,5.558867752552032471e-02,-3.972209393978118896e-01,4.038827121257781982e-01,-4.604296386241912842e-01,-1.038632467389106750e-01,3.682517707347869873e-01,-4.809398949146270752e-02,3.807770013809204102e-01,4.097197353839874268e-01,1.488124672323465347e-02,8.500284552574157715e-01
-8.795374631881713867e-02,-1.255238503217697144e-01,-4.062288701534271240e-01,4.348694682121276855e-01,1.655925512313842773e-01,1.769240796566009521e-01,-3.413086831569671631e-01,1.531798541545867920e-01,4.347879886627197266e-01,2.895344793796539307e-01,-1.219933629035949707e-01,-5.209730863571166992e-01,4.201072454452514648e-01,-6.064320206642150879e-01,-1.245561093091964722e-01,2.275691032409667969e-01,-7.939422130584716797e-02,1.654296219348907471e-01,2.566630244255065918e-01,-1.505352556705474854e-01,8.937166929244995117e-01
-1.614715009927749634e-01,-3.025884181261062622e-02,-3.643990755081176758e-01,3.183892965316772461e-01,1.676080375909805298e-01,7.257990539073944092e-02,-3.929212689399719238e-01,4.168716073036193848e-01,5.626199841499328613e-01,3.455765545368194580e-01,-2.277451008558273315e-02,-5.157468914985656738e-01,2.903102040290832520e-01,-7.069413661956787109e-01,7.830912619829177856e-02,3.008432500064373016e-02,-1.623174734413623810e-02,4.198227822780609131e-01,5.138742327690124512e-01,-3.461143672466278076e-01,8.348248600959777832e-01
-1.840044111013412476e-01,1.923170536756515503e-01,-1.244385540485382080e-01,2.624766826629638672e-01,5.070111155509948730e-02,3.696089982986450195e-01,-7.407398819923400879e-01,2.839539945125579834e-01,5.972309708595275879e-01,1.327401846647262573e-01,2.099602669477462769e-01,-5.218780040740966797e-01,2.634348571300506592e-01,-5.082954764366149902e-01,9.173882007598876953e-02,6.377409398555755615e-02,1.056593433022499084e-01,6.026877760887145996e-01,5.429223775863647461e-01,-2.886807620525360107e-01,6.732248663902282715e-01
-2.900509834289550781e-01,4.134847819805145264e-01,-1.385660022497177124e-01,6.364251375198364258e-01,2.421730905771255493e-01,2.036943435668945312e-01,-6.953416466712951660e-01,2.020842730998992920e-01,4.859302937984466553e-01,1.426020562648773193e-01,1.725510954856872559e-01,-5.549295544624328613e-01,1.467268913984298706e-01,-5.952924489974975586e-01,2.864823937416076660e-01,9.794038534164428711e-02,9.774640947580337524e-02,5.777364373207092285e-01,2.117498219013214111e-01,-3.618633747100830078e-01,6.089624166488647461e-01
-2.019083797931671143e-01,3.885589838027954102e-01,-3.101588785648345947e-01,4.336738884449005127e-01,2.240646481513977051e-01,4.555110633373260498e-02,-6.732113361358642578e-01,3.595648705959320068e-01,1.876130700111389160e-01,2.491624206304550171e-01,2.270842641592025757e-01,-5.782895088195800781e-01,-2.086686156690120697e-02,-5.144262313842773438e-01,3.353430032730102539e-01,-1.312919333577156067e-02,3.657772839069366455e-01,4.336383342742919922e-01,3.559936285018920898e-01,-6.186720728874206543e-01,7.347164154052734375e-01
-3.858260512351989746e-01,3.976778984069824219e-01,1.663668081164360046e-02,2.906890213489532471e-01,2.689553797245025635e-01,3.656452596187591553e-01,-7.950910925865173340e-01,3.438282012939453125e-01,3.417916893959045410e-01,2.039575949311256409e-02,3.883219063282012939e-01,-5.679931640625000000e-01,3.838998824357986450e-02,-4.714908897876739502e-01,4.418363869190216064e-01,1.975479871034622192e-01,2.147408425807952881e-01,4.247020781040191650e-01,2.294162213802337646e-01,-3.576867282390594482e-01,7.743058204650878906e-01
-1.734236329793930054e-01,4.112598001956939697e-01,-1.406742632389068604e-01,2.647260129451751709e-01,2.590644955635070801e-01,5.004898309707641602e-01,-6.591062545776367188e-01,1.388950049877166748e-01,2.787170112133026123e-01,-1.827642619609832764e-01,4.993519783020019531e-01,-8.109695315361022949e-01,-2.184159159660339355e-01,-4.344715178012847900e-01,5.422264337539672852e-01,-2.152857743203639984e-02,1.411179304122924805e-01,4.748203158378601074e-01,3.971088528633117676e-01,-1.527975350618362427e-01,8.223768472671508789e-01
-1.284695863723754883e-01,3.341805338859558105e-01,-3.194202482700347900e-02,4.741244912147521973e-01,3.277472853660583496e-01,3.107324540615081787e-01,-7.266776561737060547e-01,6.378047913312911987e-02,4.132371544837951660e-01,1.247857213020324707e-01,2.620347738265991211e-01,-5.537441968917846680e-01,-2.256271988153457642e-01,-5.129248499870300293e-01,4.138730764389038086e-01,2.555258274078369141e-01,1.657995432615280151e-01,6.180401444435119629e-01,1.458838433027267456e-01,-3.278244435787200928e-01,7.387844920158386230e-01
-2.870741765946149826e-03,3.503816127777099609e-01,-2.142561525106430054e-01,2.854534983634948730e-01,4.020040333271026611e-01,7.171393036842346191e-01,-5.364041924476623535e-01,2.454876154661178589e-01,3.302735984325408936e-01,2.149475272744894028e-03,1.250102818012237549e-01,-5.243538022041320801e-01,-3.059612512588500977e-01,-5.205860137939453125e-01,6.167221069335937500e-01,7.949005812406539917e-02,5.200773105025291443e-02,5.826404690742492676e-01,2.863349914550781250e-01,-1.115719303488731384e-01,6.111376881599426270e-01
-2.228983491659164429e-01,3.770044445991516113e-01,-4.769817888736724854e-01,1.926702111959457397e-01,2.323223203420639038e-01,6.927876472473144531e-01,-3.771580159664154053e-01,3.242059350013732910e-01,5.074788928031921387e-01,7.823404669761657715e-02,3.743952810764312744e-01,-5.534127950668334961e-01,-5.143423378467559814e-02,-2.970623672008514404e-01,5.220457315444946289e-01,1.950693279504776001e-01,6.564874202013015747e-03,4.360640645027160645e-01,3.295165952295064926e-03,-3.055352866649627686e-01,6.934753656387329102e-01
-6.448847241699695587e-03,1.892056167125701904e-01,-3.261066675186157227e-01,1.987350285053253174e-01,1.656112372875213623e-01,5.781673789024353027e-01,-4.834762811660766602e-01,2.270449548959732056e-01,4.275740683078765869e-01,2.633828856050968170e-02,1.241410151124000549e-01,-2.110317796468734741e-01,-4.625037908554077148e-01,-3.532741367816925049e-01,4.722624719142913818e-01,3.178327977657318115e-01,1.337688695639371872e-02,1.091393232345581055e-01,7.571611553430557251e-02,9.407964535057544708e-03,7.432662248611450195e-01
2.734621427953243256e-02,1.322362013161182404e-02,-5.271575450897216797e-01,1.741652488708496094e-01,6.251217424869537354e-02,7.103443145751953125e-01,-2.983739972114562988e-01,2.999786734580993652e-01,4.225955009460449219e-01,-2.255026251077651978e-02,6.129883602261543274e-02,-4.829524755477905273e-01,-3.632490932941436768e-01,-3.455634713172912598e-01,5.139235854148864746e-01,1.484636962413787842e-01,-1.688094288110733032e-01,8.447133004665374756e-02,1.144472137093544006e-01,-1.261108182370662689e-02,4.343339502811431885e-01
9.898453950881958008e-03,-2.558413445949554443e-01,-5.857517123222351074e-01,1.262775361537933350e-01,-1.943020969629287720e-01,6.263357996940612793e-01,-2.169307172298431396e-01,9.684956818819046021e-02,7.513434290885925293e-01,6.672715395689010620e-02,-1.338241845369338989e-01,-9.849431365728378296e-02,-4.223752021789550781e-01,-2.345095574855804443e-01,8.253348469734191895e-01,2.866933047771453857e-01,-3.482530117034912109e-01,8.870343118906021118e-02,-1.078924015164375305e-01,-5.633524619042873383e-03,6.466671824455261230e-01
2.764486670494079590e-01,8.239523507654666901e-03,-5.057431459426879883e-01,-2.160712517797946930e-02,-4.470028281211853027e-01,7.086405754089355469e-01,7.096313685178756714e-02,4.940225929021835327e-02,6.880750060081481934e-01,-8.041886240243911743e-02,-2.141086161136627197e-01,-1.231327801942825317e-01,-2.578242123126983643e-01,-2.637762427330017090e-01,7.071109414100646973e-01,2.932734191417694092e-01,-4.109833836555480957e-01,1.905299164354801178e-02,-8.840006589889526367e-02,-9.717924147844314575e-02,5.649496316909790039e-01
1.507063359022140503e-01,-1.524331122636795044e-01,-4.422328770160675049e-01,-1.362810730934143066e-01,-2.999072074890136719e-01,6.262584924697875977e-01,-2.473086267709732056e-01,2.944717109203338623e-01,8.168337941169738770e-01,3.870603069663047791e-02,-2.420379221439361572e-01,-5.896963924169540405e-02,-1.169538125395774841e-01,-2.714183926582336426e-01,5.460925102233886719e-01,3.886287212371826172e-01,-4.716584086418151855e-01,-1.727986782789230347e-01,6.462172418832778931e-02,4.641223698854446411e-02,4.196250736713409424e-01
2.910090088844299316e-01,-4.840892553329467773e-02,-4.472658336162567139e-01,-2.466427534818649292e-01,-4.701306223869323730e-01,6.328780055046081543e-01,-9.515281766653060913e-02,3.310006856918334961e-01,8.736592531204223633e-01,6.607607752084732056e-02,-3.729917705059051514e-01,5.085586104542016983e-03,-1.785828471183776855e-01,-1.614952236413955688e-01,8.266472220420837402e-01,4.881250262260437012e-01,-1.970351189374923706e-01,-3.325780928134918213e-01,5.955599620938301086e-02,1.030605360865592957e-01,3.333764672279357910e-01
2.570114433765411377e-01,-1.057769656181335449e-01,-3.870877921581268311e-01,-1.866328418254852295e-01,-6.251419782638549805e-01,8.401525020599365234e-01,-2.596158385276794434e-01,2.956472933292388916e-01,8.137642741203308105e-01,9.773163124918937683e-03,-2.967728674411773682e-01,1.608866900205612183e-01,-1.099139600992202759e-01,-2.611449658870697021e-01,5.718038678169250488e-01,4.839224815368652344e-01,-6.841798424720764160e-01,-1.660426408052444458e-01,3.263214230537414551e-02,6.871952861547470093e-02,4.119886457920074463e-01
3.737242519855499268e-01,-2.636977136135101318e-01,-2.075856737792491913e-02,-2.546839714050292969e-01,-5.441302657127380371e-01,7.491380572319030762e-01,-1.971285641193389893e-01,2.682619690895080566e-01,7.139530777931213379e-01,-2.307101190090179443e-01,-2.291034907102584839e-01,1.527948677539825439e-02,6.481308490037918091e-02,-2.322582602500915527e-01,6.792291998863220215e-01,7.383952140808105469e-01,-4.482794702053070068e-01,-9.773451834917068481e-02,4.417189583182334900e-02,2.100667506456375122e-01,2.318649590015411377e-01
