Fp1,Fp2,F7,F3,Fz,F4,F8,T3,C3,Cz,C4,T4,T5,P3,Pz,P4,T6,O1,Oz,O2,A1
-2.864941358566284180e-01,-2.778305485844612122e-02,-7.011015415191650391e-01,-1.305561065673828125e-01,3.185608386993408203e-01,3.083469569683074951e-01,5.095427036285400391e-01,4.161177873611450195e-01,-2.497033327817916870e-01,-2.129353880882263184e-01,-5.687179565429687500e-01,-6.544998884201049805e-01,-2.161309570074081421e-01,4.588683843612670898e-01,-1.109727993607521057e-01,-1.079356312751770020e+00,8.651010394096374512e-01,2.893935143947601318e-01,-2.106950432062149048e-01,-2.929587960243225098e-01,-3.193013072013854980e-01
-1.951882988214492798e-01,1.900468617677688599e-01,-7.077471613883972168e-01,-2.322873622179031372e-01,3.542621433734893799e-01,5.633532404899597168e-01,5.947149395942687988e-01,2.033510506153106689e-01,-3.332676887512207031e-01,-2.562111914157867432e-01,-7.120972275733947754e-01,-5.396009087562561035e-01,-2.681256830692291260e-01,6.324666738510131836e-01,1.632890999317169189e-01,-9.458788037300109863e-01,7.647852897644042969e-01,-6.757592409849166870e-02,-2.657516896724700928e-01,-3.785812258720397949e-01,-6.886320114135742188e-01
2.284844368696212769e-01,-1.625255681574344635e-02,-7.092117071151733398e-01,-1.165155991911888123e-01,1.789189577102661133e-01,4.844709038734436035e-01,6.801453828811645508e-01,4.684952199459075928e-01,-2.318628281354904175e-01,-3.585760295391082764e-01,-7.406619191169738770e-01,-6.931142210960388184e-01,-1.401565521955490112e-01,5.242932438850402832e-01,9.452444314956665039e-02,-9.789552092552185059e-01,7.808656692504882812e-01,-1.393906958401203156e-02,-4.716045409440994263e-02,-2.659249007701873779e-01,-5.127131342887878418e-01
-2.180278003215789795e-01,-8.068377524614334106e-02,-5.896066427230834961e-01,-1.970641016960144043e-01,1.902304962277412415e-02,7.083155512809753418e-01,6.351884007453918457e-01,6.098024249076843262e-01,-2.169354259967803955e-01,-4.825992584228515625e-01,-7.671529054641723633e-01,-6.539233922958374023e-01,-2.574912607669830322e-01,6.175152063369750977e-01,-1.533452700823545456e-02,-6.854648590087890625e-01,6.646596789360046387e-01,1.149496510624885559e-01,-1.586216539144515991e-01,-3.417189419269561768e-01,-6.618633866310119629e-01
-7.069838233292102814e-03,1.951083689928054810e-01,-8.021069169044494629e-01,-6.367868930101394653e-02,8.766533434391021729e-02,6.914772391319274902e-01,7.079509496688842773e-01,3.043031990528106689e-01,-1.632871776819229126e-01,-4.317262768745422363e-01,-6.427692174911499023e-01,-6.857808232307434082e-01,-5.555729568004608154e-02,6.931599378585815430e-01,7.637902162969112396e-03,-6.761710643768310547e-01,6.162353157997131348e-01,3.342668116092681885e-01,6.630685925483703613e-02,-9.927131980657577515e-02,-4.458155930042266846e-01
-6.877816468477249146e-02,1.727980375289916992e-01,-6.825512051582336426e-01,2.757226526737213135e-01,7.389181107282638550e-02,8.228686451911926270e-01,9.235687255859375000e-01,4.591827392578125000e-01,-2.932162880897521973e-01,-4.168733954429626465e-01,-4.691137075424194336e-01,-6.538844704627990723e-01,-1.851752549409866333e-01,8.220914602279663086e-01,-5.715832486748695374e-02,-5.045707821846008301e-01,4.294425249099731445e-01,1.240342557430267334e-01,1.067216992378234863e-01,-2.120059281587600708e-01,-7.563963532447814941e-01
-1.446678489446640015e-01,2.094905674457550049e-01,-7.131270170211791992e-01,3.488101959228515625e-01,3.151249885559082031e-02,8.371949791908264160e-01,8.120059967041015625e-01,3.112936615943908691e-01,-3.047461211681365967e-01,-5.767782926559448242e-01,-3.992036283016204834e-01,-5.726795196533203125e-01,6.439900398254394531e-02,8.943397998809814453e-01,1.276086568832397461e-01,-5.754745602607727051e-01,5.818566679954528809e-01,1.082248538732528687e-01,3.774566575884819031e-02,-2.711738944053649902e-01,-7.678200602531433105e-01
-3.545944690704345703e-01,1.556549519300460815e-01,-6.299112439155578613e-01,4.211961627006530762e-01,-1.332514137029647827e-01,1.009205222129821777e+00,5.949727296829223633e-01,8.454865813255310059e-01,-2.372993528842926025e-01,-5.522946119308471680e-01,-4.596107304096221924e-01,-5.753205418586730957e-01,1.651199609041213989e-01,1.102968215942382812e+00,-2.740044333040714264e-02,-4.207150936126708984e-01,4.685933291912078857e-01,2.640074789524078369e-01,2.097717858850955963e-02,2.546623162925243378e-02,-5.661058425903320312e-01
-2.692825794219970703e-01,-7.063656300306320190e-02,-5.034424066543579102e-01,4.524433016777038574e-01,-1.523783951997756958e-01,9.018439054489135742e-01,6.011422872543334961e-01,6.722491383552551270e-01,-5.263050794601440430e-01,-6.375932097434997559e-01,-2.396669983863830566e-01,-4.859240353107452393e-01,2.133242785930633545e-01,7.822573781013488770e-01,-7.001555711030960083e-02,-3.234856426715850830e-01,4.278155565261840820e-01,2.493378669023513794e-01,4.346963167190551758e-01,-7.580308592878282070e-04,-7.090749144554138184e-01
-4.512024819850921631e-01,2.835229337215423584e-01,-5.732993483543395996e-01,4.575217664241790771e-01,6.010878458619117737e-02,9.503905773162841797e-01,5.311611890792846680e-01,5.929935574531555176e-01,-2.998555898666381836e-01,-7.073048353195190430e-01,-2.848190367221832275e-01,-2.559399306774139404e-01,2.309925258159637451e-01,7.553988099098205566e-01,-1.842909008264541626e-01,-2.937670648097991943e-01,2.723740935325622559e-01,5.226110219955444336e-01,2.984657883644104004e-01,5.727671459317207336e-02,-5.712093114852905273e-01
-2.618789374828338623e-01,1.951861083507537842e-01,-5.602743625640869141e-01,4.398057460784912109e-01,-8.819415420293807983e-02,1.011519789695739746e+00,6.380336284637451172e-01,9.145059585571289062e-01,-2.009380757808685303e-01,-6.680850982666015625e-01,-1.467501372098922729e-01,-2.342762351036071777e-01,5.350947976112365723e-01,8.702389001846313477e-01,-1.564874202013015747e-01,-4.421525895595550537e-01,1.683296859264373779e-01,2.456205785274505615e-01,3.576588332653045654e-01,2.833943665027618408e-01,-4.886015355587005615e-01
-4.316170811653137207e-01,-1.424965821206569672e-02,-6.477955579757690430e-01,5.674344897270202637e-01,-1.097897887229919434e-01,1.094847917556762695e+00,6.112780570983886719e-01,7.910868525505065918e-01,-3.716488480567932129e-01,-7.505093216896057129e-01,8.998783677816390991e-02,-3.097517490386962891e-01,4.857241809368133545e-01,7.327934503555297852e-01,-1.095516234636306763e-01,-1.908911019563674927e-01,2.563676238059997559e-01,-5.439288169145584106e-02,2.981743514537811279e-01,2.326159030199050903e-01,-2.603028714656829834e-01
-6.735405325889587402e-01,-5.633210763335227966e-02,-3.580989241600036621e-01,7.707773447036743164e-01,-9.551116079092025757e-02,8.086761832237243652e-01,3.143765628337860107e-01,5.766823291778564453e-01,-7.684693485498428345e-02,-7.283534407615661621e-01,5.647710338234901428e-02,-2.774252891540527344e-01,3.719196319580078125e-01,7.968827486038208008e-01,-8.530493080615997314e-02,3.352022543549537659e-02,3.174322247505187988e-01,-9.721128642559051514e-02,2.035234272480010986e-01,3.981615602970123291e-01,-4.165673553943634033e-01
-7.083056569099426270e-01,9.667048603296279907e-02,-4.550517797470092773e-01,4.846377670764923096e-01,-8.013315498828887939e-03,6.309642791748046875e-01,4.925761818885803223e-01,8.038052320480346680e-01,-1.203141454607248306e-02,-7.260639667510986328e-01,2.821515798568725586e-01,-3.604309260845184326e-01,4.805785417556762695e-01,7.539162635803222656e-01,-2.584770321846008301e-01,-3.435742482542991638e-02,1.590157300233840942e-01,-1.795596033334732056e-01,3.094132244586944580e-01,2.276243865489959717e-01,-3.658629059791564941e-01
-4.516264200210571289e-01,-5.973491072654724121e-02,-3.560536503791809082e-01,5.908622741699218750e-01,-1.339442431926727295e-01,8.251464366912841797e-01,2.193882465362548828e-01,7.481392025947570801e-01,-6.140137091279029846e-03,-7.135444283485412598e-01,3.978137969970703125e-01,-1.992916762828826904e-01,3.300396502017974854e-01,5.956027507781982422e-01,-1.698592305183410645e-01,5.376249179244041443e-02,1.219508424401283264e-02,-2.254575639963150024e-01,2.981238961219787598e-01,4.886758327484130859e-01,-1.973966658115386963e-01
-7.531583309173583984e-01,1.030353456735610962e-01,-2.605141699314117432e-01,5.986043214797973633e-01,-1.552990078926086426e-01,9.166459441184997559e-01,2.823680937290191650e-01,8.400384187698364258e-01,3.250378668308258057e-01,-5.543376207351684570e-01,2.951539754867553711e-01,-2.064990103244781494e-01,6.363977789878845215e-01,8.814040422439575195e-01,-2.080201357603073120e-01,-8.620377629995346069e-02,3.176776319742202759e-02,-4.066797792911529541e-01,3.759776055812835693e-01,5.322331786155700684e-01,-1.267049014568328857e-01
-6.415346860885620117e-01,1.767293512821197510e-01,-2.149385064840316772e-01,5.649553537368774414e-01,-9.772633761167526245e-02,7.047853469848632812e-01,1.550990939140319824e-01,9.181000590324401855e-01,3.507470488548278809e-01,-8.250494003295898438e-01,4.365077018737792969e-01,-3.292456865310668945e-01,6.170357465744018555e-01,5.500766038894653320e-01,-1.014563366770744324e-01,8.312889933586120605e-02,5.247001722455024719e-02,-5.077673196792602539e-01,3.793087005615234375e-01,4.928953349590301514e-01,-2.197481542825698853e-01
-7.284341454505920410e-01,-3.210174292325973511e-02,1.633049547672271729e-02,5.767452716827392578e-01,-2.522782683372497559e-01,5.705060362815856934e-01,2.809145450592041016e-01,8.618043065071105957e-01,2.963480949401855469e-01,-6.787728071212768555e-01,4.495419859886169434e-01,-1.164117380976676941e-01,4.183747172355651855e-01,5.406988263130187988e-01,-2.016674131155014038e-01,1.455018371343612671e-01,9.527693688869476318e-02,-6.852949857711791992e-01,4.915289580821990967e-01,6.831343770027160645e-01,5.725388228893280029e-02
-7.081550955772399902e-01,-1.087057888507843018e-01,2.947053015232086182e-01,4.360054433345794678e-01,-3.865490555763244629e-01,3.887519240379333496e-01,1.751241087913513184e-02,7.732568383216857910e-01,6.764369606971740723e-01,-2.905837297439575195e-01,4.773227274417877197e-01,3.563379123806953430e-02,1.765328794717788696e-01,5.607685446739196777e-01,-2.445254921913146973e-01,1.592323482036590576e-01,-6.321347504854202271e-02,-5.767270922660827637e-01,2.117260843515396118e-01,5.897364616394042969e-01,3.566942811012268066e-01
-6.279053092002868652e-01,8.695207536220550537e-02,4.353882670402526855e-01,4.056186378002166748e-01,-4.868855178356170654e-01,4.104093909263610840e-01,2.679010927677154541e-01,4.533356726169586182e-01,6.217973828315734863e-01,-5.460005998611450195e-01,4.670400619506835938e-01,-1.148851066827774048e-01,4.351588189601898193e-01,4.213646948337554932e-01,-3.530078828334808350e-01,2.069814503192901611e-01,-9.205792099237442017e-03,-7.421147227287292480e-01,5.055649876594543457e-01,8.058520555496215820e-01,1.581917703151702881e-01
-4.150134027004241943e-01,1.218457967042922974e-01,3.492324352264404297e-01,5.424010753631591797e-01,-5.470562577247619629e-01,5.478928685188293457e-01,1.056867986917495728e-01,4.055783450603485107e-01,4.874528944492340088e-01,-3.481789529323577881e-01,3.221898674964904785e-01,-6.423877552151679993e-03,4.715436995029449463e-01,3.179725110530853271e-01,-3.810491561889648438e-01,3.829217851161956787e-01,-8.390173316001892090e-02,-6.391223669052124023e-01,5.076692104339599609e-01,3.815047442913055420e-01,2.759662568569183350e-01
-4.933852255344390869e-01,4.306451976299285889e-02,4.638704061508178711e-01,3.162918984889984131e-01,-4.738712012767791748e-01,3.202004134654998779e-01,2.967467904090881348e-02,3.097574710845947266e-01,5.871821641921997070e-01,-3.111699819564819336e-01,5.527289509773254395e-01,-1.396745070815086365e-02,6.735280752182006836e-01,1.466325968503952026e-01,-6.290758848190307617e-01,3.846952915191650391e-01,5.721621215343475342e-02,-6.881306767463684082e-01,5.588430166244506836e-01,5.202932953834533691e-01,1.141309216618537903e-01
-4.621473550796508789e-01,1.884666085243225098e-01,5.651901960372924805e-01,2.044035047292709351e-01,-5.122573971748352051e-01,4.576845094561576843e-02,-2.298718690872192383e-01,1.801288723945617676e-01,4.885903596878051758e-01,4.888074472546577454e-02,1.928541660308837891e-01,6.919059902429580688e-02,4.338339865207672119e-01,2.425227761268615723e-01,-6.241737604141235352e-01,4.161122441291809082e-01,4.161031171679496765e-02,-7.788887619972229004e-01,7.087398171424865723e-01,7.248505949974060059e-01,4.030434489250183105e-01
-2.507904469966888428e-01,1.966111361980438232e-02,5.675142407417297363e-01,1.266146302223205566e-01,-4.771210551261901855e-01,1.461550593376159668e-01,-2.166777849197387695e-01,-4.929916001856327057e-03,5.685057640075683594e-01,-6.255257874727249146e-02,2.597949802875518799e-01,4.137235134840011597e-02,4.971877336502075195e-01,1.968953758478164673e-01,-7.126539945602416992e-01,4.514600634574890137e-01,9.612566977739334106e-02,-8.408989906311035156e-01,7.106917500495910645e-01,6.679042577743530273e-01,4.562839269638061523e-01
-3.228636682033538818e-01,1.364918053150177002e-01,6.067292690277099609e-01,-2.287657931447029114e-02,-5.008054971694946289e-01,1.602809727191925049e-01,-1.395399421453475952e-01,-2.860284969210624695e-02,4.602734446525573730e-01,2.150624096393585205e-01,3.317047357559204102e-01,1.262249797582626343e-01,6.107509136199951172e-01,-1.944298855960369110e-02,-7.501547336578369141e-01,4.928554892539978027e-01,-2.960261888802051544e-02,-9.055572748184204102e-01,6.405211687088012695e-01,7.339802384376525879e-01,4.094149470329284668e-01
-2.011054903268814087e-01,-6.560963112860918045e-03,4.289572238922119141e-01,4.922379925847053528e-02,-5.214089751243591309e-01,8.229060098528862000e-03,-1.318229883909225464e-01,-3.562234342098236084e-02,6.718209385871887207e-01,1.344811767339706421e-01,4.327496588230133057e-01,1.749825030565261841e-01,7.265537381172180176e-01,4.223539680242538452e-02,-7.541635036468505859e-01,4.024903178215026855e-01,-1.860295683145523071e-01,-7.584698200225830078e-01,7.978359460830688477e-01,6.152426600456237793e-01,2.802116572856903076e-01
-3.491406440734863281e-01,6.535411626100540161e-02,5.900051593780517578e-01,1.401936113834381104e-01,-6.758748888969421387e-01,1.709899306297302246e-02,-1.886154264211654663e-01,5.453359335660934448e-03,3.761212229728698730e-01,1.691278186626732349e-03,4.583111107349395752e-01,2.836192250251770020e-01,8.610728383064270020e-01,-7.612274587154388428e-02,-1.050056099891662598e+00,4.424025118350982666e-01,5.029078572988510132e-02,-1.080994009971618652e+00,8.416714072227478027e-01,4.860508739948272705e-01,4.412837028503417969e-01
-2.433382421731948853e-01,-1.803753226995468140e-01,5.230891108512878418e-01,-1.670395880937576294e-01,-4.347033500671386719e-01,-2.418882250785827637e-01,-2.222175002098083496e-01,-5.213405936956405640e-02,3.057984709739685059e-01,1.710070669651031494e-01,2.452121227979660034e-01,6.373381614685058594e-01,8.561310172080993652e-01,3.272389620542526245e-02,-8.203071355819702148e-01,4.889167547225952148e-01,-3.250590860843658447e-01,-9.993079900741577148e-01,6.897624731063842773e-01,6.432837843894958496e-01,4.979547262191772461e-01
-2.628317773342132568e-01,-1.746091991662979126e-01,4.309106469154357910e-01,-6.447242945432662964e-02,-3.353326916694641113e-01,-3.412129729986190796e-02,-1.174586173146963120e-02,-3.775962889194488525e-01,1.746972650289535522e-01,3.170228898525238037e-01,1.752913743257522583e-01,5.618473291397094727e-01,9.270555377006530762e-01,-3.880385309457778931e-02,-1.015584111213684082e+00,5.633445978164672852e-01,-2.488083392381668091e-01,-9.316443800926208496e-01,8.911852836608886719e-01,6.446487307548522949e-01,3.547357320785522461e-01
1.453571468591690063e-01,4.545712843537330627e-02,5.365687012672424316e-01,-4.758703410625457764e-01,-3.039760291576385498e-01,-2.124736756086349487e-01,-2.379855364561080933e-01,-4.690674841403961182e-01,1.110943704843521118e-01,2.866368889808654785e-01,2.391327470541000366e-01,5.550888776779174805e-01,7.005087733268737793e-01,1.189793869853019714e-01,-1.003535151481628418e+00,4.592051804065704346e-01,-1.850080192089080811e-01,-8.867148160934448242e-01,7.328718304634094238e-01,6.027344465255737305e-01,3.984968066215515137e-01
1.610864698886871338e-02,8.214265108108520508e-02,3.499780297279357910e-01,-2.255117297172546387e-01,-1.879215240478515625e-01,-2.140352278947830200e-01,-4.220059514045715332e-01,-3.589709401130676270e-01,3.256241679191589355e-01,2.415520697832107544e-01,1.287749260663986206e-01,5.758078098297119141e-01,7.019805908203125000e-01,-4.248270392417907715e-02,-1.030813217163085938e+00,5.885341167449951172e-01,-4.024188220500946045e-01,-1.072610259056091309e+00,7.595277428627014160e-01,7.305464744567871094e-01,3.732840120792388916e-01
2.098165005445480347e-01,-1.525083780288696289e-01,3.377739787101745605e-01,-3.702104389667510986e-01,-2.884543836116790771e-01,-3.165271580219268799e-01,-2.677226662635803223e-01,-3.269049227237701416e-01,3.740700483322143555e-01,3.958433270454406738e-01,1.451606601476669312e-01,5.279206633567810059e-01,4.806226193904876709e-01,-8.478548377752304077e-02,-1.022307276725769043e+00,4.009535610675811768e-01,-3.030403554439544678e-01,-9.481477141380310059e-01,9.334698915481567383e-01,5.962612628936767578e-01,4.687268435955047607e-01
1.237016022205352783e-01,-1.723276227712631226e-01,1.758772432804107666e-01,-2.084283083677291870e-01,-2.019169628620147705e-01,-7.772408425807952881e-02,-1.775679588317871094e-01,-3.746938705444335938e-01,3.386486694216728210e-02,1.595697999000549316e-01,1.589147746562957764e-01,4.381395876407623291e-01,6.817960143089294434e-01,-1.079425215721130371e-01,-9.472945332527160645e-01,5.932091474533081055e-01,-2.091236263513565063e-01,-7.112875580787658691e-01,9.578989148139953613e-01,5.935209393501281738e-01,2.871090173721313477e-01
1.767004430294036865e-01,-2.230271250009536743e-01,2.111939936876296997e-01,-6.398381292819976807e-02,-7.675543427467346191e-02,-6.145624443888664246e-02,-1.536992490291595459e-01,-3.136152625083923340e-01,3.322653174400329590e-01,4.663851559162139893e-01,7.778538018465042114e-02,5.465655326843261719e-01,6.580925583839416504e-01,-9.945667535066604614e-02,-9.405323863029479980e-01,5.299932956695556641e-01,-3.512611985206604004e-01,-7.740843892097473145e-01,1.052103757858276367e+00,6.101487278938293457e-01,4.467725455760955811e-01
4.428201019763946533e-01,-3.100626766681671143e-01,2.790262699127197266e-01,-1.579764857888221741e-02,-2.659648656845092773e-01,1.583848148584365845e-01,-3.155777454376220703e-01,-3.900745809078216553e-01,1.229187697172164917e-01,3.878245353698730469e-01,-1.027064025402069092e-01,5.430816411972045898e-01,5.400407314300537109e-01,-1.009044051170349121e-01,-1.005307197570800781e+00,5.570787787437438965e-01,-5.391450524330139160e-01,-4.785988032817840576e-01,9.625064730644226074e-01,4.810795783996582031e-01,3.465501368045806885e-01
4.664032720029354095e-03,-1.851501911878585815e-01,1.645573973655700684e-02,-8.043695241212844849e-02,-1.625705063343048096e-01,2.094897814095020294e-02,-2.707285583019256592e-01,-5.248812437057495117e-01,1.283792546018958092e-03,3.954099416732788086e-01,3.740017861127853394e-02,4.645255804061889648e-01,3.759925663471221924e-01,-1.539565473794937134e-01,-9.857660531997680664e-01,5.686521530151367188e-01,-2.702050805091857910e-01,-6.580224037170410156e-01,1.034456729888916016e+00,4.703597128391265869e-01,3.520973622798919678e-01
1.138730347156524658e-01,-4.799591600894927979e-01,7.678912580013275146e-02,-1.073033884167671204e-01,-9.207697212696075439e-02,1.488699465990066528e-01,-3.426994979381561279e-01,-5.374723672866821289e-01,1.695786267518997192e-01,2.705785632133483887e-01,-3.717093169689178467e-02,4.264714121818542480e-01,4.042595624923706055e-01,-2.900439798831939697e-01,-9.216503500938415527e-01,6.416538953781127930e-01,-3.422325551509857178e-01,-4.304770231246948242e-01,1.021883487701416016e+00,4.795333147048950195e-01,4.300596415996551514e-01
1.104560047388076782e-01,-6.473770737648010254e-01,1.041447520256042480e-01,-3.934942185878753662e-02,-4.934392124414443970e-02,2.079440355300903320e-01,-3.766074180603027344e-01,-4.364976584911346436e-01,-1.018444150686264038e-01,6.271537542343139648e-01,-5.980124324560165405e-02,3.925595283508300781e-01,4.020648300647735596e-01,-4.338399767875671387e-01,-8.735647797584533691e-01,5.672367215156555176e-01,-2.917882800102233887e-01,-4.997783005237579346e-01,7.640056014060974121e-01,4.998360276222229004e-01,2.697669863700866699e-01
2.002634853124618530e-01,-7.673127651214599609e-01,-2.001391956582665443e-03,5.615033581852912903e-02,2.001945376396179199e-01,2.050366997718811035e-01,-4.507237374782562256e-01,-2.652309238910675049e-01,1.139138489961624146e-01,4.841841459274291992e-01,1.066368073225021362e-03,4.298224449157714844e-01,1.776892989873886108e-01,-2.757063508033752441e-01,-7.364451885223388672e-01,3.448446393013000488e-01,-5.087783336639404297e-01,-6.274729371070861816e-01,7.376004457473754883e-01,4.272030889987945557e-01,3.612037599086761475e-01
2.016013562679290771e-01,-6.922336220741271973e-01,-1.376540958881378174e-01,-9.108503907918930054e-02,6.764216721057891846e-02,3.717882931232452393e-01,-6.555662155151367188e-01,-4.349608421325683594e-01,4.339701682329177856e-02,5.248042345046997070e-01,-7.649049162864685059e-02,4.750642180442810059e-01,2.641017138957977295e-01,-6.294093728065490723e-01,-4.642235338687896729e-01,2.470812350511550903e-01,-1.174961701035499573e-01,-5.260837078094482422e-01,6.571728587150573730e-01,4.020729660987854004e-01,2.405961602926254272e-01
1.773616522550582886e-01,-8.630021214485168457e-01,-4.773172736167907715e-02,1.514863073825836182e-01,1.204583421349525452e-01,3.319855034351348877e-02,-6.683905720710754395e-01,-4.140315353870391846e-01,8.646570146083831787e-02,3.914034664630889893e-01,-9.220971167087554932e-02,2.439971566200256348e-01,-5.706239491701126099e-03,-4.911085963249206543e-01,-4.812785089015960693e-01,2.766200900077819824e-01,1.501534879207611084e-02,-4.724569022655487061e-01,7.631792426109313965e-01,3.719964623451232910e-01,3.894126415252685547e-01
2.165862470865249634e-01,-9.513916969299316406e-01,-2.104636579751968384e-01,-4.844143614172935486e-02,5.451651662588119507e-02,3.512702137231826782e-02,-4.560390412807464600e-01,-5.718723535537719727e-01,-9.652391821146011353e-02,5.225030779838562012e-01,-1.343984901905059814e-01,6.390748918056488037e-02,1.382079869508743286e-01,-4.292519986629486084e-01,-5.223543047904968262e-01,1.375519484281539917e-01,-1.086682919412851334e-02,-5.256134271621704102e-01,4.872703850269317627e-01,2.111456841230392456e-01,2.027003169059753418e-01
7.031814754009246826e-02,-1.048413634300231934e+00,-2.475841343402862549e-01,1.751491799950599670e-02,-3.756017982959747314e-02,-9.557364135980606079e-02,-3.206115961074829102e-01,-6.766360402107238770e-01,-3.612810000777244568e-02,4.184858798980712891e-01,-2.472869306802749634e-01,2.057795040309429169e-02,-4.293442890048027039e-02,-5.104798078536987305e-01,-4.061264097690582275e-01,-2.647624723613262177e-02,5.653594434261322021e-02,-3.868257701396942139e-01,3.914450705051422119e-01,1.133187785744667053e-01,3.115468025207519531e-01
2.142222523689270020e-01,-8.696975708007812500e-01,-3.114227950572967529e-01,7.653629034757614136e-02,6.476811319589614868e-02,-3.825413435697555542e-02,-3.091496527194976807e-01,-4.912256598472595215e-01,4.496016502380371094e-01,3.525875508785247803e-01,-3.573080003261566162e-01,-5.339827854186296463e-03,-1.602012515068054199e-01,-5.202338099479675293e-01,-2.014135569334030151e-01,-2.118038684129714966e-01,1.742899417877197266e-01,-5.633146762847900391e-01,1.385866105556488037e-01,1.322529166936874390e-01,2.148641049861907959e-01
1.451350748538970947e-01,-8.735282421112060547e-01,-3.337498307228088379e-01,-2.102303802967071533e-01,-2.901207655668258667e-02,1.011143401265144348e-01,-1.674976050853729248e-01,-3.524774312973022461e-01,2.660170793533325195e-01,2.385619878768920898e-01,-6.013983488082885742e-01,-1.602543890476226807e-01,-8.072335273027420044e-02,-3.619703054428100586e-01,-8.281419426202774048e-02,-1.193829923868179321e-01,3.412094414234161377e-01,-3.693513870239257812e-01,1.755197495222091675e-01,-1.634997725486755371e-01,2.373840957880020142e-01
3.398285806179046631e-01,-8.099699020385742188e-01,-3.622176051139831543e-01,-9.668359905481338501e-02,-1.181211546063423157e-01,2.157177180051803589e-01,-1.267008632421493530e-01,-4.316411912441253662e-01,9.194774180650711060e-02,1.816966682672500610e-01,-5.304420590400695801e-01,-2.657646238803863525e-01,-2.832189500331878662e-01,-3.686590790748596191e-01,-2.391074746847152710e-01,-8.087505400180816650e-02,3.669578135013580322e-01,-3.347350955009460449e-01,-6.527346372604370117e-02,-8.549277484416961670e-02,-5.009468644857406616e-02
1.574104279279708862e-01,-7.284726500511169434e-01,-3.349761962890625000e-01,-1.131792888045310974e-01,-2.921568751335144043e-01,3.514976203441619873e-01,-1.366190016269683838e-01,-3.059340417385101318e-01,2.569448947906494141e-01,5.205441713333129883e-01,-6.011872291564941406e-01,-3.710786700248718262e-01,-3.525142967700958252e-01,-4.636765122413635254e-01,1.028645262122154236e-01,-3.464353978633880615e-01,5.409813523292541504e-01,-2.534883320331573486e-01,-1.623265147209167480e-01,-2.698489427566528320e-01,1.028076559305191040e-01
-2.638863585889339447e-02,-8.634253144264221191e-01,-2.475067675113677979e-01,-7.028367370367050171e-02,-3.789255321025848389e-01,1.214746832847595215e-01,7.473431527614593506e-02,-3.491663038730621338e-01,3.391319811344146729e-01,4.233852326869964600e-01,-4.787657856941223145e-01,-3.204373121261596680e-01,-3.006607294082641602e-01,-5.390689373016357422e-01,-6.485267728567123413e-02,-2.557556033134460449e-01,6.794651150703430176e-01,-3.869246840476989746e-01,-1.229859739542007446e-01,-3.719084262847900391e-01,1.667002774775028229e-02
3.944525718688964844e-01,-8.331744074821472168e-01,-3.048116266727447510e-01,-9.847112745046615601e-02,-4.336217939853668213e-01,2.612887620925903320e-01,1.426824927330017090e-01,-4.449860453605651855e-01,3.986613750457763672e-01,3.117330968379974365e-01,-5.754430294036865234e-01,-3.820196390151977539e-01,-3.923550248146057129e-01,-3.773767948150634766e-01,2.231623232364654541e-01,-1.724556684494018555e-01,5.033798813819885254e-01,-1.204459089785814285e-02,-2.289327085018157959e-01,-5.545768141746520996e-01,-1.766639947891235352e-01
1.721983700990676880e-01,-4.664896130561828613e-01,-4.811367392539978027e-01,-8.618773519992828369e-02,-4.178918898105621338e-01,3.791470825672149658e-01,3.927758336067199707e-01,-4.717165827751159668e-01,3.041624724864959717e-01,5.449978709220886230e-01,-5.806230902671813965e-01,-4.786798954010009766e-01,-3.536379337310791016e-01,-2.354273349046707153e-01,1.092778593301773071e-01,-1.800757050514221191e-01,5.916661024093627930e-01,-1.828735619783401489e-01,-1.896543949842453003e-01,-6.221655607223510742e-01,-3.573087155818939209e-01
3.731539547443389893e-01,-6.449753642082214355e-01,-2.777769863605499268e-01,-1.011611148715019226e-01,-5.586742162704467773e-01,3.417077660560607910e-01,3.785010278224945068e-01,-4.200672209262847900e-01,3.559961616992950439e-01,1.997529715299606323e-01,-7.295708656311035156e-01,-4.410152137279510498e-01,-4.182052314281463623e-01,-3.801857233047485352e-01,7.204487174749374390e-02,-3.935949206352233887e-01,7.347660660743713379e-01,-1.185371726751327515e-01,-3.206627964973449707e-01,-7.183509469032287598e-01,-7.357457280158996582e-01
2.546444535255432129e-01,-6.467895507812500000e-01,-3.750783801078796387e-01,-8.611899614334106445e-02,-7.801720499992370605e-01,2.367518991231918335e-01,3.856452107429504395e-01,-3.393872082233428955e-01,3.557675480842590332e-01,1.882480382919311523e-01,-5.620647668838500977e-01,-4.677172601222991943e-01,-4.581756591796875000e-01,-1.684739589691162109e-01,-3.421627217903733253e-03,-1.924726814031600952e-01,7.818487286567687988e-01,1.770789921283721924e-01,-2.454214245080947876e-01,-6.108111143112182617e-01,-5.265699625015258789e-01
2.067417353391647339e-01,-3.203558325767517090e-01,-3.502371907234191895e-01,-1.320546120405197144e-01,-6.514315605163574219e-01,3.353134691715240479e-01,4.409477114677429199e-01,-5.229282379150390625e-01,3.210244476795196533e-01,2.764723300933837891e-01,-6.556518077850341797e-01,-4.430766701698303223e-01,-2.124458253383636475e-01,-2.271506935358047485e-01,-2.122905477881431580e-02,-4.146246016025543213e-01,7.842211723327636719e-01,2.453285455703735352e-01,-2.886714041233062744e-01,-7.184756398200988770e-01,-6.233871579170227051e-01
-1.232253573834896088e-02,-4.350070059299468994e-01,-3.875509202480316162e-01,9.094566851854324341e-02,-6.635320186614990234e-01,2.640489041805267334e-01,5.945492982864379883e-01,-4.970261156558990479e-01,3.945828974246978760e-01,2.624914348125457764e-01,-4.773637354373931885e-01,-3.356710076332092285e-01,-4.244190752506256104e-01,-1.235330104827880859e-01,2.180387228727340698e-01,-3.482543528079986572e-01,7.330441474914550781e-01,2.809686660766601562e-01,-3.375881910324096680e-01,-6.607395410537719727e-01,-7.041634917259216309e-01
-1.314387470483779907e-01,-1.410209387540817261e-01,-4.920549392700195312e-01,-1.749516725540161133e-01,-5.894357562065124512e-01,4.165759086608886719e-01,4.174424707889556885e-01,-4.769335985183715820e-01,2.526040077209472656e-01,1.850502490997314453e-01,-3.409335911273956299e-01,-4.277575016021728516e-01,-1.899621039628982544e-01,-7.537145912647247314e-02,1.142549142241477966e-01,-2.244313508272171021e-01,9.047710895538330078e-01,4.467520713806152344e-01,-3.722006082534790039e-01,-6.870152950286865234e-01,-5.967900156974792480e-01
-1.835924983024597168e-01,-2.445243746042251587e-01,-5.566691756248474121e-01,-1.836444735527038574e-01,-5.735058784484863281e-01,3.619835674762725830e-01,5.031552910804748535e-01,-2.661383748054504395e-01,2.450120300054550171e-01,-2.609013617038726807e-01,-3.878965377807617188e-01,-4.486412107944488525e-01,-1.210963129997253418e-01,-3.373500332236289978e-02,-5.976319778710603714e-03,-1.130242645740509033e-01,8.629459738731384277e-01,4.656713902950286865e-01,-3.205654025077819824e-01,-6.800296902656555176e-01,-6.423678398132324219e-01
-8.418072760105133057e-02,-2.285462766885757446e-01,-7.186738252639770508e-01,-1.483946759253740311e-02,-5.886864662170410156e-01,4.159228205680847168e-01,5.790434479713439941e-01,-2.645147442817687988e-01,4.805524945259094238e-01,-8.404947817325592041e-02,-3.426849842071533203e-01,-2.367312908172607422e-01,-2.508186399936676025e-01,1.304990500211715698e-01,1.972695291042327881e-01,-1.321933120489120483e-01,8.560118079185485840e-01,4.634935259819030762e-01,-2.794031500816345215e-01,-7.594105005264282227e-01,-7.928787469863891602e-01
-1.406693011522293091e-01,-3.616196215152740479e-01,-8.086910843849182129e-01,-5.263017117977142334e-02,-5.941753983497619629e-01,5.826667547225952148e-01,6.155582666397094727e-01,-2.178209871053695679e-01,3.787965476512908936e-01,-2.488475888967514038e-01,-2.783921360969543457e-01,-3.893341720104217529e-01,6.088531762361526489e-02,1.887755095958709717e-01,1.726663857698440552e-01,-1.924209296703338623e-01,8.450039029121398926e-01,2.929724454879760742e-01,-4.253913760185241699e-01,-3.582406044006347656e-01,-9.500236511230468750e-01
-1.333841085433959961e-01,-1.629452407360076904e-02,-4.947008192539215088e-01,2.092554420232772827e-01,-6.157122850418090820e-01,4.308099448680877686e-01,7.256034612655639648e-01,-1.372258514165878296e-01,5.931619405746459961e-01,-2.754524648189544678e-01,-2.569137215614318848e-01,-2.834822535514831543e-01,-1.942667737603187561e-02,8.147073537111282349e-02,1.801261752843856812e-01,-4.736495763063430786e-02,7.803878784179687500e-01,4.570417404174804688e-01,-5.031163096427917480e-01,-5.843188762664794922e-01,-8.490027785301208496e-01
-5.737627148628234863e-01,5.809770151972770691e-02,-7.419198155403137207e-01,7.252670079469680786e-02,-6.327655911445617676e-01,5.402286052703857422e-01,4.602739214897155762e-01,-5.919644609093666077e-02,5.689204931259155273e-01,-5.582101941108703613e-01,-1.195987686514854431e-01,-4.420669674873352051e-01,-1.587762832641601562e-01,2.678094506263732910e-01,1.919523477554321289e-01,-6.377086043357849121e-02,6.955415606498718262e-01,4.824341833591461182e-01,-4.502795040607452393e-01,-5.405503511428833008e-01,-8.082535266876220703e-01
-4.772447347640991211e-01,-8.368681371212005615e-02,-4.856249690055847168e-01,-7.308590412139892578e-02,-7.269839644432067871e-01,6.082403063774108887e-01,6.801401972770690918e-01,-1.388697326183319092e-02,6.636955738067626953e-01,-5.988706946372985840e-01,-2.466463483870029449e-02,-2.428393512964248657e-01,-5.768166854977607727e-02,-1.290994696319103241e-02,2.520213127136230469e-01,-3.696735203266143799e-02,5.897094607353210449e-01,4.014232158660888672e-01,-4.012095928192138672e-01,-2.854975163936614990e-01,-8.835962414741516113e-01
-5.080666542053222656e-01,9.294377267360687256e-02,-3.490513265132904053e-01,1.879319995641708374e-01,-7.647508978843688965e-01,6.908302903175354004e-01,5.041478276252746582e-01,-6.647870689630508423e-02,5.919628143310546875e-01,-5.583940744400024414e-01,-1.007806416600942612e-02,-3.980036973953247070e-01,-1.686487905681133270e-02,2.319670915603637695e-01,2.476611435413360596e-01,1.276839226484298706e-01,4.916509687900543213e-01,5.328459143638610840e-01,-3.775265812873840332e-01,-3.770732879638671875e-01,-8.404819369316101074e-01
-6.042353510856628418e-01,1.913359165191650391e-01,-2.954756021499633789e-01,2.169947624206542969e-01,-5.042124390602111816e-01,5.810671448707580566e-01,5.573040843009948730e-01,5.584105849266052246e-02,7.906363606452941895e-01,-6.106004714965820312e-01,9.362535551190376282e-03,-3.279056847095489502e-01,-1.310099810361862183e-01,-2.078564092516899109e-02,4.376157820224761963e-01,3.185770213603973389e-01,3.156614005565643311e-01,4.587418138980865479e-01,-3.248145878314971924e-01,-4.221203923225402832e-01,-7.948114871978759766e-01
-5.132319331169128418e-01,2.326770275831222534e-01,-4.490509629249572754e-01,1.838422715663909912e-01,-6.158577799797058105e-01,7.263375520706176758e-01,4.187224209308624268e-01,-6.849734485149383545e-02,7.054514884948730469e-01,-6.096844077110290527e-01,1.822249740362167358e-01,-5.042472481727600098e-01,-4.097668081521987915e-02,1.751616247929632664e-03,5.590927004814147949e-01,2.734586894512176514e-01,3.948419392108917236e-01,4.750821590423583984e-01,-2.511326074600219727e-01,-2.869136035442352295e-01,-6.663228273391723633e-01
-7.238984704017639160e-01,2.117540687322616577e-01,-2.829734086990356445e-01,1.953800022602081299e-01,-5.265597105026245117e-01,5.471331477165222168e-01,4.105642139911651611e-01,1.295264512300491333e-01,6.865494251251220703e-01,-5.065836310386657715e-01,2.183621376752853394e-01,-5.143908858299255371e-01,-8.573267608880996704e-02,-1.529056578874588013e-01,3.766657114028930664e-01,5.131437778472900391e-01,2.902793586254119873e-01,3.255550563335418701e-01,-1.161533314734697342e-02,-3.110162019729614258e-01,-5.852915048599243164e-01
-6.402494311332702637e-01,1.961586624383926392e-01,-1.543338596820831299e-01,2.594545856118202209e-02,-6.400544047355651855e-01,4.082082808017730713e-01,4.291229248046875000e-01,7.404257357120513916e-02,7.729258537292480469e-01,-6.233207583427429199e-01,5.391557142138481140e-02,-3.399959504604339600e-01,-1.480431258678436279e-01,-2.551088333129882812e-01,3.653824627399444580e-01,3.063727617263793945e-01,2.946395874023437500e-01,1.522116065025329590e-01,-3.904018104076385498e-01,-2.549292147159576416e-01,-6.988481283187866211e-01
-8.214740753173828125e-01,1.239106729626655579e-01,-9.251498430967330933e-02,2.110742777585983276e-01,-6.894950866699218750e-01,4.565393626689910889e-01,2.792706191539764404e-01,-2.348983893170952797e-03,7.954512834548950195e-01,-3.577095270156860352e-01,8.498193323612213135e-02,-4.721185564994812012e-01,-1.019136533141136169e-01,-2.457688897848129272e-01,2.436623126268386841e-01,2.795149981975555420e-01,2.114983499050140381e-01,2.743806242942810059e-01,-2.573727667331695557e-01,-4.248984530568122864e-02,-4.429021477699279785e-01
-9.000040888786315918e-01,1.909033954143524170e-01,-1.841708123683929443e-01,1.058090627193450928e-01,-7.561582326889038086e-01,2.156487554311752319e-01,1.901566684246063232e-01,-1.377563029527664185e-01,9.127364158630371094e-01,-4.255818128585815430e-01,4.758981764316558838e-01,-4.037055969238281250e-01,-1.413867771625518799e-01,-4.861850142478942871e-01,2.938945591449737549e-01,3.072665631771087646e-01,1.239971071481704712e-01,1.954911351203918457e-01,-1.786836385726928711e-01,-3.449823558330535889e-01,-3.146916031837463379e-01
-8.592278957366943359e-01,2.228088527917861938e-01,-1.674807220697402954e-01,-1.290322691202163696e-01,-7.714274525642395020e-01,2.164947241544723511e-01,1.869190633296966553e-01,-5.540574714541435242e-02,9.465281367301940918e-01,-3.438444733619689941e-01,5.948626399040222168e-01,-3.397532403469085693e-01,-6.111137941479682922e-02,-5.846662521362304688e-01,4.357608407735824585e-02,3.571076393127441406e-01,1.929839998483657837e-01,5.908144637942314148e-02,-3.091694712638854980e-01,-4.131654798984527588e-01,-4.951843917369842529e-01
-7.832832932472229004e-01,1.519925147294998169e-01,4.622354172170162201e-03,-1.601815670728683472e-01,-7.177399396896362305e-01,1.972845643758773804e-01,5.397855769842863083e-03,-1.806452423334121704e-01,8.045578598976135254e-01,-3.996545970439910889e-01,2.447090148925781250e-01,-1.515666302293539047e-02,-2.704061567783355713e-01,-6.154272556304931641e-01,5.751762539148330688e-02,2.849372327327728271e-01,-6.969517469406127930e-02,1.047223508358001709e-01,-4.187438786029815674e-01,-8.144690841436386108e-02,-3.432461917400360107e-01
-1.056091547012329102e+00,1.343739330768585205e-01,1.967044360935688019e-02,-1.639538109302520752e-01,-6.494774222373962402e-01,1.913222521543502808e-01,3.143288195133209229e-02,-1.551181823015213013e-01,9.554681181907653809e-01,-3.094342947006225586e-01,5.197242498397827148e-01,-9.442751854658126831e-02,-8.913788013160228729e-03,-5.227554440498352051e-01,6.102863699197769165e-02,1.416911631822586060e-01,5.822648108005523682e-02,1.147010922431945801e-01,-2.398075759410858154e-01,-3.514743745326995850e-01,-1.709500253200531006e-01
-7.407217621803283691e-01,2.101582288742065430e-01,1.769903749227523804e-01,-3.572295606136322021e-01,-4.801543354988098145e-01,3.693635389208793640e-02,-1.148854643106460571e-01,-3.727452158927917480e-01,1.185486435890197754e+00,-2.617845237255096436e-01,2.599138021469116211e-01,-1.991206705570220947e-01,-6.230085715651512146e-02,-5.830112695693969727e-01,3.424587845802307129e-02,1.882944256067276001e-01,9.872381389141082764e-02,-2.076228260993957520e-01,-1.374536752700805664e-01,-2.347822040319442749e-01,-2.991638183593750000e-01
-7.817208170890808105e-01,2.985907793045043945e-01,2.907550334930419922e-01,-5.195089578628540039e-01,-5.112090110778808594e-01,-7.892759144306182861e-02,1.068991236388683319e-02,-3.152978122234344482e-01,1.034345030784606934e+00,-1.758798956871032715e-01,3.475176692008972168e-01,3.298292681574821472e-02,-1.911504119634628296e-01,-4.240093827247619629e-01,7.409077882766723633e-02,3.686053454875946045e-01,1.247543022036552429e-01,-1.761610656976699829e-01,-1.341272294521331787e-01,-1.001735702157020569e-01,-2.272538393735885620e-01
-6.126829385757446289e-01,1.423909366130828857e-01,3.828489184379577637e-01,-5.502519011497497559e-01,-7.084333300590515137e-01,-8.961431682109832764e-02,6.771736592054367065e-02,-3.353670835494995117e-01,9.768982529640197754e-01,-1.929453313350677490e-01,1.979973465204238892e-01,-1.238508895039558411e-01,-1.304559707641601562e-01,-5.517429113388061523e-01,-4.644361510872840881e-02,3.590270280838012695e-01,-1.396114472299814224e-03,-2.625696957111358643e-01,1.291748136281967163e-01,-1.969814002513885498e-01,-2.112268358469009399e-01
-5.307952165603637695e-01,3.886249959468841553e-01,3.610664308071136475e-01,-7.582141757011413574e-01,-5.917751789093017578e-01,-1.077909767627716064e-02,-3.062241673469543457e-01,-4.173988103866577148e-01,8.478006720542907715e-01,-2.840602993965148926e-01,3.911593258380889893e-01,-6.305850297212600708e-02,-2.187691479921340942e-01,-4.855610430240631104e-01,-4.337663650512695312e-01,2.141663581132888794e-01,-2.929587066173553467e-01,-2.864270806312561035e-01,-1.466004252433776855e-01,-1.614106297492980957e-01,-1.919386684894561768e-01
-4.756103754043579102e-01,4.227490127086639404e-01,3.514231741428375244e-01,-5.772716403007507324e-01,-3.204383850097656250e-01,-1.535481810569763184e-01,1.175087224692106247e-02,-6.023852229118347168e-01,7.052744626998901367e-01,1.270634867250919342e-02,1.705064177513122559e-01,1.967263370752334595e-01,-6.092341244220733643e-02,-4.713332056999206543e-01,-3.686667680740356445e-01,3.570110201835632324e-01,-2.047961950302124023e-01,-1.530321985483169556e-01,-1.028160825371742249e-01,-1.962238103151321411e-01,-1.879182904958724976e-01
-4.457027018070220947e-01,6.576466560363769531e-01,4.863930642604827881e-01,-5.633072257041931152e-01,-3.481947481632232666e-01,-2.461444586515426636e-01,-7.808059453964233398e-02,-5.761232972145080566e-01,5.979225635528564453e-01,1.489972919225692749e-01,1.902855634689331055e-01,1.708652824163436890e-01,-5.321312695741653442e-02,-4.284493625164031982e-01,-3.662396669387817383e-01,3.099652230739593506e-01,-2.584711313247680664e-01,-2.747533917427062988e-01,-2.439429797232151031e-02,-2.115855664014816284e-01,-2.314931899309158325e-01
-4.510626792907714844e-01,5.708374381065368652e-01,5.537550449371337891e-01,-8.779940605163574219e-01,-2.793470323085784912e-01,-4.116361588239669800e-02,-1.344934403896331787e-01,-5.375546813011169434e-01,5.602318048477172852e-01,8.187965303659439087e-02,1.541063934564590454e-02,3.972732424736022949e-01,-3.374829590320587158e-01,-5.146390199661254883e-01,-5.022835135459899902e-01,4.283316135406494141e-01,-2.797804772853851318e-01,-1.753802597522735596e-01,4.489601030945777893e-02,-2.444733828306198120e-01,-5.702916383743286133e-01
-3.151789605617523193e-01,4.605950713157653809e-01,5.389563441276550293e-01,-8.959595561027526855e-01,-3.597290217876434326e-01,1.401170063763856888e-02,-1.405823230743408203e-01,-8.067675232887268066e-01,5.949113368988037109e-01,3.011953532695770264e-01,1.520140320062637329e-01,4.754527807235717773e-01,-2.010880410671234131e-01,-5.672008395195007324e-01,-3.515896499156951904e-01,5.215277075767517090e-01,-3.868837058544158936e-01,-1.538103669881820679e-01,3.994221985340118408e-01,-2.823579311370849609e-01,-5.528209805488586426e-01
3.890273720026016235e-02,3.456060588359832764e-01,2.889329791069030762e-01,-1.123624563217163086e+00,-2.875668108463287354e-01,-8.713599294424057007e-02,-2.210233807563781738e-01,-6.231628060340881348e-01,2.651242613792419434e-01,3.715524971485137939e-01,1.292614191770553589e-01,4.940032958984375000e-01,-1.614524424076080322e-01,-4.768551588058471680e-01,-6.894838213920593262e-01,5.317092537879943848e-01,-4.380585253238677979e-01,8.862334303557872772e-03,2.267861813306808472e-01,-4.248545169830322266e-01,-2.025830298662185669e-01
-2.106237113475799561e-01,3.769042193889617920e-01,4.431550502777099609e-01,-7.528615593910217285e-01,-2.663807868957519531e-01,1.620366610586643219e-02,-1.932666748762130737e-01,-6.324072480201721191e-01,3.900845646858215332e-01,1.309603154659271240e-01,-4.401494935154914856e-02,5.212699174880981445e-01,-2.720125615596771240e-01,-6.704170107841491699e-01,-6.863495111465454102e-01,3.629797101020812988e-01,-4.940249025821685791e-01,-1.203906089067459106e-01,3.382224142551422119e-01,-1.124090030789375305e-01,-1.944082528352737427e-01
2.588605694472789764e-02,2.586562931537628174e-01,3.066861927509307861e-01,-8.922076225280761719e-01,-9.106647223234176636e-02,-7.599717378616333008e-02,-2.849541902542114258e-01,-5.486652255058288574e-01,1.510823816061019897e-01,2.976301014423370361e-01,3.860542923212051392e-02,6.935994029045104980e-01,-3.202633857727050781e-01,-5.791474580764770508e-01,-8.717417120933532715e-01,5.196166634559631348e-01,-4.339808523654937744e-01,-5.572074651718139648e-02,6.266945600509643555e-01,-1.045500114560127258e-01,-3.472258746623992920e-01
-2.189210243523120880e-02,1.000931411981582642e-01,3.242371380329132080e-01,-9.533101916313171387e-01,1.849989742040634155e-01,-1.794792413711547852e-01,-3.109958171844482422e-01,-6.679338216781616211e-01,6.788188964128494263e-02,3.103527426719665527e-01,2.288717776536941528e-01,7.755741477012634277e-01,-1.320323646068572998e-01,-6.304253935813903809e-01,-6.032162308692932129e-01,4.521054327487945557e-01,-4.249235093593597412e-01,1.491923481225967407e-01,4.786137640476226807e-01,-2.154152393341064453e-01,-7.899335026741027832e-02
-4.961439967155456543e-02,1.445890814065933228e-01,-7.160795852541923523e-03,-8.441908359527587891e-01,8.786781877279281616e-02,1.590267382562160492e-02,-5.517864823341369629e-01,-8.482166528701782227e-01,-8.981128036975860596e-02,1.524559259414672852e-01,2.250863909721374512e-01,8.005542755126953125e-01,-1.895964592695236206e-01,-4.405875504016876221e-01,-6.622668504714965820e-01,3.383707404136657715e-01,-7.987462878227233887e-01,6.463817507028579712e-02,5.124918818473815918e-01,2.378195151686668396e-02,-9.236261248588562012e-02
2.769254706799983978e-02,-1.099536269903182983e-01,6.000676378607749939e-02,-1.061963558197021484e+00,2.568751573562622070e-01,8.824490755796432495e-02,-6.492777466773986816e-01,-8.074033856391906738e-01,-8.830086141824722290e-02,4.894214272499084473e-01,1.626550108194351196e-01,8.741890192031860352e-01,-2.354467809200286865e-01,-5.480830669403076172e-01,-8.149970769882202148e-01,5.147747397422790527e-01,-7.911625504493713379e-01,-1.279001682996749878e-01,4.105021655559539795e-01,-3.620554506778717041e-02,-7.658690214157104492e-02
-7.867571711540222168e-02,-1.874116063117980957e-01,2.062051296234130859e-01,-8.887166380882263184e-01,3.602668642997741699e-01,2.406233847141265869e-01,-5.361382365226745605e-01,-4.763331115245819092e-01,-2.788555622100830078e-02,4.130056500434875488e-01,3.306756913661956787e-01,8.450001478195190430e-01,-3.143015205860137939e-01,-3.908395767211914062e-01,-5.830374956130981445e-01,2.785787880420684814e-01,-7.984020709991455078e-01,-1.587965637445449829e-01,3.765446841716766357e-01,7.471066713333129883e-02,-1.292491704225540161e-01
2.655664980411529541e-01,-2.149698883295059204e-01,5.982953310012817383e-02,-7.203770279884338379e-01,5.138516426086425781e-01,7.522249966859817505e-02,-5.896597504615783691e-01,-6.254727840423583984e-01,-2.734800577163696289e-01,1.896898001432418823e-01,3.261026442050933838e-01,8.171613812446594238e-01,-2.741316258907318115e-01,-4.230961203575134277e-01,-5.736897587776184082e-01,4.487358629703521729e-01,-7.131839990615844727e-01,9.849175065755844116e-02,2.440047711133956909e-01,3.718010708689689636e-02,-2.120400518178939819e-01
2.727346122264862061e-01,-2.365151643753051758e-01,1.530625522136688232e-01,-8.343001604080200195e-01,4.998556971549987793e-01,3.185546398162841797e-01,-5.938664078712463379e-01,-4.819697439670562744e-01,-2.684684693813323975e-01,3.301218152046203613e-01,2.013255953788757324e-01,7.056255936622619629e-01,-5.258020162582397461e-01,-4.500168561935424805e-01,-6.134255528450012207e-01,4.699431955814361572e-01,-5.759582519531250000e-01,9.804617613554000854e-02,4.216414988040924072e-01,-1.288550347089767456e-01,-1.718989014625549316e-01
1.237145289778709412e-01,-3.193557858467102051e-01,1.376381665468215942e-01,-8.930646181106567383e-01,5.894159674644470215e-01,2.614488601684570312e-01,-8.385898470878601074e-01,-3.553694784641265869e-01,-1.948537081480026245e-01,2.825373113155364990e-01,2.757979035377502441e-01,5.876064896583557129e-01,-6.461606621742248535e-01,-5.079380869865417480e-01,-3.325061500072479248e-01,3.079638481140136719e-01,-5.344461798667907715e-01,-5.962942540645599365e-02,3.328354060649871826e-01,7.051648199558258057e-02,-2.090629637241363525e-01
3.149172365665435791e-01,-3.113840222358703613e-01,7.748525240458548069e-04,-8.424010872840881348e-01,5.554688572883605957e-01,3.822056651115417480e-01,-8.075695633888244629e-01,-3.094040751457214355e-01,-2.459167540073394775e-01,5.935311317443847656e-01,2.125733196735382080e-01,7.097298502922058105e-01,-6.133210062980651855e-01,-5.309631228446960449e-01,-2.008609771728515625e-01,3.749699592590332031e-01,-7.084739804267883301e-01,1.255765464156866074e-02,2.405535429716110229e-01,-1.181452870368957520e-01,-6.928715109825134277e-02
3.471925556659698486e-01,-3.113684356212615967e-01,1.451939642429351807e-01,-7.481208443641662598e-01,5.879141092300415039e-01,3.632183372974395752e-01,-7.043254971504211426e-01,-2.732527256011962891e-01,-1.765480488538742065e-01,3.865187466144561768e-01,1.353936046361923218e-01,3.849648237228393555e-01,-5.318147540092468262e-01,-5.610558390617370605e-01,-2.517237663269042969e-01,1.611926704645156860e-01,-7.951213121414184570e-01,-4.105684906244277954e-02,1.946852058172225952e-01,-3.503016382455825806e-02,-4.089585542678833008e-01
3.475726544857025146e-01,-6.056969761848449707e-01,1.875707358121871948e-01,-6.855011582374572754e-01,6.214905977249145508e-01,5.053741931915283203e-01,-7.049895524978637695e-01,-1.995580047369003296e-01,-3.935038149356842041e-01,4.675314724445343018e-01,1.894715726375579834e-01,5.749157667160034180e-01,-8.177960515022277832e-01,-6.597217917442321777e-01,-7.875154167413711548e-02,2.790037095546722412e-01,-5.347304344177246094e-01,-5.454483628273010254e-02,-1.050162315368652344e-01,-1.059110611677169800e-01,-2.630549483001232147e-02
4.896689355373382568e-01,-4.032804965972900391e-01,1.956389844417572021e-01,-6.441876888275146484e-01,3.541274964809417725e-01,4.791121482849121094e-01,-5.556710958480834961e-01,-2.431450784206390381e-01,-2.907686531543731689e-01,5.203121900558471680e-01,9.433499723672866821e-02,2.989237606525421143e-01,-9.737952947616577148e-01,-4.678478538990020752e-01,-1.973730623722076416e-01,4.873305186629295349e-02,-7.086478471755981445e-01,-3.886362537741661072e-02,-1.070901900529861450e-01,-2.232013493776321411e-01,-2.352484017610549927e-01
4.625855982303619385e-01,-4.759854674339294434e-01,1.529530733823776245e-01,-5.242792963981628418e-01,3.768682777881622314e-01,4.469216465950012207e-01,-6.314472556114196777e-01,-2.358822822570800781e-01,-3.108491301536560059e-01,4.234637916088104248e-01,-7.814065366983413696e-02,3.205862045288085938e-01,-8.557797074317932129e-01,-4.421278834342956543e-01,-1.281708478927612305e-01,1.609783968888223171e-03,-3.510532081127166748e-01,-2.251434326171875000e-02,5.889060720801353455e-02,-4.281802177429199219e-01,-1.870527714490890503e-01
5.604669451713562012e-01,-6.149044036865234375e-01,1.350587047636508942e-02,-6.684727072715759277e-01,3.725220561027526855e-01,5.025607347488403320e-01,-7.275156378746032715e-01,-1.649700999259948730e-01,-3.031131923198699951e-01,5.449389219284057617e-01,-6.031955592334270477e-03,2.053190916776657104e-01,-9.617972373962402344e-01,-1.938329637050628662e-01,-2.189887464046478271e-01,-2.564217709004878998e-02,-4.298593103885650635e-01,-2.059014514088630676e-02,1.598871648311614990e-01,-4.995211362838745117e-01,-1.078350543975830078e-01
4.492715299129486084e-01,-6.554682850837707520e-01,3.106663227081298828e-01,-4.083359241485595703e-01,2.376346290111541748e-01,3.185768425464630127e-01,-5.232654213905334473e-01,-1.224434599280357361e-01,-1.982317864894866943e-01,6.975694298744201660e-01,3.852625563740730286e-02,1.358243823051452637e-02,-7.437556385993957520e-01,-2.697983682155609131e-01,-1.438414007425308228e-01,-1.314866244792938232e-01,-4.515288174152374268e-01,2.407640069723129272e-01,1.015898138284683228e-01,-4.738548398017883301e-01,-2.015217095613479614e-01
5.758068561553955078e-01,-6.875458955764770508e-01,2.344076186418533325e-01,-5.127440094947814941e-01,3.707987964153289795e-01,4.242573976516723633e-01,-5.703181624412536621e-01,-2.454467564821243286e-01,-3.221741616725921631e-01,6.617854237556457520e-01,-9.937720000743865967e-02,1.113302540034055710e-02,-7.065469026565551758e-01,-3.046838939189910889e-01,-1.325272023677825928e-01,-1.476722955703735352e-01,-2.616492211818695068e-01,5.737452581524848938e-02,-1.729949861764907837e-01,-5.013880133628845215e-01,-3.362492322921752930e-01
4.386986494064331055e-01,-5.721696615219116211e-01,3.919900953769683838e-02,-4.126420319080352783e-01,1.370691806077957153e-01,3.881411850452423096e-01,-4.507784545421600342e-01,-1.945241242647171021e-01,-1.724247336387634277e-01,6.981297135353088379e-01,9.271204471588134766e-02,3.056583106517791748e-01,-8.539893627166748047e-01,-2.044094651937484741e-01,-2.320942729711532593e-01,-7.792206853628158569e-02,-3.984487056732177734e-01,3.248194977641105652e-02,-6.325154751539230347e-02,-8.067322373390197754e-01,-1.524614691734313965e-01
6.785591840744018555e-01,-5.951185226440429688e-01,2.943745553493499756e-01,-4.163816869258880615e-01,2.960992977023124695e-02,4.695122241973876953e-01,-3.735005259513854980e-01,-1.675528734922409058e-01,-2.871644198894500732e-01,6.332313418388366699e-01,4.994516447186470032e-02,2.162841856479644775e-01,-7.461276650428771973e-01,-3.749392926692962646e-02,-1.714415103197097778e-02,-2.676489651203155518e-01,-3.200244009494781494e-01,5.288278311491012573e-02,-2.894270718097686768e-01,-6.405665874481201172e-01,-5.774540454149246216e-02
4.959040880203247070e-01,-5.961953401565551758e-01,1.772099435329437256e-01,-4.100176990032196045e-01,1.587396487593650818e-02,2.814676761627197266e-01,-4.152767658233642578e-01,-8.654057979583740234e-02,-1.945343166589736938e-01,6.420005559921264648e-01,-5.067469924688339233e-02,1.611313819885253906e-01,-6.414627432823181152e-01,2.187045477330684662e-02,-2.810468077659606934e-01,-3.287966251373291016e-01,-1.727360635995864868e-01,1.499056518077850342e-01,-3.413989245891571045e-01,-7.124831080436706543e-01,-3.645335733890533447e-01
3.546350598335266113e-01,-6.649046540260314941e-01,1.861144602298736572e-01,-3.242999017238616943e-01,1.154425516724586487e-01,4.657222926616668701e-01,-2.492829859256744385e-01,-2.439691275358200073e-01,-1.171537637710571289e-01,7.006112337112426758e-01,-1.148675084114074707e-01,3.303065598011016846e-01,-8.307080268859863281e-01,-2.107971720397472382e-02,-8.374892920255661011e-02,-1.389197409152984619e-01,1.003792658448219299e-01,3.475543260574340820e-01,-1.599658280611038208e-01,-6.956427097320556641e-01,-4.022630751132965088e-01
4.823639988899230957e-01,-4.556476175785064697e-01,3.110629916191101074e-01,-1.385085582733154297e-01,8.840312808752059937e-02,4.770328104496002197e-01,-1.519768536090850830e-01,-1.529392693191766739e-02,-2.655906379222869873e-01,4.882736802101135254e-01,9.443319588899612427e-02,1.462069004774093628e-01,-8.050194978713989258e-01,2.445514947175979614e-01,9.547558613121509552e-03,-1.407091319561004639e-01,-7.639375980943441391e-03,2.177446931600570679e-01,-3.109584748744964600e-01,-6.271429061889648438e-01,-2.039083987474441528e-01
5.700322985649108887e-01,-5.030989646911621094e-01,2.825412452220916748e-01,-3.693002164363861084e-01,1.273600384593009949e-02,4.826251566410064697e-01,-1.517969220876693726e-01,-2.016535997390747070e-01,-1.981867700815200806e-01,3.973819911479949951e-01,1.315827816724777222e-01,3.691707849502563477e-01,-5.873512625694274902e-01,3.176432549953460693e-01,1.382876094430685043e-02,9.348156303167343140e-02,1.137708276510238647e-01,1.348147839307785034e-01,-4.266448318958282471e-01,-6.804097890853881836e-01,-4.426018893718719482e-01
5.712199807167053223e-01,-2.565667927265167236e-01,2.019977867603302002e-01,-2.374351620674133301e-01,-9.829857153818011284e-04,3.734282553195953369e-01,-1.195474341511726379e-01,-2.795805633068084717e-01,-1.138209924101829529e-01,6.227178573608398438e-01,1.242191568017005920e-01,2.863968908786773682e-01,-5.300590991973876953e-01,1.688008755445480347e-01,-1.783670634031295776e-01,-1.273359805345535278e-01,1.242936402559280396e-02,3.154454529285430908e-01,-3.174091875553131104e-01,-6.119300723075866699e-01,-6.988263130187988281e-01
6.734979748725891113e-01,-3.083420991897583008e-01,1.476755142211914062e-01,-2.429526448249816895e-01,-1.283812522888183594e-01,6.584608554840087891e-01,1.872207522392272949e-01,1.479628384113311768e-01,-1.783815026283264160e-01,5.486943721771240234e-01,9.654410183429718018e-02,-1.440507080405950546e-02,-4.644583165645599365e-01,3.780334889888763428e-01,1.375246196985244751e-01,1.237389370799064636e-01,-1.190445851534605026e-03,5.534967780113220215e-01,-1.975217610597610474e-01,-6.168385148048400879e-01,-5.891977548599243164e-01
7.687927484512329102e-01,-3.984817489981651306e-02,2.793459594249725342e-01,-1.677563935518264771e-01,-4.393014311790466309e-01,5.544736385345458984e-01,-1.163970008492469788e-01,-7.023615390062332153e-02,-2.956086993217468262e-01,2.975504398345947266e-01,1.086554229259490967e-01,1.912526339292526245e-01,-3.399287164211273193e-01,3.925083577632904053e-01,1.343172639608383179e-01,2.167760133743286133e-01,-2.133227288722991943e-01,4.737736880779266357e-01,-2.080751210451126099e-01,-5.664559602737426758e-01,-7.465319037437438965e-01
6.078684926033020020e-01,-1.524729132652282715e-01,1.546762734651565552e-01,1.350309699773788452e-01,-2.093407213687896729e-01,5.932102799415588379e-01,-1.630211190786212683e-04,6.584552675485610962e-02,-2.506138086318969727e-01,3.917908370494842529e-01,3.529435992240905762e-01,5.520204827189445496e-02,-1.699485778808593750e-01,4.129480421543121338e-01,7.049377262592315674e-02,3.357796669006347656e-01,5.594799667596817017e-02,4.006544053554534912e-01,-1.186670437455177307e-01,-6.887447834014892578e-01,-6.926466226577758789e-01
5.113227367401123047e-01,-1.280218511819839478e-01,1.152352988719940186e-01,7.505436986684799194e-02,-1.167154759168624878e-01,5.958786606788635254e-01,-5.478633567690849304e-02,8.166146278381347656e-02,-1.175943538546562195e-01,1.718121618032455444e-01,4.271490275859832764e-01,2.080691456794738770e-01,-3.047331571578979492e-01,5.105854868888854980e-01,5.852350220084190369e-02,3.354800939559936523e-01,-1.984332054853439331e-01,4.140268266201019287e-01,-3.090650439262390137e-01,-5.991448163986206055e-01,-5.743204355239868164e-01
4.263714253902435303e-01,-4.585189744830131531e-02,2.765649557113647461e-01,2.352374643087387085e-01,-4.415523409843444824e-01,5.879426598548889160e-01,-2.491009188815951347e-03,2.127462476491928101e-01,-2.095742672681808472e-01,1.991857886314392090e-01,6.038963198661804199e-01,2.525560557842254639e-01,-1.368793100118637085e-01,5.196825861930847168e-01,2.757201790809631348e-01,4.054336249828338623e-01,-2.426546216011047363e-01,5.688267350196838379e-01,-1.675589233636856079e-01,-4.363425970077514648e-01,-4.612241685390472412e-01
4.168696105480194092e-01,-1.790289133787155151e-01,9.483364224433898926e-02,3.099463582038879395e-01,-3.407241404056549072e-01,7.888137698173522949e-01,-1.378308087587356567e-01,1.860632449388504028e-01,-1.699872165918350220e-01,1.168802231550216675e-01,4.828317165374755859e-01,2.454517930746078491e-01,7.507952302694320679e-02,3.793718516826629639e-01,2.211154550313949585e-01,5.552035570144653320e-01,-2.978830933570861816e-01,5.017625689506530762e-01,4.239922389388084412e-02,-4.412049651145935059e-01,-4.492945671081542969e-01
2.794488668441772461e-01,-2.881014943122863770e-01,2.937124967575073242e-01,3.615073263645172119e-01,-4.958229064941406250e-01,5.900162458419799805e-01,-1.495845466852188110e-01,3.425281941890716553e-01,6.776959449052810669e-02,3.317809700965881348e-01,6.030302047729492188e-01,3.170266747474670410e-01,7.267341017723083496e-02,4.741613268852233887e-01,1.097600460052490234e-01,7.714197039604187012e-01,-7.537629455327987671e-02,6.445432305335998535e-01,7.847237586975097656e-02,-2.233206778764724731e-01,-3.833433091640472412e-01
1.552831977605819702e-01,-1.446700990200042725e-01,3.233951926231384277e-01,3.683336675167083740e-01,-3.201251327991485596e-01,6.173914074897766113e-01,-3.252443075180053711e-01,2.376084327697753906e-01,8.614881336688995361e-02,6.691216491162776947e-03,7.104508876800537109e-01,3.274718523025512695e-01,7.130411267280578613e-02,3.089573085308074951e-01,1.073867902159690857e-01,7.416024804115295410e-01,-2.496394962072372437e-01,4.359521567821502686e-01,1.089943423867225647e-01,-2.104745209217071533e-01,-1.043172106146812439e-01
1.846027970314025879e-01,-1.173466518521308899e-01,2.199525386095046997e-01,1.794498860836029053e-01,-4.251199066638946533e-01,4.129988849163055420e-01,-3.125477135181427002e-01,2.122233659029006958e-01,2.690546214580535889e-01,6.329305469989776611e-02,7.676212191581726074e-01,3.480233550071716309e-01,2.482375204563140869e-01,3.157192170619964600e-01,8.637371659278869629e-02,6.401818394660949707e-01,-4.167396128177642822e-01,2.618351578712463379e-01,-1.407342106103897095e-01,-8.339800685644149780e-02,-3.382644057273864746e-01
-4.018319398164749146e-02,-1.688029617071151733e-01,2.762627303600311279e-01,4.530863761901855469e-01,-4.238077700138092041e-01,2.238292843103408813e-01,-5.356747508049011230e-01,2.010393589735031128e-01,2.389620393514633179e-01,8.197426795959472656e-02,9.504297971725463867e-01,4.740609228610992432e-01,1.261657774448394775e-01,4.231129586696624756e-01,1.730327308177947998e-01,6.026985049247741699e-01,-4.500162601470947266e-01,2.425344586372375488e-01,-1.386432498693466187e-01,2.492922991514205933e-01,-2.682341448962688446e-02
-2.471281886100769043e-01,-4.632389917969703674e-02,3.414617776870727539e-01,6.548154354095458984e-01,-3.387549221515655518e-01,3.328678011894226074e-01,-5.221381187438964844e-01,1.195226982235908508e-01,1.084818467497825623e-01,1.261532902717590332e-01,9.241992235183715820e-01,2.243400216102600098e-01,3.817686066031455994e-02,2.337431758642196655e-01,1.973199844360351562e-01,7.958324551582336426e-01,-2.191035449504852295e-01,1.083504855632781982e-01,-3.764844834804534912e-01,-2.660901052877306938e-03,-4.368229955434799194e-02
-2.777993492782115936e-02,-1.706178635358810425e-01,4.104365408420562744e-01,3.572047352790832520e-01,-5.697842240333557129e-01,3.093802630901336670e-01,-2.905975878238677979e-01,2.055733948945999146e-01,2.563978135585784912e-01,4.318068921566009521e-02,6.916910409927368164e-01,3.439421057701110840e-01,3.468787074089050293e-01,4.786355197429656982e-01,1.384314894676208496e-01,9.015449881553649902e-01,-4.300812780857086182e-01,1.777362823486328125e-01,-1.814747005701065063e-01,2.651098966598510742e-01,-7.942322641611099243e-02
-3.502067876979708672e-03,-2.681614756584167480e-01,5.646530985832214355e-01,3.826690316200256348e-01,-4.865912497043609619e-01,2.791465520858764648e-01,-3.795602023601531982e-01,2.638943791389465332e-01,6.987499594688415527e-01,6.896698474884033203e-02,1.198445200920104980e+00,4.194169342517852783e-01,4.999381303787231445e-02,4.553144797682762146e-02,2.493362128734588623e-01,7.612366080284118652e-01,-3.530410528182983398e-01,9.115172922611236572e-02,-3.818395733833312988e-01,1.062778234481811523e-01,9.716472588479518890e-03
-1.042410656809806824e-01,4.514292627573013306e-02,4.513557255268096924e-01,1.902736574411392212e-01,-5.046881437301635742e-01,9.381569176912307739e-02,-5.193344950675964355e-01,1.972232758998870850e-01,5.482472777366638184e-01,2.119086533784866333e-01,8.261278271675109863e-01,2.326522320508956909e-01,1.086752116680145264e-01,-1.305962353944778442e-01,2.147057503461837769e-01,8.689250349998474121e-01,-3.086405694484710693e-01,-4.049338772892951965e-02,-3.231070041656494141e-01,2.503988742828369141e-01,1.118855327367782593e-01
1.256975978612899780e-01,2.143194824457168579e-01,7.505705356597900391e-01,3.355811238288879395e-01,-4.499985575675964355e-01,2.072309702634811401e-01,-3.913690745830535889e-01,8.477511256933212280e-02,7.635015249252319336e-01,2.345186471939086914e-01,8.532155156135559082e-01,3.191575407981872559e-01,1.335339397192001343e-01,-2.470728456974029541e-01,4.681987464427947998e-01,9.243256449699401855e-01,-4.237675070762634277e-01,2.108925580978393555e-02,-2.270869016647338867e-01,2.737625241279602051e-01,2.202126830816268921e-01
-1.219304427504539490e-01,1.511910408735275269e-01,8.955408930778503418e-01,2.541339397430419922e-01,-5.823800563812255859e-01,-2.570868842303752899e-02,-2.678624689579010010e-01,1.643437519669532776e-02,8.840718269348144531e-01,4.459517598152160645e-01,8.965436816215515137e-01,2.346690297126770020e-01,2.764949500560760498e-01,-2.859513163566589355e-01,2.911982238292694092e-01,9.284185767173767090e-01,-3.315334320068359375e-01,-4.659012258052825928e-01,-2.362025976181030273e-01,1.650702506303787231e-01,2.648975849151611328e-01
5.294943228363990784e-02,1.747391372919082642e-02,7.849377989768981934e-01,2.583925426006317139e-01,-7.820571064949035645e-01,-1.940915733575820923e-01,-3.873000442981719971e-01,-3.400189056992530823e-02,7.434667348861694336e-01,3.694110512733459473e-01,6.958866119384765625e-01,2.692234814167022705e-01,2.764311432838439941e-01,-2.145760506391525269e-01,1.655504107475280762e-01,7.367648482322692871e-01,-5.079347491264343262e-01,-2.354196161031723022e-01,-1.008457224816083908e-02,6.125286594033241272e-02,3.015652000904083252e-01
5.321349203586578369e-02,2.847529947757720947e-01,1.136861562728881836e+00,1.034468859434127808e-01,-7.005285024642944336e-01,-2.618303596973419189e-01,-3.643386363983154297e-01,-1.114965826272964478e-01,7.739832997322082520e-01,5.996204018592834473e-01,8.402213454246520996e-01,6.075745224952697754e-01,7.341583818197250366e-02,-2.625495195388793945e-01,3.238545358180999756e-01,8.281850218772888184e-01,-4.110001921653747559e-01,-4.725711345672607422e-01,-6.069544330239295959e-02,5.235302820801734924e-02,3.471892774105072021e-01
2.676785178482532501e-02,4.355285763740539551e-01,8.962317705154418945e-01,1.200231388211250305e-01,-6.923422217369079590e-01,-5.520809888839721680e-01,-3.851347565650939941e-01,-3.716081678867340088e-01,8.210390210151672363e-01,6.012964844703674316e-01,8.010797500610351562e-01,3.365597426891326904e-01,3.089561164379119873e-01,-3.201991915702819824e-01,3.525578882545232773e-03,9.765457510948181152e-01,-3.493500947952270508e-01,-2.059703171253204346e-01,1.132278814911842346e-01,1.974152475595474243e-01,4.125845432281494141e-01
1.432186216115951538e-01,2.339062392711639404e-01,1.183802962303161621e+00,-1.301447153091430664e-01,-6.208688020706176758e-01,-4.464563429355621338e-01,-6.097403168678283691e-01,-5.136853456497192383e-01,8.172723650932312012e-01,7.812379598617553711e-01,8.735885620117187500e-01,4.186297357082366943e-01,2.886669337749481201e-01,-4.193101525306701660e-01,-4.420345276594161987e-02,7.561749219894409180e-01,-4.279986619949340820e-01,-1.754110753536224365e-01,-5.375855788588523865e-02,-3.502048552036285400e-03,4.162603020668029785e-01
-1.032259687781333923e-02,3.319100737571716309e-01,1.056017518043518066e+00,-1.045533269643783569e-01,-7.221193909645080566e-01,-5.209866762161254883e-01,-4.495142996311187744e-01,-5.867098569869995117e-01,6.418627500534057617e-01,6.472797989845275879e-01,6.904789209365844727e-01,5.206648707389831543e-01,2.002882808446884155e-01,-4.160996973514556885e-01,1.646286435425281525e-02,6.975077986717224121e-01,-4.420982301235198975e-01,-1.845847219228744507e-01,1.230599433183670044e-01,1.441035568714141846e-01,5.375423431396484375e-01
3.689561188220977783e-01,3.251092135906219482e-01,9.311389327049255371e-01,-1.587546467781066895e-01,-5.282061100006103516e-01,-5.662457346916198730e-01,-4.247550666332244873e-01,-5.859765410423278809e-01,7.684063911437988281e-01,7.034858465194702148e-01,6.493509411811828613e-01,5.669124722480773926e-01,1.680356860160827637e-01,-5.050868988037109375e-01,-3.179318606853485107e-01,8.181495070457458496e-01,-5.554599165916442871e-01,-3.659234642982482910e-01,2.374330535531044006e-02,4.817412048578262329e-02,6.939972043037414551e-01
1.892216801643371582e-01,3.634662926197052002e-01,8.771485090255737305e-01,-3.307248651981353760e-01,-6.462384462356567383e-01,-5.995981097221374512e-01,-3.321892023086547852e-01,-5.873995423316955566e-01,6.207390427589416504e-01,7.684558629989624023e-01,5.628585219383239746e-01,6.752156019210815430e-01,2.210773527622222900e-01,-4.892488718032836914e-01,-1.105966642498970032e-01,7.866214513778686523e-01,-3.563696146011352539e-01,-1.454175114631652832e-01,-3.813820332288742065e-02,-7.245891261845827103e-03,5.176843404769897461e-01
2.006853520870208740e-01,4.218899905681610107e-01,9.360195994377136230e-01,-2.429790645837783813e-01,-3.168302476406097412e-01,-7.859367728233337402e-01,-5.866850018501281738e-01,-7.110802531242370605e-01,4.050613343715667725e-01,7.078709602355957031e-01,6.015978455543518066e-01,5.095428824424743652e-01,3.645409643650054932e-01,-4.502125084400177002e-01,-4.440968334674835205e-01,7.450994849205017090e-01,-2.495182007551193237e-01,-3.467604815959930420e-01,4.420154541730880737e-02,5.255324393510818481e-02,4.450227916240692139e-01
2.434343844652175903e-01,2.687000036239624023e-01,8.013110756874084473e-01,-4.043754637241363525e-01,-2.921481430530548096e-01,-8.289744853973388672e-01,-5.088045597076416016e-01,-1.013159275054931641e+00,5.001489520072937012e-01,8.741506934165954590e-01,5.737442374229431152e-01,7.288513779640197754e-01,1.862321943044662476e-01,-4.491131603717803955e-01,-1.537327915430068970e-01,7.785200476646423340e-01,-3.207433819770812988e-01,-1.736740916967391968e-01,7.852895557880401611e-02,9.281440079212188721e-02,3.883260190486907959e-01
2.593078017234802246e-01,5.807855129241943359e-01,8.476258516311645508e-01,-7.222366333007812500e-01,-3.259995579719543457e-01,-8.927186727523803711e-01,-5.574358105659484863e-01,-9.126578569412231445e-01,3.114857971668243408e-01,6.445043087005615234e-01,3.332916200160980225e-01,6.257574558258056641e-01,2.853952646255493164e-01,-5.115193128585815430e-01,-3.451566994190216064e-01,9.095050096511840820e-01,-2.874495685100555420e-01,-1.185902133584022522e-01,8.419574797153472900e-02,6.537521630525588989e-02,4.351125359535217285e-01
5.203188061714172363e-01,5.195496082305908203e-01,8.126462101936340332e-01,-5.508569478988647461e-01,-2.744200825691223145e-01,-8.578606247901916504e-01,-6.149541735649108887e-01,-9.613474011421203613e-01,4.268195629119873047e-01,7.333059906959533691e-01,4.228456616401672363e-01,7.355729937553405762e-01,2.724606990814208984e-01,-3.757272660732269287e-01,-3.500761687755584717e-01,8.540041446685791016e-01,-4.524832367897033691e-01,-3.011443316936492920e-01,1.836050115525722504e-02,-1.754030138254165649e-01,3.636959791183471680e-01
5.077108740806579590e-01,2.341443598270416260e-01,5.886899828910827637e-01,-6.391366124153137207e-01,6.332647055387496948e-02,-8.459146022796630859e-01,-6.224069595336914062e-01,-7.522665858268737793e-01,3.556181192398071289e-01,7.918769121170043945e-01,3.293514549732208252e-01,6.152195334434509277e-01,9.129905700683593750e-02,-4.521393179893493652e-01,-1.950096935033798218e-01,7.744233012199401855e-01,-5.600761771202087402e-01,7.002434879541397095e-02,1.130517646670341492e-01,5.766955763101577759e-02,2.436076104640960693e-01
4.602749347686767578e-01,3.731974661350250244e-01,6.068825721740722656e-01,-3.862053453922271729e-01,-6.841057445853948593e-03,-6.570335030555725098e-01,-5.930820703506469727e-01,-9.810701012611389160e-01,1.654618419706821442e-02,6.799945831298828125e-01,2.902011573314666748e-01,5.400198101997375488e-01,1.364658772945404053e-01,-4.767339825630187988e-01,-3.540868759155273438e-01,7.500667572021484375e-01,-4.492349624633789062e-01,-6.766602396965026855e-02,2.917045354843139648e-01,-5.201628804206848145e-02,2.262728065252304077e-01
6.457499265670776367e-01,3.090771734714508057e-01,5.651298165321350098e-01,-5.135517120361328125e-01,-6.905460357666015625e-02,-8.362313508987426758e-01,-4.537174105644226074e-01,-6.732140779495239258e-01,3.229672014713287354e-01,7.637630701065063477e-01,1.842061430215835571e-01,6.740175485610961914e-01,2.302344590425491333e-01,-5.521324276924133301e-01,-1.618395298719406128e-01,8.347551226615905762e-01,-4.361191689968109131e-01,-7.456608116626739502e-03,1.640190035104751587e-01,8.682362735271453857e-02,2.071388661861419678e-01
4.481490850448608398e-01,8.955287933349609375e-02,6.396074891090393066e-01,-5.685204267501831055e-01,9.018623083829879761e-02,-6.374008655548095703e-01,-3.102955520153045654e-01,-1.019729495048522949e+00,1.547250747680664062e-01,6.559143662452697754e-01,7.571299374103546143e-02,5.190584659576416016e-01,-7.071206346154212952e-03,-8.039501905441284180e-01,-1.445702612400054932e-01,8.250178098678588867e-01,-5.942456722259521484e-01,1.170921996235847473e-01,1.428486257791519165e-01,7.575736939907073975e-02,3.975346386432647705e-01
5.874449014663696289e-01,2.307344377040863037e-01,4.560513794422149658e-01,-3.388243615627288818e-01,1.572390273213386536e-02,-6.876792907714843750e-01,-4.567403197288513184e-01,-6.114207506179809570e-01,-4.099073819816112518e-03,7.521364092826843262e-01,1.071054413914680481e-01,7.047329545021057129e-01,-1.656226217746734619e-01,-7.471517920494079590e-01,-2.042210698127746582e-01,6.947941780090332031e-01,-7.366930246353149414e-01,9.437886625528335571e-02,1.428557932376861572e-01,-1.420521643012762070e-02,1.276299953460693359e-01
5.220639705657958984e-01,2.296564429998397827e-01,2.242304086685180664e-01,-2.743627727031707764e-01,2.596784830093383789e-01,-5.138646364212036133e-01,-6.664633154869079590e-01,-6.749261617660522461e-01,1.266428548842668533e-02,7.668715119361877441e-01,1.554993838071823120e-01,5.089936256408691406e-01,-2.100647538900375366e-01,-6.590550541877746582e-01,6.673194468021392822e-02,6.817815899848937988e-01,-7.504655718803405762e-01,1.241107508540153503e-01,5.131299048662185669e-02,3.405077010393142700e-02,2.803320884704589844e-01
4.554497897624969482e-01,2.217689715325832367e-02,4.126987457275390625e-01,-5.298636555671691895e-01,3.151866495609283447e-01,-2.900283932685852051e-01,-5.384446978569030762e-01,-6.718701124191284180e-01,8.501045405864715576e-02,6.963470578193664551e-01,6.304392218589782715e-02,2.833246588706970215e-01,-3.013656437397003174e-01,-8.171265721321105957e-01,2.749259769916534424e-02,5.413135290145874023e-01,-5.622778534889221191e-01,3.505007624626159668e-01,-4.827160760760307312e-02,-1.470315456390380859e-01,4.261029958724975586e-01
4.805618822574615479e-01,1.094077974557876587e-01,1.456894129514694214e-01,-2.907880246639251709e-01,1.475153714418411255e-01,-3.749631941318511963e-01,-5.964426994323730469e-01,-8.347854018211364746e-01,-1.918858736753463745e-01,7.121465206146240234e-01,1.018248498439788818e-01,3.695387244224548340e-01,-2.337842136621475220e-01,-7.434433698654174805e-01,4.255662113428115845e-02,4.618457555770874023e-01,-4.810425341129302979e-01,9.390981495380401611e-02,1.701524667441844940e-02,-1.655625365674495697e-02,1.943588405847549438e-01
4.185603559017181396e-01,1.710316836833953857e-01,1.485505104064941406e-01,-4.583877623081207275e-01,4.119749069213867188e-01,-6.226114034652709961e-01,-6.201953291893005371e-01,-6.405128836631774902e-01,-5.000124219805002213e-03,5.481982827186584473e-01,1.657878309488296509e-01,2.708615362644195557e-01,-3.848571181297302246e-01,-5.262619256973266602e-01,9.601819515228271484e-02,4.418027400970458984e-01,-4.003642797470092773e-01,4.375883042812347412e-01,-2.970871627330780029e-01,-5.094729363918304443e-02,3.586951494216918945e-01
4.590158164501190186e-01,-3.695915341377258301e-01,1.072877049446105957e-01,-3.963747024536132812e-01,3.590835332870483398e-01,-4.107315242290496826e-01,-3.477507531642913818e-01,-4.673613011837005615e-01,-2.060772180557250977e-01,6.380263566970825195e-01,1.039706766605377197e-01,1.457790285348892212e-01,-6.314093470573425293e-01,-8.070825338363647461e-01,1.497572064399719238e-01,-2.899447083473205566e-02,-3.206977248191833496e-01,1.415503770112991333e-01,-2.907252609729766846e-01,-3.796903789043426514e-01,2.512104213237762451e-01
4.575022459030151367e-01,-5.369106307625770569e-02,8.162949979305267334e-02,-4.613854587078094482e-01,5.578442215919494629e-01,-5.810070633888244629e-01,-5.988981127738952637e-01,-6.823621988296508789e-01,-3.072620034217834473e-01,5.773337483406066895e-01,-2.282996103167533875e-02,-7.405600044876337051e-03,-4.566234350204467773e-01,-7.244609594345092773e-01,2.919914722442626953e-01,1.788277029991149902e-01,-2.599914968013763428e-01,2.695136666297912598e-01,-4.086989760398864746e-01,-3.976517915725708008e-01,4.149664342403411865e-01
3.827450275421142578e-01,-2.282007783651351929e-01,9.487351030111312866e-02,-3.202536404132843018e-01,6.027886271476745605e-01,-3.637546896934509277e-01,-5.235366821289062500e-01,-5.932083129882812500e-01,-2.006418108940124512e-01,6.639901995658874512e-01,-1.850862503051757812e-01,1.223049461841583252e-01,-7.067404389381408691e-01,-7.117745280265808105e-01,3.801295757293701172e-01,-2.557026967406272888e-02,-1.006315872073173523e-01,3.721778392791748047e-01,-3.648042380809783936e-01,-5.096421241760253906e-01,1.525528728961944580e-01
4.694446623325347900e-01,-2.740899324417114258e-01,-1.569441705942153931e-01,-4.619148671627044678e-01,3.777136802673339844e-01,-4.327303767204284668e-01,-4.902331829071044922e-01,-5.445664525032043457e-01,-4.408133774995803833e-02,8.093048930168151855e-01,-3.789149969816207886e-02,1.051043495535850525e-01,-6.301888823509216309e-01,-5.670395493507385254e-01,4.643025696277618408e-01,-8.422651886940002441e-02,-8.508164435625076294e-02,1.832861155271530151e-01,-6.206713914871215820e-01,-4.835723340511322021e-01,2.412858307361602783e-01
4.021857380867004395e-01,-2.954111099243164062e-01,1.283546984195709229e-01,-4.863334596157073975e-01,6.357065439224243164e-01,-5.088331103324890137e-01,-4.057138264179229736e-01,-5.882288217544555664e-01,-9.867015480995178223e-02,4.827924370765686035e-01,-1.378447562456130981e-01,-1.897315233945846558e-01,-8.105403184890747070e-01,-4.913806915283203125e-01,7.088646888732910156e-01,-2.757584750652313232e-01,-5.283628031611442566e-02,4.707728922367095947e-01,-6.122305393218994141e-01,-5.946214199066162109e-01,8.903785794973373413e-02
3.046637177467346191e-01,-2.263090610504150391e-01,-1.445697098970413208e-01,-4.843603372573852539e-01,2.105913311243057251e-01,-4.243435561656951904e-01,-1.662587821483612061e-01,-5.484679937362670898e-01,-2.463056445121765137e-01,4.521630704402923584e-01,-2.419164329767227173e-01,-2.227953821420669556e-01,-9.340726137161254883e-01,-6.210422515869140625e-01,8.176212906837463379e-01,-1.524503529071807861e-01,2.439184337854385376e-01,1.763326972723007202e-01,-5.974116325378417969e-01,-6.284959316253662109e-01,4.972929880023002625e-02
3.582956492900848389e-01,-2.118126899003982544e-01,-1.466291490942239761e-02,-3.939045965671539307e-01,3.556642532348632812e-01,-3.817023634910583496e-01,-2.836084663867950439e-01,-4.278709292411804199e-01,-1.009268686175346375e-01,6.204114556312561035e-01,-4.290746748447418213e-01,-5.107071995735168457e-01,-8.399232029914855957e-01,-4.354663789272308350e-01,6.541990637779235840e-01,-4.688993394374847412e-01,3.329916000366210938e-01,4.548505842685699463e-01,-8.436744213104248047e-01,-7.842285633087158203e-01,3.164723888039588928e-02
5.426489114761352539e-01,2.613568864762783051e-02,-8.868218958377838135e-02,-5.062873959541320801e-01,3.558975160121917725e-01,-3.148833811283111572e-01,1.341848373413085938e-01,-3.821745514869689941e-01,-1.392017602920532227e-01,6.683890223503112793e-01,-3.576608598232269287e-01,-4.981197118759155273e-01,-8.740671873092651367e-01,-5.504816174507141113e-01,6.142418384552001953e-01,-4.262603521347045898e-01,2.364751696586608887e-01,5.014165043830871582e-01,-8.619780540466308594e-01,-9.173504114151000977e-01,-1.085570305585861206e-01
5.364090800285339355e-01,1.079681050032377243e-02,-7.623641192913055420e-02,-3.733365237712860107e-01,1.525378227233886719e-01,-2.249118685722351074e-01,7.888601720333099365e-02,-4.277319610118865967e-01,-1.761337071657180786e-01,5.331737995147705078e-01,-4.806780219078063965e-01,-6.355293989181518555e-01,-9.779914021492004395e-01,-2.536145448684692383e-01,6.472475528717041016e-01,-2.981867492198944092e-01,1.730023026466369629e-01,6.470956802368164062e-01,-8.798280358314514160e-01,-9.167472720146179199e-01,-1.450867950916290283e-01
5.538387894630432129e-01,5.889367684721946716e-02,-2.559203281998634338e-02,-4.770773053169250488e-01,6.009596958756446838e-02,-1.352445930242538452e-01,3.728411495685577393e-01,-2.933915555477142334e-01,-1.724272668361663818e-01,5.152795314788818359e-01,-4.500917792320251465e-01,-3.426512777805328369e-01,-9.964601397514343262e-01,-2.788129448890686035e-01,1.072673201560974121e+00,-3.330704569816589355e-01,2.370355576276779175e-01,7.953028678894042969e-01,-9.225148558616638184e-01,-9.450185894966125488e-01,-3.078690171241760254e-01
2.448340654373168945e-01,3.213286697864532471e-01,-5.922183021903038025e-02,-4.469377100467681885e-01,2.307299524545669556e-01,-7.924760133028030396e-02,3.833304047584533691e-01,-4.072427153587341309e-01,-9.135825932025909424e-02,4.639095962047576904e-01,-4.080165326595306396e-01,-5.982605218887329102e-01,-9.255406260490417480e-01,-1.731193214654922485e-01,8.360622525215148926e-01,-4.619296491146087646e-01,3.174439668655395508e-01,8.788179755210876465e-01,-7.815472483634948730e-01,-1.140766739845275879e+00,-5.220396518707275391e-01
3.686607182025909424e-01,3.316936492919921875e-01,-2.015709429979324341e-01,-4.586989805102348328e-02,1.226013824343681335e-01,-1.710720509290695190e-01,5.793465971946716309e-01,-1.718613505363464355e-01,-1.993859261274337769e-01,2.025455683469772339e-01,-5.897055864334106445e-01,-4.669607579708099365e-01,-1.034479379653930664e+00,-1.417288482189178467e-01,6.308909058570861816e-01,-2.212563902139663696e-01,4.557268917560577393e-01,7.232279181480407715e-01,-8.092154860496520996e-01,-9.817633032798767090e-01,-4.041199088096618652e-01
4.963919222354888916e-01,4.682759046554565430e-01,-2.056772410869598389e-01,-2.852342724800109863e-01,5.291904881596565247e-02,-6.793386489152908325e-02,3.371154367923736572e-01,-2.826565802097320557e-01,-1.053207460790872574e-02,2.406020164489746094e-01,-4.572920203208923340e-01,-4.593557715415954590e-01,-6.991912722587585449e-01,-3.204510360956192017e-02,6.791400313377380371e-01,-3.360268175601959229e-01,3.276421427726745605e-01,1.053117036819458008e+00,-9.297204017639160156e-01,-1.058027982711791992e+00,-7.823689579963684082e-01
3.864601850509643555e-01,4.353552758693695068e-01,-1.737664788961410522e-01,-1.063110306859016418e-01,1.454579364508390427e-02,5.471334978938102722e-02,3.819294571876525879e-01,-1.947589665651321411e-01,-2.266914844512939453e-01,9.954872727394104004e-02,-4.585030674934387207e-01,-5.094174742698669434e-01,-7.489268183708190918e-01,-6.592077016830444336e-02,7.253420352935791016e-01,-2.032175064086914062e-01,4.216901361942291260e-01,1.063534379005432129e+00,-7.592412829399108887e-01,-1.064719915390014648e+00,-5.797327756881713867e-01
3.824305832386016846e-01,4.332621097564697266e-01,-3.204953968524932861e-01,-1.595216095447540283e-01,1.762838959693908691e-01,-9.160296991467475891e-03,6.227791309356689453e-01,-1.037056893110275269e-01,-3.848048150539398193e-01,2.982942014932632446e-02,-2.680620849132537842e-01,-5.107600688934326172e-01,-6.101884245872497559e-01,-4.402616247534751892e-02,6.594100594520568848e-01,-3.744319975376129150e-01,4.413736462593078613e-01,9.856964349746704102e-01,-8.960370421409606934e-01,-1.002663493156433105e+00,-6.800932288169860840e-01
1.251303702592849731e-01,5.917484164237976074e-01,-5.007186532020568848e-01,-1.844254583120346069e-01,2.168842256069183350e-01,1.253495458513498306e-02,4.009381830692291260e-01,1.573055237531661987e-01,-3.533381521701812744e-01,-3.892795369029045105e-02,-2.594422399997711182e-01,-3.180199861526489258e-01,-4.723464548587799072e-01,2.899802625179290771e-01,5.944144129753112793e-01,-4.756924808025360107e-01,3.747278451919555664e-01,7.537817358970642090e-01,-7.887066006660461426e-01,-9.209187626838684082e-01,-5.103327631950378418e-01
2.555716633796691895e-01,5.356035232543945312e-01,-4.126628041267395020e-01,-9.369510412216186523e-02,1.040532663464546204e-01,1.259317100048065186e-01,5.185691714286804199e-01,3.174060210585594177e-02,-4.659753441810607910e-01,-1.402204185724258423e-01,-1.027894467115402222e-01,-4.313899278640747070e-01,-4.301435053348541260e-01,4.359392523765563965e-01,7.333682179450988770e-01,-2.623625695705413818e-01,1.905166804790496826e-01,9.600933194160461426e-01,-8.322060704231262207e-01,-8.653911352157592773e-01,-5.154213309288024902e-01
2.543128728866577148e-01,4.730085134506225586e-01,-4.896534383296966553e-01,-9.967191517353057861e-02,2.138325124979019165e-01,1.616690903902053833e-01,5.534452795982360840e-01,4.814987629652023315e-02,-2.340116947889328003e-01,-1.179241687059402466e-01,-1.764648109674453735e-01,-3.397878408432006836e-01,-3.622300624847412109e-01,4.493715465068817139e-01,7.518725991249084473e-01,-2.703529298305511475e-01,2.846176326274871826e-01,1.127767562866210938e+00,-7.545680999755859375e-01,-8.831136226654052734e-01,-5.128980278968811035e-01
8.075257390737533569e-02,7.671728134155273438e-01,-5.049315094947814941e-01,5.188797414302825928e-02,3.226697742938995361e-01,1.681261658668518066e-01,3.486309945583343506e-01,2.323541194200515747e-01,-4.609605073928833008e-01,-2.602965831756591797e-01,-6.321626156568527222e-02,-3.929144740104675293e-01,-4.026675522327423096e-01,4.356358647346496582e-01,7.120621204376220703e-01,-2.885027825832366943e-01,3.749384582042694092e-01,1.196364283561706543e+00,-7.310492992401123047e-01,-4.977418184280395508e-01,-6.275252103805541992e-01
9.054496139287948608e-02,4.296593964099884033e-01,-3.246646821498870850e-01,-1.662568449974060059e-01,7.097147405147552490e-02,2.280932515859603882e-01,5.503250956535339355e-01,4.833985567092895508e-01,-2.894555032253265381e-01,-2.318108528852462769e-01,2.875760793685913086e-01,-4.783287048339843750e-01,-1.493009179830551147e-01,4.745684862136840820e-01,9.018687009811401367e-01,-1.069533824920654297e-01,3.126269578933715820e-01,9.835968017578125000e-01,-7.528550028800964355e-01,-4.729094207286834717e-01,-5.214444398880004883e-01
-1.769651472568511963e-01,5.772618651390075684e-01,-2.757187485694885254e-01,8.394078165292739868e-02,2.283309996128082275e-01,2.516698837280273438e-01,3.984688222408294678e-01,4.188275039196014404e-01,-1.689207255840301514e-01,-3.633464872837066650e-01,8.489174395799636841e-02,-1.993113607168197632e-01,-1.189784929156303406e-01,5.837231278419494629e-01,6.763328909873962402e-01,-8.677471429109573364e-02,1.926225051283836365e-02,8.642683029174804688e-01,-7.134976983070373535e-01,-4.704197347164154053e-01,-4.348484277725219727e-01
-1.471412628889083862e-01,8.347760438919067383e-01,-1.458516269922256470e-01,1.077397540211677551e-01,1.073256060481071472e-01,4.879945218563079834e-01,4.453971087932586670e-01,5.234431624412536621e-01,-2.217724919319152832e-01,-3.310845792293548584e-01,8.322608470916748047e-02,-4.846636354923248291e-01,-1.524403840303421021e-01,2.994360029697418213e-01,9.303998947143554688e-01,-2.702367864549160004e-02,-4.899492859840393066e-02,8.293497562408447266e-01,-5.636601448059082031e-01,-5.596157312393188477e-01,-3.874523043632507324e-01
-2.355404645204544067e-01,7.265803813934326172e-01,-3.206030428409576416e-01,3.180252015590667725e-01,2.114961743354797363e-01,1.633255779743194580e-01,3.021233379840850830e-01,7.494722008705139160e-01,-1.523293554782867432e-01,-4.378897249698638916e-01,2.786840200424194336e-01,-2.702330946922302246e-01,4.293841868638992310e-02,3.184783756732940674e-01,7.534391283988952637e-01,-4.181711375713348389e-02,-9.041211009025573730e-02,7.385374903678894043e-01,-6.243641376495361328e-01,-1.893473118543624878e-01,-3.397789597511291504e-01
-3.797823488712310791e-01,8.452244997024536133e-01,-7.583998609334230423e-03,2.364019751548767090e-01,2.170490324497222900e-01,2.423281669616699219e-01,2.351921796798706055e-01,5.850526094436645508e-01,-1.322534680366516113e-01,-4.602217972278594971e-01,2.070627808570861816e-01,-3.796299695968627930e-01,-1.632861942052841187e-01,4.398406744003295898e-01,7.162518501281738281e-01,-3.906740620732307434e-02,-1.028394624590873718e-01,6.590888500213623047e-01,-2.717548906803131104e-01,-3.470726907253265381e-01,-2.971125543117523193e-01
-2.129720151424407959e-01,7.566345334053039551e-01,-8.200803771615028381e-03,3.228729963302612305e-01,2.366229742765426636e-01,4.465928077697753906e-01,1.822915375232696533e-01,5.489550232887268066e-01,-2.364047318696975708e-01,-5.078235268592834473e-01,2.424263358116149902e-01,-1.771580725908279419e-01,-1.508628576993942261e-01,2.941670715808868408e-01,8.764209151268005371e-01,2.082083970308303833e-01,1.497547607868909836e-02,6.936243772506713867e-01,-4.850124418735504150e-01,-2.731530964374542236e-01,-1.886068135499954224e-01
-2.538815438747406006e-01,6.067362427711486816e-01,-1.631530001759529114e-02,3.187571465969085693e-01,-9.167173877358436584e-03,3.456794023513793945e-01,6.892953068017959595e-02,4.408245384693145752e-01,-3.152238950133323669e-02,-6.143051385879516602e-01,4.650416672229766846e-01,-5.006218552589416504e-01,-7.786082476377487183e-02,2.839349806308746338e-01,5.899386405944824219e-01,1.705817729234695435e-01,-2.660220265388488770e-01,3.692107498645782471e-01,-1.521445065736770630e-01,-2.491396814584732056e-01,-1.945210099220275879e-01
-4.909867942333221436e-01,8.389474749565124512e-01,8.348983712494373322e-03,4.318850934505462646e-01,9.936472773551940918e-02,2.077571153640747070e-01,1.244513168931007385e-01,3.630645275115966797e-01,-1.069126725196838379e-01,-3.266017735004425049e-01,7.539201974868774414e-01,-2.613723278045654297e-01,-1.159908436238765717e-02,1.467815637588500977e-01,5.940659642219543457e-01,-8.924452587962150574e-03,-2.543319165706634521e-01,4.908863306045532227e-01,-2.641544640064239502e-01,-1.891867816448211670e-01,-8.934455364942550659e-02
-6.632977724075317383e-01,8.849856257438659668e-01,2.615327537059783936e-01,3.483801484107971191e-01,2.676744759082794189e-01,5.133936554193496704e-02,-2.140342891216278076e-01,5.099951624870300293e-01,5.166884139180183411e-02,-3.293590545654296875e-01,9.039922952651977539e-01,-4.649129137396812439e-02,2.976086735725402832e-02,1.815681010484695435e-01,4.852122068405151367e-01,-3.349549695849418640e-02,-1.638240814208984375e-01,3.656346797943115234e-01,-4.794534742832183838e-01,1.548570990562438965e-01,9.187279641628265381e-02
-5.386090278625488281e-01,5.748015046119689941e-01,3.171284794807434082e-01,3.219284713268280029e-01,-4.209938645362854004e-02,3.498177975416183472e-02,-2.077758163213729858e-01,4.060657918453216553e-01,-8.563812822103500366e-02,-4.073206782341003418e-01,6.128946542739868164e-01,-6.031677871942520142e-02,-9.286836721003055573e-03,2.234771698713302612e-01,5.310946702957153320e-01,8.355797082185745239e-02,-3.932843208312988281e-01,6.748267263174057007e-02,-3.496580421924591064e-01,-9.620075672864913940e-02,2.634820044040679932e-01
-3.485060930252075195e-01,5.010370612144470215e-01,2.188823521137237549e-01,1.855340451002120972e-01,9.073926508426666260e-02,-2.052451483905315399e-02,-1.736952066421508789e-01,4.045301377773284912e-01,-1.794839627109467983e-03,-2.268033623695373535e-01,7.499383091926574707e-01,3.291795402765274048e-02,1.048136278986930847e-01,1.233745217323303223e-01,2.727219164371490479e-01,-2.928578481078147888e-02,-4.315632581710815430e-01,8.536722511053085327e-02,-3.566225767135620117e-01,2.331887781620025635e-01,3.470102846622467041e-01
-3.356734812259674072e-01,6.418730616569519043e-01,3.460666239261627197e-01,-1.023369953036308289e-01,2.002125531435012817e-01,-2.006030976772308350e-01,-3.477090895175933838e-01,1.361462324857711792e-01,3.226652741432189941e-02,-9.127295576035976410e-03,6.488721966743469238e-01,-1.125185042619705200e-01,-6.095288321375846863e-02,1.760865189135074615e-02,9.438711404800415039e-02,-2.986388280987739563e-02,-3.875147700309753418e-01,-5.186479911208152771e-02,-3.345268666744232178e-01,1.112784594297409058e-01,2.851192057132720947e-01
-2.597082257270812988e-01,6.988390684127807617e-01,5.039047598838806152e-01,-1.976919732987880707e-02,1.440774649381637573e-01,-1.867445558309555054e-01,-3.700780272483825684e-01,2.332073301076889038e-01,1.690227538347244263e-01,-2.078793495893478394e-01,5.432425737380981445e-01,1.771274507045745850e-01,1.443407833576202393e-01,1.355845481157302856e-01,3.732649385929107666e-01,3.579298779368400574e-02,-4.953491389751434326e-01,-7.826847583055496216e-02,-5.718217417597770691e-02,1.959567219018936157e-01,4.430668354034423828e-01
-3.013319373130798340e-01,7.370668053627014160e-01,4.832575619220733643e-01,-4.401089251041412354e-02,-2.537692338228225708e-02,-3.696148097515106201e-01,-3.470109701156616211e-01,2.013538777828216553e-01,4.408242180943489075e-02,-3.037661872804164886e-02,5.292636752128601074e-01,8.943705260753631592e-02,7.022084295749664307e-02,3.993186354637145996e-02,6.967365741729736328e-02,1.353770792484283447e-01,-3.987057209014892578e-01,-1.064857020974159241e-01,-2.431657463312149048e-01,-9.565845131874084473e-03,3.014665842056274414e-01
-1.414333432912826538e-01,7.482164502143859863e-01,6.779267787933349609e-01,-9.487777715548872948e-04,1.393121182918548584e-01,-3.306475281715393066e-01,-3.105195164680480957e-01,5.595539137721061707e-02,2.146335393190383911e-01,1.668668468482792377e-03,5.020169019699096680e-01,-3.317162021994590759e-02,7.679201662540435791e-02,1.826945692300796509e-01,1.795338988304138184e-01,1.068996638059616089e-01,-3.307550847530364990e-01,-6.369262933731079102e-02,-1.291560530662536621e-01,2.506651282310485840e-01,6.061035394668579102e-01
-1.137268394231796265e-01,9.718977212905883789e-01,5.124948024749755859e-01,-1.852287352085113525e-01,4.911916702985763550e-02,-4.141751527786254883e-01,-2.464967668056488037e-01,9.459351003170013428e-02,4.527875036001205444e-02,1.279438138008117676e-01,5.527778267860412598e-01,2.102190852165222168e-01,1.540768444538116455e-01,1.908452957868576050e-01,7.447089999914169312e-02,3.267190456390380859e-01,-4.976262152194976807e-01,-2.216889560222625732e-01,1.251347810029983521e-01,2.706155180931091309e-01,4.650777578353881836e-01
3.130020573735237122e-02,7.532216906547546387e-01,8.328016996383666992e-01,-2.336848825216293335e-01,2.369426041841506958e-01,-3.698191344738006592e-01,-6.418567150831222534e-02,6.771278381347656250e-02,1.894647926092147827e-01,1.071480736136436462e-01,2.897464036941528320e-01,2.149955928325653076e-01,2.690698802471160889e-01,2.092115432024002075e-01,-1.135830208659172058e-02,2.823618352413177490e-01,-3.414246141910552979e-01,-4.259560108184814453e-01,-9.746618568897247314e-02,2.152582854032516479e-01,5.345972776412963867e-01
2.290348857641220093e-01,7.206650376319885254e-01,5.606113672256469727e-01,-2.309615761041641235e-01,3.064467012882232666e-01,-4.457179605960845947e-01,-3.202973306179046631e-01,1.347704231739044189e-01,1.074844598770141602e-01,1.796334981918334961e-01,3.220411837100982666e-01,1.701129674911499023e-01,-1.087952870875597000e-02,1.703727096319198608e-01,-1.560404300689697266e-01,2.803837656974792480e-01,-5.482900738716125488e-01,-2.844364345073699951e-01,3.148764967918395996e-01,2.806029617786407471e-01,7.190840840339660645e-01
7.150147110223770142e-02,8.392964601516723633e-01,6.901644468307495117e-01,-2.937811911106109619e-01,-5.243380740284919739e-02,-5.765357017517089844e-01,-3.062323927879333496e-01,6.558871269226074219e-02,-5.210877209901809692e-02,3.755408525466918945e-01,4.110895693302154541e-01,4.022921025753021240e-01,1.796106845140457153e-01,2.554909586906433105e-01,-2.811788022518157959e-01,2.804140150547027588e-01,-4.323512613773345947e-01,-3.555914461612701416e-01,2.976701259613037109e-01,3.123302161693572998e-01,3.128340244293212891e-01
9.428655356168746948e-02,9.130443334579467773e-01,7.011514902114868164e-01,-3.131021261215209961e-01,1.647812724113464355e-01,-3.493173718452453613e-01,-3.113758265972137451e-01,2.073292620480060577e-02,-1.277241706848144531e-01,2.502426803112030029e-01,3.927240669727325439e-01,5.374096632003784180e-01,8.968926966190338135e-02,-7.291676593013107777e-04,-5.118447542190551758e-01,3.490688800811767578e-01,-5.461611747741699219e-01,-1.384819000959396362e-01,3.556794524192810059e-01,3.025902807712554932e-01,7.243877053260803223e-01
3.253144919872283936e-01,4.964730143547058105e-01,6.573269963264465332e-01,-3.889864981174468994e-01,3.137606084346771240e-01,-3.615934550762176514e-01,-4.308171570301055908e-01,8.847483247518539429e-02,-2.726536393165588379e-01,3.499528467655181885e-01,3.526689410209655762e-01,5.266408920288085938e-01,4.368997216224670410e-01,1.349781453609466553e-01,-4.617846906185150146e-01,4.450989961624145508e-01,-5.721564888954162598e-01,-2.100908756256103516e-01,4.551672041416168213e-01,4.601985812187194824e-01,4.006134867668151855e-01
4.445556104183197021e-01,6.386324167251586914e-01,5.866603255271911621e-01,-2.275769710540771484e-01,2.671951353549957275e-01,-4.163423776626586914e-01,-2.954377532005310059e-01,3.953393176198005676e-02,-5.899868011474609375e-01,4.053940773010253906e-01,1.982705742120742798e-01,5.275896191596984863e-01,3.816748261451721191e-01,2.656641043722629547e-02,-5.134876370429992676e-01,3.361072242259979248e-01,-9.173564314842224121e-01,-4.176980555057525635e-01,5.875619053840637207e-01,4.739967882633209229e-01,6.547654271125793457e-01
4.172239899635314941e-01,5.169758200645446777e-01,5.438862442970275879e-01,-3.390528559684753418e-01,3.470505177974700928e-01,-5.917362570762634277e-01,-2.316617667675018311e-01,-3.195020556449890137e-02,-5.856654047966003418e-01,4.240224659442901611e-01,5.020723119378089905e-02,5.059101581573486328e-01,3.619323968887329102e-01,2.216556817293167114e-01,-5.357927083969116211e-01,4.536647200584411621e-01,-4.778524041175842285e-01,-3.211722075939178467e-01,6.720787286758422852e-01,5.533084273338317871e-01,5.008562207221984863e-01
3.212693333625793457e-01,4.808874726295471191e-01,5.841335058212280273e-01,-2.497469484806060791e-01,7.217363119125366211e-01,-3.590852618217468262e-01,-4.433045685291290283e-01,-1.600202359259128571e-02,-6.531419157981872559e-01,6.077146530151367188e-01,1.988858729600906372e-01,6.917396783828735352e-01,3.370527625083923340e-01,8.577845990657806396e-02,-5.783596038818359375e-01,4.547534286975860596e-01,-7.748887538909912109e-01,-2.098571658134460449e-01,6.747974157333374023e-01,3.746527731418609619e-01,4.405746757984161377e-01
5.537614822387695312e-01,3.712044060230255127e-01,2.583498656749725342e-01,-2.172296643257141113e-01,4.716970324516296387e-01,-4.114927351474761963e-01,-7.210615873336791992e-01,-1.293811351060867310e-01,-8.225589394569396973e-01,6.252956986427307129e-01,2.645282149314880371e-01,7.434422969818115234e-01,5.536155104637145996e-01,1.828175038099288940e-01,-4.521281123161315918e-01,3.008730709552764893e-01,-7.734836935997009277e-01,-2.844519317150115967e-01,6.604488492012023926e-01,4.407903254032135010e-01,5.401629805564880371e-01
5.734016895294189453e-01,1.709824949502944946e-01,2.854873239994049072e-01,-3.272334635257720947e-01,6.062386035919189453e-01,-3.075939416885375977e-01,-4.960337877273559570e-01,7.315631210803985596e-02,-8.400563001632690430e-01,5.981688499450683594e-01,3.948506116867065430e-01,6.960948109626770020e-01,2.922824323177337646e-01,1.566119641065597534e-01,-4.566092491149902344e-01,3.207824826240539551e-01,-6.360851526260375977e-01,-2.721860446035861969e-02,7.473641037940979004e-01,5.904679298400878906e-01,6.290539503097534180e-01
4.995742440223693848e-01,1.171051412820816040e-01,2.041281610727310181e-01,-2.061406672000885010e-01,1.004926919937133789e+00,-2.306512743234634399e-01,-6.823195219039916992e-01,-2.317631095647811890e-01,-5.894106030464172363e-01,4.520417451858520508e-01,2.757481038570404053e-01,6.279231905937194824e-01,3.111706674098968506e-01,2.389354109764099121e-01,-4.750494360923767090e-01,8.896714448928833008e-02,-7.529192566871643066e-01,-2.711355090141296387e-01,5.408380031585693359e-01,5.989595651626586914e-01,5.636911988258361816e-01
5.577760338783264160e-01,1.971738338470458984e-01,2.188899368047714233e-01,-2.913030982017517090e-01,1.029824018478393555e+00,-3.419575393199920654e-01,-6.760503649711608887e-01,7.075328379869461060e-03,-7.214819192886352539e-01,3.607859909534454346e-01,3.765386641025543213e-01,5.618572235107421875e-01,2.530058324337005615e-01,3.216302096843719482e-01,-3.024624288082122803e-01,7.383172959089279175e-02,-6.215997934341430664e-01,-4.332684874534606934e-01,5.738244652748107910e-01,6.310146450996398926e-01,6.581085324287414551e-01
6.850607991218566895e-01,3.529034182429313660e-02,2.571033835411071777e-01,-2.480882704257965088e-01,8.316026926040649414e-01,-2.881826162338256836e-01,-5.628292560577392578e-01,3.572487458586692810e-02,-7.517986297607421875e-01,5.905571579933166504e-01,2.602669894695281982e-01,5.027558207511901855e-01,2.323803752660751343e-01,8.755846321582794189e-02,-3.962798118591308594e-01,3.314079642295837402e-01,-5.226775407791137695e-01,-2.447136938571929932e-01,7.614030838012695312e-01,4.663495719432830811e-01,6.024231314659118652e-01
5.913230776786804199e-01,-9.234768897294998169e-02,1.840282827615737915e-01,-1.823011785745620728e-01,8.838600516319274902e-01,-2.735345363616943359e-01,-7.982434034347534180e-01,4.005673229694366455e-01,-6.881276965141296387e-01,5.021154284477233887e-01,2.167576104402542114e-01,4.996866881847381592e-01,1.411295384168624878e-01,3.340220749378204346e-01,-1.713359206914901733e-01,4.117346107959747314e-01,-6.330493092536926270e-01,-2.917492091655731201e-01,5.528642535209655762e-01,5.749238729476928711e-01,4.248061776161193848e-01
6.857414841651916504e-01,-3.551428392529487610e-02,1.858752965927124023e-01,-6.211809813976287842e-02,7.937782406806945801e-01,-6.403785943984985352e-02,-8.022770881652832031e-01,1.890777349472045898e-01,-6.950802206993103027e-01,4.929821193218231201e-01,1.793161183595657349e-01,2.652788758277893066e-01,1.676102727651596069e-01,-1.128816530108451843e-01,-2.679906487464904785e-01,2.494472712278366089e-01,-4.912490844726562500e-01,-2.805458903312683105e-01,5.164012908935546875e-01,5.863805413246154785e-01,6.054676175117492676e-01
6.766312122344970703e-01,5.584475398063659668e-02,1.680654883384704590e-01,1.225402131676673889e-01,8.926770687103271484e-01,-1.460524797439575195e-01,-6.699371933937072754e-01,2.807714641094207764e-01,-7.018628120422363281e-01,6.358391642570495605e-01,-1.552538573741912842e-01,4.885549470782279968e-02,-1.746583729982376099e-01,1.841780841350555420e-01,-8.025749772787094116e-02,2.799322903156280518e-01,-5.870157480239868164e-01,-3.475514054298400879e-01,3.366421461105346680e-01,3.947285115718841553e-01,6.421658992767333984e-01
6.162451505661010742e-01,-1.838150769472122192e-01,6.865149736404418945e-02,2.153300046920776367e-01,7.626887559890747070e-01,-7.637303788214921951e-04,-6.613565683364868164e-01,6.043244898319244385e-02,-6.152539849281311035e-01,3.549657166004180908e-01,-1.145466342568397522e-01,6.482145935297012329e-02,-5.634735897183418274e-02,-4.192907828837633133e-03,-1.495200023055076599e-02,5.182266607880592346e-02,-5.640453696250915527e-01,-3.080736100673675537e-01,4.764872193336486816e-01,2.479557245969772339e-01,7.975020408630371094e-01
6.844514608383178711e-01,-2.225013524293899536e-01,1.721522361040115356e-01,2.338960617780685425e-01,7.725408077239990234e-01,-2.669189572334289551e-01,-5.052240490913391113e-01,3.668520152568817139e-01,-8.114064335823059082e-01,5.519267916679382324e-01,-2.834702655673027039e-02,1.626019775867462158e-01,-1.216631904244422913e-01,1.041019856929779053e-01,8.971012383699417114e-02,-1.372901052236557007e-01,-2.227500230073928833e-01,-2.508952617645263672e-01,3.643805682659149170e-01,3.234556615352630615e-01,8.324523568153381348e-01
5.838948488235473633e-01,-4.998992383480072021e-01,4.000566899776458740e-01,1.383993774652481079e-01,7.033817172050476074e-01,-5.831366032361984253e-02,-3.467087745666503906e-01,2.631954252719879150e-01,-6.678710579872131348e-01,5.982286334037780762e-01,-6.002597510814666748e-02,-5.179555714130401611e-02,-1.934419721364974976e-01,-1.216031610965728760e-01,-2.425608783960342407e-02,-1.375876218080520630e-01,-4.789273440837860107e-01,-1.400325149297714233e-01,2.930622696876525879e-01,2.789945304393768311e-01,5.819293856620788574e-01
6.691310405731201172e-01,-3.209663629531860352e-01,1.306993663311004639e-01,2.791098356246948242e-01,6.208857297897338867e-01,-3.560069948434829712e-02,-4.519557356834411621e-01,1.902241706848144531e-01,-6.186385750770568848e-01,7.770159244537353516e-01,-8.658934384584426880e-02,-2.695147693157196045e-01,-3.075520098209381104e-01,1.794856190681457520e-01,-3.925579041242599487e-02,-2.249875366687774658e-01,-3.810717165470123291e-01,-2.112254053354263306e-01,6.988164037466049194e-02,1.066167950630187988e-01,5.386326313018798828e-01
7.141005396842956543e-01,-3.061902821063995361e-01,9.852177649736404419e-02,2.190302312374114990e-01,6.952619552612304688e-01,-1.349900215864181519e-01,-3.915836215019226074e-01,1.957644373178482056e-01,-7.464305162429809570e-01,5.917601585388183594e-01,-8.346980810165405273e-02,-7.515928149223327637e-02,-1.221310347318649292e-01,6.626685708761215210e-02,1.316131949424743652e-01,-2.898334860801696777e-01,-3.193225339055061340e-02,-2.034353762865066528e-01,1.895911395549774170e-01,5.824192240834236145e-02,5.356628894805908203e-01
6.522329449653625488e-01,-4.104673862457275391e-01,-9.315696358680725098e-02,4.750172197818756104e-01,4.978632032871246338e-01,-1.367909312248229980e-01,-1.519120186567306519e-01,2.232703566551208496e-01,-6.482877731323242188e-01,8.279389142990112305e-01,-5.937131494283676147e-02,-1.246572509407997131e-01,-3.363372981548309326e-01,7.541830092668533325e-02,-2.157610841095447540e-02,-3.780252635478973389e-01,-1.145144924521446228e-01,-1.074329242110252380e-01,-4.830665141344070435e-02,-3.589338436722755432e-02,6.032626628875732422e-01
6.519126892089843750e-01,-2.751174867153167725e-01,1.657887101173400879e-01,3.531792759895324707e-01,5.607875585556030273e-01,8.758383989334106445e-02,-7.574944198131561279e-02,3.174743056297302246e-01,-5.351060032844543457e-01,5.445387959480285645e-01,-2.283455133438110352e-01,-2.239450663328170776e-01,-1.451682150363922119e-01,3.170234560966491699e-01,-1.102865785360336304e-01,-4.282988011837005615e-01,1.566866785287857056e-01,3.054899722337722778e-02,-8.173270523548126221e-02,1.437051296234130859e-01,5.612956285476684570e-01
6.005531549453735352e-01,-3.462615311145782471e-01,8.259377628564834595e-02,2.353067547082901001e-01,2.541387975215911865e-01,-2.500995397567749023e-01,-3.228580579161643982e-02,2.428156882524490356e-01,-5.998017191886901855e-01,5.392042398452758789e-01,-3.784818351268768311e-01,-2.622494399547576904e-01,5.012357980012893677e-02,4.457989633083343506e-01,1.865296214818954468e-01,-3.082538843154907227e-01,4.445753395557403564e-01,-6.104124709963798523e-02,-1.451852619647979736e-01,-2.133781015872955322e-01,5.609422326087951660e-01
5.191124677658081055e-01,-3.781367838382720947e-01,-3.407769650220870972e-02,3.583948016166687012e-01,2.155856043100357056e-01,-3.637713193893432617e-01,-1.335923224687576294e-01,1.675249785184860229e-01,-5.880441665649414062e-01,5.887177586555480957e-01,-3.369523882865905762e-01,-3.132961988449096680e-01,2.300828844308853149e-01,4.739379584789276123e-01,2.943090796470642090e-01,-6.039631962776184082e-01,3.163997828960418701e-01,-3.899047151207923889e-02,-2.771000266075134277e-01,-1.496388316154479980e-01,2.832905948162078857e-01
6.615790724754333496e-01,-1.476768702268600464e-01,-9.347826242446899414e-02,5.637495517730712891e-01,4.593112319707870483e-02,-1.719225347042083740e-01,6.635200977325439453e-02,2.275039702653884888e-01,-4.249441921710968018e-01,5.472455620765686035e-01,-2.772572338581085205e-01,-4.035947620868682861e-01,6.420379877090454102e-02,5.590902566909790039e-01,1.447399407625198364e-01,-4.014462530612945557e-01,4.071328341960906982e-01,6.847040355205535889e-02,-1.787399649620056152e-01,-1.793910562992095947e-01,2.222731411457061768e-01
5.687745809555053711e-01,-2.086378633975982666e-01,-2.402514517307281494e-01,8.719224482774734497e-02,1.835066974163055420e-01,-6.410144269466400146e-02,1.666424721479415894e-01,-5.360304191708564758e-02,-5.342370867729187012e-01,4.023797810077667236e-01,-5.739217996597290039e-01,-6.034506559371948242e-01,1.655250340700149536e-01,5.354282855987548828e-01,2.507316172122955322e-01,-3.823918700218200684e-01,5.615649223327636719e-01,-1.153175383806228638e-01,7.463959977030754089e-03,-3.120140135288238525e-01,1.763534396886825562e-01
5.670171380043029785e-01,6.874644756317138672e-02,5.950900539755821228e-02,2.596685290336608887e-01,9.449385851621627808e-02,-1.129449605941772461e-01,4.262432456016540527e-01,1.314973235130310059e-01,-3.737144172191619873e-01,3.515531122684478760e-01,-2.167169451713562012e-01,-4.250681698322296143e-01,1.844903230667114258e-01,5.112534761428833008e-01,4.032578468322753906e-01,-4.598526060581207275e-01,6.853539347648620605e-01,1.722362190485000610e-01,-2.680565118789672852e-01,-2.223192751407623291e-01,2.824915647506713867e-01
4.929300844669342041e-01,-2.400544704869389534e-03,1.807413809001445770e-02,3.809828758239746094e-01,2.347159534692764282e-01,-3.281978517770767212e-02,4.264858365058898926e-01,3.088616132736206055e-01,-3.431919217109680176e-01,3.314771056175231934e-01,-5.158562660217285156e-01,-4.772080481052398682e-01,2.189225703477859497e-01,6.515142321586608887e-01,4.743618667125701904e-01,-1.698829382658004761e-01,5.026027560234069824e-01,8.528593182563781738e-02,-1.306493580341339111e-01,-1.128926426172256470e-01,1.153291612863540649e-01
4.738548099994659424e-01,-4.148892685770988464e-02,-1.225945875048637390e-01,5.091577172279357910e-01,3.507714718580245972e-02,1.039784178137779236e-01,5.001771450042724609e-01,2.958303093910217285e-01,-3.509867489337921143e-01,1.826377063989639282e-01,-3.789571225643157959e-01,-5.139270424842834473e-01,2.757567465305328369e-01,8.654186129570007324e-01,2.792039513587951660e-01,-1.781197786331176758e-01,6.098214387893676758e-01,1.995589137077331543e-01,-3.244138360023498535e-01,-7.431341707706451416e-02,3.784476220607757568e-02
4.918693304061889648e-01,1.485232263803482056e-03,-1.844082176685333252e-01,6.446537971496582031e-01,-1.015588715672492981e-01,3.415930643677711487e-02,5.836980342864990234e-01,4.285121560096740723e-01,-3.447430729866027832e-01,1.522368937730789185e-01,-4.840171933174133301e-01,-4.915145039558410645e-01,2.865543663501739502e-01,7.057591676712036133e-01,3.351523578166961670e-01,-8.829401433467864990e-02,3.348636031150817871e-01,3.864663243293762207e-01,-5.444757640361785889e-02,-4.594158232212066650e-01,-1.026664450764656067e-01
2.773929238319396973e-01,2.000464946031570435e-01,-3.988815546035766602e-01,6.928370594978332520e-01,-1.093009561300277710e-01,-2.286526188254356384e-02,5.711909532546997070e-01,3.553799986839294434e-01,-2.523621022701263428e-01,1.976650804281234741e-01,-2.868224680423736572e-01,-4.520882070064544678e-01,4.139445424079895020e-01,6.995627880096435547e-01,2.884586453437805176e-01,-2.100128866732120514e-02,5.789962410926818848e-01,4.190219938755035400e-01,-1.315595358610153198e-01,-9.084781259298324585e-02,-1.965975314378738403e-01
3.787966072559356689e-01,2.861070334911346436e-01,-3.047922551631927490e-01,7.022510766983032227e-01,-1.883607953786849976e-01,2.832741439342498779e-01,7.014026641845703125e-01,3.459077775478363037e-01,-4.111093282699584961e-01,-1.756828427314758301e-01,-1.375795751810073853e-01,-3.766973018646240234e-01,4.477162063121795654e-01,7.701224684715270996e-01,4.470205307006835938e-01,7.653656601905822754e-02,4.134998023509979248e-01,4.642903506755828857e-01,-1.054294686764478683e-02,-1.888874024152755737e-01,-2.533199787139892578e-01
1.661702618002891541e-02,1.445232331752777100e-01,-2.427341341972351074e-01,8.195497393608093262e-01,-1.675507277250289917e-01,2.837164103984832764e-01,5.466135740280151367e-01,5.014410018920898438e-01,-3.732267916202545166e-01,-7.587053626775741577e-02,-2.361193150281906128e-01,-5.009679198265075684e-01,4.510506987571716309e-01,7.757064700126647949e-01,3.941388726234436035e-01,-2.047753706574440002e-02,4.132978320121765137e-01,3.662887513637542725e-01,3.644338995218276978e-02,8.553339540958404541e-02,4.028838872909545898e-02
-1.299129053950309753e-02,3.485737144947052002e-01,-3.157995045185089111e-01,9.620811343193054199e-01,-2.399889528751373291e-01,1.680851131677627563e-01,6.362482905387878418e-01,5.723593831062316895e-01,-1.479190737009048462e-01,-2.642533183097839355e-01,-3.292020261287689209e-01,-4.278582036495208740e-01,4.361144304275512695e-01,6.758784055709838867e-01,3.594168722629547119e-01,-2.643770352005958557e-02,5.016490817070007324e-01,2.829351127147674561e-01,-7.093499600887298584e-02,4.086039587855339050e-02,-1.825078427791595459e-01
1.035981904715299606e-02,2.278399467468261719e-02,-2.212701141834259033e-01,8.862050175666809082e-01,-3.357286751270294189e-01,9.360001981258392334e-02,5.133675336837768555e-01,4.347138702869415283e-01,-2.173986285924911499e-01,-2.784344851970672607e-01,1.124729365110397339e-01,-3.993993103504180908e-01,7.404667139053344727e-01,6.569777131080627441e-01,3.638250529766082764e-01,3.403851389884948730e-02,4.916711449623107910e-01,2.691118419170379639e-01,6.715346872806549072e-02,-2.015197128057479858e-01,1.705440431833267212e-01
-2.416066266596317291e-02,4.263226687908172607e-01,-3.729889988899230957e-01,1.145169734954833984e+00,-3.068610727787017822e-01,1.957224309444427490e-01,4.143484234809875488e-01,5.795407891273498535e-01,-1.052484214305877686e-01,-1.940614581108093262e-01,1.734458655118942261e-02,-4.773744642734527588e-01,7.023263573646545410e-01,5.097869038581848145e-01,5.636675357818603516e-01,1.271079480648040771e-01,3.989348113536834717e-01,3.140758872032165527e-01,-7.636667042970657349e-02,2.161734104156494141e-01,1.434492021799087524e-01
-7.789374142885208130e-02,3.001950681209564209e-01,-2.197262942790985107e-01,9.695041179656982422e-01,-8.943706005811691284e-02,7.473092526197433472e-02,5.022363662719726562e-01,5.223321318626403809e-01,-6.114296615123748779e-02,-3.606636822223663330e-01,1.796426326036453247e-01,-4.680702090263366699e-01,6.312216520309448242e-01,6.206693053245544434e-01,5.488647818565368652e-01,-1.847031898796558380e-02,3.602798879146575928e-01,3.470655679702758789e-01,-3.468900173902511597e-02,3.714300692081451416e-01,1.916696280241012573e-01
-3.782486021518707275e-01,2.033266723155975342e-01,-2.169353514909744263e-01,9.928988814353942871e-01,-3.525234162807464600e-01,1.260085254907608032e-01,4.223840832710266113e-01,4.909512102603912354e-01,-2.479983121156692505e-02,-4.855184555053710938e-01,7.442951947450637817e-02,-4.822194278240203857e-01,5.979152917861938477e-01,5.001132488250732422e-01,5.425487756729125977e-01,1.174978166818618774e-01,5.095789432525634766e-01,1.212343424558639526e-01,-1.294709146022796631e-01,3.368945121765136719e-01,1.774438321590423584e-01
-4.555591046810150146e-01,2.352780550718307495e-01,-1.658750176429748535e-01,9.861149191856384277e-01,-1.360928863286972046e-01,1.227262616157531738e-02,6.131999492645263672e-01,6.392359733581542969e-01,2.454880326986312866e-01,-5.209602117538452148e-01,1.431168019771575928e-01,-5.558359622955322266e-01,5.401054024696350098e-01,5.132690072059631348e-01,5.093280673027038574e-01,3.672767430543899536e-02,2.768419682979583740e-01,-1.675233244895935059e-03,6.045839982107281685e-04,4.594153761863708496e-01,2.402775436639785767e-01
-5.609027147293090820e-01,2.220683544874191284e-01,-1.441058665513992310e-01,1.026183843612670898e+00,-3.008915185928344727e-01,-1.350434869527816772e-01,2.943103015422821045e-01,5.888807773590087891e-01,4.158514738082885742e-01,-5.668410658836364746e-01,3.727031499147415161e-02,-4.381281435489654541e-01,5.969775319099426270e-01,3.831538856029510498e-01,3.176608979701995850e-01,1.448265369981527328e-02,3.278293013572692871e-01,-4.535818099975585938e-02,8.924612402915954590e-02,3.219937980175018311e-01,3.350068330764770508e-01
-5.626384615898132324e-01,4.377541840076446533e-01,-1.112855747342109680e-01,8.049417734146118164e-01,-2.562914788722991943e-01,5.707923322916030884e-03,3.385929763317108154e-01,3.431919217109680176e-01,4.442913234233856201e-01,-5.503040552139282227e-01,6.181020289659500122e-02,-4.837166666984558105e-01,7.726626396179199219e-01,3.171572983264923096e-01,6.211649775505065918e-01,5.076802894473075867e-02,3.560015559196472168e-01,-7.759443670511245728e-02,-1.508017331361770630e-01,3.204570412635803223e-01,1.615600138902664185e-01
-4.829714298248291016e-01,4.065850377082824707e-01,-9.207623451948165894e-02,7.912711501121520996e-01,-4.097239673137664795e-01,-3.044396340847015381e-01,4.001835882663726807e-01,6.324017047882080078e-01,5.492686033248901367e-01,-4.726026654243469238e-01,2.043990343809127808e-01,-5.642229318618774414e-01,5.142041444778442383e-01,1.384065151214599609e-01,3.531942963600158691e-01,5.077740550041198730e-02,4.269160628318786621e-01,-2.950163483619689941e-01,-1.266943514347076416e-01,4.519129395484924316e-01,4.904588460922241211e-01
-7.917848229408264160e-01,4.736126363277435303e-01,2.188017219305038452e-02,7.203406691551208496e-01,-3.529606461524963379e-01,-1.723001301288604736e-01,4.650435447692871094e-01,4.312729239463806152e-01,6.472510695457458496e-01,-4.177315235137939453e-01,1.700945794582366943e-01,-4.996539652347564697e-01,5.631585121154785156e-01,1.716595143079757690e-01,5.303327441215515137e-01,1.863540522754192352e-02,2.967296242713928223e-01,-3.418452143669128418e-01,-6.009395793080329895e-02,3.948100507259368896e-01,3.770225942134857178e-01
-5.978887677192687988e-01,5.968126058578491211e-01,1.396670192480087280e-01,6.511883735656738281e-01,-4.378023743629455566e-01,-2.742142975330352783e-01,3.467251360416412354e-01,2.584038376808166504e-01,5.777295827865600586e-01,-2.695349454879760742e-01,1.812223792076110840e-01,-6.434643864631652832e-01,6.458243131637573242e-01,2.340821325778961182e-01,5.505001544952392578e-01,5.547102913260459900e-02,5.600801706314086914e-01,-2.200691998004913330e-01,1.472135484218597412e-01,4.057919681072235107e-01,5.080561041831970215e-01
-5.979779362678527832e-01,7.112470865249633789e-01,2.123642712831497192e-01,6.086003184318542480e-01,-4.910077452659606934e-01,-3.612085580825805664e-01,5.016748905181884766e-01,2.010700702667236328e-01,5.707563757896423340e-01,-2.766526043415069580e-01,1.614492386579513550e-01,-6.624545454978942871e-01,4.321101307868957520e-01,3.386385738849639893e-02,3.523805439472198486e-01,-1.205689981579780579e-01,3.857168257236480713e-01,-1.359257400035858154e-01,-1.683648675680160522e-01,4.642147421836853027e-01,6.020045876502990723e-01
-5.715814232826232910e-01,7.531214356422424316e-01,2.105043381452560425e-01,5.723279118537902832e-01,-6.681191921234130859e-01,-3.107849955558776855e-01,4.374663233757019043e-01,2.491159588098526001e-01,7.243139743804931641e-01,-6.468932330608367920e-02,-1.031590700149536133e-01,-4.531022608280181885e-01,4.719433486461639404e-01,2.239428162574768066e-01,3.538711071014404297e-01,1.472553312778472900e-01,4.227521717548370361e-01,-3.024992942810058594e-01,6.717948615550994873e-02,2.819563448429107666e-01,4.453892707824707031e-01
-3.497787415981292725e-01,6.607105731964111328e-01,2.476036399602890015e-01,4.488387107849121094e-01,-5.272934436798095703e-01,-5.724983811378479004e-01,1.590020507574081421e-01,5.955331772565841675e-02,6.729923486709594727e-01,8.293778635561466217e-03,9.827467612922191620e-03,-5.126298666000366211e-01,5.096073150634765625e-01,3.183872997760772705e-02,3.298326730728149414e-01,1.241231802850961685e-02,3.016941547393798828e-01,-3.370718359947204590e-01,2.666657865047454834e-01,2.602966725826263428e-01,5.021919608116149902e-01
-5.104396939277648926e-01,7.992075085639953613e-01,3.126309812068939209e-01,2.324830144643783569e-01,-5.293700098991394043e-01,-4.690173268318176270e-01,4.497788548469543457e-01,-1.662327945232391357e-01,5.091383457183837891e-01,-1.338849663734436035e-01,-1.828157007694244385e-01,-4.101888835430145264e-01,3.373818993568420410e-01,-2.130671590566635132e-01,-1.345137357711791992e-01,-2.715902328491210938e-01,1.866832822561264038e-01,-5.333322882652282715e-01,3.660636767745018005e-02,1.918282955884933472e-01,6.123226284980773926e-01
