Fp1,Fp2,F7,F3,Fz,F4,F8,T3,C3,Cz,C4,T4,T5,P3,Pz,P4,T6,O1,Oz,O2,A1
9.135174751281738281e+00,1.152599716186523438e+01,1.321202945709228516e+01,1.452422332763671875e+01,7.913530349731445312e+00,9.786746025085449219e+00,6.137918949127197266e+00,1.290293502807617188e+01,1.358399295806884766e+01,1.467593479156494141e+01,4.943431854248046875e+00,1.335592555999755859e+01,1.390017604827880859e+01,1.756947517395019531e+01,1.234135246276855469e+01,1.754401206970214844e+01,1.351735687255859375e+01,1.838069534301757812e+01,5.956873416900634766e+00,-9.236412048339843750e-01,-6.630961596965789795e-02
8.564065933227539062e+00,1.072818756103515625e+01,1.263962745666503906e+01,1.386092567443847656e+01,7.364921569824218750e+00,1.087875175476074219e+01,5.492142200469970703e+00,1.203212070465087891e+01,1.211874389648437500e+01,1.357309436798095703e+01,4.768667221069335938e+00,1.330696773529052734e+01,1.281552028656005859e+01,1.743099021911621094e+01,1.084127044677734375e+01,1.786650466918945312e+01,1.272228622436523438e+01,1.734002876281738281e+01,6.327518463134765625e+00,-1.472632527351379395e+00,-6.283610314130783081e-02
7.636343955993652344e+00,9.512692451477050781e+00,1.193459606170654297e+01,1.302824020385742188e+01,6.497030258178710938e+00,1.181951713562011719e+01,5.003325462341308594e+00,1.138037967681884766e+01,1.045067310333251953e+01,1.250376605987548828e+01,4.499386787414550781e+00,1.333251094818115234e+01,1.156182670593261719e+01,1.725096130371093750e+01,9.467884063720703125e+00,1.819357109069824219e+01,1.205360317230224609e+01,1.625613212585449219e+01,6.732757568359375000e+00,-2.141927480697631836e+00,-6.089935824275016785e-02
6.571766853332519531e+00,8.192024230957031250e+00,1.127144813537597656e+01,1.225729465484619141e+01,5.503706455230712891e+00,1.253983020782470703e+01,4.550384521484375000e+00,1.103716659545898438e+01,8.735213279724121094e+00,1.164769458770751953e+01,4.101707935333251953e+00,1.347512817382812500e+01,1.031014537811279297e+01,1.717306518554687500e+01,8.454315185546875000e+00,1.866015434265136719e+01,1.172587490081787109e+01,1.530672359466552734e+01,7.236835002899169922e+00,-2.834097146987915039e+00,-6.100461632013320923e-02
5.603251457214355469e+00,7.050149917602539062e+00,1.075838088989257812e+01,1.170955944061279297e+01,4.578800678253173828e+00,1.300124168395996094e+01,3.953938245773315430e+00,1.101525878906250000e+01,7.116425991058349609e+00,1.111912345886230469e+01,3.598813772201538086e+00,1.369437599182128906e+01,9.219452857971191406e+00,1.725442504882812500e+01,7.942462921142578125e+00,1.927997970581054688e+01,1.182287120819091797e+01,1.463269138336181641e+01,7.854577064514160156e+00,-3.469503641128540039e+00,-6.256243586540222168e-02
4.870285511016845703e+00,6.234310626983642578e+00,1.041284561157226562e+01,1.141194534301757812e+01,3.861681699752807617e+00,1.314479160308837891e+01,3.142233133316040039e+00,1.124163436889648438e+01,5.708043098449707031e+00,1.091043663024902344e+01,3.085219383239746094e+00,1.388595104217529297e+01,8.392376899719238281e+00,1.741368103027343750e+01,7.932327270507812500e+00,1.990209007263183594e+01,1.226229095458984375e+01,1.428206634521484375e+01,8.497028350830078125e+00,-3.993078708648681641e+00,-6.426761299371719360e-02
4.414978027343750000e+00,5.738496780395507812e+00,1.018946933746337891e+01,1.126630496978759766e+01,3.413165569305419922e+00,1.291408634185791016e+01,2.222898483276367188e+00,1.157937049865722656e+01,4.606737136840820312e+00,1.090282058715820312e+01,2.723206758499145508e+00,1.392000961303710938e+01,7.869166374206542969e+00,1.746734237670898438e+01,8.322551727294921875e+00,2.027261352539062500e+01,1.284720516204833984e+01,1.421962642669677734e+01,8.991222381591796875e+00,-4.370934009552001953e+00,-6.485705822706222534e-02
4.176796913146972656e+00,5.442510604858398438e+00,1.000099563598632812e+01,1.111116600036621094e+01,3.214247465133666992e+00,1.225529384613037109e+01,1.420162320137023926e+00,1.184408378601074219e+01,3.871269226074218750e+00,1.089368057250976562e+01,2.644741058349609375e+00,1.368160438537597656e+01,7.613597869873046875e+00,1.718172073364257812e+01,8.900285720825195312e+00,2.011022377014160156e+01,1.334394073486328125e+01,1.432529449462890625e+01,9.154306411743164062e+00,-4.578500270843505859e+00,-6.382553279399871826e-02
4.053100585937500000e+00,5.188593864440917969e+00,9.763658523559570312e+00,1.078505706787109375e+01,3.191441535949707031e+00,1.118635845184326172e+01,9.537680745124816895e-01,1.186964225769042969e+01,3.507326364517211914e+00,1.068651771545410156e+01,2.873005151748657227e+00,1.311964988708496094e+01,7.519017696380615234e+00,1.638197708129882812e+01,9.472951889038085938e+00,1.923880958557128906e+01,1.356732463836669922e+01,1.444056797027587891e+01,8.852848052978515625e+00,-4.607305049896240234e+00,-6.146775186061859131e-02
3.933351993560791016e+00,4.858051300048828125e+00,9.414632797241210938e+00,1.020249462127685547e+01,3.233252286911010742e+00,9.794436454772949219e+00,8.909842371940612793e-01,1.153738212585449219e+01,3.433400392532348633e+00,1.015337657928466797e+01,3.293867111206054688e+00,1.223840236663818359e+01,7.466696739196777344e+00,1.501445102691650391e+01,9.842905044555664062e+00,1.763549995422363281e+01,1.342917919158935547e+01,1.441655254364013672e+01,8.057196617126464844e+00,-4.470904350280761719e+00,-5.862578749656677246e-02
3.716225624084472656e+00,4.372754573822021484e+00,8.910290718078613281e+00,9.341315269470214844e+00,3.214247465133666992e+00,8.215385437011718750e+00,1.074851155281066895e+00,1.077793025970458984e+01,3.482684373855590820e+00,9.254652976989746094e+00,3.679062843322753906e+00,1.109320640563964844e+01,7.341930866241455078e+00,1.315184497833251953e+01,9.898651123046875000e+00,1.543981075286865234e+01,1.293685245513916016e+01,1.414277744293212891e+01,6.861247539520263672e+00,-4.209116935729980469e+00,-5.620485544204711914e-02
3.318818569183349609e+00,3.692137479782104492e+00,8.212240219116210938e+00,8.233179092407226562e+00,3.012795209884643555e+00,6.667095661163330078e+00,1.195934295654296875e+00,9.593111991882324219e+00,3.444773674011230469e+00,8.040615081787109375e+00,3.786061525344848633e+00,9.769207000732421875e+00,7.082337856292724609e+00,1.097591972351074219e+01,9.635123252868652344e+00,1.289875793457031250e+01,1.214765930175781250e+01,1.356960964202880859e+01,5.428086280822753906e+00,-3.903274536132812500e+00,-5.462598428130149841e-02
2.683230400085449219e+00,2.796667575836181641e+00,7.306519508361816406e+00,6.942993164062500000e+00,2.538939237594604492e+00,5.339258193969726562e+00,9.223761558532714844e-01,8.039522171020507812e+00,3.137696981430053711e+00,6.610274791717529297e+00,3.456148624420166016e+00,8.355806350708007812e+00,6.693954467773437500e+00,8.711711883544921875e+00,9.168881416320800781e+00,1.030738830566406250e+01,1.112332630157470703e+01,1.268424129486083984e+01,3.970215082168579102e+00,-3.644028663635253906e+00,-5.380497127771377563e-02
1.788406372070312500e+00,1.669817924499511719e+00,6.191382884979248047e+00,5.515080928802490234e+00,1.752135753631591797e+00,4.385675430297851562e+00,6.582533568143844604e-02,6.212091445922851562e+00,2.478050470352172852e+00,5.061119556427001953e+00,2.700023651123046875e+00,6.914732933044433594e+00,6.233126640319824219e+00,6.570407390594482422e+00,8.667164802551269531e+00,7.912714958190917969e+00,9.897652626037597656e+00,1.150748634338378906e+01,2.665543794631958008e+00,-3.508475303649902344e+00,-5.342604219913482666e-02
6.501376032829284668e-01,3.055785000324249268e-01,4.891263484954833984e+00,4.011182785034179688e+00,6.853262782096862793e-01,3.867870092391967773e+00,-1.315418958663940430e+00,4.240437984466552734e+00,1.501849770545959473e+00,3.492162227630615234e+00,1.692451715469360352e+00,5.480045318603515625e+00,5.788397312164306641e+00,4.702608585357666016e+00,8.327619552612304688e+00,5.890851497650146484e+00,8.472108840942382812e+00,1.008097076416015625e+01,1.607969403266906738e+00,-3.531349897384643555e+00,-5.311027169227600098e-02
-6.670959591865539551e-01,-1.259991407394409180e+00,3.460259199142456055e+00,2.524698019027709961e+00,-5.651974081993103027e-01,3.734573602676391602e+00,-3.001613378524780273e+00,2.290691375732421875e+00,3.379909992218017578e-01,1.997844457626342773e+00,7.044960856437683105e-01,4.087930202484130859e+00,5.422150135040283203e+00,3.213908910751342773e+00,8.292144775390625000e+00,4.328710556030273438e+00,6.856983184814453125e+00,8.489549636840820312e+00,8.222014904022216797e-01,-3.700791835784912109e+00,-5.285765230655670166e-02
-2.065916299819946289e+00,-2.948763608932495117e+00,1.952469587326049805e+00,1.177521586418151855e+00,-1.868934750556945801e+00,3.816602230072021484e+00,-4.696776866912841797e+00,5.326335430145263672e-01,-8.637785315513610840e-01,6.680387854576110840e-01,-5.262599326670169830e-03,2.774574279785156250e+00,5.150482654571533203e+00,2.133736133575439453e+00,8.581011772155761719e+00,3.237727642059326172e+00,5.078727722167968750e+00,6.842092990875244141e+00,2.390530258417129517e-01,-3.968509674072265625e+00,-5.283660069108009338e-02
-3.426575183868408203e+00,-4.618003845214843750e+00,4.307187795639038086e-01,1.152944937348365784e-01,-3.086516618728637695e+00,3.893503904342651367e+00,-6.190135002136230469e+00,-8.895129561424255371e-01,-1.995413184165954590e+00,-4.241383373737335205e-01,-3.030759394168853760e-01,1.601706624031066895e+00,4.915038108825683594e+00,1.441317677497863770e+00,9.072592735290527344e+00,2.565297842025756836e+00,3.209355354309082031e+00,5.263480186462402344e+00,-2.749083638191223145e-01,-4.268421649932861328e+00,-5.327868461608886719e-02
-4.643798828125000000e+00,-6.118967533111572266e+00,-1.063109993934631348e+00,-5.337563753128051758e-01,-4.126718997955322266e+00,3.749953985214233398e+00,-7.356120586395263672e+00,-1.884467840194702148e+00,-3.022793531417846680e+00,-1.252791523933410645e+00,-2.281767725944519043e-01,6.374433636665344238e-01,4.607148647308349609e+00,1.048370242118835449e+00,9.543902397155761719e+00,2.197062492370605469e+00,1.341452598571777344e+00,3.856177091598510742e+00,-9.173600673675537109e-01,-4.540375709533691406e+00,-5.416284874081611633e-02
-5.650475978851318359e+00,-7.320940494537353516e+00,-2.487133741378784180e+00,-7.063089013099670410e-01,-4.957867622375488281e+00,3.275726079940795898e+00,-8.158856391906738281e+00,-2.450405359268188477e+00,-3.968665599822998047e+00,-1.848386049270629883e+00,2.505372837185859680e-02,-4.797106981277465820e-02,4.118147850036621094e+00,8.077547550201416016e-01,9.726344108581542969e+00,1.977493643760681152e+00,-4.309241175651550293e-01,2.666613817214965820e+00,-1.866211891174316406e+00,-4.743705749511718750e+00,-5.511017143726348877e-02
-6.415023803710937500e+00,-8.144291877746582031e+00,-3.792488574981689453e+00,-4.324411153793334961e-01,-5.605301856994628906e+00,2.504144668579101562e+00,-8.589374542236328125e+00,-2.658524513244628906e+00,-4.882313728332519531e+00,-2.314503431320190430e+00,1.837686151266098022e-01,-4.162216782569885254e-01,3.365529298782348633e+00,5.342494845390319824e-01,9.381731033325195312e+00,1.719042778015136719e+00,-2.038702011108398438e+00,1.669173836708068848e+00,-3.289489507675170898e+00,-4.875023365020751953e+00,-5.567856505513191223e-02
-6.940074920654296875e+00,-8.578504562377929688e+00,-4.926821231842041016e+00,1.627860218286514282e-01,-6.119701862335205078e+00,1.604393482208251953e+00,-8.647673606872558594e+00,-2.649396419525146484e+00,-5.809230804443359375e+00,-2.797376871109008789e+00,1.435384713113307953e-02,-4.864660203456878662e-01,2.321120262145996094e+00,3.397714346647262573e-02,8.363094329833984375e+00,1.231874346733093262e+00,-3.455427646636962891e+00,7.709975838661193848e-01,-5.256380081176757812e+00,-4.936022281646728516e+00,-5.567856505513191223e-02
-7.224313259124755859e+00,-8.650623321533203125e+00,-5.827306747436523438e+00,9.131521582603454590e-01,-6.518805027008056641e+00,7.969245314598083496e-01,-8.329269409179687500e+00,-2.600105047225952148e+00,-6.724774360656738281e+00,-3.424959897994995117e+00,-5.777061581611633301e-01,-3.523631989955902100e-01,1.033216834068298340e+00,-8.125044107437133789e-01,6.685637474060058594e+00,3.947679698467254639e-01,-4.659056663513183594e+00,-1.175725460052490234e-01,-7.702638626098632812e+00,-4.930091857910156250e+00,-5.521542951464653015e-02
-7.255895137786865234e+00,-8.405721664428710938e+00,-6.427630424499511719e+00,1.660352110862731934e+00,-6.769670009613037109e+00,2.688654661178588867e-01,-7.714885234832763672e+00,-2.680431604385375977e+00,-7.553123474121093750e+00,-4.279508590698242188e+00,-1.521078944206237793e+00,-1.501446515321731567e-01,-3.834768235683441162e-01,-1.998270988464355469e+00,4.521667957305908203e+00,-7.762660384178161621e-01,-5.631953239440917969e+00,-1.038163185119628906e+00,-1.041576194763183594e+01,-4.852148532867431641e+00,-5.456282943487167358e-02
-7.030873298645019531e+00,-7.903897285461425781e+00,-6.705105781555175781e+00,2.282491207122802734e+00,-6.821616649627685547e+00,7.917432487010955811e-02,-6.961479187011718750e+00,-3.021819829940795898e+00,-8.199501037597656250e+00,-5.351883411407470703e+00,-2.619600057601928711e+00,-2.029905654489994049e-02,-1.784071683883666992e+00,-3.391763210296630859e+00,2.165120124816894531e+00,-2.127986907958984375e+00,-6.356482028961181641e+00,-1.963557004928588867e+00,-1.306464004516601562e+01,-4.685248374938964844e+00,-5.395233258605003357e-02
-6.582145690917968750e+00,-7.226284980773925781e+00,-6.699870109558105469e+00,2.708331823348999023e+00,-6.641703605651855469e+00,1.458225548267364502e-01,-6.302248954772949219e+00,-3.693642616271972656e+00,-8.608936309814453125e+00,-6.561351299285888672e+00,-3.650355100631713867e+00,-5.009968578815460205e-02,-3.015629291534423828e+00,-4.755827426910400391e+00,-3.432437777519226074e-02,-3.392795324325561523e+00,-6.820885658264160156e+00,-2.815303325653076172e+00,-1.529345321655273438e+01,-4.415835857391357422e+00,-5.348919704556465149e-02
-5.995246410369873047e+00,-6.473549365997314453e+00,-6.509651660919189453e+00,2.901463985443115234e+00,-6.261605262756347656e+00,2.816824316978454590e-01,-5.979360580444335938e+00,-4.672166824340820312e+00,-8.787117004394531250e+00,-7.779959201812744141e+00,-4.451062679290771484e+00,-2.459323853254318237e-01,-3.949359178543090820e+00,-5.827345371246337891e+00,-1.752323746681213379e+00,-4.259634971618652344e+00,-7.042800426483154297e+00,-3.495739936828613281e+00,-1.679580116271972656e+01,-4.051536083221435547e+00,-5.313132330775260925e-02
-5.378080844879150391e+00,-5.738843441009521484e+00,-6.246137142181396484e+00,2.852389574050903320e+00,-5.763676166534423828e+00,3.098797500133514404e-01,-6.122866630554199219e+00,-5.853333473205566406e+00,-8.787117004394531250e+00,-8.867566108703613281e+00,-4.966440200805664062e+00,-5.247811079025268555e-01,-4.486656188964843750e+00,-6.398590564727783203e+00,-2.750689029693603516e+00,-4.476916790008544922e+00,-7.064844608306884766e+00,-3.942426681518554688e+00,-1.738883399963378906e+01,-3.615223646163940430e+00,-5.289975553750991821e-02
-4.803024768829345703e+00,-5.052216529846191406e+00,-5.973897457122802734e+00,2.581687688827514648e+00,-5.226470470428466797e+00,1.483859568834304810e-01,-6.705859184265136719e+00,-7.080140113830566406e+00,-8.652533531188964844e+00,-9.705359458923339844e+00,-5.226804256439208984e+00,-7.589288949966430664e-01,-4.565137863159179688e+00,-6.357045173645019531e+00,-2.928063631057739258e+00,-3.925707101821899414e+00,-6.928168773651123047e+00,-4.118539810180664062e+00,-1.705772399902343750e+01,-3.134856224060058594e+00,-5.285765230655670166e-02
-4.259551048278808594e+00,-4.368594169616699219e+00,-5.666755199432373047e+00,2.144765853881835938e+00,-4.680395603179931641e+00,-1.464043110609054565e-01,-7.517564773559570312e+00,-8.155422210693359375e+00,-8.383367538452148438e+00,-1.020651149749755859e+01,-5.292786598205566406e+00,-8.185302019119262695e-01,-4.152606487274169922e+00,-5.700978755950927734e+00,-2.335125923156738281e+00,-2.626591444015502930e+00,-6.666574478149414062e+00,-4.001664638519287109e+00,-1.589142704010009766e+01,-2.635850191116333008e+00,-5.323658138513565063e-02
-3.625278711318969727e+00,-3.540735244750976562e+00,-5.200806140899658203e+00,1.660352110862731934e+00,-4.053233623504638672e+00,-3.976168930530548096e-01,-8.226124763488769531e+00,-8.880187034606933594e+00,-7.900006294250488281e+00,-1.030247688293457031e+01,-5.194704532623291016e+00,-6.269547343254089355e-01,-3.241012334823608398e+00,-4.492708683013916016e+00,-1.093503952026367188e+00,-7.145122885704040527e-01,-6.262425422668457031e+00,-3.550174951553344727e+00,-1.406291103363037109e+01,-2.116511344909667969e+00,-5.418390035629272461e-02
-2.702820539474487305e+00,-2.376323938369750977e+00,-4.394557476043701172e+00,1.291501283645629883e+00,-3.204347133636474609e+00,-4.053070545196533203e-01,-8.486229896545410156e+00,-9.102910995483398438e+00,-7.062179565429687500e+00,-9.944511413574218750e+00,-4.909374237060546875e+00,-1.948455870151519775e-01,-1.836392760276794434e+00,-2.836097478866577148e+00,6.042240262031555176e-01,1.597822427749633789e+00,-5.659876346588134766e+00,-2.695226430892944336e+00,-1.175008487701416016e+01,-1.553964614868164062e+00,-5.574171990156173706e-02
-1.335582017898559570e+00,-7.401380538940429688e-01,-3.120614767074584961e+00,1.191769123077392578e+00,-2.004503250122070312e+00,-5.412214249372482300e-02,-8.078134536743164062e+00,-8.756046295166015625e+00,-5.767529010772705078e+00,-9.132614135742187500e+00,-4.402913093566894531e+00,3.883952796459197998e-01,-1.320459786802530289e-02,-8.852083683013916016e-01,2.509733676910400391e+00,4.045100688934326172e+00,-4.800141334533691406e+00,-1.387187123298645020e+00,-9.170393943786621094e+00,-9.126275181770324707e-01,-5.774161964654922485e-02
4.619613587856292725e-01,1.322748184204101562e+00,-1.422606110572814941e+00,1.433975934982299805e+00,-4.701727926731109619e-01,6.277405619621276855e-01,-6.979417324066162109e+00,-7.885232448577880859e+00,-4.027427196502685547e+00,-7.936854839324951172e+00,-3.741304159164428711e+00,9.801505804061889648e-01,2.049453020095825195e+00,1.162619233131408691e+00,4.313886165618896484e+00,6.316266059875488281e+00,-3.703795433044433594e+00,3.307150900363922119e-01,-6.561051368713378906e+00,-1.891111582517623901e-01,-5.986782908439636230e-02
2.460840225219726562e+00,3.552408218383789062e+00,4.813274443149566650e-01,1.970630168914794922e+00,1.193391084671020508e+00,1.471097111701965332e+00,-5.387398719787597656e+00,-6.612785339355468750e+00,-2.012473106384277344e+00,-6.479095458984375000e+00,-3.097527980804443359e+00,1.459089279174804688e+00,4.091987133026123047e+00,3.071963071823120117e+00,5.667000770568847656e+00,8.120847702026367188e+00,-2.453138351440429688e+00,2.314387798309326172e+00,-4.223515510559082031e+00,5.699879527091979980e-01,-6.163616478443145752e-02
4.270226955413818359e+00,5.538668632507324219e+00,2.257866859436035156e+00,2.657674312591552734e+00,2.637764930725097656e+00,2.240115165710449219e+00,-3.624967098236083984e+00,-5.101184368133544922e+00,5.856681382283568382e-04,-4.900998592376708984e+00,-2.724815368652343750e+00,1.782638907432556152e+00,5.830657005310058594e+00,4.631635665893554688e+00,6.275142192840576172e+00,9.211831092834472656e+00,-1.187784790992736816e+00,4.365303516387939453e+00,-2.429592609405517578e+00,1.260463118553161621e+00,-6.243612617254257202e-02
5.507189273834228516e+00,6.898400783538818359e+00,3.605104923248291016e+00,3.327304840087890625e+00,3.529729127883911133e+00,2.742540359497070312e+00,-2.010525703430175781e+00,-3.478221178054809570e+00,1.750164985656738281e+00,-3.295482635498046875e+00,-2.826464414596557617e+00,2.008272171020507812e+00,7.066238880157470703e+00,5.729118824005126953e+00,5.981207370758056641e+00,9.529747962951660156e+00,-1.354851294308900833e-02,6.321759223937988281e+00,-1.342366576194763184e+00,1.757774710655212402e+00,-6.186773255467414856e-02
5.991446971893310547e+00,7.454313278198242188e+00,4.418334007263183594e+00,3.894037008285522461e+00,3.731181144714355469e+00,2.919414520263671875e+00,-7.324262261390686035e-01,-1.813269257545471191e+00,3.132010221481323242e+00,-1.680827498435974121e+00,-3.423874378204345703e+00,2.250934600830078125e+00,7.770561218261718750e+00,6.399034023284912109e+00,4.886552810668945312e+00,9.172948837280273438e+00,1.069570541381835938e+00,8.143728256225585938e+00,-9.173600673675537109e-01,1.975507378578186035e+00,-5.986782908439636230e-02
5.832221031188964844e+00,7.319091320037841797e+00,4.830183982849121094e+00,4.394280910491943359e+00,3.378956794738769531e+00,2.878400087356567383e+00,1.600010842084884644e-01,-1.245843470096588135e-01,4.231420993804931641e+00,-3.718683030456304550e-03,-4.315530776977539062e+00,2.617056608200073242e+00,8.094549179077148438e+00,6.824871063232421875e+00,3.345927953720092773e+00,8.427330017089843750e+00,2.160037755966186523e+00,9.911262512207031250e+00,-8.975923657417297363e-01,1.903494596481323242e+00,-5.681534856557846069e-02
5.367702007293701172e+00,6.827784538269042969e+00,5.116384983062744141e+00,4.943599700927734375e+00,2.820212125778198242e+00,2.801498413085937500e+00,7.340247035026550293e-01,1.582356572151184082e+00,5.270174503326416016e+00,1.787634611129760742e+00,-5.142988204956054688e+00,3.119410037994384766e+00,8.301821708679199219e+00,7.238591194152832031e+00,1.871185183525085449e+00,7.642828464508056641e+00,3.390120267868041992e+00,1.174283695220947266e+01,-8.975923657417297363e-01,1.610360383987426758e+00,-5.346814543008804321e-02
4.988718032836914062e+00,6.362020015716552734e+00,5.535215377807617188e+00,5.643308162689208984e+00,2.450249671936035156e+00,2.860456466674804688e+00,1.025521039962768555e+00,3.261913299560546875e+00,6.424555301666259766e+00,3.671906709671020508e+00,-5.544233798980712891e+00,3.657949924468994141e+00,8.625809669494628906e+00,7.808105468750000000e+00,9.589731693267822266e-01,7.098480224609375000e+00,4.811254501342773438e+00,1.366567134857177734e+01,-5.813084244728088379e-01,1.204547405242919922e+00,-5.094195529818534851e-02
4.945292472839355469e+00,6.160689830780029297e+00,6.159970760345458984e+00,6.472826957702636719e+00,2.503463506698608398e+00,3.119359254837036133e+00,9.761908650398254395e-01,4.793596267700195312e+00,7.686982154846191406e+00,5.499818325042724609e+00,-5.323102951049804688e+00,4.047486782073974609e+00,9.155056953430175781e+00,8.526489257812500000e+00,9.133625626564025879e-01,6.883485794067382812e+00,6.314688682556152344e+00,1.553407001495361328e+01,2.044594734907150269e-01,7.851789593696594238e-01,-5.028935521841049194e-02
5.241374015808105469e+00,6.235813140869140625e+00,6.852786064147949219e+00,7.264352321624755859e+00,2.977319478988647461e+00,3.493614673614501953e+00,4.918584823608398438e-01,5.998495578765869141e+00,8.835677146911621094e+00,7.018508434295654297e+00,-4.525961875915527344e+00,4.107088088989257812e+00,9.801021575927734375e+00,9.224101066589355469e+00,1.724217772483825684e+00,6.904070377349853516e+00,7.638827323913574219e+00,1.705184364318847656e+01,1.365814566612243652e+00,4.124071002006530762e-01,-5.209979414939880371e-02
5.675626754760742188e+00,6.399581909179687500e+00,7.336186408996582031e+00,7.761430263519287109e+00,3.650093555450439453e+00,3.811475515365600586e+00,-4.812909066677093506e-01,6.699528217315673828e+00,9.537024497985839844e+00,7.950743198394775391e+00,-3.381074666976928711e+00,3.730322837829589844e+00,1.036649131774902344e+01,9.643013954162597656e+00,3.143214225769042969e+00,6.954388141632080078e+00,8.470639228820800781e+00,1.788117599487304688e+01,2.616124391555786133e+00,1.014814600348472595e-01,-5.597328767180442810e-02
5.950653553009033203e+00,6.383054733276367188e+00,7.350147247314453125e+00,7.718688011169433594e+00,4.194901466369628906e+00,3.898630857467651367e+00,-1.808720469474792480e+00,6.794459342956542969e+00,9.497218132019042969e+00,8.103069305419921875e+00,-2.180904865264892578e+00,2.955506563186645508e+00,1.066834354400634766e+01,9.580697059631347656e+00,4.810534954071044922e+00,6.851465225219726562e+00,8.573513984680175781e+00,1.779792213439941406e+01,3.639105319976806641e+00,-1.628476828336715698e-01,-6.056253239512443542e-02
5.838800907135009766e+00,5.978891372680664062e+00,6.782981395721435547e+00,7.020562648773193359e+00,4.354542732238769531e+00,3.649981737136840820e+00,-3.185480117797851562e+00,6.301546096801757812e+00,8.617690086364746094e+00,7.449590682983398438e+00,-1.139449834823608398e+00,1.940156579017639160e+00,1.063010883331298828e+01,8.985217094421386719e+00,6.411973953247070312e+00,6.538122177124023438e+00,7.872498989105224609e+00,1.678607368469238281e+01,4.222253799438476562e+00,-3.898996412754058838e-01,-6.403604894876480103e-02
5.249269485473632812e+00,5.123988151550292969e+00,5.688786506652832031e+00,5.705047130584716797e+00,4.014987945556640625e+00,3.073218107223510742e+00,-4.243836402893066406e+00,5.333975315093994141e+00,7.021649360656738281e+00,6.107598781585693359e+00,-3.387421965599060059e-01,8.822342753410339355e-01,1.030410861968994141e+01,7.970823764801025391e+00,7.775224208831787109e+00,6.089835643768310547e+00,6.464591026306152344e+00,1.501053428649902344e+01,4.316150665283203125e+00,-5.779799818992614746e-01,-6.496231257915496826e-02
4.254436016082763672e+00,3.875438451766967773e+00,4.243821144104003906e+00,3.933613300323486328e+00,3.225650310516357422e+00,2.260622262954711914e+00,-4.741622447967529297e+00,4.074307918548583984e+00,4.995321750640869141e+00,4.301012992858886719e+00,2.640177011489868164e-01,-5.861414968967437744e-02,9.833218574523925781e+00,6.762553691864013672e+00,8.905353546142578125e+00,5.675857067108154297e+00,4.561417102813720703e+00,1.274027729034423828e+01,4.044343948364257812e+00,-7.160750627517700195e-01,-6.279399991035461426e-02
3.016157388687133789e+00,2.413538694381713867e+00,2.667971611022949219e+00,1.943718314170837402e+00,2.170243978500366211e+00,1.348054170608520508e+00,-4.665384769439697266e+00,2.714231729507446289e+00,2.893172979354858398e+00,2.291833639144897461e+00,7.865285277366638184e-01,-8.036298751831054688e-01,9.390501976013183594e+00,5.630449295043945312e+00,9.923990249633789062e+00,5.502031803131103516e+00,2.424571752548217773e+00,1.025868511199951172e+01,3.624279499053955078e+00,-7.914766073226928711e-01,-5.814160034060478210e-02
1.712083101272583008e+00,8.960477709770202637e-01,1.114808559417724609e+00,-7.467161118984222412e-02,1.040084719657897949e+00,4.303592443466186523e-01,-4.261774539947509766e+00,1.401621699333190918e+00,9.824730753898620605e-01,2.994099855422973633e-01,1.328655838966369629e+00,-1.357070088386535645e+00,9.078588485717773438e+00,4.770119667053222656e+00,1.095783042907714844e+01,5.696441650390625000e+00,2.715601623058319092e-01,7.772289752960205078e+00,3.253634214401245117e+00,-8.092679977416992188e-01,-5.247872322797775269e-02
4.316952824592590332e-01,-5.718618631362915039e-01,-3.790201544761657715e-01,-2.037654638290405273e+00,-4.066162556409835815e-02,-4.822088778018951416e-01,-3.911978960037231445e+00,2.168038338422775269e-01,-6.268365979194641113e-01,-1.543734192848205566e+00,1.910015940666198730e+00,-1.755121350288391113e+00,8.895463943481445312e+00,4.271578311920166016e+00,1.202714633941650391e+01,6.297968864440917969e+00,-1.768289566040039062e+00,5.386759281158447266e+00,3.046072959899902344e+00,-7.940182685852050781e-01,-4.753159731626510620e-02
-8.171105384826660156e-01,-1.967653036117553711e+00,-1.846672058105468750e+00,-3.948397159576416016e+00,-1.036519408226013184e+00,-1.463988661766052246e+00,-3.952339887619018555e+00,-8.164887428283691406e-01,-1.959398031234741211e+00,-3.182761430740356445e+00,2.484242916107177734e+00,-2.019069671630859375e+00,8.766674041748046875e+00,4.124439239501953125e+00,1.306605434417724609e+01,7.267731666564941406e+00,-3.624435424804687500e+00,3.150124073028564453e+00,3.011479377746582031e+00,-7.728380560874938965e-01,-4.447911679744720459e-02
-2.076443672180175781e+00,-3.313862800598144531e+00,-3.347481250762939453e+00,-5.871803760528564453e+00,-1.980430364608764648e+00,-2.627769231796264648e+00,-4.548786163330078125e+00,-1.709209680557250977e+00,-3.119465827941894531e+00,-4.628334999084472656e+00,2.942554473876953125e+00,-2.136143684387207031e+00,8.569463729858398438e+00,4.243881225585937500e+00,1.388704490661621094e+01,8.495944976806640625e+00,-5.267484188079833984e+00,1.078394770622253418e+00,3.070782661437988281e+00,-7.601299285888671875e-01,-4.376336559653282166e-02
-3.398940801620483398e+00,-4.640540599822998047e+00,-4.904134750366210938e+00,-7.864864826202392578e+00,-2.938278198242187500e+00,-4.058143138885498047e+00,-5.643018722534179688e+00,-2.501522302627563477e+00,-4.190443515777587891e+00,-5.930721759796142578e+00,3.142285346984863281e+00,-2.061642169952392578e+00,8.179067611694335938e+00,4.505269527435302734e+00,1.430767631530761719e+01,9.865962982177734375e+00,-6.665104866027832031e+00,-8.044132590293884277e-01,3.095492362976074219e+00,-7.525050044059753418e-01,-4.487909749150276184e-02
-4.779338359832763672e+00,-5.937169075012207031e+00,-6.455552577972412109e+00,-9.903834342956542969e+00,-3.943004846572875977e+00,-5.742292404174804688e+00,-7.015294075012207031e+00,-3.229938983917236328e+00,-5.183703899383544922e+00,-7.135620117187500000e+00,2.960387468338012695e+00,-1.752992749214172363e+00,7.537128925323486328e+00,4.797816276550292969e+00,1.418604755401611328e+01,1.124741744995117188e+01,-7.755571842193603516e+00,-2.445466041564941406e+00,2.991711616516113281e+00,-7.330192327499389648e-01,-4.677374288439750671e-02
-6.130785942077636719e+00,-7.122614860534667969e+00,-7.851654052734375000e+00,-1.185890197753906250e+01,-4.957867622375488281e+00,-7.546921730041503906e+00,-8.378600120544433594e+00,-3.912715196609497070e+00,-6.010157585144042969e+00,-8.250646591186523438e+00,2.325527906417846680e+00,-1.212324142456054688e+00,6.641633510589599609e+00,5.047086715698242188e+00,1.351709270477294922e+01,1.254653358459472656e+01,-8.447769165039062500e+00,-3.753505468368530273e+00,2.749556779861450195e+00,-6.754090189933776855e-01,-4.839471355080604553e-02
-7.278265953063964844e+00,-8.049636840820312500e+00,-8.876043319702148438e+00,-1.350527572631835938e+01,-5.866302490234375000e+00,-9.228507995605468750e+00,-9.477316856384277344e+00,-4.549851417541503906e+00,-6.508683204650878906e+00,-9.234671592712402344e+00,1.262673139572143555e+00,-4.928518831729888916e-01,5.587162494659423828e+00,5.254812240600585938e+00,1.244777679443359375e+01,1.370613193511962891e+01,-8.630002975463867188e+00,-4.600448608398437500e+00,2.438214778900146484e+00,-5.525637269020080566e-01,-4.889995232224464417e-02
-8.021759033203125000e+00,-8.554465293884277344e+00,-9.324541091918945312e+00,-1.460391235351562500e+01,-6.508668899536132812e+00,-1.050764083862304688e+01,-1.012757778167724609e+01,-5.113963603973388672e+00,-6.514369964599609375e+00,-9.988685607910156250e+00,-1.193946525454521179e-01,2.947361469268798828e-01,4.514580726623535156e+00,5.462537765502929688e+00,1.120108699798583984e+01,1.469647884368896484e+01,-8.208218574523925781e+00,-4.851809978485107422e+00,2.205943584442138672e+00,-3.407615423202514648e-01,-4.820524901151657104e-02
-8.217830657958984375e+00,-8.533431053161621094e+00,-9.074988365173339844e+00,-1.499492645263671875e+01,-6.754466056823730469e+00,-1.118694019317626953e+01,-1.025763034820556641e+01,-5.583144187927246094e+00,-5.934336185455322266e+00,-1.041062831878662109e+01,-1.651260852813720703e+00,1.012079834938049316e+00,3.564751863479614258e+00,5.734312057495117188e+00,1.000507545471191406e+01,1.549927711486816406e+01,-7.180945873260498047e+00,-4.416330814361572266e+00,2.181234121322631836e+00,-1.712777093052864075e-02,-4.683689773082733154e-02
-7.841478824615478516e+00,-7.992542743682861328e+00,-8.151816368103027344e+00,-1.466881752014160156e+01,-6.558081626892089844e+00,-1.122282791137695312e+01,-9.867473602294921875e+00,-5.937311649322509766e+00,-4.798910140991210938e+00,-1.040453529357910156e+01,-3.140327453613281250e+00,1.529333591461181641e+00,2.840306282043457031e+00,6.109949111938476562e+00,8.996574401855468750e+00,1.606192207336425781e+01,-5.648118972778320312e+00,-3.292409658432006836e+00,2.423388957977294922e+00,4.344345331192016602e-01,-4.557380080223083496e-02
-6.999291419982910156e+00,-7.053501605987548828e+00,-6.734772682189941406e+00,-1.376647853851318359e+01,-5.976531028747558594e+00,-1.073578357696533203e+01,-9.019891738891601562e+00,-6.161860942840576172e+00,-3.254048824310302734e+00,-9.930801391601562500e+00,-4.413613319396972656e+00,1.757095575332641602e+00,2.369416475296020508e+00,6.560020923614501953e+00,8.180651664733886719e+00,1.630207633972167969e+01,-3.828714132308959961e+00,-1.587315559387207031e+00,2.868163108825683594e+00,1.006300449371337891e+00,-4.523697495460510254e-02
-5.896552562713623047e+00,-5.911627292633056641e+00,-5.108314514160156250e+00,-1.252694988250732422e+01,-5.147916793823242188e+00,-9.946258544921875000e+00,-7.862875461578369141e+00,-6.223931312561035156e+00,-1.546171307563781738e+00,-9.010752677917480469e+00,-5.353419303894042969e+00,1.701751589775085449e+00,2.103786468505859375e+00,6.982396602630615234e+00,7.405271530151367188e+00,1.607564544677734375e+01,-2.004900455474853516e+00,4.780095815658569336e-01,3.352473020553588867e+00,1.645943164825439453e+00,-4.626850411295890808e-02
-4.728017807006835938e+00,-4.735196113586425781e+00,-3.546425819396972656e+00,-1.118610572814941406e+01,-4.209074020385742188e+00,-9.077267646789550781e+00,-6.544414997100830078e+00,-6.052324771881103516e+00,9.536244720220565796e-02,-7.715982437133789062e+00,-5.893763065338134766e+00,1.448446154594421387e+00,1.954872727394104004e+00,7.240322113037109375e+00,6.477856159210205078e+00,1.527742099761962891e+01,-4.294544756412506104e-01,2.636194229125976562e+00,3.663815021514892578e+00,2.267794370651245117e+00,-4.873153939843177795e-02
-3.598960399627685547e+00,-3.593321561813354492e+00,-2.221874237060546875e+00,-9.888004302978515625e+00,-3.228420019149780273e+00,-8.244164466857910156e+00,-5.221470355987548828e+00,-5.563062191009521484e+00,1.513223052024841309e+00,-6.147024631500244141e+00,-6.006112098693847656e+00,1.161082983016967773e+00,1.836144089698791504e+00,7.217818737030029297e+00,5.236234188079833984e+00,1.387309551239013672e+01,7.433121800422668457e-01,4.640680313110351562e+00,3.648989200592041016e+00,2.760869979858398438e+00,-5.233136191964149475e-02
-2.529119253158569336e+00,-2.470979213714599609e+00,-1.187013983726501465e+00,-8.688051223754882812e+00,-2.216091394424438477e+00,-7.454639434814453125e+00,-4.042031288146972656e+00,-4.692248821258544922e+00,2.639171123504638672e+00,-4.430311203002929688e+00,-5.706515312194824219e+00,1.014208436012268066e+00,1.685217976570129395e+00,6.845643997192382812e+00,3.619591712951660156e+00,1.192670822143554688e+01,1.475189089775085449e+00,6.297743797302246094e+00,3.243750333786010742e+00,3.021810293197631836e+00,-5.649957433342933655e-02
-1.489544391632080078e+00,-1.324597477912902832e+00,-4.121775925159454346e-01,-7.592580318450927734e+00,-1.155616879463195801e+00,-6.665114402770996094e+00,-3.091304540634155273e+00,-3.452662706375122070e+00,3.459938049316406250e+00,-2.724260330200195312e+00,-5.050256252288818359e+00,1.118510723114013672e+00,1.475933670997619629e+00,6.106487274169921875e+00,1.698878526687622070e+00,9.580066680908203125e+00,1.817613482475280762e+00,7.479301929473876953e+00,2.487634181976318359e+00,2.991310834884643555e+00,-6.085725501179695129e-02
-5.052380561828613281e-01,-1.827230602502822876e-01,1.218312904238700867e-01,-6.653831005096435547e+00,-9.387539327144622803e-02,-5.883279323577880859e+00,-2.414135932922363281e+00,-1.977573633193969727e+00,3.948986053466796875e+00,-1.220803141593933105e+00,-4.178215980529785156e+00,1.446317553520202637e+00,1.180118322372436523e+00,4.988231182098388672e+00,-4.093448817729949951e-01,6.963537216186523438e+00,1.830840110778808594e+00,8.076484680175781250e+00,1.430059671401977539e+00,2.689704418182373047e+00,-6.504651904106140137e-02
3.066830933094024658e-01,8.104071617126464844e-01,3.556783199310302734e-01,-6.007946491241455078e+00,8.196277022361755371e-01,-5.221923828125000000e+00,-2.006041049957275391e+00,-5.335199236869812012e-01,4.036180973052978516e+00,-1.560446470975875854e-01,-3.320442199707031250e+00,1.823082685470581055e+00,7.394139170646667480e-01,3.445869207382202148e+00,-2.618925094604492188e+00,4.138875007629394531e+00,1.526626229286193848e+00,7.980423450469970703e+00,7.102718949317932129e-02,2.214420318603515625e+00,-6.858319044113159180e-02
7.817293405532836914e-01,1.450457811355590820e+00,1.916363686323165894e-01,-5.830644607543945312e+00,1.389775276184082031e+00,-4.865612030029296875e+00,-1.799751400947570801e+00,5.435871481895446777e-01,3.653282642364501953e+00,2.415261119604110718e-01,-2.739081859588623047e+00,1.978471636772155762e+00,9.143754839897155762e-02,1.427469253540039062e+00,-4.863980293273925781e+00,1.099218130111694336e+00,8.755791187286376953e-01,7.109464168548583984e+00,-1.628998875617980957e+00,1.724733591079711914e+00,-7.081465423107147217e-02
7.790974974632263184e-01,1.569152712821960449e+00,-4.453350007534027100e-01,-6.234322547912597656e+00,1.448057055473327637e+00,-5.001471996307373047e+00,-1.714544773101806641e+00,9.543483257293701172e-01,2.779440641403198242e+00,-1.667074710130691528e-01,-2.660616159439086914e+00,1.671950936317443848e+00,-8.040577173233032227e-01,-1.079085588455200195e+00,-7.114103317260742188e+00,-2.162294626235961914e+00,-1.472850590944290161e-01,5.457204341888427734e+00,-3.734263896942138672e+00,1.387544393539428711e+00,-7.089886069297790527e-02
2.619419097900390625e-01,1.113905310630798340e+00,-1.553490638732910156e+00,-7.187319278717041016e+00,9.336572289466857910e-01,-5.696151256561279297e+00,-1.710060238838195801e+00,5.381103754043579102e-01,1.492372155189514160e+00,-1.382268667221069336e+00,-3.197393417358398438e+00,7.907037734985351562e-01,-1.926948428153991699e+00,-3.975125789642333984e+00,-9.303412437438964844e+00,-5.577048301696777344e+00,-1.512573599815368652e+00,3.150124073028564453e+00,-6.220057964324951172e+00,1.305365204811096191e+00,-6.803584843873977661e-02
-6.684118509292602539e-01,1.913910508155822754e-01,-3.014162063598632812e+00,-8.482254981994628906e+00,-5.713255330920219421e-02,-6.870185852050781250e+00,-1.790782213211059570e+00,-6.777427196502685547e-01,-2.974290028214454651e-02,-3.239122152328491211e+00,-4.290564537048339844e+00,-5.865110158920288086e-01,-3.168567895889282227e+00,-7.028691291809082031e+00,-1.129000759124755859e+01,-8.916324615478515625e+00,-3.118881702423095703e+00,4.571962356567382812e-01,-8.918354988098144531e+00,1.487515091896057129e+00,-6.205719709396362305e-02
-1.794837355613708496e+00,-9.625030755996704102e-01,-4.621424198150634766e+00,-9.799353599548339844e+00,-1.300054192543029785e+00,-8.300559043884277344e+00,-2.050886631011962891e+00,-2.463184595108032227e+00,-1.559440016746520996e+00,-5.440232276916503906e+00,-5.742181777954101562e+00,-2.212773799896240234e+00,-4.386038780212402344e+00,-9.893572807312011719e+00,-1.286103916168212891e+01,-1.184619712829589844e+01,-4.810428619384765625e+00,-2.261348009109497070e+00,-1.155240726470947266e+01,1.846731662750244141e+00,-5.365760996937751770e-02
-2.863362312316894531e+00,-2.063810825347900391e+00,-6.150155067443847656e+00,-1.079667568206787109e+01,-2.518903017044067383e+00,-9.677102088928222656e+00,-2.602487564086914062e+00,-4.493257522583007812e+00,-2.893897056579589844e+00,-7.641342639923095703e+00,-7.274047851562500000e+00,-3.779435396194458008e+00,-5.434472560882568359e+00,-1.222875404357910156e+01,-1.383406543731689453e+01,-1.402816295623779297e+01,-6.437311649322509766e+00,-4.648479461669921875e+00,-1.379110431671142578e+01,2.240683794021606445e+00,-4.433175548911094666e-02
-3.667387962341308594e+00,-2.890167474746704102e+00,-7.427588462829589844e+00,-1.124626159667968750e+01,-3.485619783401489258e+00,-1.070758628845214844e+01,-3.526306629180908203e+00,-6.437527179718017578e+00,-3.928859472274780273e+00,-9.556079864501953125e+00,-8.638282775878906250e+00,-5.026804447174072266e+00,-6.241424560546875000e+00,-1.381612300872802734e+01,-1.409759330749511719e+01,-1.527467346191406250e+01,-7.906944274902343750e+00,-6.464044570922851562e+00,-1.540217590332031250e+01,2.519415378570556641e+00,-3.576375916600227356e-02
-4.102956771850585938e+00,-3.322877645492553711e+00,-8.373447418212890625e+00,-1.109903812408447266e+01,-4.084908485412597656e+00,-1.119463062286376953e+01,-4.786468029022216797e+00,-8.062315940856933594e+00,-4.696551322937011719e+00,-1.102297878265380859e+01,-9.701137542724609375e+00,-5.837807655334472656e+00,-6.837080001831054688e+00,-1.465568065643310547e+01,-1.371243667602539062e+01,-1.564748382568359375e+01,-9.201690673828125000e+00,-7.640799522399902344e+00,-1.633125877380371094e+01,2.588039398193359375e+00,-2.936407551169395447e-02
-4.146381855010986328e+00,-3.343912124633789062e+00,-8.966790199279785156e+00,-1.045473670959472656e+01,-4.300297260284423828e+00,-1.105108070373535156e+01,-6.212557792663574219e+00,-9.274518013000488281e+00,-5.295540332794189453e+00,-1.201919078826904297e+01,-1.044299602508544922e+01,-6.259273529052734375e+00,-7.316019058227539062e+00,-1.493611049652099609e+01,-1.285090351104736328e+01,-1.542791461944580078e+01,-1.034359455108642578e+01,-8.258795738220214844e+00,-1.669696235656738281e+01,2.444013833999633789e+00,-2.565899491310119629e-02
-3.818718671798706055e+00,-2.980315446853637695e+00,-9.200636863708496094e+00,-9.484326362609863281e+00,-4.164729118347167969e+00,-1.031025981903076172e+01,-7.517564773559570312e+00,-1.008326053619384766e+01,-5.803544044494628906e+00,-1.260107612609863281e+01,-1.089417362213134766e+01,-6.433819770812988281e+00,-7.752698898315429688e+00,-1.492053031921386719e+01,-1.174104595184326172e+01,-1.498420238494873047e+01,-1.133412742614746094e+01,-8.463727951049804688e+00,-1.672661399841308594e+01,2.170365333557128906e+00,-2.429064176976680756e-02
-3.173918962478637695e+00,-2.289180755615234375e+00,-9.078478813171386719e+00,-8.369858741760253906e+00,-3.741552829742431641e+00,-9.115718841552734375e+00,-8.414476394653320312e+00,-1.054513931274414062e+01,-6.216770648956298828e+00,-1.283565807342529297e+01,-1.110103797912597656e+01,-6.493421077728271484e+00,-8.153156280517578125e+00,-1.480801296234130859e+01,-1.057037353515625000e+01,-1.458852100372314453e+01,-1.212919807434082031e+01,-8.390080451965332031e+00,-1.660800743103027344e+01,1.884008765220642090e+00,-2.424853853881359100e-02
-2.283042669296264648e+00,-1.339622139930725098e+00,-8.600313186645507812e+00,-7.218980312347412109e+00,-3.091584682464599609e+00,-7.669964313507080078e+00,-8.688035011291503906e+00,-1.067658233642578125e+01,-6.432861804962158203e+00,-1.271836662292480469e+01,-1.103683853149414062e+01,-6.472135066986083984e+00,-8.398662567138671875e+00,-1.461240482330322266e+01,-9.399701118469238281e+00,-1.427975273132324219e+01,-1.262887287139892578e+01,-8.089087486267089844e+00,-1.638067817687988281e+01,1.689150810241699219e+00,-2.418538369238376617e-02
-1.260574817657470703e+00,-2.383143156766891479e-01,-7.802790641784667969e+00,-6.085515975952148438e+00,-2.297178983688354492e+00,-6.219083786010742188e+00,-8.262001037597656250e+00,-1.044838237762451172e+01,-6.313443183898925781e+00,-1.218065643310546875e+01,-1.064094352722167969e+01,-6.291202545166015625e+00,-8.304081916809082031e+00,-1.417791175842285156e+01,-8.168214797973632812e+00,-1.386806106567382812e+01,-1.272146034240722656e+01,-7.541535854339599609e+00,-1.595073032379150391e+01,1.635776638984680176e+00,-2.285913378000259399e-02
-2.894275784492492676e-01,8.419589400291442871e-01,-6.801087856292724609e+00,-4.994793891906738281e+00,-1.495171427726745605e+00,-5.021978855133056641e+00,-7.226068019866943359e+00,-9.796641349792480469e+00,-5.788379669189453125e+00,-1.114636325836181641e+01,-9.872335433959960938e+00,-5.820778369903564453e+00,-7.710439205169677734e+00,-1.327430534362792969e+01,-6.789761543273925781e+00,-1.305611324310302734e+01,-1.235552120208740234e+01,-6.723411083221435547e+00,-1.516002082824707031e+01,1.704400539398193359e+00,-1.955403387546539307e-02
4.211679399013519287e-01,1.692354917526245117e+00,-5.769717693328857422e+00,-3.978475093841552734e+00,-8.629410862922668457e-01,-4.296538352966308594e+00,-5.791009426116943359e+00,-8.692150115966796875e+00,-4.912642478942871094e+00,-9.607871055603027344e+00,-8.772030830383300781e+00,-4.977846622467041016e+00,-6.571449756622314453e+00,-1.174925422668457031e+01,-5.223797321319580078e+00,-1.161747932434082031e+01,-1.155751132965087891e+01,-5.660328865051269531e+00,-1.392947864532470703e+01,1.836565136909484863e+00,-1.418587844818830490e-02
6.843514442443847656e-01,2.108538150787353516e+00,-4.925076007843017578e+00,-3.114129304885864258e+00,-5.702653527259826660e-01,-4.170932292938232422e+00,-4.243836402893066406e+00,-7.228014469146728516e+00,-3.877680063247680664e+00,-7.702272891998291016e+00,-7.489828586578369141e+00,-3.830522298812866211e+00,-5.011879444122314453e+00,-9.644302368164062500e+00,-3.531137228012084961e+00,-9.545298576354980469e+00,-1.046263504028320312e+01,-4.473967552185058594e+00,-1.232829093933105469e+01,1.977201819419860840e+00,-7.723040413111448288e-03
4.119564890861511230e-01,1.973316073417663574e+00,-4.445166110992431641e+00,-2.514153003692626953e+00,-7.121687531471252441e-01,-4.670794010162353516e+00,-2.893983840942382812e+00,-5.634261131286621094e+00,-2.943181037902832031e+00,-5.709849357604980469e+00,-6.230809688568115234e+00,-2.608696460723876953e+00,-3.275222301483154297e+00,-7.210451126098632812e+00,-1.858748435974121094e+00,-7.068286895751953125e+00,-9.272233009338378906e+00,-3.362854719161987305e+00,-1.058872985839843750e+01,2.107671976089477539e+00,-2.060162601992487907e-03
-3.433802127838134766e-01,1.300211191177368164e+00,-4.422479629516601562e+00,-2.294108867645263672e+00,-1.250641465187072754e+00,-5.716658592224121094e+00,-2.032948493957519531e+00,-4.224893569946289062e+00,-2.336609601974487305e+00,-3.982472896575927734e+00,-5.159038066864013672e+00,-1.629532933235168457e+00,-1.633145570755004883e+00,-4.809490203857421875e+00,-3.333272039890289307e-01,-4.540957450866699219e+00,-8.196461677551269531e+00,-2.535123586654663086e+00,-8.987542152404785156e+00,2.245766878128051758e+00,7.396990549750626087e-04
-1.440855503082275391e+00,2.004058510065078735e-01,-4.876212596893310547e+00,-2.558478355407714844e+00,-2.058984041213989258e+00,-7.170102596282958984e+00,-1.902896285057067871e+00,-3.302963018417358398e+00,-2.198235511779785156e+00,-2.840028047561645508e+00,-4.333364009857177734e+00,-1.154851555824279785e+00,-2.848716974258422852e-01,-2.777241706848144531e+00,9.944480657577514648e-01,-2.285802125930786133e+00,-7.435192108154296875e+00,-2.149276018142700195e+00,-7.732290267944335938e+00,2.403347730636596680e+00,-5.865511484444141388e-04
-2.718611478805541992e+00,-1.181863188743591309e+00,-5.766227245330810547e+00,-3.354753017425537109e+00,-2.981356143951416016e+00,-8.869632720947265625e+00,-2.642848491668701172e+00,-3.045552730560302734e+00,-2.529954195022583008e+00,-2.454643487930297852e+00,-3.698504447937011719e+00,-1.271925449371337891e+00,6.911175251007080078e-01,-1.309314727783203125e+00,2.175256013870239258e+00,-4.606357812881469727e-01,-7.133917331695556641e+00,-2.277358293533325195e+00,-6.887219429016113281e+00,2.560928583145141602e+00,-5.596829578280448914e-03
-4.058215618133544922e+00,-2.721891164779663086e+00,-7.015738487243652344e+00,-4.656021118164062500e+00,-3.906262159347534180e+00,-1.067169857025146484e+01,-4.203474998474121094e+00,-3.447185993194580078e+00,-3.236989021301269531e+00,-2.840028047561645508e+00,-3.136760950088500977e+00,-1.859423518180847168e+00,1.329032182693481445e+00,-4.022464752197265625e-01,3.305385351181030273e+00,9.711362719535827637e-01,-7.370528221130371094e+00,-2.893753767013549805e+00,-6.368315696716308594e+00,2.662593841552734375e+00,-1.212282292544841766e-02
-5.437297344207763672e+00,-4.365589141845703125e+00,-8.544469833374023438e+00,-6.367299079895019531e+00,-4.831168174743652344e+00,-1.243018627166748047e+01,-6.333641052246093750e+00,-4.328953266143798828e+00,-4.192338943481445312e+00,-3.848426103591918945e+00,-2.571450471878051758e+00,-2.623596906661987305e+00,1.703329086303710938e+00,4.263237491250038147e-02,4.425378799438476562e+00,2.135308742523193359e+00,-8.149433135986328125e+00,-3.929618358612060547e+00,-6.066857814788818359e+00,2.617691755294799805e+00,-1.692258566617965698e-02
-6.883490562438964844e+00,-6.097932815551757812e+00,-1.026167488098144531e+01,-8.341362953186035156e+00,-5.832093715667724609e+00,-1.401949024200439453e+01,-8.616281509399414062e+00,-5.422490596771240234e+00,-5.320182323455810547e+00,-5.287906169891357422e+00,-2.038239717483520508e+00,-3.247281312942504883e+00,1.850230574607849121e+00,1.257225871086120605e-01,5.423744201660156250e+00,3.116507291793823242e+00,-9.398621559143066406e+00,-5.312905788421630859e+00,-5.953193187713623047e+00,2.355057001113891602e+00,-1.715415343642234802e-02
-8.406007766723632812e+00,-7.875350475311279297e+00,-1.204868507385253906e+01,-1.039616298675537109e+01,-6.981257915496826172e+00,-1.530887794494628906e+01,-1.057154941558837891e+01,-6.472213745117187500e+00,-6.582609176635742188e+00,-6.960445404052734375e+00,-1.674443840980529785e+00,-3.519744157791137695e+00,1.749613046646118164e+00,-1.131617799401283264e-01,6.062292575836181641e+00,3.875849723815917969e+00,-1.096671867370605469e+01,-6.966766834259033203e+00,-6.106393337249755859e+00,1.872147917747497559e+00,-1.172284223139286041e-02
-9.941682815551757812e+00,-9.594172477722167969e+00,-1.374669361114501953e+01,-1.236231231689453125e+01,-8.278660774230957031e+00,-1.620862770080566406e+01,-1.182274150848388672e+01,-7.321120262145996094e+00,-7.977723121643066406e+00,-8.733519554138183594e+00,-1.654827475547790527e+00,-3.413313388824462891e+00,1.331044554710388184e+00,-7.121037244796752930e-01,6.042021274566650391e+00,4.255520820617675781e+00,-1.264209938049316406e+01,-8.819155693054199219e+00,-6.694483757019042969e+00,1.244366168975830078e+00,-1.575975911691784859e-03
-1.132997608184814453e+01,-1.107259845733642578e+01,-1.518642330169677734e+01,-1.409417057037353516e+01,-9.601402282714843750e+00,-1.667773056030273438e+01,-1.222635173797607422e+01,-7.941825866699218750e+00,-9.456240653991699219e+00,-1.051420974731445312e+01,-2.079256057739257812e+00,-3.070606231689453125e+00,5.502530932426452637e-01,-1.721303701400756836e+00,5.175419807434082031e+00,4.088556766510009766e+00,-1.419256210327148438e+01,-1.076440334320068359e+01,-7.826187133789062500e+00,6.140428185462951660e-01,1.067604962736368179e-02
-1.237613105773925781e+01,-1.211080360412597656e+01,-1.621604728698730469e+01,-1.548567199707031250e+01,-1.074676609039306641e+01,-1.673925018310546875e+01,-1.189000988006591797e+01,-8.405529975891113281e+00,-1.091201210021972656e+01,-1.221873760223388672e+01,-2.915629863739013672e+00,-2.710870027542114258e+00,-5.585511922836303711e-01,-3.113064765930175781e+00,3.467556238174438477e+00,3.288045406341552734e+00,-1.540794754028320312e+01,-1.265841865539550781e+01,-9.516329765319824219e+00,1.345226019620895386e-01,2.202285639941692352e-02
-1.293802738189697266e+01,-1.257807064056396484e+01,-1.676925277709960938e+01,-1.648299407958984375e+01,-1.152596759796142578e+01,-1.648547554016113281e+01,-1.115902709960937500e+01,-8.805336952209472656e+00,-1.220476722717285156e+01,-1.374504375457763672e+01,-4.024850845336914062e+00,-2.527809143066406250e+00,-1.876639723777770996e+00,-4.759289741516113281e+00,1.141415596008300781e+00,1.945473194122314453e+00,-1.614864349365234375e+01,-1.435230541229248047e+01,-1.159194278717041016e+01,-9.252935647964477539e-02,3.019087389111518860e-02
-1.298408508300781250e+01,-1.245937538146972656e+01,-1.687047004699707031e+01,-1.707663726806640625e+01,-1.183891487121582031e+01,-1.605738830566406250e+01,-1.042804336547851562e+01,-9.210621833801269531e+00,-1.321508789062500000e+01,-1.498040771484375000e+01,-5.214320659637451172e+00,-2.602310657501220703e+00,-3.228938341140747070e+00,-6.441866397857666016e+00,-1.433049559593200684e+00,2.895579040050506592e-01,-1.637937545776367188e+01,-1.571958255767822266e+01,-1.377133655548095703e+01,-4.339124634861946106e-02,3.419067710638046265e-02
-1.259720516204833984e+01,-1.185087680816650391e+01,-1.661742782592773438e+01,-1.729668235778808594e+01,-1.170714759826660156e+01,-1.560623073577880859e+01,-1.000201034545898438e+01,-9.641464233398437500e+00,-1.387283897399902344e+01,-1.583495616912841797e+01,-6.325325012207031250e+00,-2.906702756881713867e+00,-4.434335231781005859e+00,-7.930566310882568359e+00,-3.855479240417480469e+00,-1.380080461502075195e+00,-1.614570426940917969e+01,-1.669300842285156250e+01,-1.575305271148681641e+01,2.455069571733474731e-01,3.381174802780151367e-02
-1.192740249633789062e+01,-1.092084980010986328e+01,-1.613751792907714844e+01,-1.718586921691894531e+01,-1.123962688446044922e+01,-1.523710250854492188e+01,-9.979587554931640625e+00,-1.007413291931152344e+01,-1.417043781280517578e+01,-1.627213096618652344e+01,-7.277614593505859375e+00,-3.340940475463867188e+00,-5.374102115631103516e+00,-9.050553321838378906e+00,-5.837006568908691406e+00,-2.807278156280517578e+00,-1.555638122558593750e+01,-1.726457405090332031e+01,-1.729493713378906250e+01,7.046941518783569336e-01,2.932775951921939850e-02
-1.112337684631347656e+01,-9.840576171875000000e+00,-1.553195858001708984e+01,-1.680118751525878906e+01,-1.058078956604003906e+01,-1.496794605255126953e+01,-1.028453731536865234e+01,-1.045568466186523438e+01,-1.415716934204101562e+01,-1.634220123291015625e+01,-8.078322410583496094e+00,-3.792207241058349609e+00,-6.018054008483886719e+00,-9.746433258056640625e+00,-7.256002902984619141e+00,-3.850230455398559570e+00,-1.474220466613769531e+01,-1.746470260620117188e+01,-1.828332519531250000e+01,1.243518948554992676e+00,2.088607102632522583e-02
-1.029171752929687500e+01,-8.745278358459472656e+00,-1.485833930969238281e+01,-1.621229171752929688e+01,-9.853534698486328125e+00,-1.473211383819580078e+01,-1.073747825622558594e+01,-1.073500251770019531e+01,-1.391264533996582031e+01,-1.614265441894531250e+01,-8.791647911071777344e+00,-4.181744098663330078e+00,-6.414486885070800781e+00,-1.006840801239013672e+01,-8.142875671386718750e+00,-4.506649971008300781e+00,-1.382515430450439453e+01,-1.734142303466796875e+01,-1.873798179626464844e+01,1.778954982757568359e+00,8.634045720100402832e-03
-9.511378288269042969e+00,-7.747641086578369141e+00,-1.417075920104980469e+01,-1.552208232879638672e+01,-9.165556907653808594e+00,-1.440912628173828125e+01,-1.121732616424560547e+01,-1.089200401306152344e+01,-1.353922462463378906e+01,-1.580296802520751953e+01,-9.508539199829101562e+00,-4.492521762847900391e+00,-6.676092147827148438e+00,-1.012726402282714844e+01,-8.609117507934570312e+00,-4.863449096679687500e+00,-1.292867851257324219e+01,-1.695237350463867188e+01,-1.875280761718750000e+01,2.228822708129882812e+00,-6.607306189835071564e-03
-8.867894172668457031e+00,-6.969363212585449219e+00,-1.354425811767578125e+01,-1.485720062255859375e+01,-8.625817298889160156e+00,-1.389388465881347656e+01,-1.173305034637451172e+01,-1.094494628906250000e+01,-1.313926696777343750e+01,-1.544043159484863281e+01,-1.033064651489257812e+01,-4.769242286682128906e+00,-6.927635669708251953e+00,-1.004244232177734375e+01,-8.771288871765136719e+00,-5.048710346221923828e+00,-1.218357467651367188e+01,-1.637280273437500000e+01,-1.846123504638671875e+01,2.520262718200683594e+00,-2.321701124310493469e-02
-8.477066993713378906e+00,-6.548672676086425781e+00,-1.310274124145507812e+01,-1.436645507812500000e+01,-8.361015319824218750e+00,-1.316331672668457031e+01,-1.239228057861328125e+01,-1.093399333953857422e+01,-1.279806995391845703e+01,-1.512207031250000000e+01,-1.134535217285156250e+01,-5.067248344421386719e+00,-7.279796600341796875e+00,-9.898765563964843750e+00,-8.725678443908691406e+00,-5.163069248199462891e+00,-1.172651863098144531e+01,-1.568916320800781250e+01,-1.800657653808593750e+01,2.607525110244750977e+00,-3.894254937767982483e-02
-8.461276054382324219e+00,-6.598254203796386719e+00,-1.297883701324462891e+01,-1.417332267761230469e+01,-8.487714767456054688e+00,-1.230714321136474609e+01,-1.332058429718017578e+01,-1.091938781738281250e+01,-1.257060623168945312e+01,-1.485854625701904297e+01,-1.261685466766357422e+01,-5.431241512298583984e+00,-7.788920879364013672e+00,-9.722199440002441406e+00,-8.522964477539062500e+00,-5.259130954742431641e+00,-1.166773319244384766e+01,-1.500232315063476562e+01,-1.749755668640136719e+01,2.493151903152465820e+00,-5.155245214700698853e-02
-8.867894172668457031e+00,-7.131629943847656250e+00,-1.323886108398437500e+01,-1.432212924957275391e+01,-9.040123939514160156e+00,-1.147916698455810547e+01,-1.449553871154785156e+01,-1.093399333953857422e+01,-1.245118713378906250e+01,-1.460720920562744141e+01,-1.411662101745605469e+01,-5.850579261779785156e+00,-8.424823760986328125e+00,-9.483314514160156250e+00,-8.198621749877929688e+00,-5.320884704589843750e+00,-1.204542922973632812e+01,-1.439072990417480469e+01,-1.700830459594726562e+01,2.246614217758178711e+00,-5.993098393082618713e-02
-9.637705802917480469e+00,-8.031606674194335938e+00,-1.384791088104248047e+01,-1.477804851531982422e+01,-9.934622764587402344e+00,-1.086907958984375000e+01,-1.574224662780761719e+01,-1.098693561553955078e+01,-1.238673877716064453e+01,-1.431474304199218750e+01,-1.572338676452636719e+01,-6.257144927978515625e+00,-9.111034393310546875e+00,-9.150954246520996094e+00,-7.823601722717285156e+00,-5.311735630035400391e+00,-1.280669879913330078e+01,-1.390081596374511719e+01,-1.658823966979980469e+01,1.984826683998107910e+00,-6.430971622467041016e-02
-1.057332324981689453e+01,-9.045771598815917969e+00,-1.465066909790039062e+01,-1.541601753234863281e+01,-1.095075225830078125e+01,-1.060761356353759766e+01,-1.679163360595703125e+01,-1.103622722625732422e+01,-1.228437995910644531e+01,-1.393697452545166016e+01,-1.719997024536132812e+01,-6.531736373901367188e+00,-9.720775604248046875e+00,-8.699151039123535156e+00,-7.494191646575927734e+00,-5.169930934906005859e+00,-1.378547382354736328e+01,-1.353097915649414062e+01,-1.622747802734375000e+01,1.817926526069641113e+00,-6.595174223184585571e-02
-1.140761566162109375e+01,-9.869123458862304688e+00,-1.542201519012451172e+01,-1.607931518554687500e+01,-1.179076957702636719e+01,-1.071014976501464844e+01,-1.740601730346679688e+01,-1.103075027465820312e+01,-1.203985595703125000e+01,-1.347542667388916016e+01,-1.825569152832031250e+01,-6.540250778198242188e+00,-1.013330745697021484e+01,-8.138291358947753906e+00,-7.316817283630371094e+00,-4.856587886810302734e+00,-1.477012729644775391e+01,-1.324279403686523438e+01,-1.589636898040771484e+01,1.803524017333984375e+00,-6.637277454137802124e-02
-1.191819095611572266e+01,-1.028380393981933594e+01,-1.597871112823486328e+01,-1.665554618835449219e+01,-1.221647930145263672e+01,-1.109722137451171875e+01,-1.752261734008789062e+01,-1.094129562377929688e+01,-1.161715126037597656e+01,-1.299712371826171875e+01,-1.865336990356445312e+01,-6.212443828582763672e+00,-1.028423404693603516e+01,-7.544542789459228516e+00,-7.397902488708496094e+00,-4.399152755737304688e+00,-1.558871269226074219e+01,-1.301865005493164062e+01,-1.557514381408691406e+01,1.915355563163757324e+00,-6.662539392709732056e-02
-1.201688480377197266e+01,-1.023722743988037109e+01,-1.624048042297363281e+01,-1.710829925537109375e+01,-1.213412475585937500e+01,-1.162015438079833984e+01,-1.723560523986816406e+01,-1.080254936218261719e+01,-1.106365489959716797e+01,-1.262087821960449219e+01,-1.829670715332031250e+01,-5.575987815856933594e+00,-1.016952991485595703e+01,-7.042539596557617188e+00,-7.752651691436767578e+00,-3.895973920822143555e+00,-1.615599060058593750e+01,-1.286815357208251953e+01,-1.526380157470703125e+01,2.066158771514892578e+00,-6.683591008186340332e-02
-1.175633335113525391e+01,-9.846586227416992188e+00,-1.622477340698242188e+01,-1.747398376464843750e+01,-1.161592388153076172e+01,-1.212257957458496094e+01,-1.668848800659179688e+01,-1.069118785858154297e+01,-1.047793483734130859e+01,-1.245788955688476562e+01,-1.725346946716308594e+01,-4.752213001251220703e+00,-9.825418472290039062e+00,-6.758647918701171875e+00,-8.325318336486816406e+00,-3.484282255172729492e+00,-1.648371887207031250e+01,-1.280251121520996094e+01,-1.498211097717285156e+01,2.159351587295532227e+00,-6.628856807947158813e-02
-1.128260326385498047e+01,-9.314713478088378906e+00,-1.600314331054687500e+01,-1.780800819396972656e+01,-1.084052371978759766e+01,-1.250452518463134766e+01,-1.597095870971679688e+01,-1.072952556610107422e+01,-9.937706947326660156e+00,-1.257822704315185547e+01,-1.571803665161132812e+01,-3.936953067779541016e+00,-9.292145729064941406e+00,-6.777689456939697266e+00,-8.938527107238769531e+00,-3.292159557342529297e+00,-1.663656044006347656e+01,-1.282652664184570312e+01,-1.475478172302246094e+01,2.158504486083984375e+00,-6.422550976276397705e-02
-1.072991752624511719e+01,-8.814392089843750000e+00,-1.562444972991943359e+01,-1.812303543090820312e+01,-9.991637229919433594e+00,-1.273266696929931641e+01,-1.504714012145996094e+01,-1.099788951873779297e+01,-9.448658943176269531e+00,-1.296056556701660156e+01,-1.393650627136230469e+01,-3.311139822006225586e+00,-8.579773902893066406e+00,-7.087546825408935547e+00,-9.359158515930175781e+00,-3.365349054336547852e+00,-1.665272712707519531e+01,-1.288256263732910156e+01,-1.456204605102539062e+01,2.109366416931152344e+00,-6.070989370346069336e-02
-1.016538906097412109e+01,-8.407223701477050781e+00,-1.508346080780029297e+01,-1.835890960693359375e+01,-9.171891212463378906e+00,-1.283520221710205078e+01,-1.380491733551025391e+01,-1.151088428497314453e+01,-8.955820083618164062e+00,-1.350284576416015625e+01,-1.211574363708496094e+01,-2.983332872390747070e+00,-7.684278964996337891e+00,-7.599936485290527344e+00,-9.379429817199707031e+00,-3.664969205856323242e+00,-1.650723266601562500e+01,-1.288896656036376953e+01,-1.434460163116455078e+01,2.115296840667724609e+00,-5.679429695010185242e-02
-9.564014434814453125e+00,-8.028602600097656250e+00,-1.433654594421386719e+01,-1.840798377990722656e+01,-8.381286621093750000e+00,-1.285571002960205078e+01,-1.218150615692138672e+01,-1.220278835296630859e+01,-8.400427818298339844e+00,-1.407559108734130859e+01,-1.038771247863769531e+01,-2.979075670242309570e+00,-6.609684467315673828e+00,-8.181568145751953125e+00,-8.908120155334472656e+00,-4.083522319793701172e+00,-1.611924934387207031e+01,-1.278009700775146484e+01,-1.405302715301513672e+01,2.274572134017944336e+00,-5.416284874081611633e-02
-8.866578102111816406e+00,-7.568847656250000000e+00,-1.336276531219482422e+01,-1.817210960388183594e+01,-7.565342426300048828e+00,-1.282238578796386719e+01,-1.028902244567871094e+01,-1.295858955383300781e+01,-7.803334236145019531e+00,-1.457979011535644531e+01,-8.816614151000976562e+00,-3.243024110794067383e+00,-5.436485290527343750e+00,-8.728578567504882812e+00,-8.016180038452148438e+00,-4.515798568725585938e+00,-1.540206909179687500e+01,-1.255595302581787109e+01,-1.369226551055908203e+01,2.615149974822998047e+00,-5.439441651105880737e-02
-8.065184593200683594e+00,-6.976875782012939453e+00,-1.223541355133056641e+01,-1.764653587341308594e+01,-6.707587242126464844e+00,-1.273523044586181641e+01,-8.454837799072265625e+00,-1.366509819030761719e+01,-7.312390327453613281e+00,-1.499563980102539062e+01,-7.468429088592529297e+00,-3.687905073165893555e+00,-4.341767311096191406e+00,-9.216733932495117188e+00,-6.936728954315185547e+00,-4.895469665527343750e+00,-1.435863018035888672e+01,-1.230459213256835938e+01,-1.333150386810302734e+01,3.066712379455566406e+00,-5.780477449297904968e-02
-7.255895137786865234e+00,-6.326307773590087891e+00,-1.114645385742187500e+01,-1.693416404724121094e+01,-5.887841701507568359e+00,-1.259680747985839844e+01,-7.113954067230224609e+00,-1.428032779693603516e+01,-7.156956672668457031e+00,-1.540387344360351562e+01,-6.444807052612304688e+00,-4.256245613098144531e+00,-3.591161012649536133e+00,-9.711812973022460938e+00,-6.014380931854248047e+00,-5.268279552459716797e+00,-1.312266921997070312e+01,-1.219412136077880859e+01,-1.315359497070312500e+01,3.492858409881591797e+00,-6.336239725351333618e-02
-6.597936630249023438e+00,-5.780912399291992188e+00,-1.032275390625000000e+01,-1.620754241943359375e+01,-5.251810550689697266e+00,-1.240967941284179688e+01,-6.620652675628662109e+00,-1.482070636749267578e+01,-7.522794723510742188e+00,-1.589436340332031250e+01,-5.867013454437255859e+00,-4.913988113403320312e+00,-3.424136161804199219e+00,-1.031421661376953125e+01,-5.543071746826171875e+00,-5.728001594543457031e+00,-1.191316223144531250e+01,-1.235262298583984375e+01,-1.331173610687255859e+01,3.755493164062500000e+00,-6.898316740989685059e-02
-6.228163719177246094e+00,-5.499951362609863281e+00,-9.910903930664062500e+00,-1.559173679351806641e+01,-4.926192760467529297e+00,-1.218410110473632812e+01,-7.060139656066894531e+00,-1.531727123260498047e+01,-8.426964759826660156e+00,-1.648538780212402344e+01,-5.788547992706298828e+00,-5.622817039489746094e+00,-3.931247949600219727e+00,-1.106375980377197266e+01,-5.629224777221679688e+00,-6.343252182006835938e+00,-1.094173526763916016e+01,-1.279130458831787109e+01,-1.385534954071044922e+01,3.780062198638916016e+00,-7.243563234806060791e-02
-6.167631626129150391e+00,-5.517981052398681641e+00,-9.893452644348144531e+00,-1.511048889160156250e+01,-4.923658847808837891e+00,-1.191494464874267578e+01,-8.176795005798339844e+00,-1.576271915435791016e+01,-9.647689819335937500e+00,-1.706879615783691406e+01,-6.127377510070800781e+00,-6.314617633819580078e+00,-4.971632480621337891e+00,-1.187215805053710938e+01,-6.136009216308593750e+00,-7.079722881317138672e+00,-1.031273269653320312e+01,-1.335006237030029297e+01,-1.463617515563964844e+01,3.586898565292358398e+00,-7.249878346920013428e-02
-6.274220943450927734e+00,-5.702784538269042969e+00,-1.006098461151123047e+01,-1.465773677825927734e+01,-5.092168807983398438e+00,-1.158426666259765625e+01,-9.463863372802734375e+00,-1.608767700195312500e+01,-1.077363777160644531e+01,-1.741914558410644531e+01,-6.635621547698974609e+00,-6.885086536407470703e+00,-6.185079097747802734e+00,-1.252476310729980469e+01,-6.703608036041259766e+00,-7.772737026214599609e+00,-9.968838691711425781e+00,-1.375192070007324219e+01,-1.533793067932128906e+01,3.286139488220214844e+00,-6.953050941228866577e-02
-6.304486751556396484e+00,-5.800444602966308594e+00,-1.010984802246093750e+01,-1.405617713928222656e+01,-5.175790786743164062e+00,-1.116643333435058594e+01,-1.039216709136962891e+01,-1.618443298339843750e+01,-1.135935878753662109e+01,-1.730642509460449219e+01,-6.981584548950195312e+00,-7.227793693542480469e+00,-7.120820999145507812e+00,-1.276191616058349609e+01,-6.916457653045654297e+00,-8.177567481994628906e+00,-9.735166549682617188e+00,-1.372310161590576172e+01,-1.558008575439453125e+01,3.025199174880981445e+00,-6.508862227201461792e-02
-6.028144359588623047e+00,-5.566060066223144531e+00,-9.795725822448730469e+00,-1.317283439636230469e+01,-4.937595844268798828e+00,-1.063581085205078125e+01,-1.064778709411621094e+01,-1.595988464355468750e+01,-1.113189411163330078e+01,-1.658897018432617188e+01,-6.903118610382080078e+00,-7.276751995086669922e+00,-7.426698207855224609e+00,-1.239839649200439453e+01,-6.475554943084716797e+00,-8.088367462158203125e+00,-9.422135353088378906e+00,-1.311631298065185547e+01,-1.507600784301757812e+01,2.915061950683593750e+00,-6.138354539871215820e-02
-5.366237640380859375e+00,-4.895959854125976562e+00,-9.050556182861328125e+00,-1.200612640380859375e+01,-4.295229434967041016e+00,-1.001034259796142578e+01,-1.024417686462402344e+01,-1.539577198028564453e+01,-1.012157440185546875e+01,-1.531552410125732422e+01,-6.348508358001708984e+00,-7.027703762054443359e+00,-6.996055603027343750e+00,-1.140996932983398438e+01,-5.345425605773925781e+00,-7.431947708129882812e+00,-8.920990943908691406e+00,-1.198758888244628906e+01,-1.380593013763427734e+01,2.987921953201293945e+00,-6.005729362368583679e-02
-4.439831733703613281e+00,-3.893814802169799805e+00,-8.036637306213378906e+00,-1.071119022369384766e+01,-3.389328241348266602e+00,-9.338733673095703125e+00,-9.504224777221679688e+00,-1.455234241485595703e+01,-8.663907051086425781e+00,-1.368715953826904297e+01,-5.540667057037353516e+00,-6.548765182495117188e+00,-6.020066261291503906e+00,-9.966276168823242188e+00,-3.804800748825073242e+00,-6.308944702148437500e+00,-8.275821685791015625e+00,-1.057708358764648438e+01,-1.200706577301025391e+01,3.187016010284423828e+00,-6.146775186061859131e-02
-3.516057491302490234e+00,-2.810536623001098633e+00,-7.061111450195312500e+00,-9.528651237487792969e+00,-2.517636060714721680e+00,-8.708139419555664062e+00,-8.871901512145996094e+00,-1.354825973510742188e+01,-7.247941970825195312e+00,-1.199177169799804688e+01,-4.900457859039306641e+00,-5.944238185882568359e+00,-4.911262035369873047e+00,-8.347748756408691406e+00,-2.289515256881713867e+00,-4.957223415374755859e+00,-7.646819114685058594e+00,-9.209806442260742188e+00,-1.011924552917480469e+01,3.411526203155517578e+00,-6.489916145801544189e-02
-2.859414577484130859e+00,-1.898539543151855469e+00,-6.415414333343505859e+00,-8.661139488220214844e+00,-1.984231352806091309e+00,-8.190333366394042969e+00,-8.719426155090332031e+00,-1.249853706359863281e+01,-6.286905765533447266e+00,-1.046546554565429688e+01,-4.868358135223388672e+00,-5.322682380676269531e+00,-4.102297782897949219e+00,-6.838275909423828125e+00,-1.250607132911682129e+00,-3.653533220291137695e+00,-7.208868980407714844e+00,-8.156330108642578125e+00,-8.572419166564941406e+00,3.577579259872436523e+00,-6.900422275066375732e-02
-2.597547054290771484e+00,-1.281025886535644531e+00,-6.228685855865478516e+00,-8.152979850769042969e+00,-1.939886450767517090e+00,-7.834021568298339844e+00,-9.190305709838867188e+00,-1.146159267425537109e+01,-5.953291416168212891e+00,-9.188974380493164062e+00,-5.708298683166503906e+00,-4.756470203399658203e+00,-3.850754022598266602e+00,-5.591922760009765625e+00,-8.857222795486450195e-01,-2.583134889602661133e+00,-7.026634216308593750e+00,-7.501510143280029297e+00,-7.618625640869140625e+00,3.662300109863281250e+00,-7.268825173377990723e-02
-2.655447483062744141e+00,-8.858773112297058105e-01,-6.408433914184570312e+00,-7.864864826202392578e+00,-2.314916849136352539e+00,-7.639204025268554688e+00,-1.017690849304199219e+01,-1.042099761962890625e+01,-6.110620975494384766e+00,-8.069378852844238281e+00,-7.368563175201416016e+00,-4.264760017395019531e+00,-4.150594234466552734e+00,-4.589647293090820312e+00,-1.113775253295898438e+00,-1.778049111366271973e+00,-7.007529258728027344e+00,-7.131672859191894531e+00,-7.238096714019775391e+00,3.707202196121215820e+00,-7.544600963592529297e-02
-2.800198316574096680e+00,-5.042508840560913086e-01,-6.682418823242187500e+00,-7.516593933105468750e+00,-2.847054719924926758e+00,-7.575119018554687500e+00,-1.138325500488281250e+01,-9.311030387878417969e+00,-6.417697429656982422e+00,-6.902561664581298828e+00,-9.501405715942382812e+00,-3.822007894515991211e+00,-4.740212440490722656e+00,-3.673923730850219727e+00,-1.585084795951843262e+00,-1.112480878829956055e+00,-6.917881488800048828e+00,-6.793856143951416016e+00,-7.173851490020751953e+00,3.789381504058837891e+00,-7.738275080919265747e-02
-2.760720729827880859e+00,9.523320198059082031e-02,-6.738263130187988281e+00,-6.810553073883056641e+00,-3.214483022689819336e+00,-7.587935924530029297e+00,-1.249542522430419922e+01,-8.053188323974609375e+00,-6.487832546234130859e+00,-5.492022991180419922e+00,-1.158609962463378906e+01,-3.357969522476196289e+00,-5.249336719512939453e+00,-2.628371953964233398e+00,-1.853680610656738281e+00,-3.760102987289428711e-01,-6.482870578765869141e+00,-6.215885162353515625e+00,-7.055244922637939453e+00,3.959670543670654297e+00,-7.841428369283676147e-02
-2.358050107955932617e+00,1.041787028312683105e+00,-6.343864440917968750e+00,-5.545695304870605469e+00,-3.190410137176513672e+00,-7.605879783630371094e+00,-1.324883174896240234e+01,-6.592703819274902344e+00,-6.051859378814697266e+00,-3.738751411437988281e+00,-1.313401508331298828e+01,-2.764085531234741211e+00,-5.351966381072998047e+00,-1.293735265731811523e+00,-1.590152740478515625e+00,6.372086405754089355e-01,-5.512913227081298828e+00,-5.226450443267822266e+00,-6.565993309020996094e+00,4.193500041961669922e+00,-7.765642553567886353e-02
-1.575079083442687988e+00,2.303858757019042969e+00,-5.436398506164550781e+00,-3.691942930221557617e+00,-2.721622228622436523e+00,-7.546921730041503906e+00,-1.348202896118164062e+01,-4.907670021057128906e+00,-5.060493946075439453e+00,-1.683874011039733887e+00,-1.383664131164550781e+01,-1.904124498367309570e+00,-4.875039577484130859e+00,3.732621967792510986e-01,-6.779406666755676270e-01,2.048396110534667969e+00,-3.983025550842285156e+00,-3.822349548339843750e+00,-5.557838439941406250e+00,4.394288539886474609e+00,-7.350926101207733154e-02
-5.591906905174255371e-01,3.704157352447509766e+00,-4.131043434143066406e+00,-1.404434323310852051e+00,-1.947488427162170410e+00,-7.352103710174560547e+00,-1.310532569885253906e+01,-3.047378301620483398e+00,-3.669171094894409180e+00,4.943872094154357910e-01,-1.363156032562255859e+01,-6.759128570556640625e-01,-3.824593544006347656e+00,2.273950815200805664e+00,7.461237311363220215e-01,3.836967706680297852e+00,-2.051928758621215820e+00,-2.166887521743774414e+00,-4.090083122253417969e+00,4.434954643249511719e+00,-6.403604894876480103e-02
4.632772803306579590e-01,5.000785827636718750e+00,-2.647685289382934570e+00,1.036630153656005859e+00,-1.107471108436584473e+00,-6.985538482666015625e+00,-1.206042289733886719e+01,-1.110411167144775391e+00,-2.156533718109130859e+00,2.547741174697875977e+00,-1.266322040557861328e+01,9.482213854789733887e-01,-2.317344188690185547e+00,4.207529544830322266e+00,2.377969741821289062e+00,5.849682331085205078e+00,-2.824483625590801239e-02,-5.242334604263305664e-01,-2.345579624176025391e+00,4.219763755798339844e+00,-4.782631993293762207e-02
1.297569036483764648e+00,5.989408493041992188e+00,-1.218426227569580078e+00,3.324138641357421875e+00,-4.232939779758453369e-01,-6.454916000366210938e+00,-1.035180568695068359e+01,7.297989130020141602e-01,-7.822704911231994629e-01,4.223326683044433594e+00,-1.116523742675781250e+01,2.874619245529174805e+00,-5.162918567657470703e-01,5.948961734771728516e+00,3.903390884399414062e+00,7.857822895050048828e+00,1.755888938903808594e+00,8.494479060173034668e-01,-5.763664841651916504e-01,3.735160112380981445e+00,-2.519586123526096344e-02
1.827883839607238770e+00,6.560345649719238281e+00,-4.221065342426300049e-02,5.188972473144531250e+00,-2.038971148431301117e-02,-5.816630840301513672e+00,-8.096073150634765625e+00,2.246876955032348633e+00,2.526918947696685791e-01,5.310934066772460938e+00,-9.385490417480468750e+00,4.873389720916748047e+00,1.421600222587585449e+00,7.287060737609863281e+00,5.099402427673339844e+00,9.618947982788085938e+00,3.021242380142211914e+00,1.746023178100585938e+00,9.852854013442993164e-01,3.067559480667114258e+00,1.413349993526935577e-03
2.047641992568969727e+00,6.709089756011962891e+00,7.710185647010803223e-01,6.471243858337402344e+00,9.363979846239089966e-02,-5.168092250823974609e+00,-5.544358253479003906e+00,3.198017120361328125e+00,8.478900194168090820e-01,5.681086063385009766e+00,-7.523711681365966797e+00,6.635884284973144531e+00,3.355467557907104492e+00,8.102383613586425781e+00,5.884918212890625000e+00,1.095008468627929688e+01,3.622322082519531250e+00,2.055021524429321289e+00,2.156524419784545898e+00,2.363528966903686523e+00,2.810676768422126770e-02
2.026587486267089844e+00,6.524286746978759766e+00,1.186358809471130371e+00,7.145623683929443359e+00,7.484169676899909973e-03,-4.624652862548828125e+00,-3.077850818634033203e+00,3.398833751678466797e+00,9.635177254676818848e-01,5.292654991149902344e+00,-5.726131916046142578e+00,7.859838485717773438e+00,5.144445896148681641e+00,8.351654052734375000e+00,6.315684795379638672e+00,1.176660633087158203e+01,3.579702615737915039e+00,1.749225258827209473e+00,2.828627586364746094e+00,1.778107762336730957e+00,5.098984763026237488e-02
1.851570367813110352e+00,6.118620872497558594e+00,1.214280843734741211e+00,7.288097858428955078e+00,-1.825650185346603394e-01,-4.278594970703125000e+00,-1.127067446708679199e+00,2.772651195526123047e+00,5.635597109794616699e-01,4.186768531799316406e+00,-4.128283023834228516e+00,8.349420547485351562e+00,6.619497776031494141e+00,8.071224212646484375e+00,6.482923984527587891e+00,1.208452415466308594e+01,3.037408351898193359e+00,8.446448445320129395e-01,2.957118034362792969e+00,1.407877445220947266e+00,6.757850199937820435e-02
1.573911786079406738e+00,5.586747646331787109e+00,8.792164325714111328e-01,7.014230251312255859e+00,-4.384979307651519775e-01,-4.186312675476074219e+00,-5.974233150482177734e-02,1.383365631103515625e+00,-3.974767923355102539e-01,2.459392070770263672e+00,-2.879963636398315430e+00,8.074829101562500000e+00,7.579388141632080078e+00,7.326874732971191406e+00,6.427177429199218750e+00,1.198617553710937500e+01,2.183552026748657227e+00,-6.299012899398803711e-01,2.522227525711059570e+00,1.266393542289733887e+00,7.816745340824127197e-02
1.172556877136230469e+00,4.948199272155761719e+00,1.706948429346084595e-01,6.409504890441894531e+00,-8.122613430023193359e-01,-4.391384124755859375e+00,-9.561880677938461304e-02,-5.974161028861999512e-01,-1.966980218887329102e+00,2.430493831634521484e-01,-2.171988248825073242e+00,7.140366077423095703e+00,7.828919410705566406e+00,6.186115264892578125e+00,6.102835655212402344e+00,1.155389881134033203e+01,1.172444820404052734e+00,-2.637589454650878906e+00,1.523956537246704102e+00,1.298587560653686523e+00,8.601969480514526367e-02
5.843417048454284668e-01,4.186449050903320312e+00,-9.217546582221984863e-01,5.507165908813476562e+00,-1.417884707450866699e+00,-4.914316654205322266e+00,-1.212274074554443359e+00,-2.912283658981323242e+00,-4.120308399200439453e+00,-2.285561561584472656e+00,-2.170205116271972656e+00,5.735479354858398438e+00,7.249362945556640625e+00,4.712995052337646484e+00,5.408540725708007812e+00,1.083343887329101562e+01,7.609906792640686035e-02,-5.090363025665283203e+00,2.160782739520072937e-02,1.415502309799194336e+00,9.627182036638259888e-02
-2.407386302947998047e-01,3.256422281265258789e+00,-2.373700380325317383e+00,4.307213306427001953e+00,-2.345324754714965820e+00,-5.747419357299804688e+00,-3.180995702743530273e+00,-5.272791385650634766e+00,-6.707714557647705078e+00,-4.891859054565429688e+00,-2.944163084030151367e+00,4.087930202484130859e+00,5.882977962493896484e+00,3.013107538223266602e+00,4.278411388397216797e+00,9.868250846862792969e+00,-1.083440899848937988e+00,-7.784892082214355469e+00,-1.851386070251464844e+00,1.536653161048889160e+00,1.139972582459449768e-01
-1.289524912834167480e+00,2.168636798858642578e+00,-4.089160442352294922e+00,2.839725017547607422e+00,-3.607251405715942383e+00,-6.839425086975097656e+00,-5.616111278533935547e+00,-7.388667583465576172e+00,-9.441076278686523438e+00,-7.286423206329345703e+00,-4.413613319396972656e+00,2.406323432922363281e+00,3.943073511123657227e+00,1.256095767021179199e+00,2.803668737411499023e+00,8.715514183044433594e+00,-2.297357320785522461e+00,-1.038656139373779297e+01,-3.828160524368286133e+00,1.615443587303161621e+00,1.418064087629318237e-01
-2.463323354721069336e+00,9.922056198120117188e-01,-5.876170158386230469e+00,1.217097878456115723e+00,-5.092168807983398438e+00,-8.054473876953125000e+00,-8.109526634216308594e+00,-9.007979393005371094e+00,-1.193181037902832031e+01,-9.149369239807128906e+00,-6.377041339874267578e+00,8.630766868591308594e-01,1.767724275588989258e+00,-3.278115093708038330e-01,1.222501158714294434e+00,7.496448993682861328e+00,-3.505395174026489258e+00,-1.247910404205322266e+01,-5.572664260864257812e+00,1.639165520668029785e+00,1.782467067241668701e-01
-3.583169221878051758e+00,-1.256293505430221558e-01,-7.472961425781250000e+00,-3.517055213451385498e-01,-6.582154750823974609e+00,-9.197747230529785156e+00,-1.032938289642333984e+01,-9.962771415710449219e+00,-1.378564453125000000e+01,-1.020498847961425781e+01,-8.543766975402832031e+00,-4.332506358623504639e-01,-2.647482156753540039e-01,-1.480688214302062988e+00,-1.306134313344955444e-01,6.371158599853515625e+00,-4.562060832977294922e+00,-1.367507076263427734e+01,-6.719193458557128906e+00,1.625610113143920898e+00,2.177605479955673218e-01
-4.449043273925781250e+00,-1.019596815109252930e+00,-8.607294082641601562e+00,-1.602315664291381836e+00,-7.809872627258300781e+00,-1.004623031616210938e+01,-1.205593872070312500e+01,-1.019097137451171875e+01,-1.469739627838134766e+01,-1.028267478942871094e+01,-1.060349369049072266e+01,-1.423057198524475098e+00,-1.846454501152038574e+00,-1.996539950370788574e+00,-9.211971759796142578e-01,5.520328998565673828e+00,-5.271893501281738281e+00,-1.370869255065917969e+01,-6.951464176177978516e+00,1.606971502304077148e+00,2.522430419921875000e-01
-4.904350757598876953e+00,-1.555977225303649902e+00,-9.081968307495117188e+00,-2.313105583190917969e+00,-8.547263145446777344e+00,-1.043330287933349609e+01,-1.320398616790771484e+01,-9.761954307556152344e+00,-1.454196262359619141e+01,-9.388521194458007812e+00,-1.229764175415039062e+01,-2.108471632003784180e+00,-2.804332733154296875e+00,-1.794007658958435059e+00,-9.870791435241699219e-01,5.051457881927490234e+00,-5.462945461273193359e+00,-1.252713489532470703e+01,-6.121219158172607422e+00,1.616290807723999023e+00,2.736946344375610352e-01
-4.885927677154541016e+00,-1.685189366340637207e+00,-8.839396476745605469e+00,-2.397007226943969727e+00,-8.667627334594726562e+00,-1.030769634246826172e+01,-1.377800941467285156e+01,-8.849151611328125000e+00,-1.338379096984863281e+01,-7.706842422485351562e+00,-1.344966220855712891e+01,-2.519294500350952148e+00,-3.136370182037353516e+00,-9.509881138801574707e-01,-3.941413462162017822e-01,4.971406936645507812e+00,-5.058796405792236328e+00,-1.031131267547607422e+01,-4.292702674865722656e+00,1.675595402717590332e+00,2.765365839004516602e-01
-4.441147804260253906e+00,-1.453809618949890137e+00,-7.980793476104736328e+00,-1.942671656608581543e+00,-8.174766540527343750e+00,-9.754003524780273438e+00,-1.383630847930908203e+01,-7.680764675140380859e+00,-1.142949390411376953e+01,-5.552953720092773438e+00,-1.398287296295166016e+01,-2.691712617874145508e+00,-2.959283590316772461e+00,3.230618536472320557e-01,6.042240262031555176e-01,5.184114456176757812e+00,-4.152033329010009766e+00,-7.419857978820800781e+00,-1.732779622077941895e+00,1.791663050651550293e+00,2.591900825500488281e-01
-3.688442707061767578e+00,-9.625030755996704102e-01,-6.705105781555175781e+00,-1.163810610771179199e+00,-7.166239261627197266e+00,-8.931154251098632812e+00,-1.339682197570800781e+01,-6.453957557678222656e+00,-8.925491333007812500e+00,-3.272633790969848633e+00,-1.388300704956054688e+01,-2.625725507736206055e+00,-2.430035829544067383e+00,1.789258003234863281e+00,1.678607106208801270e+00,5.575221538543701172e+00,-2.946934700012207031e+00,-4.270637035369873047e+00,1.197788715362548828e+00,1.962799191474914551e+00,2.236550003290176392e-01
-2.769932270050048828e+00,-3.179450333118438721e-01,-5.213022232055664062e+00,-2.994648516178131104e-01,-5.800418853759765625e+00,-8.010895729064941406e+00,-1.241470336914062500e+01,-5.265488624572753906e+00,-6.074605464935302734e+00,-1.118744730949401855e+00,-1.318573188781738281e+01,-2.261732101440429688e+00,-1.659306049346923828e+00,3.276226520538330078e+00,2.600954771041870117e+00,6.092123031616210938e+00,-1.691868782043457031e+00,-1.209473133087158203e+00,4.128356933593750000e+00,2.180531978607177734e+00,1.744153201580047607e-01
-1.826419353485107422e+00,3.761944174766540527e-01,-3.675565242767333984e+00,4.793961942195892334e-01,-4.261020660400390625e+00,-7.118834972381591797e+00,-1.080474662780761719e+01,-4.093450069427490234e+00,-3.028480052947998047e+00,7.944693565368652344e-01,-1.197307872772216797e+01,-1.506073236465454102e+00,-6.953908801078796387e-01,4.733767509460449219e+00,3.325656652450561523e+00,6.762265682220458984e+00,-5.896444320678710938e-01,1.544293761253356934e+00,6.792060852050781250e+00,2.424528121948242188e+00,1.169444769620895386e-01
-9.763365387916564941e-01,1.037279605865478516e+00,-2.200932741165161133e+00,1.123697876930236816e+00,-2.731758117675781250e+00,-6.329309463500976562e+00,-8.557982444763183594e+00,-2.852038621902465820e+00,9.346690773963928223e-02,2.492903947830200195e+00,-1.038414669036865234e+01,-3.055336475372314453e-01,4.536603689193725586e-01,6.196501255035400391e+00,3.969272851943969727e+00,7.663413047790527344e+00,2.642120122909545898e-01,3.910611867904663086e+00,9.050525665283203125e+00,2.666829824447631836e+00,5.688429251313209534e-02
-3.157459199428558350e-01,1.588684678077697754e+00,-8.816167712211608887e-01,1.669850468635559082e+00,-1.383675932884216309e+00,-5.691024780273437500e+00,-5.840339183807373047e+00,-1.471881031990051270e+00,3.145279169082641602e+00,4.054244995117187500e+00,-8.606183052062988281e+00,1.293057203292846680e+00,1.755650162696838379e+00,7.709435939788818359e+00,4.704110145568847656e+00,8.834446907043457031e+00,8.623524308204650879e-01,5.891082763671875000e+00,1.087409973144531250e+01,2.869312763214111328e+00,-6.918091094121336937e-04
7.376568019390106201e-02,1.944769263267517090e+00,1.794204860925674438e-01,2.173260688781738281e+00,-3.612112402915954590e-01,-5.262938022613525391e+00,-3.028520584106445312e+00,3.789452090859413147e-02,5.916552066802978516e+00,5.537899971008300781e+00,-6.876368999481201172e+00,3.115152835845947266e+00,3.105936288833618164e+00,9.256991386413574219e+00,5.651797294616699219e+00,1.021361351013183594e+01,1.237108707427978516e+00,7.511322021484375000e+00,1.226278400421142578e+01,2.993852376937866211e+00,-5.104721337556838989e-02
1.421933919191360474e-01,2.039424657821655273e+00,8.530395030975341797e-01,2.646592855453491211e+00,2.330092042684555054e-01,-5.132205009460449219e+00,-6.158276796340942383e-01,1.582356572151184082e+00,8.160865783691406250e+00,6.939298629760742188e+00,-5.399785518646240234e+00,4.898933410644531250e+00,4.335481643676757812e+00,1.072491836547851562e+01,6.761655330657958984e+00,1.160879135131835938e+01,1.400237917900085449e+00,8.779335975646972656e+00,1.321163558959960938e+01,3.002324342727661133e+00,-8.997160196304321289e-02
-1.170423701405525208e-01,1.841099023818969727e+00,1.024061918258666992e+00,3.036023378372192383e+00,3.698446154594421387e-01,-5.385980606079101562e+00,9.627372026443481445e-01,3.013631105422973633e+00,9.641279220581054688e+00,8.191417694091796875e+00,-4.319097518920898438e+00,6.357035636901855469e+00,5.259149551391601562e+00,1.193145751953125000e+01,7.866445541381835938e+00,1.275237941741943359e+01,1.319408059120178223e+00,9.687118530273437500e+00,1.369594573974609375e+01,2.883715152740478516e+00,-1.142440885305404663e-01
-6.670959591865539551e-01,1.361812353134155273e+00,6.191924810409545898e-01,3.243402957916259766e+00,7.970286160707473755e-02,-6.075533866882324219e+00,1.478461503982543945e+00,4.182018280029296875e+00,1.019477558135986328e+01,9.201339721679687500e+00,-3.664621591567993164e+00,7.282983303070068359e+00,5.728026866912841797e+00,1.267580699920654297e+01,8.733046531677246094e+00,1.336991691589355469e+01,9.226073622703552246e-01,1.019624519348144531e+01,1.366135215759277344e+01,2.648191213607788086e+00,-1.224121078848838806e-01
-1.426380395889282227e+00,6.691753268241882324e-01,-3.231761157512664795e-01,3.211741924285888672e+00,-5.461924672126770020e-01,-7.162412643432617188e+00,1.025521039962768555e+00,4.988935947418212891e+00,9.798608779907226562e+00,9.903561592102050781e+00,-3.377508163452148438e+00,7.606533050537109375e+00,5.693817138671875000e+00,1.282467746734619141e+01,9.173949241638183594e+00,1.328300380706787109e+01,1.657466441392898560e-01,1.029390716552734375e+01,1.308314609527587891e+01,2.335571050643920898e+00,-1.156124398112297058e-01
-2.292254209518432617e+00,-1.316392123699188232e-01,-1.658198237419128418e+00,2.952121734619140625e+00,-1.376073956489562988e+00,-8.510757446289062500e+00,-5.974233150482177734e-02,5.390569210052490234e+00,8.579779624938964844e+00,1.026457405090332031e+01,-3.341841936111450195e+00,7.383028507232666016e+00,5.212865829467773438e+00,1.234517765045166016e+01,9.138474464416503906e+00,1.245047187805175781e+01,-9.276598691940307617e-01,9.984909057617187500e+00,1.200086116790771484e+01,2.006006956100463867e+00,-9.786595404148101807e-02
-3.155496120452880859e+00,-9.384636282920837402e-01,-3.160752773284912109e+00,2.556359052658081055e+00,-2.271839141845703125e+00,-9.900116920471191406e+00,-1.324388027191162109e+00,5.385092258453369141e+00,6.784707069396972656e+00,1.029199314117431641e+01,-3.436357498168945312e+00,6.748700618743896484e+00,4.424025058746337891e+00,1.130308723449707031e+01,8.712775230407714844e+00,1.097981739044189453e+01,-2.232693433761596680e+00,9.315679550170898438e+00,1.050345516204833984e+01,1.722191929817199707e+00,-7.494077086448669434e-02
-3.905569076538085938e+00,-1.646125316619873047e+00,-4.555109024047851562e+00,2.182759046554565430e+00,-3.094118595123291016e+00,-1.108696842193603516e+01,-2.373775005340576172e+00,4.999889373779296875e+00,4.741320133209228516e+00,1.003151607513427734e+01,-3.555839538574218750e+00,5.867453575134277344e+00,3.526517152786254883e+00,9.859395027160644531e+00,8.114769935607910156e+00,9.083748817443847656e+00,-3.531848430633544922e+00,8.393487930297851562e+00,8.768835067749023438e+00,1.526486754417419434e+00,-5.283660069108009338e-02
-4.447727203369140625e+00,-2.176495790481567383e+00,-5.596950054168701172e+00,1.969047069549560547e+00,-3.723814964294433594e+00,-1.185855007171630859e+01,-3.006097793579101562e+00,4.309810638427734375e+00,2.777545213699340820e+00,9.544073104858398438e+00,-3.618255376815795898e+00,4.890419006347656250e+00,2.731639385223388672e+00,8.225287437438964844e+00,7.582646369934082031e+00,7.041301250457763672e+00,-4.569408893585205078e+00,7.368830680847167969e+00,7.004563808441162109e+00,1.427363276481628418e+00,-3.620584309101104736e-02
-4.710910797119140625e+00,-2.475486755371093750e+00,-6.115252494812011719e+00,1.972213149070739746e+00,-4.065903186798095703e+00,-1.208669185638427734e+01,-3.221356630325317383e+00,3.402484893798828125e+00,1.173922181129455566e+00,8.886024475097656250e+00,-3.561189413070678711e+00,3.941056013107299805e+00,2.218490362167358398e+00,6.603297233581542969e+00,7.364728927612304688e+00,5.126935005187988281e+00,-5.132277965545654297e+00,6.401810169219970703e+00,5.423144340515136719e+00,1.398558139801025391e+00,-2.736417390406131744e-02
-4.655642032623291016e+00,-2.504033565521240234e+00,-6.043702602386474609e+00,2.149514913558959961e+00,-4.064636230468750000e+00,-1.175601387023925781e+01,-3.145119190216064453e+00,2.409355640411376953e+00,1.370642185211181641e-01,8.112208366394042969e+00,-3.334708690643310547e+00,3.149210691452026367e+00,2.117872953414916992e+00,5.178646564483642578e+00,7.628256797790527344e+00,3.599101305007934570e+00,-5.102885723114013672e+00,5.618907928466796875e+00,4.207427978515625000e+00,1.388391613960266113e+00,-2.626949176192283630e-02
-4.287185192108154297e+00,-2.253121614456176758e+00,-5.415456771850585938e+00,2.366392850875854492e+00,-3.713678836822509766e+00,-1.097417926788330078e+01,-2.911922216415405273e+00,1.489250659942626953e+00,-2.325651943683624268e-01,7.278985500335693359e+00,-2.906713485717773438e+00,2.655371665954589844e+00,2.512293338775634766e+00,4.082894325256347656e+00,8.423908233642578125e+00,2.649923324584960938e+00,-4.491518497467041016e+00,5.087367057800292969e+00,3.480963230133056641e+00,1.348572850227355957e+00,-3.100609965622425079e-02
-3.664756298065185547e+00,-1.746790528297424316e+00,-4.354419708251953125e+00,2.450294494628906250e+00,-3.064977645874023438e+00,-9.933441162109375000e+00,-2.580064773559570312e+00,7.809158563613891602e-01,5.555619671940803528e-02,6.435099601745605469e+00,-2.257587432861328125e+00,2.589384555816650391e+00,3.397727012634277344e+00,3.369703054428100586e+00,9.690869331359863281e+00,2.361739158630371094e+00,-3.428974151611328125e+00,4.797581195831298828e+00,3.268460035324096680e+00,1.250296592712402344e+00,-3.866887837648391724e-02
-2.901524066925048828e+00,-1.064670801162719727e+00,-3.066515684127807617e+00,2.239748716354370117e+00,-2.230028152465820312e+00,-8.885013580322265625e+00,-2.122639656066894531e+00,3.756314814090728760e-01,8.820096850395202637e-01,5.609493255615234375e+00,-1.405163526535034180e+00,3.038522481918334961e+00,4.697704315185546875e+00,2.999259233474731445e+00,1.120615482330322266e+01,2.677369594573974609e+00,-2.145985126495361328e+00,4.667897701263427734e+00,3.485905170440673828e+00,1.083396434783935547e+00,-4.631060734391212463e-02
-2.138291835784912109e+00,-3.164425790309906006e-01,-1.785592555999755859e+00,1.636606454849243164e+00,-1.349467039108276367e+00,-8.059600830078125000e+00,-1.499285936355590820e+00,2.624439597129821777e-01,2.036390781402587891e+00,4.800642013549804688e+00,-4.082914292812347412e-01,3.975113868713378906e+00,6.247212886810302734e+00,2.843465089797973633e+00,1.267076206207275391e+01,3.395542621612548828e+00,-9.129635691642761230e-01,4.578240394592285156e+00,3.960331201553344727e+00,8.639693856239318848e-01,-5.167876183986663818e-02
-1.479017138481140137e+00,3.927215337753295898e-01,-7.088491916656494141e-01,6.392843127250671387e-01,-5.347895026206970215e-01,-7.618696689605712891e+00,-7.458798885345458984e-01,3.336425721645355225e-01,3.285548686981201172e+00,3.981128454208374023e+00,6.456467509269714355e-01,5.239511966705322266e+00,7.847030639648437500e+00,2.729216098785400391e+00,1.375528049468994141e+01,4.230361938476562500e+00,4.670641571283340454e-02,4.426142692565917969e+00,4.484176158905029297e+00,6.275981664657592773e-01,-5.378391966223716736e-02
-9.355431199073791504e-01,1.017747521400451660e+00,7.820311188697814941e-02,-6.255733370780944824e-01,1.962663680315017700e-01,-7.587935924530029297e+00,6.134077534079551697e-02,4.322252571582794189e-01,4.458885192871093750e+00,3.140289306640625000e+00,1.704934954643249512e+00,6.574154376983642578e+00,9.316044807434082031e+00,2.516297340393066406e+00,1.423672580718994141e+01,4.891355514526367188e+00,6.448467969894409180e-01,4.214807033538818359e+00,4.928950786590576172e+00,4.242680370807647705e-01,-5.292080715298652649e-02
-4.131238460540771484e-01,1.600704431533813477e+00,6.453694105148315430e-01,-1.918925881385803223e+00,9.209872484207153320e-01,-7.872472763061523438e+00,8.416541218757629395e-01,4.249228239059448242e-01,5.507116317749023438e+00,2.328391790390014648e+00,2.773139476776123047e+00,7.687420845031738281e+00,1.055967712402343750e+01,2.151046514511108398e+00,1.407962322235107422e+01,5.188688755035400391e+00,9.622874259948730469e-01,4.075517654418945312e+00,5.294653892517089844e+00,3.082004189491271973e-01,-5.024725198745727539e-02
2.422031313180923462e-01,2.249769926071166992e+00,1.168907523155212402e+00,-2.946326017379760742e+00,1.776208639144897461e+00,-8.290306091308593750e+00,1.568152785301208496e+00,2.788743972778320312e-01,6.477630615234375000e+00,1.664250612258911133e+00,3.889493703842163086e+00,8.377092361450195312e+00,1.157390117645263672e+01,1.697512507438659668e+00,1.343600654602050781e+01,5.083478450775146484e+00,1.213594555854797363e+00,4.218008995056152344e+00,5.704834461212158203e+00,3.234501779079437256e-01,-4.727897793054580688e-02
1.169925093650817871e+00,3.077628850936889648e+00,1.872193694114685059e+00,-3.432322502136230469e+00,2.875959873199462891e+00,-8.638927459716796875e+00,2.335012435913085938e+00,7.988344132900238037e-02,7.491742134094238281e+00,1.319993972778320312e+00,5.100363731384277344e+00,8.602725982666015625e+00,1.242512416839599609e+01,1.316682338714599609e+00,1.257954120635986328e+01,4.701519966125488281e+00,1.655953884124755859e+00,4.853617191314697266e+00,6.357170104980468750e+00,4.903503060340881348e-01,-4.530012980103492737e-02
2.426626443862915039e+00,4.162409305572509766e+00,2.914034605026245117e+00,-3.201197147369384766e+00,4.250648975372314453e+00,-8.759407043457031250e+00,3.303677320480346680e+00,6.859229877591133118e-03,8.649913787841796875e+00,1.455564022064208984e+00,6.393265724182128906e+00,8.485651969909667969e+00,1.317774295806884766e+01,1.192046999931335449e+00,1.175854969024658203e+01,4.260095119476318359e+00,2.473069429397583008e+00,6.081604957580566406e+00,7.390035152435302734e+00,8.004287481307983398e-01,-4.500540718436241150e-02
3.950459003448486328e+00,5.495097160339355469e+00,4.322351932525634766e+00,-2.237119197845458984e+00,5.807785511016845703e+00,-8.554335594177246094e+00,4.631106853485107422e+00,2.624439597129821777e-01,9.955938339233398438e+00,2.162356615066528320e+00,7.666551589965820312e+00,8.266404151916503906e+00,1.383980560302734375e+01,1.451703906059265137e+00,1.109973049163818359e+01,3.960475206375122070e+00,3.704621553421020508e+00,7.834729671478271484e+00,8.783660888671875000e+00,1.210477828979492188e+00,-4.635271057486534119e-02
5.561141967773437500e+00,6.975026607513427734e+00,5.948810577392578125e+00,-7.158071994781494141e-01,7.347183704376220703e+00,-8.013459205627441406e+00,6.317301273345947266e+00,9.598251581192016602e-01,1.126385784149169922e+01,3.390103816986083984e+00,8.722272872924804688e+00,8.168487548828125000e+00,1.432276916503906250e+01,2.086997985839843750e+00,1.053719997406005859e+01,3.903295755386352539e+00,5.203646659851074219e+00,9.868034362792968750e+00,1.030577754974365234e+01,1.646790385246276855e+00,-4.860522970557212830e-02
6.996808052062988281e+00,8.397862434387207031e+00,7.508954048156738281e+00,1.019216537475585938e+00,8.600241661071777344e+00,-7.205990314483642578e+00,8.138031959533691406e+00,2.069793224334716797e+00,1.230071544647216797e+01,4.946875095367431641e+00,9.300065994262695312e+00,8.317490577697753906e+00,1.446162128448486328e+01,2.938672542572021484e+00,9.858108520507812500e+00,4.017654418945312500e+00,6.676218032836914062e+00,1.181008052825927734e+01,1.163515853881835938e+01,2.019562244415283203e+00,-5.058407783508300781e-02
8.000853538513183594e+00,9.526214599609375000e+00,8.662483215332031250e+00,2.540528535842895508e+00,9.322428703308105469e+00,-6.260097980499267578e+00,9.694174766540527344e+00,3.397008180618286133e+00,1.276701736450195312e+01,6.543251037597656250e+00,9.182367324829101562e+00,8.668712615966796875e+00,1.408933734893798828e+01,3.750533342361450195e+00,8.819200515747070312e+00,4.116003036499023438e+00,7.784320831298828125e+00,1.328462600708007812e+01,1.244069385528564453e+01,2.254239082336425781e+00,-5.123667791485786438e-02
8.382469177246093750e+00,1.014823532104492188e+01,9.130177497863769531e+00,3.442867517471313477e+00,9.370573997497558594e+00,-5.355220317840576172e+00,1.054175567626953125e+01,4.651198863983154297e+00,1.246373176574707031e+01,7.871533393859863281e+00,8.267527580261230469e+00,9.032706260681152344e+00,1.312340927124023438e+01,4.266385078430175781e+00,7.344457626342773438e+00,3.976485490798950195e+00,8.248724937438964844e+00,1.401629543304443359e+01,1.255435848236083984e+01,2.321168661117553711e+00,-5.014199763536453247e-02
8.070596694946289062e+00,1.011818599700927734e+01,8.768936157226562500e+00,3.453948736190795898e+00,8.725673675537109375e+00,-4.678484439849853516e+00,1.036685848236083984e+01,5.551222324371337891e+00,1.137190341949462891e+01,8.710849761962890625e+00,6.635796070098876953e+00,9.147651672363281250e+00,1.162622165679931641e+01,4.335627079010009766e+00,5.525101184844970703e+00,3.475593805313110352e+00,7.945980548858642578e+00,1.390582466125488281e+01,1.205028057098388672e+01,2.242378234863281250e+00,-4.772106185555458069e-02
7.117872714996337891e+00,9.407519340515136719e+00,7.604936122894287109e+00,2.499369144439697266e+00,7.508091926574707031e+00,-4.411891460418701172e+00,9.120150566101074219e+00,5.918169021606445312e+00,9.664025306701660156e+00,8.975896835327148438e+00,4.538619995117187500e+00,8.794301033020019531e+00,9.792971611022949219e+00,3.935755252838134766e+00,3.614523887634277344e+00,2.590456724166870117e+00,6.904011249542236328e+00,1.301725482940673828e+01,1.118544197082519531e+01,2.090727806091308594e+00,-4.492120072245597839e-02
5.679574489593505859e+00,8.106383323669433594e+00,5.803965091705322266e+00,7.073554992675781250e-01,5.921814918518066406e+00,-4.665667057037353516e+00,7.075191497802734375e+00,5.717352390289306641e+00,7.624429702758789062e+00,8.704756736755371094e+00,2.323744535446166992e+00,7.874738693237304688e+00,7.887277603149414062e+00,3.170632839202880859e+00,1.921863675117492676e+00,1.423997163772583008e+00,5.277128219604492188e+00,1.153470325469970703e+01,1.029095172882080078e+01,1.964493632316589355e+00,-4.287919774651527405e-02
3.987304687500000000e+00,6.413104057312011719e+00,3.633026838302612305e+00,-1.635559797286987305e+00,4.217707157135009766e+00,-5.452629089355468750e+00,4.662498950958251953e+00,5.040052890777587891e+00,5.565877914428710938e+00,8.022336006164550781e+00,3.442668020725250244e-01,6.427279949188232422e+00,6.162694454193115234e+00,2.201246976852416992e+00,6.701060533523559570e-01,1.477529853582382202e-01,3.290185213088989258e+00,9.666304588317871094e+00,9.638615608215332031e+00,1.957715988159179688e+00,-4.224764928221702576e-02
2.295034646987915039e+00,4.593617439270019531e+00,1.381813049316406250e+00,-4.181105613708496094e+00,2.627629041671752930e+00,-6.677931308746337891e+00,2.384342432022094727e+00,4.032318592071533203e+00,3.723417520523071289e+00,7.036787509918212891e+00,-1.151933073997497559e+00,4.615827083587646484e+00,4.772161483764648438e+00,1.174736618995666504e+00,-5.966360121965408325e-02,-1.059875845909118652e+00,1.175384163856506348e+00,7.572161197662353516e+00,9.302564620971679688e+00,2.131393909454345703e+00,-4.300550743937492371e-02
8.106795549392700195e-01,2.903342723846435547e+00,-7.088491916656494141e-01,-6.614254951477050781e+00,1.315022587776184082e+00,-8.154445648193359375e+00,5.905187726020812988e-01,2.818291425704956055e+00,2.182347059249877930e+00,5.798377037048339844e+00,-2.084605932235717773e+00,2.655371665954589844e+00,3.743850946426391602e+00,1.811160594224929810e-01,-3.333272039890289307e-01,-2.050223112106323242e+00,-8.776923418045043945e-01,5.319516181945800781e+00,9.248203277587890625e+00,2.495693683624267578e+00,-4.437385872006416321e-02
-3.236414492130279541e-01,1.545113205909729004e+00,-2.466192007064819336e+00,-8.714962959289550781e+00,3.533736765384674072e-01,-9.643777847290039062e+00,-5.844357609748840332e-01,1.474645853042602539e+00,8.933829069137573242e-01,4.290350437164306641e+00,-2.541134119033813477e+00,7.523886561393737793e-01,2.999281883239746094e+00,-7.415315508842468262e-01,-2.775809168815612793e-01,-2.692919492721557617e+00,-2.723550558090209961e+00,2.914772987365722656e+00,9.351984024047851562e+00,3.009102106094360352e+00,-4.525802657008171082e-02
-1.073714494705200195e+00,6.030668020248413086e-01,-3.829136371612548828e+00,-1.040091228485107422e+01,-2.788566052913665771e-01,-1.092803764343261719e+01,-1.266088843345642090e+00,3.241770341992378235e-02,-2.818491160869598389e-01,2.479194402694702148e+00,-2.714115619659423828e+00,-9.313468337059020996e-01,2.403626441955566406e+00,-1.570702672004699707e+00,1.128622610121965408e-02,-2.889616489410400391e+00,-4.259316444396972656e+00,3.499273955821990967e-01,9.435997009277343750e+00,3.587745666503906250e+00,-4.481594264507293701e-02
-1.517178654670715332e+00,2.010988630354404449e-02,-4.832584381103515625e+00,-1.169584846496582031e+01,-6.880958676338195801e-01,-1.185855007171630859e+01,-1.750421166419982910e+00,-1.495613932609558105e+00,-1.502573966979980469e+00,3.496775627136230469e-01,-2.828247547149658203e+00,-2.312818765640258789e+00,1.814008235931396484e+00,-2.280431509017944336e+00,4.724600911140441895e-01,-2.569411993026733398e+00,-5.454127788543701172e+00,-2.362212657928466797e+00,9.450822830200195312e+00,4.127417564392089844e+00,-4.283709451556205750e-02
-1.798785090446472168e+00,-3.479943573474884033e-01,-5.588224411010742188e+00,-1.270741748809814453e+01,-1.013713479042053223e+00,-1.240198898315429688e+01,-2.355836629867553711e+00,-3.078413724899291992e+00,-2.884419441223144531e+00,-2.046409845352172852e+00,-3.049378395080566406e+00,-3.383512735366821289e+00,1.127797245979309082e+00,-2.829173088073730469e+00,1.095804929733276367e+00,-1.718582510948181152e+00,-6.337376594543457031e+00,-5.151202201843261719e+00,9.356925964355468750e+00,4.538313865661621094e+00,-3.982671722769737244e-02
-2.072495937347412109e+00,-6.740295290946960449e-01,-6.232176303863525391e+00,-1.355118370056152344e+01,-1.382408857345581055e+00,-1.261731433868408203e+01,-3.257233142852783203e+00,-4.655736446380615234e+00,-4.457714080810546875e+00,-4.578067302703857422e+00,-3.461323976516723633e+00,-4.166843414306640625e+00,3.087712526321411133e-01,-3.175382375717163086e+00,1.835710287094116211e+00,-4.011692106723785400e-01,-7.001650810241699219e+00,-7.885756492614746094e+00,9.154306411743164062e+00,4.767060279846191406e+00,-3.656372055411338806e-02
-2.446216583251953125e+00,-1.091715216636657715e+00,-6.879618167877197266e+00,-1.432687854766845703e+01,-1.876536726951599121e+00,-1.261731433868408203e+01,-4.432187557220458984e+00,-6.145430564880371094e+00,-6.167486667633056641e+00,-7.092968940734863281e+00,-4.039117336273193359e+00,-4.698997497558593750e+00,-6.128845810890197754e-01,-3.317328214645385742e+00,2.600954771041870117e+00,1.222725629806518555e+00,-7.582155227661132812e+00,-1.040097045898437500e+01,8.842964172363281250e+00,4.811115264892578125e+00,-3.349018841981887817e-02
-2.960740327835083008e+00,-1.658144950866699219e+00,-7.589885234832763672e+00,-1.509782409667968750e+01,-2.513834953308105469e+00,-1.252503204345703125e+01,-5.634049892425537109e+00,-7.489076137542724609e+00,-7.898110866546630859e+00,-9.429649353027343750e+00,-4.698943138122558594e+00,-5.020418643951416016e+00,-1.554663896560668945e+00,-3.303479909896850586e+00,3.224299669265747070e+00,2.917522907257080078e+00,-8.231733322143554688e+00,-1.253353881835937500e+01,8.408073425292968750e+00,4.713686466217041016e+00,-3.054296411573886871e-02
-3.617383241653442383e+00,-2.389846086502075195e+00,-8.392643928527832031e+00,-1.592576026916503906e+01,-3.279099702835083008e+00,-1.246863746643066406e+01,-6.571322441101074219e+00,-8.704929351806640625e+00,-9.530166625976562500e+00,-1.152108478546142578e+01,-5.344502925872802734e+00,-5.188579559326171875e+00,-2.428023338317871094e+00,-3.251548528671264648e+00,3.503031253814697266e+00,4.404187202453613281e+00,-9.082650184631347656e+00,-1.419540500640869141e+01,7.805157661437988281e+00,4.548480510711669922e+00,-2.740627713501453400e-02
-4.389826774597167969e+00,-3.283813476562500000e+00,-9.293128967285156250e+00,-1.687559127807617188e+01,-4.133054256439208984e+00,-1.254810237884521484e+01,-7.015294075012207031e+00,-9.891571998596191406e+00,-1.095750522613525391e+01,-1.339164733886718750e+01,-5.900896549224853516e+00,-5.297138690948486328e+00,-3.168567895889282227e+00,-3.312134981155395508e+00,3.295249462127685547e+00,5.433416366577148438e+00,-1.022308444976806641e+01,-1.537856388092041016e+01,7.034215450286865234e+00,4.393441200256347656e+00,-2.397486940026283264e-02
-5.233329772949218750e+00,-4.319012641906738281e+00,-1.026690959930419922e+01,-1.799005889892578125e+01,-5.012348175048828125e+00,-1.282494926452636719e+01,-6.956994533538818359e+00,-1.115854263305664062e+01,-1.210430431365966797e+01,-1.511902427673339844e+01,-6.319975376129150391e+00,-5.480199813842773438e+00,-3.750136613845825195e+00,-3.609874963760375977e+00,2.575615644454956055e+00,5.851969718933105469e+00,-1.163687133789062500e+01,-1.612944602966308594e+01,6.129841327667236328e+00,4.304484367370605469e+00,-2.054345980286598206e-02
-6.087360382080078125e+00,-5.457882404327392578e+00,-1.125465202331542969e+01,-1.926758003234863281e+01,-5.837162017822265625e+00,-1.330430412292480469e+01,-6.557868957519531250e+00,-1.256608390808105469e+01,-1.290611553192138672e+01,-1.674891090393066406e+01,-6.571422100067138672e+00,-5.859093666076660156e+00,-4.170717716217041016e+00,-4.174196243286132812e+00,1.501232504844665527e+00,5.652985095977783203e+00,-1.319762039184570312e+01,-1.649768257141113281e+01,5.190873146057128906e+00,4.302790164947509766e+00,-1.774359680712223053e-02
-6.844013214111328125e+00,-6.605766773223876953e+00,-1.214466667175292969e+01,-2.060209274291992188e+01,-6.494731903076171875e+00,-1.391182804107666016e+01,-6.082505702972412109e+00,-1.403752231597900391e+01,-1.328522300720214844e+01,-1.823256683349609375e+01,-6.623138427734375000e+00,-6.501935958862304688e+00,-4.408174991607666016e+00,-4.908159732818603516e+00,3.609675168991088867e-01,4.987417221069335938e+00,-1.467754077911376953e+01,-1.646886444091796875e+01,4.390279769897460938e+00,4.373108386993408203e+00,-1.635419204831123352e-02
-7.346693515777587891e+00,-7.597394466400146484e+00,-1.275546073913574219e+01,-2.177355003356933594e+01,-6.845689296722412109e+00,-1.449884510040283203e+01,-5.696833610534667969e+00,-1.534465503692626953e+01,-1.313926696777343750e+01,-1.940395355224609375e+01,-6.419840812683105469e+00,-7.359767913818359375e+00,-4.408174991607666016e+00,-5.591922760009765625e+00,-4.954982399940490723e-01,4.134300708770751953e+00,-1.579887008666992188e+01,-1.595333290100097656e+01,3.955389261245727539e+00,4.477314949035644531e+00,-1.656470820307731628e-02
-7.429596424102783203e+00,-8.223922729492187500e+00,-1.288285541534423828e+01,-2.250491905212402344e+01,-6.762067794799804688e+00,-1.487053680419921875e+01,-5.405337333679199219e+00,-1.618991088867187500e+01,-1.235451507568359375e+01,-2.003001213073730469e+01,-5.920513153076171875e+00,-8.281458854675292969e+00,-4.086198806762695312e+00,-5.969290733337402344e+00,-7.894332408905029297e-01,3.395542621612548828e+00,-1.630295372009277344e+01,-1.483261394500732422e+01,4.064111709594726562e+00,4.575591087341308594e+00,-1.808042265474796295e-02
-6.967709541320800781e+00,-8.300548553466796875e+00,-1.236106204986572266e+01,-2.252866554260253906e+01,-6.174182415008544922e+00,-1.484233951568603516e+01,-5.033118724822998047e+00,-1.628849411010742188e+01,-1.088357925415039062e+01,-1.989596557617187500e+01,-5.119805335998535156e+00,-9.037117958068847656e+00,-3.381876707077026367e+00,-5.830807209014892578e+00,-3.992092013359069824e-01,3.009010076522827148e+00,-1.603254127502441406e+01,-1.303946304321289062e+01,4.825170040130615234e+00,4.633201599121093750e+00,-2.018558233976364136e-02
-5.967611789703369141e+00,-7.755153179168701172e+00,-1.116215991973876953e+01,-2.170389556884765625e+01,-5.128911972045898438e+00,-1.431684398651123047e+01,-4.373888492584228516e+00,-1.549435520172119141e+01,-8.794698715209960938e+00,-1.891041755676269531e+01,-4.112233161926269531e+00,-9.405368804931640625e+00,-2.339479923248291016e+00,-5.126271247863769531e+00,5.535455942153930664e-01,3.052466392517089844e+00,-1.498028469085693359e+01,-1.065553379058837891e+01,6.159492969512939453e+00,4.623882293701171875e+00,-2.203812263906002045e-02
-4.583266735076904297e+00,-6.674880027770996094e+00,-9.441464424133300781e+00,-2.009076690673828125e+01,-3.803635597229003906e+00,-1.330943012237548828e+01,-3.360378026962280273e+00,-1.386591529846191406e+01,-6.351353645324707031e+00,-1.716628456115722656e+01,-3.097527980804443359e+00,-9.258493423461914062e+00,-1.146157026290893555e+00,-4.013208866119384766e+00,1.759692668914794922e+00,3.400117158889770508e+00,-1.331813049316406250e+01,-7.949797630310058594e+00,7.800215721130371094e+00,4.518828392028808594e+00,-2.309070155024528503e-02
-3.055486440658569336e+00,-5.255049228668212891e+00,-7.483432292938232422e+00,-1.790932273864746094e+01,-2.432747364044189453e+00,-1.195083141326904297e+01,-2.136093378067016602e+00,-1.164050197601318359e+01,-3.919381856918334961e+00,-1.491338443756103516e+01,-2.316436767578125000e+00,-8.598622322082519531e+00,-9.772325307130813599e-02,-2.787628173828125000e+00,2.813804388046264648e+00,3.788936853408813477e+00,-1.132089996337890625e+01,-5.304900646209716797e+00,9.371751785278320312e+00,4.296859741210937500e+00,-2.319595962762832642e-02
-1.613240718841552734e+00,-3.716523885726928711e+00,-5.593459606170654297e+00,-1.547459030151367188e+01,-1.211364626884460449e+00,-1.043073940277099609e+01,-1.001499772071838379e+00,-9.166807174682617188e+00,-1.862725734710693359e+00,-1.248378467559814453e+01,-1.952640771865844727e+00,-7.570501327514648438e+00,5.140308141708374023e-01,-1.788814425468444824e+00,3.386470794677734375e+00,3.919306039810180664e+00,-9.282520294189453125e+00,-3.085876941680908203e+00,1.049357128143310547e+01,3.957976102828979492e+00,-2.256441116333007812e-02
-3.881213963031768799e-01,-2.221569776535034180e+00,-3.993178367614746094e+00,-1.306518745422363281e+01,-2.294438183307647705e-01,-8.920900344848632812e+00,-2.570629417896270752e-01,-6.791694641113281250e+00,-4.126410782337188721e-01,-1.017452335357666016e+01,-2.057856321334838867e+00,-6.397633552551269531e+00,5.321419835090637207e-01,-1.255652189254760742e+00,3.310453176498413086e+00,3.576229572296142578e+00,-7.423435211181640625e+00,-1.492854952812194824e+00,1.092846107482910156e+01,3.527593851089477539e+00,-2.153288386762142181e-02
6.290829181671142578e-01,-8.272811174392700195e-01,-2.748902559280395508e+00,-1.085049915313720703e+01,5.522918701171875000e-01,-7.541794776916503906e+00,-5.525777116417884827e-02,-4.768924236297607422e+00,4.024392068386077881e-01,-8.176006317138671875e+00,-2.507251262664794922e+00,-5.318425178527832031e+00,6.918892264366149902e-03,-1.267769575119018555e+00,2.651633262634277344e+00,2.693379640579223633e+00,-5.847989082336425781e+00,-4.954149723052978516e-01,1.065665531158447266e+01,3.060781955718994141e+00,-2.033294364809989929e-02
1.544961571693420410e+00,4.813670516014099121e-01,-1.789082765579223633e+00,-8.852688789367675781e+00,1.256740808486938477e+00,-6.336999893188476562e+00,-3.198467791080474854e-01,-3.217159748077392578e+00,7.493221759796142578e-01,-6.546118736267089844e+00,-3.058295011520385742e+00,-4.518065452575683594e+00,-8.100947737693786621e-01,-1.729958891868591309e+00,1.643132209777832031e+00,1.350807547569274902e+00,-4.569408893585205078e+00,1.257835924625396729e-01,9.856060981750488281e+00,2.622774839401245117e+00,-1.888038404285907745e-02
2.492422342300415039e+00,1.758463382720947266e+00,-9.671279788017272949e-01,-7.003685474395751953e+00,2.019471645355224609e+00,-5.301388740539550781e+00,-7.952100634574890137e-01,-2.136401414871215820e+00,8.971739411354064941e-01,-5.242208480834960938e+00,-3.439924001693725586e+00,-4.094470500946044922e+00,-1.568750381469726562e+00,-2.450074195861816406e+00,5.940883755683898926e-01,-2.708002030849456787e-01,-3.542135953903198242e+00,6.717338562011718750e-01,8.818254470825195312e+00,2.272877693176269531e+00,-1.721730828285217285e-02
3.546472311019897461e+00,3.022037506103515625e+00,-1.783305555582046509e-01,-5.216421127319335938e+00,2.910168647766113281e+00,-4.422144889831542969e+00,-1.216758608818054199e+00,-1.453624963760375977e+00,1.086727499961853027e+00,-4.194205760955810547e+00,-3.473807096481323242e+00,-4.047641277313232422e+00,-1.989331245422363281e+00,-3.229044914245605469e+00,-2.319703251123428345e-01,-1.972459077835083008e+00,-2.736777305603027344e+00,1.369781732559204102e+00,7.829867362976074219e+00,2.039047956466674805e+00,-1.538581959903240204e-02
4.666317939758300781e+00,4.221005916595458984e+00,5.842899680137634277e-01,-3.470315694808959961e+00,3.883220672607421875e+00,-3.699267864227294922e+00,-1.458924889564514160e+00,-1.077550292015075684e+00,1.408968567848205566e+00,-3.353366613388061523e+00,-3.152810573577880859e+00,-4.305203914642333984e+00,-1.969207763671875000e+00,-3.943966865539550781e+00,-7.134155631065368652e-01,-3.598641157150268555e+00,-2.166559934616088867e+00,2.272761106491088867e+00,7.063867092132568359e+00,1.902647376060485840e+00,-1.338591799139976501e-02
5.716420173645019531e+00,5.242682933807373047e+00,1.221261262893676758e+00,-1.831858038902282715e+00,4.808126449584960938e+00,-3.150701522827148438e+00,-1.584492564201354980e+00,-9.369786977767944336e-01,1.799448847770690918e+00,-2.715120792388916016e+00,-2.608900070190429688e+00,-4.752213001251220703e+00,-1.617046713829040527e+00,-4.544640064239501953e+00,-8.806544542312622070e-01,-5.044136047363281250e+00,-1.874103188514709473e+00,3.271802186965942383e+00,6.520254135131835938e+00,1.813690543174743652e+00,-1.121760439127683640e-02
6.536237239837646484e+00,5.966871738433837891e+00,1.610424637794494629e+00,-4.213597476482391357e-01,5.532847404479980469e+00,-2.812333583831787109e+00,-1.750421166419982910e+00,-9.807932376861572266e-01,2.102734565734863281e+00,-2.274898767471313477e+00,-2.013273477554321289e+00,-5.273724079132080078e+00,-1.146157026290893555e+00,-5.012022495269775391e+00,-8.553152084350585938e-01,-6.226606369018554688e+00,-1.881451249122619629e+00,4.208403110504150391e+00,6.119957447052001953e+00,1.722191929817199707e+00,-8.838774636387825012e-03
6.995492458343505859e+00,6.300418853759765625e+00,1.678484559059143066e+00,6.519487500190734863e-01,5.949688911437988281e+00,-2.702107667922973633e+00,-2.073309421539306641e+00,-1.187086582183837891e+00,2.193720340728759766e+00,-2.022037744522094727e+00,-1.478279471397399902e+00,-5.786720752716064453e+00,-7.617984414100646973e-01,-5.314955711364746094e+00,-7.488904595375061035e-01,-7.070573806762695312e+00,-2.153333187103271484e+00,4.956082820892333984e+00,5.774021625518798828e+00,1.609513163566589355e+00,-6.144171115010976791e-03
7.020494461059570312e+00,6.169704437255859375e+00,1.425441145896911621e+00,1.338992834091186523e+00,6.004169464111328125e+00,-2.812333583831787109e+00,-2.521765470504760742e+00,-1.548556447029113770e+00,2.049659490585327148e+00,-1.906269907951354980e+00,-1.018184542655944824e+00,-6.252887725830078125e+00,-5.686129331588745117e-01,-5.398045539855957031e+00,-6.171265244483947754e-01,-7.518860340118408203e+00,-2.611858606338500977e+00,5.489224910736083984e+00,5.467621803283691406e+00,1.490903973579406738e+00,-3.281154669821262360e-03
6.588873863220214844e+00,5.538668632507324219e+00,9.123738408088684082e-01,1.665101289749145508e+00,5.683619976043701172e+00,-3.117377519607543945e+00,-2.916406631469726562e+00,-2.054249048233032227e+00,1.746373891830444336e+00,-1.857525706291198730e+00,-6.098058223724365234e-01,-6.672224998474121094e+00,-5.766623020172119141e-01,-5.223209857940673828e+00,-4.802947044372558594e-01,-7.569178581237792969e+00,-3.154152870178222656e+00,5.851057052612304688e+00,5.215582847595214844e+00,1.402794241905212402e+00,-5.233963602222502232e-04
5.732211589813232422e+00,4.419331073760986328e+00,2.352645397186279297e-01,1.734755516052246094e+00,5.003243923187255859e+00,-3.553154468536376953e+00,-3.010582447052001953e+00,-2.653047561645507812e+00,1.422237277030944824e+00,-1.811827898025512695e+00,-2.549264729022979736e-01,-7.057504653930664062e+00,-7.356379032135009766e-01,-4.814682960510253906e+00,-3.789378106594085693e-01,-7.324450492858886719e+00,-3.690568685531616211e+00,6.107221126556396484e+00,5.052498817443847656e+00,1.369753122329711914e+00,1.771226990967988968e-03
4.555780887603759766e+00,2.928884744644165039e+00,-4.837277829647064209e-01,1.692013144493103027e+00,4.041594982147216797e+00,-4.009438514709472656e+00,-2.629394769668579102e+00,-3.259148597717285156e+00,1.196668624877929688e+00,-1.705199718475341797e+00,-1.774579286575317383e-02,-7.406597614288330078e+00,-9.932185411453247070e-01,-4.260748386383056641e+00,-3.485307395458221436e-01,-6.947066307067871094e+00,-4.146154880523681641e+00,6.316956043243408203e+00,4.988254070281982422e+00,1.401947021484375000e+00,3.329044673591852188e-03
3.251706600189208984e+00,1.301713705062866211e+00,-1.113718628883361816e+00,1.680931806564331055e+00,2.913969755172729492e+00,-4.360623359680175781e+00,-1.750421166419982910e+00,-3.764841318130493164e+00,1.147384643554687500e+00,-1.508699178695678711e+00,-2.666235901415348053e-02,-7.702475547790527344e+00,-1.329280853271484375e+00,-3.684309959411621094e+00,-4.600233137607574463e-01,-6.610851764678955078e+00,-4.457716941833496094e+00,6.517084121704101562e+00,4.973428249359130859e+00,1.493445515632629395e+00,4.065850283950567245e-03
