Fp1,Fp2,F7,F3,Fz,F4,F8,T3,C3,Cz,C4,T4,T5,P3,Pz,P4,T6,O1,Oz,O2,A1
4.337233603000640869e-01,-3.932409882545471191e-01,1.077442839741706848e-01,-8.314015865325927734e-01,3.831209838390350342e-01,-2.255525588989257812e-01,-3.310386836528778076e-01,2.310573309659957886e-02,-9.699194692075252533e-03,-5.594664439558982849e-02,4.109476692974567413e-03,6.295481324195861816e-01,1.825843602418899536e-01,-3.798321783542633057e-01,-4.214510321617126465e-01,-4.501780569553375244e-01,3.138360083103179932e-01,5.225695371627807617e-01,-3.196654021739959717e-01,-3.100077807903289795e-01,-7.968591451644897461e-01
4.614334106445312500e-01,-3.077484071254730225e-01,-5.228473991155624390e-02,-7.544189691543579102e-01,1.661277711391448975e-01,-1.400108784437179565e-01,-1.636783629655838013e-01,5.076464265584945679e-02,-3.175750076770782471e-01,-7.867120206356048584e-02,-4.764071106910705566e-02,5.169624090194702148e-01,3.408566117286682129e-01,-1.939707249402999878e-01,-1.736269891262054443e-01,-4.345664978027343750e-01,4.554026424884796143e-01,3.523691892623901367e-01,-2.378044426441192627e-01,-1.602143943309783936e-01,-9.421368837356567383e-01
4.221364855766296387e-01,-2.004858553409576416e-01,-1.579072773456573486e-01,-7.145244479179382324e-01,3.096777200698852539e-01,-1.704549491405487061e-01,-3.433417975902557373e-01,-1.090861633419990540e-01,-1.048544570803642273e-01,-6.044686213135719299e-02,6.098878383636474609e-02,5.165170431137084961e-01,2.951472699642181396e-01,-3.226601183414459229e-01,-2.583193182945251465e-01,-3.531343042850494385e-01,3.851502835750579834e-01,2.432417124509811401e-01,-2.499015778303146362e-01,-2.687453329563140869e-01,-1.118556141853332520e+00
1.203557178378105164e-01,-2.678996026515960693e-01,-2.683960199356079102e-01,-6.191326975822448730e-01,2.479481510818004608e-02,-1.663273572921752930e-01,-7.031304389238357544e-02,-8.408423513174057007e-02,-1.962203085422515869e-01,-1.036413386464118958e-01,7.851095497608184814e-02,4.075345396995544434e-01,1.446818560361862183e-01,-4.463298916816711426e-01,-1.504212468862533569e-01,-3.831878304481506348e-02,2.845726013183593750e-01,4.415020942687988281e-01,-3.111703991889953613e-01,-1.849673539400100708e-01,-9.767563939094543457e-01
3.882707059383392334e-01,-3.029555678367614746e-01,-2.573105394840240479e-01,-8.232983946800231934e-01,1.505604386329650879e-01,-3.302216231822967529e-01,-1.034217104315757751e-01,-9.069947898387908936e-02,-3.537813127040863037e-01,-1.002288982272148132e-01,-9.681104123592376709e-02,4.304401278495788574e-01,2.944909632205963135e-01,-3.703401684761047363e-01,-1.259758770465850830e-01,-9.392894059419631958e-02,3.544888198375701904e-01,4.427435994148254395e-01,-2.307254821062088013e-01,6.073261797428131104e-02,-1.000832915306091309e+00
4.329435229301452637e-01,-3.608397245407104492e-01,-2.412375956773757935e-01,-5.530016422271728516e-01,3.732134401798248291e-01,-1.857769787311553955e-01,-7.858749479055404663e-02,-4.537848755717277527e-02,-2.233333289623260498e-01,-3.458620607852935791e-02,1.110788248479366302e-02,5.194235444068908691e-01,3.472899198532104492e-01,-3.193454444408416748e-01,6.362178921699523926e-02,1.514515131711959839e-01,4.095405638217926025e-01,5.169398188591003418e-01,-3.980959951877593994e-01,3.749977052211761475e-02,-1.172863841056823730e+00
2.572274208068847656e-01,-1.911812126636505127e-01,-2.322783619165420532e-01,-6.466941237449645996e-01,3.280733525753021240e-01,-1.227231919765472412e-01,-5.354068055748939514e-02,-1.991465389728546143e-01,-2.120106071233749390e-01,-1.529156416654586792e-01,2.516036480665206909e-02,2.838566303253173828e-01,1.850856244564056396e-01,-3.312632143497467041e-01,-3.551236167550086975e-02,1.058535277843475342e-01,1.352867484092712402e-01,4.291889369487762451e-01,-3.579260706901550293e-01,-1.074087470769882202e-01,-1.020795583724975586e+00
2.574302069842815399e-02,-1.057164669036865234e-01,-6.853221654891967773e-01,-5.221452713012695312e-01,2.282863706350326538e-01,-1.235232949256896973e-01,1.835159026086330414e-02,-1.999127864837646484e-01,9.709802269935607910e-02,-2.308331616222858429e-02,9.687393903732299805e-03,1.872571744024753571e-02,6.614134460687637329e-02,-1.832281798124313354e-01,-4.172137007117271423e-02,1.486514210700988770e-01,2.630714178085327148e-01,3.705152869224548340e-01,-3.262456953525543213e-01,5.106726288795471191e-02,-9.530533552169799805e-01
1.728853136301040649e-01,-3.290767073631286621e-01,-5.900833010673522949e-01,-3.001708388328552246e-01,1.578793227672576904e-01,-2.895710766315460205e-01,1.949929632246494293e-02,-1.503994762897491455e-01,-5.231101438403129578e-02,-2.327144742012023926e-01,-3.036072552204132080e-01,1.390911191701889038e-01,2.075748145580291748e-01,-8.686646819114685059e-02,6.508443504571914673e-02,2.834388613700866699e-01,3.498428687453269958e-02,2.038595229387283325e-01,-5.260564088821411133e-01,2.298598736524581909e-01,-1.002079129219055176e+00
2.850787937641143799e-01,-9.518420696258544922e-02,-5.623626708984375000e-01,-1.194583624601364136e-01,9.333875775337219238e-02,-3.297764062881469727e-02,1.500734537839889526e-01,-3.427597284317016602e-01,1.330921659246087074e-03,-1.932530850172042847e-01,-1.774958968162536621e-01,-2.704480104148387909e-02,2.742395699024200439e-01,-2.045074850320816040e-01,2.408319562673568726e-01,3.756828904151916504e-01,5.625941604375839233e-02,4.742397926747798920e-03,-5.387614369392395020e-01,1.778359264135360718e-01,-9.161769151687622070e-01
8.869589306414127350e-03,-2.638524472713470459e-01,-5.039857625961303711e-01,-1.408038735389709473e-01,2.067634910345077515e-01,-4.546531736850738525e-01,4.827054217457771301e-02,-4.758230745792388916e-01,2.980582118034362793e-01,-1.781434118747711182e-01,-2.075110673904418945e-01,-2.613030076026916504e-01,2.048729211091995239e-01,-9.480789303779602051e-02,1.860845983028411865e-01,3.254008293151855469e-01,-4.659656807780265808e-02,2.258287817239761353e-01,-7.145318388938903809e-01,-1.822109520435333252e-02,-8.167467713356018066e-01
1.125649064779281616e-01,-1.100925952196121216e-01,-7.037684917449951172e-01,1.352202147245407104e-01,3.272017240524291992e-01,-4.014360606670379639e-01,6.589931249618530273e-02,-4.413511753082275391e-01,7.515692710876464844e-02,-7.112378627061843872e-02,-7.551974058151245117e-02,-1.929666846990585327e-01,-4.817354306578636169e-02,-5.510865524411201477e-02,3.375653326511383057e-01,4.581384360790252686e-01,-9.697720408439636230e-02,-1.201397180557250977e-01,-7.255429029464721680e-01,1.668221801519393921e-01,-6.730590462684631348e-01
-7.382676005363464355e-02,-1.592706739902496338e-01,-9.281964302062988281e-01,1.189175248146057129e-01,3.478670120239257812e-01,-1.911894381046295166e-01,1.894246786832809448e-01,-4.526233077049255371e-01,2.585056126117706299e-01,-4.004383087158203125e-02,-3.112697303295135498e-01,-2.579081952571868896e-01,5.195381864905357361e-02,-1.831625215709209442e-02,2.385164350271224976e-01,3.604190051555633545e-01,-2.584157884120941162e-01,-4.961496219038963318e-02,-9.072548151016235352e-01,1.305174529552459717e-01,-6.770743131637573242e-01
-1.695665866136550903e-01,-2.851306088268756866e-02,-7.598248124122619629e-01,2.612072229385375977e-01,2.746167182922363281e-01,-1.955929994583129883e-01,1.010838076472282410e-01,-6.611792445182800293e-01,2.585226297378540039e-01,-1.015133038163185120e-01,-2.620844542980194092e-01,-3.725131154060363770e-01,9.633132070302963257e-02,1.858316957950592041e-01,2.362722456455230713e-01,5.042158961296081543e-01,-1.587934046983718872e-01,-3.259658813476562500e-01,-7.984329462051391602e-01,2.095892466604709625e-02,-9.180478453636169434e-01
-9.578058868646621704e-02,-1.034900918602943420e-01,-6.289344429969787598e-01,2.150192558765411377e-01,6.414303928613662720e-02,1.519158333539962769e-01,9.794902056455612183e-02,-6.256218552589416504e-01,3.804701566696166992e-01,-2.025420069694519043e-01,-1.383972615003585815e-01,-5.992513298988342285e-01,-5.101480521261692047e-03,5.653468146920204163e-02,1.333778351545333862e-01,2.883108556270599365e-01,-1.949557662010192871e-01,-3.531208634376525879e-01,-8.185394406318664551e-01,3.089017271995544434e-01,-7.311815023422241211e-01
-2.242205291986465454e-01,-1.834128350019454956e-01,-8.001714348793029785e-01,2.916053533554077148e-01,3.756687790155410767e-02,-1.325403004884719849e-01,9.576593525707721710e-03,-4.942378997802734375e-01,3.248871266841888428e-01,-6.937764585018157959e-02,-2.203339636325836182e-01,-2.849538922309875488e-01,-2.239051833748817444e-02,1.296477615833282471e-01,1.982919871807098389e-01,3.175232708454132080e-01,-3.307162821292877197e-01,-5.187843441963195801e-01,-8.600468039512634277e-01,1.091821119189262390e-01,-6.274410486221313477e-01
-3.453481495380401611e-01,-6.021359190344810486e-02,-6.344997882843017578e-01,4.683474302291870117e-01,2.890771925449371338e-01,5.579392611980438232e-02,-4.636074602603912354e-02,-3.395480811595916748e-01,3.527472317218780518e-01,-1.091649159789085388e-01,-1.060460582375526428e-01,-4.989870190620422363e-01,2.997206151485443115e-02,2.369064986705780029e-01,3.882000967860221863e-02,3.529549837112426758e-01,-1.974229514598846436e-01,-5.678355097770690918e-01,-8.059054613113403320e-01,-8.325015753507614136e-02,-5.236130356788635254e-01
-2.432617694139480591e-01,-1.134917214512825012e-01,-6.663670539855957031e-01,2.351741939783096313e-01,4.444636106491088867e-01,-4.832913354039192200e-02,1.923402547836303711e-01,-6.364605426788330078e-01,4.126871526241302490e-01,-5.526679009199142456e-02,-4.277127608656883240e-02,-3.039563596248626709e-01,-3.687168955802917480e-01,3.556577861309051514e-01,-2.542951516807079315e-02,4.500682950019836426e-01,-3.709012866020202637e-01,-8.025280237197875977e-01,-7.821514010429382324e-01,3.762261196970939636e-02,-6.283971667289733887e-01
-4.958046674728393555e-01,-4.798498004674911499e-02,-4.336816370487213135e-01,5.684022307395935059e-01,1.574656963348388672e-01,-6.640616804361343384e-02,3.862757235765457153e-02,-6.984698176383972168e-01,3.217690885066986084e-01,2.657786309719085693e-01,-1.386794894933700562e-01,-3.521099090576171875e-01,-1.782345771789550781e-01,1.888992786407470703e-01,-7.206128537654876709e-02,1.617109030485153198e-01,-4.767339229583740234e-01,-7.526528835296630859e-01,-4.488077163696289062e-01,1.060177683830261230e-01,-5.920768976211547852e-01
-5.093790292739868164e-01,-8.223267272114753723e-03,-5.700082778930664062e-01,6.521229147911071777e-01,2.416362911462783813e-01,8.746603503823280334e-03,3.135467469692230225e-01,-5.907548069953918457e-01,4.294856786727905273e-01,2.550813555717468262e-01,3.346769884228706360e-02,-4.331457912921905518e-01,-3.161182999610900879e-01,1.557986140251159668e-01,-2.749881744384765625e-01,3.055716156959533691e-01,-3.995845615863800049e-01,-6.023607850074768066e-01,-5.875365734100341797e-01,-2.679394185543060303e-02,-5.575490593910217285e-01
-4.595189690589904785e-01,1.887536197900772095e-01,-3.501496911048889160e-01,4.289576113224029541e-01,4.543156921863555908e-01,1.558256149291992188e-01,1.120186038315296173e-02,-7.069157361984252930e-01,1.714881658554077148e-01,2.588747143745422363e-01,1.305344104766845703e-01,-1.316138952970504761e-01,-3.837834894657135010e-01,1.980592906475067139e-01,-1.746072471141815186e-01,1.241120025515556335e-01,-4.004375934600830078e-01,-6.524754762649536133e-01,-4.721835851669311523e-01,4.346851259469985962e-02,-5.383895039558410645e-01
-5.638893842697143555e-01,2.667207084596157074e-02,-5.871325731277465820e-01,5.026955604553222656e-01,3.701789677143096924e-01,9.379834681749343872e-02,3.695636689662933350e-01,-3.523268997669219971e-01,1.607047468423843384e-01,3.879119753837585449e-01,5.569964274764060974e-02,-1.463741660118103027e-01,-4.542784690856933594e-01,3.703896328806877136e-02,-3.083650469779968262e-01,1.843774616718292236e-01,-6.655614078044891357e-02,-6.892711520195007324e-01,-4.951783418655395508e-01,1.815528273582458496e-01,-4.591659307479858398e-01
-6.518290638923645020e-01,1.858549714088439941e-01,-4.392973780632019043e-01,6.523918509483337402e-01,3.220620751380920410e-01,-3.211953490972518921e-02,4.733836352825164795e-01,-5.274670124053955078e-01,6.963630765676498413e-02,6.558179259300231934e-01,1.924807578325271606e-01,-9.842572361230850220e-02,-6.712192296981811523e-01,-1.675933599472045898e-02,-2.276671826839447021e-01,-4.766858648508787155e-03,-3.547250032424926758e-01,-6.553336381912231445e-01,-4.831281900405883789e-01,-5.013757199048995972e-02,-5.022348761558532715e-01
-6.143823266029357910e-01,4.676265716552734375e-01,-2.735804915428161621e-01,6.020867228507995605e-01,4.649473428726196289e-01,-4.087784886360168457e-02,4.127616882324218750e-01,-4.832913875579833984e-01,-1.426322460174560547e-01,5.083033442497253418e-01,3.971420526504516602e-01,2.024243876803666353e-04,-5.044636726379394531e-01,-5.612117797136306763e-02,-2.042135894298553467e-01,-7.513848692178726196e-02,-2.871017754077911377e-01,-5.458307862281799316e-01,-3.352400958538055420e-01,2.539371252059936523e-01,-4.302035272121429443e-01
-6.478220224380493164e-01,2.623360157012939453e-01,-4.850417673587799072e-01,7.445520162582397461e-01,3.293985724449157715e-01,-1.081093102693557739e-01,3.656962513923645020e-01,-4.152739644050598145e-01,2.569269239902496338e-01,5.789397358894348145e-01,1.718779206275939941e-01,9.281980991363525391e-02,-4.929386675357818604e-01,1.805057749152183533e-02,-3.984652757644653320e-01,-1.948050260543823242e-01,-1.497943699359893799e-01,-5.156967043876647949e-01,-2.946701347827911377e-01,1.629372360184788704e-03,-4.027061760425567627e-01
-5.249105095863342285e-01,3.464678525924682617e-01,-5.636460781097412109e-01,5.432813763618469238e-01,2.559883296489715576e-01,-2.531474828720092773e-01,4.798548221588134766e-01,-1.654002964496612549e-01,-4.618397797457873821e-04,5.587008595466613770e-01,1.165886670351028442e-01,1.541435420513153076e-01,-5.811687707901000977e-01,4.371703416109085083e-02,-5.721139311790466309e-01,-1.927721500396728516e-01,-2.742604017257690430e-01,-4.308508634567260742e-01,-3.357500731945037842e-01,1.203890964388847351e-01,-4.211210012435913086e-01
-3.709588348865509033e-01,3.896588087081909180e-01,-4.969586431980133057e-01,5.228984951972961426e-01,1.955592930316925049e-01,-3.420833051204681396e-01,6.253522038459777832e-01,3.784696385264396667e-02,-4.031277075409889221e-02,5.976656079292297363e-01,2.697629034519195557e-01,1.157217752188444138e-02,-5.279186964035034180e-01,-9.507423639297485352e-02,-1.546505987644195557e-01,-2.711061239242553711e-01,-2.258314043283462524e-01,-2.650876939296722412e-01,-2.329217791557312012e-01,3.164439201354980469e-01,-4.753141105175018311e-01
-2.492128014564514160e-01,3.921719491481781006e-01,-3.851289451122283936e-01,6.237449049949645996e-01,3.107188642024993896e-01,-5.135213136672973633e-01,7.645770311355590820e-01,1.179647743701934814e-01,-2.309208065271377563e-01,4.373580515384674072e-01,3.372825682163238525e-01,1.604421138763427734e-01,-4.390268325805664062e-01,-1.187456622719764709e-01,-2.300720959901809692e-01,-2.973479926586151123e-01,-1.732409298419952393e-01,-1.943538635969161987e-01,2.768137678503990173e-02,2.077508866786956787e-01,-2.168557047843933105e-01
-1.273667365312576294e-01,3.423080742359161377e-01,-1.240917071700096130e-01,4.988250732421875000e-01,3.774631321430206299e-01,-4.860806763172149658e-01,6.045844554901123047e-01,1.202549934387207031e-01,-9.613143652677536011e-02,4.179772138595581055e-01,4.041422009468078613e-01,1.571421623229980469e-01,-3.842436671257019043e-01,-3.604669123888015747e-02,-4.759503602981567383e-01,-3.882100582122802734e-01,7.952573150396347046e-02,-3.983304500579833984e-01,4.869867116212844849e-02,9.364920854568481445e-02,-2.521612644195556641e-01
-1.052698418498039246e-01,7.117199897766113281e-01,-2.190998792648315430e-01,6.022921800613403320e-01,1.766960769891738892e-01,-6.916249394416809082e-01,7.532349228858947754e-01,1.330685317516326904e-01,-1.434600949287414551e-01,4.006216526031494141e-01,2.581813037395477295e-01,1.182661354541778564e-01,-2.585588097572326660e-01,-1.272236257791519165e-01,-4.869125783443450928e-01,-4.165953993797302246e-01,-2.064881175756454468e-01,-3.451828956604003906e-01,2.612008750438690186e-01,1.411017179489135742e-01,-2.532074451446533203e-01
-2.175890207290649414e-01,4.950282573699951172e-01,-2.037015706300735474e-01,5.842922329902648926e-01,4.762616157531738281e-01,-5.063980817794799805e-01,7.330440878868103027e-01,4.366832077503204346e-01,-2.593246102333068848e-01,2.421525567770004272e-01,1.928740441799163818e-01,1.383975446224212646e-01,-1.477395594120025635e-01,-1.257611960172653198e-01,-4.372120797634124756e-01,-3.739753365516662598e-01,4.683874174952507019e-02,-9.171255677938461304e-02,4.320325851440429688e-01,5.759871378540992737e-02,-2.107413858175277710e-01
-1.363976448774337769e-01,4.848990440368652344e-01,-2.134568095207214355e-01,4.847216904163360596e-01,6.107304096221923828e-01,-5.235127210617065430e-01,7.660336494445800781e-01,4.081515967845916748e-01,-2.260457277297973633e-01,4.972142875194549561e-01,2.377194762229919434e-01,1.185785606503486633e-01,-2.327006310224533081e-01,1.093623712658882141e-01,-3.983830809593200684e-01,-5.001593232154846191e-01,3.470579907298088074e-02,-2.807852067053318024e-02,4.578013718128204346e-01,3.149056807160377502e-02,-3.812670409679412842e-01
1.005756258964538574e-01,3.034835159778594971e-01,-1.516255438327789307e-01,4.618653953075408936e-01,4.743225276470184326e-01,-6.517255902290344238e-01,9.042237997055053711e-01,4.934050738811492920e-01,-1.040435731410980225e-01,3.336522877216339111e-01,2.900349199771881104e-01,1.099899187684059143e-01,-3.861492574214935303e-01,-6.238398700952529907e-02,-3.420522511005401611e-01,-6.396656036376953125e-01,7.382358610630035400e-02,9.723455645143985748e-03,2.261389493942260742e-01,-1.561120152473449707e-01,-2.458418309688568115e-01
2.428068518638610840e-01,3.075986206531524658e-01,-1.120938286185264587e-01,6.556182503700256348e-01,5.644485950469970703e-01,-6.031057238578796387e-01,5.918146967887878418e-01,6.975967884063720703e-01,-1.833703666925430298e-01,1.519740372896194458e-01,1.074354574084281921e-01,4.033975303173065186e-01,-2.816123962402343750e-01,-2.603180110454559326e-01,-3.799109160900115967e-01,-4.998423457145690918e-01,1.224104091525077820e-01,1.647802591323852539e-01,3.983636796474456787e-01,-2.896351516246795654e-01,-1.564586013555526733e-01
2.340949326753616333e-01,8.569213747978210449e-02,1.595561355352401733e-01,3.668493926525115967e-01,7.093425393104553223e-01,-5.736724138259887695e-01,7.906960844993591309e-01,4.359535276889801025e-01,-3.164480924606323242e-01,4.041420221328735352e-01,1.240103989839553833e-01,1.889229714870452881e-01,-8.517715334892272949e-02,-1.931713521480560303e-01,-1.317563056945800781e-01,-6.395160555839538574e-01,-1.007261034101247787e-02,7.559029757976531982e-02,3.381096720695495605e-01,-1.099442467093467712e-01,-1.917404495179653168e-02
3.847789168357849121e-01,1.920158416032791138e-01,6.472692638635635376e-02,7.154623866081237793e-01,6.101436614990234375e-01,-5.514755249023437500e-01,6.556050181388854980e-01,6.100112199783325195e-01,-3.655990660190582275e-01,3.199811875820159912e-01,1.342341154813766479e-01,3.161717057228088379e-01,-1.628038883209228516e-01,-2.900781631469726562e-01,-2.770854905247688293e-02,-6.214060783386230469e-01,-6.201143376529216766e-03,8.443171530961990356e-02,3.352704644203186035e-01,-3.473328053951263428e-01,-3.010032884776592255e-02
2.676882743835449219e-01,1.908217966556549072e-01,6.829224526882171631e-02,6.294425725936889648e-01,6.035001277923583984e-01,-6.969491839408874512e-01,8.311233520507812500e-01,5.687249302864074707e-01,-1.719488054513931274e-01,-1.792647875845432281e-02,-1.636852473020553589e-01,1.134988665580749512e-01,-1.769996732473373413e-01,-4.582910239696502686e-02,-2.056262344121932983e-01,-6.233351230621337891e-01,1.700511872768402100e-01,2.107147872447967529e-01,4.175178706645965576e-01,-4.008898138999938965e-01,3.848884254693984985e-02
4.295175373554229736e-01,9.110058844089508057e-02,2.407188564538955688e-01,5.439527034759521484e-01,6.638581752777099609e-01,-5.056875348091125488e-01,6.301617026329040527e-01,7.287300825119018555e-01,-1.983523070812225342e-01,-3.694558143615722656e-02,-2.652066349983215332e-01,1.630776524543762207e-01,-1.876729577779769897e-01,-2.166927903890609741e-01,-4.758572280406951904e-01,-5.133951902389526367e-01,2.936077304184436798e-02,2.830246388912200928e-01,3.029445111751556396e-01,-3.632022440433502197e-01,1.247286796569824219e-01
3.964486718177795410e-01,-2.697535157203674316e-01,2.599619925022125244e-01,4.287756085395812988e-01,7.006903886795043945e-01,-6.518988609313964844e-01,6.593673229217529297e-01,3.843587636947631836e-01,-4.941374063491821289e-01,2.006683498620986938e-01,-2.232352495193481445e-01,1.467151939868927002e-01,-1.049642190337181091e-01,-1.959200203418731689e-01,4.909860715270042419e-02,-5.754148960113525391e-01,1.686582416296005249e-01,5.644798278808593750e-01,6.734272092580795288e-02,-2.554644346237182617e-01,2.373042553663253784e-01
5.556940436363220215e-01,-2.652793526649475098e-01,1.402817666530609131e-01,4.320893287658691406e-01,6.473494172096252441e-01,-6.021267771720886230e-01,6.333988308906555176e-01,5.958121418952941895e-01,-4.915924072265625000e-01,-1.176751777529716492e-01,-4.450216293334960938e-01,3.155134618282318115e-01,-3.892483934760093689e-02,-3.131009042263031006e-01,-3.090225532650947571e-02,-6.712118387222290039e-01,8.709959685802459717e-02,3.590312302112579346e-01,3.367448151111602783e-01,-2.415856868028640747e-01,7.485055923461914062e-02
6.031705737113952637e-01,-1.876218318939208984e-01,4.009890258312225342e-01,4.140063822269439697e-01,5.551589131355285645e-01,-4.183422625064849854e-01,4.356992244720458984e-01,5.421484708786010742e-01,-4.983848929405212402e-01,1.164618600159883499e-02,-5.063204765319824219e-01,2.731834948062896729e-01,-5.441864579916000366e-02,-3.737578988075256348e-01,1.763207651674747467e-02,-7.010292410850524902e-01,2.654694318771362305e-01,5.122778415679931641e-01,3.335984647274017334e-01,-3.575464487075805664e-01,1.949736624956130981e-01
6.030000448226928711e-01,-3.253431916236877441e-01,3.630636036396026611e-01,2.932342886924743652e-01,5.050444602966308594e-01,-4.637908935546875000e-01,2.020568102598190308e-01,4.893811345100402832e-01,-4.185132980346679688e-01,-6.050383206456899643e-03,-3.547461032867431641e-01,2.732290923595428467e-01,-2.730411589145660400e-01,-4.848074316978454590e-01,-2.197192609310150146e-02,-8.275545239448547363e-01,3.699075281620025635e-01,2.680851519107818604e-01,3.507366180419921875e-01,-2.917983829975128174e-01,-1.539075821638107300e-01
5.683224201202392578e-01,-2.864577770233154297e-01,5.518389940261840820e-01,2.297915667295455933e-01,4.478163719177246094e-01,-5.239007472991943359e-01,1.839570999145507812e-01,4.407471120357513428e-01,-4.935939610004425049e-01,-2.932969629764556885e-01,-6.242657303810119629e-01,9.899394214153289795e-02,-1.391534805297851562e-01,-4.462129771709442139e-01,2.776894271373748779e-01,-9.393819570541381836e-01,3.387349545955657959e-01,4.096471369266510010e-01,1.679734140634536743e-01,-3.016899824142456055e-01,6.345603615045547485e-02
4.237760305404663086e-01,-4.092208445072174072e-01,3.527401089668273926e-01,9.573089331388473511e-02,6.261216402053833008e-01,-1.432012915611267090e-01,6.047162041068077087e-02,5.442276000976562500e-01,-5.717767477035522461e-01,-2.155998721718788147e-02,-6.637282371520996094e-01,2.293148934841156006e-01,-9.593552350997924805e-02,-6.386823058128356934e-01,4.167330265045166016e-02,-7.927348017692565918e-01,5.479979515075683594e-01,3.782755434513092041e-01,1.897393018007278442e-01,-3.125655651092529297e-01,-6.990581005811691284e-02
4.359312951564788818e-01,-5.581576824188232422e-01,5.257928967475891113e-01,-6.947082281112670898e-02,1.609417349100112915e-01,-2.323580235242843628e-01,2.484449371695518494e-02,4.520537257194519043e-01,-7.424971461296081543e-01,-2.189707309007644653e-01,-5.396183729171752930e-01,1.603440642356872559e-01,7.526676356792449951e-02,-7.917564511299133301e-01,8.184642344713211060e-02,-8.511273860931396484e-01,6.587550044059753418e-01,2.398243248462677002e-01,1.705806553363800049e-01,-2.758423686027526855e-01,-1.771029084920883179e-01
4.602756798267364502e-01,-5.827959179878234863e-01,7.683365345001220703e-01,-7.534297555685043335e-02,1.980704665184020996e-01,-9.740401804447174072e-02,-1.652580499649047852e-01,2.883021235466003418e-01,-7.150204777717590332e-01,-1.824992746114730835e-01,-5.391474366188049316e-01,3.024122714996337891e-01,-4.375654458999633789e-02,-9.124415516853332520e-01,-6.866694241762161255e-02,-7.615509629249572754e-01,6.601371765136718750e-01,5.004837512969970703e-01,2.150738686323165894e-01,-1.960744112730026245e-01,-8.996960520744323730e-02
5.598938465118408203e-01,-6.422353386878967285e-01,9.654362201690673828e-01,-1.712471246719360352e-01,2.546660900115966797e-01,-9.767431020736694336e-02,-1.364310234785079956e-01,7.305580377578735352e-01,-8.051041960716247559e-01,-3.519327566027641296e-02,-6.587753891944885254e-01,3.915338814258575439e-01,-1.068711951375007629e-01,-8.275272250175476074e-01,-4.272309318184852600e-02,-7.936925888061523438e-01,9.080453515052795410e-01,2.796075344085693359e-01,3.010230064392089844e-01,-1.728618144989013672e-01,-1.496021747589111328e-01
3.168903887271881104e-01,-3.893261253833770752e-01,6.418213248252868652e-01,-2.053831219673156738e-01,2.026609033346176147e-01,-4.661218822002410889e-02,-1.380833685398101807e-01,2.652457952499389648e-01,-8.238345980644226074e-01,-5.708689335733652115e-03,-4.153434932231903076e-01,5.008367896080017090e-01,9.632594138383865356e-02,-1.031237483024597168e+00,2.512416839599609375e-01,-8.364890813827514648e-01,7.928779125213623047e-01,3.449839055538177490e-01,2.063271999359130859e-01,-2.477836906909942627e-01,-4.075650274753570557e-01
4.113670587539672852e-01,-6.954202651977539062e-01,7.194359302520751953e-01,-1.040874123573303223e-01,1.350559145212173462e-01,-7.855889946222305298e-02,-1.780375987291336060e-01,3.513860702514648438e-01,-9.053608179092407227e-01,-2.729615196585655212e-02,-5.160304903984069824e-01,3.150142729282379150e-01,5.098418518900871277e-02,-1.127803325653076172e+00,2.212145775556564331e-01,-6.520488262176513672e-01,1.232845425605773926e+00,3.918983340263366699e-01,1.008915528655052185e-01,-1.451388746500015259e-01,-5.169494748115539551e-01
3.131047189235687256e-01,-5.958266258239746094e-01,9.346963167190551758e-01,-1.855316162109375000e-01,1.475998759269714355e-01,1.621252596378326416e-01,-4.027821123600006104e-01,5.747339129447937012e-01,-1.096269726753234863e+00,-3.539086133241653442e-02,-4.737026095390319824e-01,4.367730915546417236e-01,1.326064914464950562e-01,-1.092483401298522949e+00,8.670105785131454468e-02,-8.732911348342895508e-01,1.100251913070678711e+00,3.385493159294128418e-01,5.419015511870384216e-02,4.494991526007652283e-02,-5.384122133255004883e-01
4.656982719898223877e-01,-5.364442467689514160e-01,7.940173149108886719e-01,-1.732729077339172363e-01,-1.279082894325256348e-01,7.940676063299179077e-02,-4.818113148212432861e-01,3.153807818889617920e-01,-7.967842817306518555e-01,-3.362856805324554443e-02,-3.723670542240142822e-01,4.864161014556884766e-01,7.295060902833938599e-02,-9.097574353218078613e-01,4.602258503437042236e-01,-6.528505086898803711e-01,9.763845205307006836e-01,3.092298209667205811e-01,-3.069375082850456238e-02,1.275676041841506958e-01,-5.373051762580871582e-01
5.699006915092468262e-01,-5.287452340126037598e-01,5.320343971252441406e-01,-4.419499039649963379e-01,-2.875067591667175293e-01,-5.711661186069250107e-03,-4.869339466094970703e-01,5.218741893768310547e-01,-9.398640990257263184e-01,-8.498638868331909180e-02,-3.488377034664154053e-01,4.570362567901611328e-01,2.504241168498992920e-01,-1.010372996330261230e+00,3.638761043548583984e-01,-5.076530575752258301e-01,1.039850950241088867e+00,5.020399689674377441e-01,1.395458132028579712e-01,2.364143729209899902e-01,-3.948360085487365723e-01
7.230151891708374023e-01,-4.895600080490112305e-01,3.909378349781036377e-01,-4.735978245735168457e-01,-1.891328543424606323e-01,8.026323467493057251e-02,-6.376296877861022949e-01,3.547045290470123291e-01,-1.070087671279907227e+00,1.142665185034275055e-02,-3.401619791984558105e-01,2.415615469217300415e-01,2.696999609470367432e-01,-9.334173798561096191e-01,4.369780421257019043e-01,-5.114064812660217285e-01,9.060156345367431641e-01,6.664054989814758301e-01,1.312559694051742554e-01,2.109874635934829712e-01,-4.204802215099334717e-01
6.652994751930236816e-01,-3.508073389530181885e-01,4.884701371192932129e-01,-3.582310080528259277e-01,-3.944256901741027832e-01,-6.564647704362869263e-02,-4.268202185630798340e-01,3.717047572135925293e-01,-1.003498435020446777e+00,-2.807080745697021484e-01,-2.642452716827392578e-01,3.424367606639862061e-01,2.605948150157928467e-01,-1.080095529556274414e+00,6.226028203964233398e-01,-5.231562256813049316e-01,9.140830039978027344e-01,7.726783752441406250e-01,1.164254695177078247e-01,4.289723634719848633e-01,-4.031690359115600586e-01
5.736526846885681152e-01,-3.300487697124481201e-01,2.481676042079925537e-01,-4.848019182682037354e-01,-2.966071069240570068e-01,-9.200978279113769531e-02,-3.827704489231109619e-01,5.030623674392700195e-01,-8.211590647697448730e-01,6.908700615167617798e-02,-2.211454510688781738e-01,4.581966400146484375e-01,2.509369552135467529e-01,-1.078933596611022949e+00,6.175986528396606445e-01,-3.243836462497711182e-01,9.948782920837402344e-01,5.522618293762207031e-01,6.808738410472869873e-02,7.478852272033691406e-01,-4.981341063976287842e-01
7.347978949546813965e-01,-2.617874741554260254e-01,2.726663649082183838e-01,-2.261374294757843018e-01,-5.035691857337951660e-01,-2.038842737674713135e-01,-6.848717331886291504e-01,3.795146942138671875e-01,-8.813784122467041016e-01,-7.813628762960433960e-02,-3.513246774673461914e-01,2.610933780670166016e-01,3.738518655300140381e-01,-7.856469154357910156e-01,7.172577381134033203e-01,-3.410409688949584961e-01,1.223193049430847168e+00,4.139683246612548828e-01,-3.535202890634536743e-02,6.318923830986022949e-01,-5.406923294067382812e-01
6.953592896461486816e-01,-4.040111899375915527e-01,2.779180407524108887e-01,-1.286615729331970215e-01,-3.352005779743194580e-01,-9.970040619373321533e-02,-6.316302418708801270e-01,3.993218541145324707e-01,-5.185800790786743164e-01,5.301670730113983154e-02,-3.444276750087738037e-01,8.984497748315334320e-03,3.203805088996887207e-01,-9.761162996292114258e-01,6.470156311988830566e-01,-1.317989677190780640e-01,1.094051718711853027e+00,3.186689615249633789e-01,4.120454192161560059e-01,5.880728363990783691e-01,-4.152857065200805664e-01
5.360635519027709961e-01,-2.318934202194213867e-01,-3.805026412010192871e-02,-2.441014647483825684e-01,-5.651619434356689453e-01,2.019387632608413696e-01,-5.576263666152954102e-01,4.491420984268188477e-01,-5.321810841560363770e-01,-1.391331404447555542e-01,-1.853596568107604980e-01,-6.120271608233451843e-02,4.472851455211639404e-01,-8.348978161811828613e-01,9.731983542442321777e-01,-2.450713515281677246e-01,9.057979583740234375e-01,3.089678287506103516e-01,2.937286794185638428e-01,7.031247615814208984e-01,-2.246322631835937500e-01
6.534819602966308594e-01,-4.417794346809387207e-01,-8.744285255670547485e-02,-2.115427702665328979e-01,-4.368773996829986572e-01,-2.921982295811176300e-02,-5.955356359481811523e-01,5.457204580307006836e-01,-4.708731472492218018e-01,-4.666190128773450851e-03,-1.152944378554821014e-02,1.262052953243255615e-01,3.774046897888183594e-01,-7.721264958381652832e-01,9.843789935111999512e-01,3.912867687176913023e-04,1.005295038223266602e+00,1.962267607450485229e-01,2.212295085191726685e-01,7.315874099731445312e-01,-2.950883507728576660e-01
5.087177157402038574e-01,-4.409199357032775879e-01,-4.848626255989074707e-02,-2.864560484886169434e-01,-7.208721637725830078e-01,2.190774492919445038e-02,-6.371629834175109863e-01,4.189520776271820068e-01,-2.687829434871673584e-01,1.580446660518646240e-01,-2.621512413024902344e-01,-3.279362991452217102e-02,1.734544485807418823e-01,-5.072724819183349609e-01,9.580187201499938965e-01,2.844854593276977539e-01,1.057421803474426270e+00,3.304080367088317871e-01,2.178138792514801025e-01,7.039659023284912109e-01,-1.391844153404235840e-01
5.773410797119140625e-01,-5.701224803924560547e-01,-1.071919351816177368e-01,-2.192769199609756470e-01,-5.649578571319580078e-01,1.279702484607696533e-01,-6.432272791862487793e-01,2.147840857505798340e-01,-2.794577479362487793e-01,-4.887105152010917664e-02,-1.575706452131271362e-01,-2.114451676607131958e-01,4.000265523791313171e-02,-4.823749959468841553e-01,9.806948900222778320e-01,3.886382877826690674e-01,8.430303335189819336e-01,1.515981107950210571e-01,2.994003593921661377e-01,8.714315891265869141e-01,-2.020196467638015747e-01
4.780193865299224854e-01,-4.671304821968078613e-01,-2.204559296369552612e-01,1.227759122848510742e-01,-1.251422017812728882e-01,1.472533643245697021e-01,-6.237253546714782715e-01,1.643812805414199829e-01,-9.526663273572921753e-02,1.250279694795608521e-02,-6.934736669063568115e-02,1.105170324444770813e-02,1.411595493555068970e-01,-2.901530265808105469e-01,1.155596017837524414e+00,2.019638270139694214e-01,5.943270325660705566e-01,3.540070727467536926e-02,2.396957576274871826e-01,7.647249102592468262e-01,-2.216865867376327515e-02
2.805530130863189697e-01,-3.736781179904937744e-01,-9.776336699724197388e-02,-3.228321671485900879e-02,-2.510242164134979248e-01,1.747789829969406128e-01,-5.034650564193725586e-01,2.444135099649429321e-01,-2.007822692394256592e-01,-2.701897732913494110e-02,-5.887258797883987427e-03,-2.499837428331375122e-01,6.011048331856727600e-02,-2.860885262489318848e-01,9.148867130279541016e-01,7.861521840095520020e-02,5.572941303253173828e-01,-1.450513899326324463e-01,8.428503572940826416e-02,6.103184223175048828e-01,-3.321843445301055908e-01
2.458497136831283569e-01,-3.444329500198364258e-01,-3.041985630989074707e-01,1.297591775655746460e-01,-3.084648251533508301e-01,2.306332997977733612e-02,-5.693598985671997070e-01,1.259911358356475830e-01,-3.781808912754058838e-02,1.936537772417068481e-01,-1.353703290224075317e-01,6.104686111211776733e-02,-7.829184085130691528e-02,-2.386836707592010498e-01,1.026683688163757324e+00,3.145269751548767090e-01,4.975485205650329590e-01,-1.508832126855850220e-01,1.619141101837158203e-01,6.834990978240966797e-01,-7.406449317932128906e-02
3.830142021179199219e-01,-2.625165581703186035e-01,-4.735798537731170654e-01,5.040400102734565735e-02,-1.430043876171112061e-01,-2.508039213716983795e-02,-5.253569483757019043e-01,1.385483443737030029e-01,-3.114273771643638611e-02,4.965737089514732361e-02,1.440026611089706421e-01,-3.046201169490814209e-01,-1.239389404654502869e-01,-4.320567473769187927e-02,8.867918848991394043e-01,4.134279489517211914e-01,3.524850308895111084e-01,-1.316425651311874390e-01,1.153552681207656860e-01,8.570076227188110352e-01,1.100750714540481567e-01
2.760531604290008545e-01,-2.740960717201232910e-01,-4.055721461772918701e-01,1.912872791290283203e-01,-3.229017853736877441e-01,-1.523216515779495239e-01,-5.476960539817810059e-01,1.203487254679203033e-02,2.401784062385559082e-01,2.196747809648513794e-01,3.270430862903594971e-02,-2.301727831363677979e-01,-3.997083008289337158e-01,-2.462421208620071411e-01,8.786939382553100586e-01,3.069072663784027100e-01,3.584431707859039307e-01,-4.642960727214813232e-01,1.067526545375585556e-02,8.144668340682983398e-01,1.399168372154235840e-01
-7.770121842622756958e-02,-1.181757822632789612e-01,-3.547339737415313721e-01,4.502221643924713135e-01,-1.901952177286148071e-01,4.122899472713470459e-02,-8.215568065643310547e-01,-9.346221387386322021e-02,1.167483478784561157e-01,1.998730450868606567e-01,9.603837132453918457e-02,-1.156065464019775391e-01,-4.821757078170776367e-01,-6.287078559398651123e-02,9.368317723274230957e-01,3.948791325092315674e-01,3.026075363159179688e-01,-4.648205637931823730e-01,4.028968140482902527e-02,6.295418739318847656e-01,2.055406868457794189e-01
-3.037070110440254211e-02,6.287845224142074585e-02,-3.193576931953430176e-01,1.825311034917831421e-01,-2.232029587030410767e-01,-2.207919955253601074e-01,-6.220773458480834961e-01,-1.289142072200775146e-01,9.751664102077484131e-02,2.827695012092590332e-01,-9.024827182292938232e-02,-1.051164641976356506e-01,-6.349647045135498047e-01,-3.600791469216346741e-02,7.809846401214599609e-01,2.779011130332946777e-01,8.475581556558609009e-02,-4.642156958580017090e-01,1.133316904306411743e-01,7.979947924613952637e-01,2.204595804214477539e-01
-1.542664505541324615e-02,3.647454455494880676e-02,-3.364613950252532959e-01,3.766643702983856201e-01,-1.287150979042053223e-01,-8.342593908309936523e-02,-5.950284004211425781e-01,-1.286492496728897095e-01,2.771693468093872070e-01,4.843150675296783447e-01,2.641551196575164795e-01,-1.163966804742813110e-01,-7.954441905021667480e-01,1.111505851149559021e-01,8.351060152053833008e-01,1.116094961762428284e-01,8.681383728981018066e-02,-4.683789014816284180e-01,-5.805451795458793640e-02,8.309819698333740234e-01,2.670592069625854492e-01
-1.732514798641204834e-02,2.224766016006469727e-01,-4.020747542381286621e-01,2.837805151939392090e-01,-2.821819484233856201e-01,4.852358624339103699e-02,-6.387799978256225586e-01,-1.462834328413009644e-01,1.920139640569686890e-01,5.147486329078674316e-01,1.947283446788787842e-01,-3.549239039421081543e-02,-6.642349958419799805e-01,7.175598293542861938e-02,7.310438752174377441e-01,1.656405329704284668e-01,1.334267258644104004e-01,-5.574675202369689941e-01,1.444060057401657104e-01,7.342625260353088379e-01,2.211036980152130127e-01
-3.815224021673202515e-02,1.481150090694427490e-01,-2.587624192237854004e-01,1.414136737585067749e-01,-3.908978700637817383e-01,-3.385671973228454590e-01,-6.559734344482421875e-01,-1.188340261578559875e-01,3.286202251911163330e-01,5.020571947097778320e-01,3.638625442981719971e-01,-2.018018811941146851e-01,-5.940716862678527832e-01,3.012886643409729004e-01,8.039080500602722168e-01,2.304247915744781494e-01,5.382262170314788818e-02,-4.897229671478271484e-01,1.795827001333236694e-01,8.102926015853881836e-01,1.605826914310455322e-01
-1.227747276425361633e-02,3.348738253116607666e-01,-2.004527449607849121e-01,2.718908488750457764e-01,-1.214088723063468933e-01,-1.843772679567337036e-01,-5.307620763778686523e-01,2.226551324129104614e-01,3.876012265682220459e-01,5.182755589485168457e-01,1.845061033964157104e-01,2.464274466037750244e-01,-8.841742277145385742e-01,8.721764385700225830e-02,3.722151517868041992e-01,1.523589938879013062e-01,8.000466227531433105e-02,-3.689793050289154053e-01,2.317713201045989990e-01,7.762604355812072754e-01,2.667707204818725586e-01
4.244298674166202545e-03,4.986705780029296875e-01,-2.644872367382049561e-01,4.246870279312133789e-01,-1.808658093214035034e-01,-2.988582849502563477e-01,-5.888776779174804688e-01,1.586286574602127075e-01,1.736278235912322998e-01,7.983275651931762695e-01,3.698710799217224121e-01,1.681836396455764771e-01,-8.617876768112182617e-01,1.595509499311447144e-01,1.959827542304992676e-01,1.058999150991439819e-01,2.161569595336914062e-01,-7.186223268508911133e-01,1.325778067111968994e-01,8.173658251762390137e-01,1.936049163341522217e-01
-2.581844329833984375e-01,7.663999199867248535e-01,-2.835999429225921631e-01,3.309156894683837891e-01,-4.943425953388214111e-02,-1.377590298652648926e-01,-7.448242306709289551e-01,1.482915282249450684e-01,3.692982196807861328e-01,6.616874933242797852e-01,4.516814053058624268e-01,2.751610279083251953e-01,-7.978983521461486816e-01,3.175983130931854248e-01,1.600182801485061646e-01,6.143880635499954224e-02,-5.798657238483428955e-02,-7.288075089454650879e-01,3.846789300441741943e-01,8.589783310890197754e-01,2.226556390523910522e-01
-6.339651346206665039e-02,3.830532133579254150e-01,-2.078509479761123657e-01,1.908950805664062500e-01,-3.517301082611083984e-01,-2.933144271373748779e-01,-3.082698285579681396e-01,1.256687492132186890e-01,2.804985344409942627e-01,7.703441381454467773e-01,5.224516391754150391e-01,2.646823823451995850e-01,-1.013069748878479004e+00,2.054322361946105957e-01,1.982553154230117798e-01,2.007005922496318817e-02,9.909059852361679077e-02,-6.175072193145751953e-01,4.930694401264190674e-01,7.050157189369201660e-01,2.776680886745452881e-01
7.064838428050279617e-03,5.715876817703247070e-01,-1.834315210580825806e-01,4.659570455551147461e-01,1.151897683739662170e-01,-5.879204273223876953e-01,-4.495303630828857422e-01,3.686307370662689209e-01,3.387506902217864990e-01,8.405543565750122070e-01,3.419512212276458740e-01,5.865381360054016113e-01,-1.029460668563842773e+00,1.473292708396911621e-01,4.293978586792945862e-02,-4.710957035422325134e-02,-3.340584412217140198e-02,-5.504552125930786133e-01,6.038535237312316895e-01,7.175351977348327637e-01,2.617408633232116699e-01
-7.587151974439620972e-02,6.450151801109313965e-01,-2.449652850627899170e-01,2.041273564100265503e-01,-5.938985850661993027e-04,-5.821051597595214844e-01,-2.409791350364685059e-01,3.541685640811920166e-01,1.527624726295471191e-01,9.161319136619567871e-01,4.891200363636016846e-01,6.877863407135009766e-01,-1.055742025375366211e+00,2.611181735992431641e-01,1.493173539638519287e-01,-6.132046878337860107e-02,8.848410099744796753e-03,-4.659887850284576416e-01,6.767085194587707520e-01,7.611538171768188477e-01,3.263147175312042236e-01
-2.621104195713996887e-02,7.620786428451538086e-01,-1.296945810317993164e-01,2.537951469421386719e-01,1.350910216569900513e-01,-5.484572649002075195e-01,-1.127318963408470154e-01,4.051168262958526611e-01,3.656975030899047852e-01,9.302258491516113281e-01,7.540777921676635742e-01,7.178295850753784180e-01,-9.071761965751647949e-01,3.959455490112304688e-01,1.568140462040901184e-03,-8.966042846441268921e-02,-1.382357254624366760e-02,-3.620349168777465820e-01,7.034720778465270996e-01,6.343871355056762695e-01,2.512941360473632812e-01
3.082105219364166260e-01,9.016727209091186523e-01,-9.167262166738510132e-02,2.914180457592010498e-01,9.056199342012405396e-02,-6.223721504211425781e-01,-6.528993695974349976e-02,4.579502046108245850e-01,7.667722553014755249e-02,6.468968987464904785e-01,4.749494493007659912e-01,7.064168453216552734e-01,-9.078384041786193848e-01,5.353164076805114746e-01,-1.840058267116546631e-01,2.262325398623943329e-02,-4.829928278923034668e-02,-3.988742232322692871e-01,7.296531200408935547e-01,6.027851104736328125e-01,2.171060442924499512e-01
8.685264736413955688e-02,8.772103786468505859e-01,-2.925561666488647461e-01,4.254178404808044434e-01,1.568234115839004517e-01,-8.600802421569824219e-01,-1.285432726144790649e-01,4.277691245079040527e-01,1.855408772826194763e-02,9.793583750724792480e-01,4.777372777462005615e-01,7.871732115745544434e-01,-7.875124812126159668e-01,1.954720914363861084e-01,6.871024519205093384e-02,4.234669264405965805e-03,-5.823156237602233887e-02,-3.245762586593627930e-01,7.700648307800292969e-01,5.221098661422729492e-01,3.364913165569305420e-01
4.606818854808807373e-01,8.531265854835510254e-01,-9.132573008537292480e-02,3.579117655754089355e-01,4.016331434249877930e-01,-8.911018967628479004e-01,1.468148380517959595e-01,3.808227777481079102e-01,-2.123304270207881927e-02,9.461814165115356445e-01,4.529389739036560059e-01,7.184122800827026367e-01,-8.975523710250854492e-01,1.967077553272247314e-01,8.491002768278121948e-02,-1.019513234496116638e-01,-7.470718771219253540e-02,-2.153410464525222778e-01,9.562370777130126953e-01,4.794745147228240967e-01,4.562768042087554932e-01
4.537466466426849365e-01,8.748643398284912109e-01,-2.836892008781433105e-01,4.295682907104492188e-01,1.581335216760635376e-01,-9.316818118095397949e-01,2.188945859670639038e-01,4.686951637268066406e-01,2.947231531143188477e-01,7.622291445732116699e-01,1.676763296127319336e-01,6.623204946517944336e-01,-8.432723283767700195e-01,2.374844998121261597e-01,7.891117781400680542e-02,-1.541607081890106201e-01,-2.539290785789489746e-01,-2.723220586776733398e-01,7.203149795532226562e-01,5.565248727798461914e-01,2.097665667533874512e-01
4.078671336174011230e-01,1.020489811897277832e+00,-1.230531781911849976e-01,6.256847381591796875e-01,4.497709870338439941e-01,-1.003356814384460449e+00,1.701370626688003540e-01,6.012035012245178223e-01,2.516997456550598145e-01,7.064390182495117188e-01,1.986296623945236206e-01,6.568596959114074707e-01,-7.509900927543640137e-01,3.536167740821838379e-01,2.317404747009277344e-01,-2.179723381996154785e-01,-8.175491541624069214e-02,-3.084873557090759277e-01,9.150860309600830078e-01,3.416023254394531250e-01,4.785693883895874023e-01
4.728417098522186279e-01,9.184552431106567383e-01,-1.497215926647186279e-01,4.050171077251434326e-01,5.690186023712158203e-01,-9.219921231269836426e-01,2.495919466018676758e-01,6.103320121765136719e-01,2.594442963600158691e-01,4.600318968296051025e-01,2.438088804483413696e-01,5.196561217308044434e-01,-8.260607719421386719e-01,4.113252162933349609e-01,6.259785592555999756e-02,-2.019118750467896461e-03,-1.574447154998779297e-01,-2.164680212736129761e-01,9.721083641052246094e-01,3.261657357215881348e-01,6.437196135520935059e-01
6.274522542953491211e-01,8.078585863113403320e-01,-2.184572070837020874e-01,6.814449429512023926e-01,6.278254985809326172e-01,-1.082459926605224609e+00,2.310604751110076904e-01,5.025250315666198730e-01,1.768975257873535156e-01,4.954997897148132324e-01,-4.482190683484077454e-02,6.242698431015014648e-01,-8.632270693778991699e-01,5.174329876899719238e-01,8.557184040546417236e-02,4.535141214728355408e-02,-7.536462694406509399e-02,-1.480990499258041382e-01,9.274174571037292480e-01,3.546170890331268311e-01,5.995094180107116699e-01
5.093089938163757324e-01,7.211211919784545898e-01,-5.018030107021331787e-02,3.681440651416778564e-01,4.251478314399719238e-01,-1.071384191513061523e+00,-6.046640500426292419e-02,5.488470792770385742e-01,3.199203014373779297e-01,3.738660514354705811e-01,-1.452077031135559082e-01,7.983548641204833984e-01,-6.941825151443481445e-01,5.800495147705078125e-01,-3.304693102836608887e-02,8.598243445158004761e-02,-3.078004121780395508e-01,-2.287394702434539795e-01,6.729894876480102539e-01,2.362016439437866211e-01,6.461187005043029785e-01
4.656082391738891602e-01,9.149498343467712402e-01,-1.309702694416046143e-01,4.785387814044952393e-01,6.475700139999389648e-01,-1.132100105285644531e+00,2.321085892617702484e-02,4.998531043529510498e-01,2.083124071359634399e-01,3.363033533096313477e-01,-1.021188721060752869e-01,6.102505326271057129e-01,-6.711122989654541016e-01,4.913077652454376221e-01,-2.523061633110046387e-02,1.968780606985092163e-01,-1.644995957612991333e-01,-2.126759886741638184e-01,7.803956866264343262e-01,-4.558879882097244263e-02,5.597815513610839844e-01
6.452521085739135742e-01,5.441849827766418457e-01,1.382867097854614258e-01,2.676433026790618896e-01,6.433261632919311523e-01,-9.061526656150817871e-01,-1.477651149034500122e-01,4.664398133754730225e-01,2.192438393831253052e-01,4.950375109910964966e-02,-2.714195847511291504e-01,8.271729350090026855e-01,-7.253184914588928223e-01,5.149185657501220703e-01,-8.035396039485931396e-02,1.491626501083374023e-01,-3.825048357248306274e-02,-1.746079176664352417e-01,7.258638143539428711e-01,-1.767745018005371094e-01,4.003926217555999756e-01
6.791583895683288574e-01,5.555372834205627441e-01,1.575745195150375366e-01,5.920272469520568848e-01,7.764674425125122070e-01,-7.779409885406494141e-01,1.406047940254211426e-01,5.093001127243041992e-01,-8.848405629396438599e-02,4.312272667884826660e-01,-3.982147276401519775e-01,6.980444788932800293e-01,-6.805461049079895020e-01,3.237693905830383301e-01,-1.062029674649238586e-01,2.226411551237106323e-01,-1.692159287631511688e-02,-4.131562709808349609e-01,6.046977639198303223e-01,-2.911263704299926758e-01,4.820474386215209961e-01
6.794872879981994629e-01,4.015928506851196289e-01,3.070683479309082031e-01,3.144826292991638184e-01,6.224364042282104492e-01,-7.712609171867370605e-01,3.834753111004829407e-02,5.005161166191101074e-01,1.991503871977329254e-02,2.546816505491733551e-02,-5.105707645416259766e-01,8.577437996864318848e-01,-5.127539634704589844e-01,3.907696008682250977e-01,-1.967778354883193970e-01,1.978343725204467773e-01,-1.203794479370117188e-01,-4.212137758731842041e-01,6.062077879905700684e-01,-3.848302662372589111e-01,3.568074107170104980e-01
3.139685690402984619e-01,5.882005095481872559e-01,2.605152726173400879e-01,3.730446696281433105e-01,7.394919991493225098e-01,-8.924501538276672363e-01,-3.532372117042541504e-01,3.993142545223236084e-01,4.559772461652755737e-02,-1.161208152770996094e-01,-4.246964156627655029e-01,5.069015622138977051e-01,-5.883959531784057617e-01,3.030194342136383057e-01,-2.984263002872467041e-01,1.645988784730434418e-02,6.590306758880615234e-02,-2.648971378803253174e-01,5.837514996528625488e-01,-4.737893044948577881e-01,8.379223942756652832e-02
4.924556314945220947e-01,4.042902290821075439e-01,3.729051947593688965e-01,2.890835702419281006e-01,7.084847688674926758e-01,-6.494045853614807129e-01,-2.268793992698192596e-02,3.148773908615112305e-01,-9.542983770370483398e-02,-7.425135374069213867e-02,-4.314073026180267334e-01,7.164216637611389160e-01,-7.071609497070312500e-01,4.024884998798370361e-01,-1.948484033346176147e-01,2.055054455995559692e-01,2.248598262667655945e-02,-2.933648228645324707e-01,3.694575130939483643e-01,-5.803446769714355469e-01,1.842192262411117554e-01
4.414752125740051270e-01,4.372689127922058105e-01,3.790282011032104492e-01,3.693556785583496094e-01,6.179375648498535156e-01,-5.619385242462158203e-01,-1.754919141530990601e-01,3.365336656570434570e-01,-2.160365693271160126e-02,1.040040403604507446e-01,-8.321987390518188477e-01,6.896104812622070312e-01,-7.543824315071105957e-01,1.490487158298492432e-01,-2.162742316722869873e-01,9.332017600536346436e-02,1.302620321512222290e-01,-3.434065878391265869e-01,3.710321784019470215e-01,-4.782753586769104004e-01,1.383031457662582397e-01
2.631709277629852295e-01,3.358546197414398193e-01,4.605647325515747070e-01,2.347239106893539429e-01,6.436461806297302246e-01,-4.083246588706970215e-01,-1.326165162026882172e-02,-2.452804241329431534e-03,-3.748712539672851562e-01,-7.474047597497701645e-03,-6.231163144111633301e-01,8.862464427947998047e-01,-7.023294568061828613e-01,-1.877019107341766357e-01,-1.872398406267166138e-01,-8.709051460027694702e-02,1.323867589235305786e-01,-3.356342911720275879e-01,2.596923708915710449e-01,-4.455402791500091553e-01,1.659029275178909302e-01
1.501397490501403809e-01,5.897507816553115845e-02,5.031418204307556152e-01,2.362764477729797363e-01,5.316034555435180664e-01,-6.444563269615173340e-01,-2.007990181446075439e-01,2.321841940283775330e-02,-4.426024258136749268e-01,-2.218896150588989258e-02,-8.094304203987121582e-01,8.730534315109252930e-01,-6.016557216644287109e-01,-1.686184480786323547e-02,-1.669598370790481567e-01,-9.561754763126373291e-02,1.519450992345809937e-01,-2.254457771778106689e-01,1.509604454040527344e-01,-4.335393309593200684e-01,1.405984908342361450e-01
2.402719855308532715e-01,4.043915271759033203e-01,4.411849379539489746e-01,-1.970733981579542160e-03,4.933980107307434082e-01,-4.001626074314117432e-01,-3.669810593128204346e-01,2.215206623077392578e-02,-5.069594979286193848e-01,-1.396695524454116821e-01,-8.194105625152587891e-01,8.224475979804992676e-01,-3.728616237640380859e-01,-2.716901898384094238e-01,-6.277493666857481003e-04,9.390957653522491455e-02,2.465527653694152832e-01,1.678578369319438934e-02,2.383846640586853027e-01,-3.124617040157318115e-01,-1.609993278980255127e-01
3.706006109714508057e-01,3.899540603160858154e-01,5.468864440917968750e-01,1.179664731025695801e-01,2.871798276901245117e-01,-4.303241372108459473e-01,-1.815346926450729370e-01,-4.641244933009147644e-02,-3.567845225334167480e-01,-2.342141717672348022e-01,-7.449678182601928711e-01,6.158990859985351562e-01,-6.108313202857971191e-01,-1.945509761571884155e-01,-2.575611472129821777e-01,-3.266753256320953369e-02,1.704147160053253174e-01,-3.181309700012207031e-01,3.177806362509727478e-02,-2.231483608484268188e-01,-1.636052280664443970e-01
2.364590018987655640e-01,3.240885436534881592e-01,6.011452078819274902e-01,-1.890795677900314331e-02,3.357949852943420410e-01,-2.395635843276977539e-01,-5.092150568962097168e-01,-1.837338060140609741e-01,-5.077859163284301758e-01,-1.912927329540252686e-01,-7.923440337181091309e-01,4.272529184818267822e-01,-2.367201000452041626e-01,-3.148815631866455078e-01,-7.928451150655746460e-02,-7.306320965290069580e-02,5.603125095367431641e-01,-6.949839740991592407e-02,1.446363180875778198e-01,-3.620473444461822510e-01,-1.854847371578216553e-01
2.197534218430519104e-02,3.756827414035797119e-01,7.047612667083740234e-01,-7.656265795230865479e-02,-1.250290870666503906e-02,-1.821012794971466064e-01,-3.698699474334716797e-01,1.316501013934612274e-02,-4.351674020290374756e-01,-1.923718452453613281e-01,-9.279869198799133301e-01,7.388119101524353027e-01,-2.614182531833648682e-01,-1.733854711055755615e-01,-1.931404881179332733e-02,5.981435999274253845e-02,2.985136508941650391e-01,-2.061059623956680298e-01,9.793517179787158966e-03,-3.905252516269683838e-01,-4.969532191753387451e-01
1.093135029077529907e-01,2.850083708763122559e-01,7.018020749092102051e-01,-1.993914991617202759e-01,-2.072252184152603149e-01,-7.085716724395751953e-02,-4.935275912284851074e-01,-2.290569096803665161e-01,-5.562929511070251465e-01,-2.193832993507385254e-01,-7.713755965232849121e-01,5.564989447593688965e-01,-1.148587539792060852e-01,-2.925546467304229736e-01,-6.773702055215835571e-02,8.075348287820816040e-02,5.110276937484741211e-01,-3.170176446437835693e-01,1.425157934427261353e-01,-3.408015072345733643e-01,-5.308217406272888184e-01
9.945482015609741211e-04,3.653903007507324219e-01,7.989688515663146973e-01,-1.086596101522445679e-01,-1.555167436599731445e-01,4.445325210690498352e-02,-4.923943579196929932e-01,-2.704946994781494141e-01,-7.261374592781066895e-01,-5.088035464286804199e-01,-7.039877772331237793e-01,3.574556708335876465e-01,6.347587332129478455e-04,-3.057319223880767822e-01,-8.240524679422378540e-02,1.767437011003494263e-01,6.984929442405700684e-01,-1.267686635255813599e-01,9.850814938545227051e-02,-1.019588392227888107e-02,-5.962787270545959473e-01
3.730181604623794556e-02,1.656652688980102539e-01,5.836019515991210938e-01,-2.432785779237747192e-01,-1.937053650617599487e-01,-8.650160580873489380e-02,-4.705984294414520264e-01,2.342469803988933563e-02,-8.177447915077209473e-01,-5.257705450057983398e-01,-6.563977599143981934e-01,4.047014713287353516e-01,2.632565796375274658e-01,-3.117631077766418457e-01,8.135172724723815918e-02,2.065638601779937744e-01,5.567654371261596680e-01,-4.125352203845977783e-01,2.310512959957122803e-01,-1.255509257316589355e-01,-5.078146457672119141e-01
-2.713850885629653931e-02,2.402231395244598389e-01,5.854133963584899902e-01,-2.504637539386749268e-01,-3.121933639049530029e-01,1.250000596046447754e-01,-5.094646215438842773e-01,2.584375441074371338e-02,-5.819404125213623047e-01,-5.255114436149597168e-01,-6.451668143272399902e-01,2.030193060636520386e-01,1.823665946722030640e-01,-1.401026695966720581e-01,8.186568319797515869e-02,3.658615052700042725e-01,7.339304685592651367e-01,-3.754387497901916504e-01,6.244124099612236023e-02,-1.464737802743911743e-01,-5.874032378196716309e-01
1.368387788534164429e-02,1.701755374670028687e-01,6.601833701133728027e-01,5.385255441069602966e-02,-2.286975234746932983e-01,5.135197192430496216e-02,-4.866016507148742676e-01,-1.730608344078063965e-01,-5.634054541587829590e-01,-4.891321659088134766e-01,-6.910188198089599609e-01,2.562105953693389893e-01,2.334126234054565430e-01,-2.780990302562713623e-01,2.107301652431488037e-01,3.146056830883026123e-01,5.862801671028137207e-01,-8.918131887912750244e-02,1.266190111637115479e-01,-1.404236704111099243e-01,-5.885765552520751953e-01
-5.358372814953327179e-03,1.866201460361480713e-01,6.105007529258728027e-01,-1.281450092792510986e-01,-3.653064668178558350e-01,4.682885855436325073e-02,-5.508944392204284668e-01,-2.885222733020782471e-01,-5.032452344894409180e-01,-5.119484066963195801e-01,-5.066110491752624512e-01,3.532896637916564941e-01,1.472132652997970581e-01,-1.868996918201446533e-01,6.610631942749023438e-02,3.412526547908782959e-01,5.948480367660522461e-01,-3.573483228683471680e-01,-2.840795181691646576e-02,6.340818107128143311e-02,-6.515055894851684570e-01
-1.286658644676208496e-02,1.606505215167999268e-01,5.648800134658813477e-01,-1.879669278860092163e-01,-5.153907537460327148e-01,6.766663491725921631e-02,-3.584028184413909912e-01,-2.596457004547119141e-01,-5.354815125465393066e-01,-6.832635402679443359e-01,-5.876772403717041016e-01,1.251406669616699219e-01,1.984013617038726807e-01,-4.194116592407226562e-01,4.246465265750885010e-01,5.840950012207031250e-01,6.692209839820861816e-01,-4.246613383293151855e-01,-1.317490935325622559e-01,-1.200702711939811707e-01,-7.835469245910644531e-01
-1.020446866750717163e-01,2.364345341920852661e-01,5.440654158592224121e-01,6.100332364439964294e-02,-2.630167305469512939e-01,1.872085779905319214e-01,-3.936355412006378174e-01,-2.819800376892089844e-01,-6.470279693603515625e-01,-5.972898006439208984e-01,-5.927760004997253418e-01,-1.305154561996459961e-01,2.658701539039611816e-01,-1.193089038133621216e-01,1.701458096504211426e-01,6.624702215194702148e-01,6.054934263229370117e-01,-3.018641769886016846e-01,7.724259793758392334e-02,-3.295875713229179382e-02,-4.901430010795593262e-01
-2.684900760650634766e-01,2.218981534242630005e-01,3.333192169666290283e-01,-6.942779570817947388e-02,-6.049968004226684570e-01,2.681291103363037109e-01,-3.526059091091156006e-01,-2.694163620471954346e-01,-5.905556678771972656e-01,-5.854880809783935547e-01,-5.332839488983154297e-01,-8.257214725017547607e-02,3.697220087051391602e-01,-2.613150477409362793e-01,4.209172427654266357e-01,5.104321837425231934e-01,3.648410439491271973e-01,-3.871718645095825195e-01,-1.553952693939208984e-01,1.491582542657852173e-01,-4.299197196960449219e-01
-2.391649037599563599e-01,2.362163513898849487e-01,3.547850847244262695e-01,1.946599483489990234e-01,-3.459200263023376465e-01,1.008179560303688049e-01,-1.850527971982955933e-01,-2.867705225944519043e-01,-4.696100056171417236e-01,-5.303664207458496094e-01,-6.717332601547241211e-01,-1.596220433712005615e-01,3.089225292205810547e-01,-1.190577000379562378e-01,5.335080027580261230e-01,4.867425560951232910e-01,4.413427114486694336e-01,-3.297824561595916748e-01,-5.059713125228881836e-02,6.686227768659591675e-02,-3.015894889831542969e-01
-3.319612443447113037e-01,2.801944911479949951e-01,-1.106136012822389603e-02,8.624168485403060913e-02,-4.459612667560577393e-01,9.542004019021987915e-02,-1.742755174636840820e-01,-3.021731376647949219e-01,-3.720246851444244385e-01,-6.911821365356445312e-01,-6.251549720764160156e-01,-1.262590140104293823e-01,2.585458755493164062e-01,3.656334802508354187e-02,4.992315769195556641e-01,6.432721614837646484e-01,9.595360606908798218e-02,-3.219086527824401855e-01,-4.987574368715286255e-02,1.267995387315750122e-01,-5.298839211463928223e-01
-4.492177665233612061e-01,2.123115360736846924e-01,-2.210713550448417664e-02,1.667430847883224487e-01,-4.563672244548797607e-01,4.390293061733245850e-01,-3.257603049278259277e-01,-5.631985068321228027e-01,-3.046069741249084473e-01,-6.599639654159545898e-01,-7.402056455612182617e-01,-3.902376592159271240e-01,3.256450295448303223e-01,4.840602166950702667e-03,8.284419178962707520e-01,8.344499468803405762e-01,2.404289990663528442e-01,-5.635404586791992188e-01,-2.307009696960449219e-01,1.463077515363693237e-01,-2.523767650127410889e-01
-2.493389546871185303e-01,2.230075448751449585e-01,2.030116170644760132e-01,2.235789746046066284e-01,-3.333173394203186035e-01,2.916221916675567627e-01,-2.121773213148117065e-01,-4.254432022571563721e-01,-1.235823780298233032e-01,-7.465673089027404785e-01,-6.497935652732849121e-01,-4.662455320358276367e-01,3.201652467250823975e-01,6.471201032400131226e-02,6.784006357192993164e-01,6.861040592193603516e-01,2.001685053110122681e-01,-2.590873241424560547e-01,-3.321144580841064453e-01,1.139633283019065857e-01,-2.029247879981994629e-01
-2.666705250740051270e-01,1.225908026099205017e-01,-9.127993136644363403e-02,3.934603035449981689e-01,-6.053026318550109863e-01,2.572900354862213135e-01,-1.939843893051147461e-01,-6.340217590332031250e-01,-7.523340731859207153e-02,-5.290244221687316895e-01,-5.875973105430603027e-01,-5.724608302116394043e-01,1.979177296161651611e-01,1.187590975314378738e-02,7.383724451065063477e-01,6.539148688316345215e-01,1.605050116777420044e-01,-4.696125984191894531e-01,-1.170417591929435730e-01,1.594184339046478271e-01,-1.067337319254875183e-01
-5.719872713088989258e-01,2.079969495534896851e-01,8.237989991903305054e-02,5.131643414497375488e-01,-4.845192730426788330e-01,2.000939548015594482e-01,-2.335143685340881348e-01,-4.847519695758819580e-01,-8.619976788759231567e-02,-6.960263848304748535e-01,-6.139400601387023926e-01,-5.705589056015014648e-01,3.000245690345764160e-01,4.115078747272491455e-01,6.643896102905273438e-01,9.222580194473266602e-01,3.503202274441719055e-02,-4.811443984508514404e-01,-1.499768793582916260e-01,2.853528559207916260e-01,-6.824260205030441284e-02
-5.196484327316284180e-01,9.635286033153533936e-02,-5.409654229879379272e-03,3.946440815925598145e-01,-4.406021833419799805e-01,5.781052708625793457e-01,-3.317780792713165283e-01,-5.296263694763183594e-01,-1.386687997728586197e-02,-7.580975294113159180e-01,-5.005639791488647461e-01,-7.651091217994689941e-01,1.483133733272552490e-01,3.126988112926483154e-01,4.632146656513214111e-01,7.928240299224853516e-01,3.933537751436233521e-02,-6.784644126892089844e-01,-5.533649325370788574e-01,2.686423361301422119e-01,-1.401451230049133301e-01
-6.203570365905761719e-01,-6.845614314079284668e-02,1.640695184469223022e-01,4.553844034671783447e-01,-5.660154819488525391e-01,3.888453841209411621e-01,-3.958460390567779541e-01,-5.623336434364318848e-01,3.889847546815872192e-02,-6.677605509757995605e-01,-4.420061707496643066e-01,-7.113647460937500000e-01,2.639675438404083252e-01,2.668323814868927002e-01,4.560642838478088379e-01,6.229249238967895508e-01,6.394761055707931519e-02,-8.228933811187744141e-01,-2.930065393447875977e-01,1.642999500036239624e-01,-3.232178464531898499e-02
-7.254471778869628906e-01,6.331741809844970703e-02,2.233574390411376953e-01,7.787902355194091797e-01,-6.537550687789916992e-01,6.054178476333618164e-01,-2.639200091361999512e-01,-7.806715965270996094e-01,7.784733921289443970e-02,-7.151272296905517578e-01,-4.310039877891540527e-01,-8.187673091888427734e-01,1.466203480958938599e-01,3.756077587604522705e-01,4.661591947078704834e-01,7.250584959983825684e-01,1.172160506248474121e-01,-8.400447368621826172e-01,-1.748520880937576294e-01,2.216520607471466064e-01,1.107924506068229675e-01
-7.634267210960388184e-01,2.273407280445098877e-01,2.456540912389755249e-01,6.235122084617614746e-01,-4.125652611255645752e-01,4.635891020298004150e-01,-2.475139796733856201e-01,-6.128625273704528809e-01,1.281083971261978149e-01,-6.166096925735473633e-01,-5.340583920478820801e-01,-7.993849515914916992e-01,-1.928174197673797607e-01,1.512968093156814575e-01,3.292873501777648926e-01,5.101674199104309082e-01,-2.972328066825866699e-01,-6.701782941818237305e-01,-1.109467372298240662e-01,1.097658276557922363e-01,2.144141048192977905e-01
-6.928673386573791504e-01,1.170585006475448608e-01,3.152698874473571777e-01,4.924327433109283447e-01,-5.986880660057067871e-01,6.510690450668334961e-01,-2.789263427257537842e-01,-5.825120210647583008e-01,1.367903649806976318e-01,-4.468804895877838135e-01,-3.948760032653808594e-01,-7.418091893196105957e-01,-1.966552436351776123e-01,4.166720211505889893e-01,3.974907696247100830e-01,4.738040864467620850e-01,4.638817161321640015e-02,-8.715710043907165527e-01,9.513415396213531494e-02,1.919923573732376099e-01,1.632577031850814819e-01
-8.803948760032653809e-01,1.294294297695159912e-01,1.961902678012847900e-01,5.952109098434448242e-01,-2.998480498790740967e-01,5.227428674697875977e-01,-2.111715637147426605e-02,-6.987034678459167480e-01,1.494695991277694702e-01,-3.718652427196502686e-01,-2.302099168300628662e-01,-6.388157010078430176e-01,-4.493478834629058838e-01,3.269561827182769775e-01,2.713300883769989014e-01,5.259414911270141602e-01,6.497196108102798462e-02,-8.507178425788879395e-01,3.451354801654815674e-02,2.792089581489562988e-01,1.504452526569366455e-01
-9.315780401229858398e-01,1.381230056285858154e-01,1.850550174713134766e-01,3.257562220096588135e-01,-5.152837634086608887e-01,6.513272523880004883e-01,-1.814967766404151917e-02,-7.341073751449584961e-01,1.098735705018043518e-01,-2.422681152820587158e-01,8.190567791461944580e-02,-4.902593195438385010e-01,-4.583963453769683838e-01,2.791049778461456299e-01,2.633473277091979980e-01,5.525597929954528809e-01,8.362457156181335449e-02,-7.385739088058471680e-01,-1.092532533220946789e-03,3.250081241130828857e-01,1.360614895820617676e-01
-8.899765014648437500e-01,4.833956956863403320e-01,7.432681322097778320e-02,6.003576517105102539e-01,-4.571998715400695801e-01,7.537330389022827148e-01,-1.870964318513870239e-01,-5.079463720321655273e-01,-1.191148459911346436e-01,-1.241903603076934814e-01,4.738054051995277405e-02,-5.321263074874877930e-01,-3.026915192604064941e-01,2.612003684043884277e-01,-1.355796935968101025e-03,3.932943344116210938e-01,-3.299168893136084080e-04,-7.315383553504943848e-01,2.586170732975006104e-01,1.877223402261734009e-01,9.238210320472717285e-02
-9.307442307472229004e-01,3.647383451461791992e-01,1.149001568555831909e-01,7.066010832786560059e-01,-5.779260993003845215e-01,3.724446594715118408e-01,-2.211927324533462524e-01,-4.988977611064910889e-01,5.107584223151206970e-02,-1.446563899517059326e-01,5.221816897392272949e-02,-3.213562369346618652e-01,-1.890487521886825562e-01,2.579276859760284424e-01,9.073331207036972046e-02,3.282096683979034424e-01,-3.129770606756210327e-02,-7.515702843666076660e-01,1.643030941486358643e-01,1.000647470355033875e-01,3.562266230583190918e-01
-9.767316579818725586e-01,6.575747132301330566e-01,3.709685504436492920e-01,4.678782224655151367e-01,-5.688976645469665527e-01,5.680784583091735840e-01,-7.585408538579940796e-02,-5.002701878547668457e-01,-7.562394440174102783e-02,-5.982082337141036987e-03,-1.990238949656486511e-02,-4.854006767272949219e-01,-2.570784389972686768e-01,1.769387573003768921e-01,1.299241781234741211e-01,2.530453801155090332e-01,-2.908394634723663330e-01,-7.154467105865478516e-01,4.561068117618560791e-02,3.432449698448181152e-01,3.067414462566375732e-01
-6.725029349327087402e-01,3.808101713657379150e-01,1.760582029819488525e-01,4.894588887691497803e-01,-6.327984333038330078e-01,1.584357917308807373e-01,1.655015535652637482e-02,-3.651827573776245117e-01,7.508841902017593384e-02,8.237835019826889038e-02,1.674525588750839233e-01,-3.678567111492156982e-01,-3.467904329299926758e-01,3.274703621864318848e-01,-5.206986516714096069e-02,6.526047736406326294e-02,-1.394101083278656006e-01,-4.312160611152648926e-01,4.135829806327819824e-01,3.608647584915161133e-01,5.804975628852844238e-01
-8.025209307670593262e-01,8.778014779090881348e-01,3.907211124897003174e-01,4.956969618797302246e-01,-4.372986853122711182e-01,3.099199831485748291e-01,8.849550783634185791e-02,-2.122866809368133545e-01,-1.677157729864120483e-01,1.562664061784744263e-01,2.688050270080566406e-01,-3.801303207874298096e-01,-4.701880514621734619e-01,2.015870809555053711e-01,2.425681352615356445e-01,-6.229342892765998840e-02,5.088789761066436768e-02,-3.916049897670745850e-01,3.355389237403869629e-01,2.612895965576171875e-01,6.168536543846130371e-01
-4.699877500534057617e-01,7.849567532539367676e-01,2.704593539237976074e-01,3.332791328430175781e-01,-4.342094361782073975e-01,1.811497062444686890e-01,-4.432339966297149658e-02,-9.264047443866729736e-02,4.187532886862754822e-02,1.703370660543441772e-01,3.875164985656738281e-01,-1.286052167415618896e-01,-2.175922691822052002e-01,2.214243710041046143e-01,-7.436165213584899902e-02,-2.347687259316444397e-02,-7.033389061689376831e-02,-4.709863960742950439e-01,4.896387457847595215e-01,1.135268583893775940e-01,4.127036333084106445e-01
-5.724069476127624512e-01,5.439483523368835449e-01,1.219283789396286011e-01,3.732075989246368408e-01,-5.691593885421752930e-01,-5.080478265881538391e-02,9.115852415561676025e-02,-2.242409624159336090e-02,6.408635061234235764e-03,-5.528851877897977829e-03,1.811051517724990845e-01,-2.354308664798736572e-01,-2.819237709045410156e-01,1.512943208217620850e-01,-5.817054212093353271e-02,-1.889289021492004395e-01,-1.057258099317550659e-01,-5.370521545410156250e-01,6.739015579223632812e-01,4.704659879207611084e-01,4.104663729667663574e-01
-4.799944460391998291e-01,8.163284063339233398e-01,5.539434552192687988e-01,3.837379813194274902e-01,-6.211762428283691406e-01,1.465710550546646118e-01,1.935057491064071655e-01,1.768345087766647339e-01,-7.182556390762329102e-02,-4.510963708162307739e-02,4.732923209667205811e-01,-2.988086342811584473e-01,-2.263515889644622803e-01,2.329454571008682251e-01,3.564317151904106140e-02,-9.822943061590194702e-02,2.177869826555252075e-01,-2.411873340606689453e-01,6.003131270408630371e-01,4.711200296878814697e-01,6.584686636924743652e-01
-1.910151839256286621e-01,7.080011367797851562e-01,2.347760796546936035e-01,2.217280119657516479e-01,-6.769897937774658203e-01,1.445095986127853394e-01,4.450086653232574463e-01,1.960923671722412109e-01,2.203637212514877319e-01,6.765758991241455078e-02,4.589997529983520508e-01,-1.149544492363929749e-01,-1.938041895627975464e-01,2.446009516716003418e-01,-7.222872227430343628e-03,-1.115283444523811340e-01,-5.604773759841918945e-02,-2.889423966407775879e-01,9.735898375511169434e-01,3.188154697418212891e-01,6.605564355850219727e-01
-2.523215115070343018e-01,8.166478872299194336e-01,2.910510897636413574e-01,2.544926106929779053e-01,-2.584057450294494629e-01,-1.140461936593055725e-01,3.121888935565948486e-01,3.172420859336853027e-01,1.045822724699974060e-01,8.793374150991439819e-02,3.557954728603363037e-01,-2.045696824789047241e-01,-7.455144822597503662e-02,9.251051396131515503e-02,-3.311553597450256348e-02,-1.585570424795150757e-01,8.771227300167083740e-02,1.651413622312247753e-03,7.181011438369750977e-01,2.910429239273071289e-01,5.501773357391357422e-01
-6.004668399691581726e-02,6.499393582344055176e-01,4.268575608730316162e-01,1.299396455287933350e-01,-3.098863959312438965e-01,-5.425616726279258728e-02,3.051540851593017578e-01,4.012609720230102539e-01,-6.872295867651700974e-03,6.428916752338409424e-02,5.384840965270996094e-01,-3.411961719393730164e-02,-7.227271795272827148e-02,3.485226631164550781e-01,5.046777799725532532e-02,-2.876255214214324951e-01,-5.891341343522071838e-02,-9.795749932527542114e-02,1.059654593467712402e+00,1.052763685584068298e-01,7.483252882957458496e-01
-2.752251625061035156e-01,3.569308817386627197e-01,2.681181430816650391e-01,2.359576337039470673e-02,-2.084511220455169678e-01,-1.366441249847412109e-01,3.137031197547912598e-01,6.519489884376525879e-01,1.001326441764831543e-01,1.043436676263809204e-02,2.491294443607330322e-01,-9.128474630415439606e-03,-3.145656883716583252e-01,2.972482144832611084e-01,2.949507720768451691e-02,-2.072605639696121216e-01,1.595641225576400757e-01,3.619037941098213196e-02,9.850478768348693848e-01,-1.578192226588726044e-02,6.909443736076354980e-01
-1.024233177304267883e-01,5.211331844329833984e-01,3.517059683799743652e-01,3.862711600959300995e-04,-5.496501177549362183e-02,-3.432509005069732666e-01,1.174566671252250671e-01,5.269389152526855469e-01,3.153481706976890564e-02,1.459395140409469604e-01,2.459121942520141602e-01,-4.516106471419334412e-02,5.424737930297851562e-02,4.696002304553985596e-01,-7.884921133518218994e-02,-1.839309930801391602e-01,7.735506445169448853e-02,-1.903125434182584286e-03,9.446341395378112793e-01,-2.970825508236885071e-02,6.774674654006958008e-01
4.739922285079956055e-02,3.867821693420410156e-01,4.649214744567871094e-01,1.807714849710464478e-01,1.685984781943261623e-03,-2.961315214633941650e-01,3.185399174690246582e-01,8.896081447601318359e-01,-1.339188031852245331e-02,-3.612723574042320251e-02,2.496374547481536865e-01,-1.712550409138202667e-03,-1.206969171762466431e-01,2.615820467472076416e-01,1.363447606563568115e-01,-2.919027209281921387e-01,1.008282527327537537e-01,1.899857968091964722e-01,9.204931259155273438e-01,-1.621594727039337158e-01,6.446157097816467285e-01
-6.176754087209701538e-02,3.691843152046203613e-01,1.166049391031265259e-01,1.628746390342712402e-01,-1.810546964406967163e-01,-2.868195474147796631e-01,4.666347801685333252e-01,5.775655508041381836e-01,-1.681671291589736938e-01,-1.186765283346176147e-01,1.213084235787391663e-01,-6.256759166717529297e-02,-2.395779341459274292e-01,3.648386895656585693e-01,1.015660464763641357e-01,-1.187895089387893677e-01,3.754187375307083130e-02,1.801730990409851074e-01,9.946427345275878906e-01,3.300986066460609436e-02,7.736297249794006348e-01
7.659309357404708862e-02,1.949017792940139771e-01,2.933557629585266113e-01,1.129417568445205688e-01,1.689693331718444824e-02,-1.607849895954132080e-01,2.443158328533172607e-01,5.179889202117919922e-01,-2.163738571107387543e-02,-6.409201025962829590e-02,6.886648386716842651e-02,2.172882296144962311e-02,9.386007487773895264e-02,3.264938294887542725e-01,-8.244925737380981445e-02,-1.539194732904434204e-01,7.792571932077407837e-02,4.403797984123229980e-01,1.108570098876953125e+00,-2.084449976682662964e-01,9.024268984794616699e-01
1.065003648400306702e-01,2.602505087852478027e-01,5.502128601074218750e-01,1.143967509269714355e-01,7.332910783588886261e-03,-2.107873409986495972e-01,7.332779467105865479e-02,4.678177535533905029e-01,2.671556770801544189e-01,-2.423225715756416321e-02,-9.003417938947677612e-02,-8.031707257032394409e-02,-2.805491685867309570e-01,2.356144189834594727e-01,8.398102223873138428e-02,-2.244882583618164062e-01,-1.715048775076866150e-02,9.530641883611679077e-02,1.122251272201538086e+00,-2.323662489652633667e-01,8.886927366256713867e-01
3.154273033142089844e-01,1.247041597962379456e-01,2.223855108022689819e-01,-1.016694977879524231e-01,1.898115500807762146e-02,-2.263547182083129883e-01,1.324536949396133423e-01,5.032454729080200195e-01,1.177924424409866333e-01,-1.605239361524581909e-01,1.064435392618179321e-02,-1.083727329969406128e-01,-7.104247063398361206e-02,9.919902682304382324e-02,9.328981488943099976e-02,-2.620578706264495850e-01,-1.594361960887908936e-01,3.388056457042694092e-01,8.104483485221862793e-01,-3.820228576660156250e-01,8.377069830894470215e-01
3.330756425857543945e-01,2.594256997108459473e-01,3.807776570320129395e-01,-1.003548279404640198e-01,4.061605036258697510e-02,-9.014166891574859619e-02,9.382407367229461670e-02,5.064585208892822266e-01,7.334839552640914917e-02,-3.435681164264678955e-01,-8.770775794982910156e-02,-8.084043860435485840e-02,-7.455123960971832275e-02,2.562524080276489258e-01,1.820011287927627563e-01,-1.853805482387542725e-01,-6.870917510241270065e-03,3.296259641647338867e-01,7.003436684608459473e-01,-2.531819939613342285e-01,8.136019110679626465e-01
3.685061335563659668e-01,-1.292051523923873901e-01,5.407314896583557129e-01,-2.313438802957534790e-01,1.229056045413017273e-01,-2.267398089170455933e-01,1.276093274354934692e-01,4.159193933010101318e-01,6.142705678939819336e-02,-4.296934604644775391e-01,-1.193665787577629089e-01,3.785886988043785095e-02,5.709571763873100281e-02,1.488078385591506958e-01,7.830569893121719360e-02,-2.696888446807861328e-01,1.036752015352249146e-01,4.261144697666168213e-01,6.735560894012451172e-01,-2.094408422708511353e-01,9.749422073364257812e-01
3.883134424686431885e-01,1.224967837333679199e-01,4.625576138496398926e-01,-1.684459894895553589e-01,-3.517297282814979553e-02,2.956150332465767860e-03,-2.897487282752990723e-01,2.490029782056808472e-01,1.762132346630096436e-01,-3.477840423583984375e-01,-1.781382597982883453e-02,-1.165604591369628906e-01,3.400927037000656128e-02,2.375291734933853149e-01,1.559374928474426270e-01,-2.934638857841491699e-01,4.157335963100194931e-03,3.064783811569213867e-01,6.874400377273559570e-01,-3.550220727920532227e-01,5.814271569252014160e-01
1.590484082698822021e-01,-7.132109254598617554e-02,5.114390850067138672e-01,-2.768013477325439453e-01,2.475788258016109467e-02,1.279910951852798462e-01,-2.695218324661254883e-01,2.523533999919891357e-01,8.401811867952346802e-02,-3.953057229518890381e-01,-1.178575381636619568e-01,-3.257434815168380737e-02,1.273814290761947632e-01,7.036828994750976562e-02,1.883412897586822510e-02,-4.697049558162689209e-01,1.622781306505203247e-01,3.560968935489654541e-01,5.314869284629821777e-01,-2.341132164001464844e-01,6.247176527976989746e-01
2.387683242559432983e-01,3.220244077965617180e-03,5.987468361854553223e-01,-4.032450914382934570e-01,-1.604697257280349731e-01,-3.086166083812713623e-02,-3.722684085369110107e-01,1.592981964349746704e-01,-1.245761811733245850e-01,-5.001006722450256348e-01,-4.255462586879730225e-01,-3.072613291442394257e-02,1.161751896142959595e-01,1.334060877561569214e-01,2.269708961248397827e-01,-3.308349251747131348e-01,1.483511179685592651e-01,2.061560302972793579e-01,6.632527709007263184e-01,-5.356436967849731445e-01,4.953812062740325928e-01
2.175611108541488647e-01,-2.341649979352951050e-01,4.973019659519195557e-01,-3.157356679439544678e-01,-1.469361931085586548e-01,4.892166703939437866e-02,-3.792050480842590332e-01,2.538891732692718506e-01,5.379689112305641174e-02,-5.178791284561157227e-01,-3.255161046981811523e-01,8.998595923185348511e-02,1.205699667334556580e-01,-2.234892696142196655e-01,5.779465287923812866e-02,-4.991383552551269531e-01,3.460938036441802979e-01,2.648214697837829590e-01,4.988487064838409424e-01,-4.153393507003784180e-01,6.054443717002868652e-01
3.120907247066497803e-01,-4.664882719516754150e-01,3.948219418525695801e-01,-5.087600946426391602e-01,-2.735434770584106445e-01,5.571214854717254639e-02,-6.362416744232177734e-01,4.133117496967315674e-01,-2.343687042593955994e-02,-2.605062425136566162e-01,-1.612669378519058228e-01,2.063188552856445312e-01,8.546773344278335571e-02,-1.658194512128829956e-01,1.793015748262405396e-02,-3.090439140796661377e-01,4.031545519828796387e-01,2.236450761556625366e-01,5.258949995040893555e-01,-3.514760434627532959e-01,3.137162923812866211e-01
3.432014882564544678e-01,-2.946309745311737061e-01,7.424514889717102051e-01,-8.268313407897949219e-01,-2.893268167972564697e-01,1.175826713442802429e-01,-4.857755303382873535e-01,6.387185305356979370e-02,-2.172655165195465088e-01,-4.805600047111511230e-01,-2.487402260303497314e-01,1.326769739389419556e-01,3.433287516236305237e-02,-1.258724778890609741e-01,-2.369736693799495697e-02,-1.683927476406097412e-01,3.172804415225982666e-01,3.877463936805725098e-01,4.279740154743194580e-01,-2.478822469711303711e-01,2.766154110431671143e-01
1.371895372867584229e-01,-3.177248835563659668e-01,8.035395741462707520e-01,-6.872683763504028320e-01,-1.260559707880020142e-01,2.702480256557464600e-01,-5.827717781066894531e-01,6.931289285421371460e-02,-1.465812027454376221e-01,-3.342212438583374023e-01,5.087446421384811401e-02,3.147412240505218506e-01,3.472016751766204834e-02,-1.210634410381317139e-01,1.319412440061569214e-01,-1.832797825336456299e-01,5.289691090583801270e-01,2.118532210588455200e-01,4.333339631557464600e-01,-2.968707084655761719e-01,1.674900054931640625e-01
1.626257151365280151e-01,-1.581344008445739746e-01,7.227458357810974121e-01,-9.240967631340026855e-01,-3.586687445640563965e-01,-1.576699549332261086e-03,-4.420275688171386719e-01,3.102095238864421844e-02,-3.336718976497650146e-01,-4.226827323436737061e-01,1.104266718029975891e-01,2.853069454431533813e-02,8.701606839895248413e-02,-2.386539280414581299e-01,1.767058968544006348e-01,-1.910606622695922852e-01,4.732100069522857666e-01,2.262921184301376343e-01,2.156438082456588745e-01,-2.859354615211486816e-01,1.294165998697280884e-01
1.461192071437835693e-01,-2.727496325969696045e-01,7.020294070243835449e-01,-9.561709165573120117e-01,-3.803050220012664795e-01,3.572015166282653809e-01,-5.305545330047607422e-01,-6.527595221996307373e-02,-3.604593873023986816e-01,-2.761476933956146240e-01,-1.609267741441726685e-01,2.211878746747970581e-01,1.062254309654235840e-01,-1.095040515065193176e-01,-5.136908590793609619e-02,-1.774846911430358887e-01,5.366277694702148438e-01,3.874096870422363281e-01,4.833010435104370117e-01,-2.733881771564483643e-01,1.180593594908714294e-01
9.856101125478744507e-02,-2.586235105991363525e-01,6.317207217216491699e-01,-6.468734741210937500e-01,-5.471860766410827637e-01,5.611960887908935547e-01,-7.200155258178710938e-01,-1.692816764116287231e-01,-2.602565288543701172e-01,-1.834441572427749634e-01,-1.916489750146865845e-01,3.049517571926116943e-01,1.496993452310562134e-01,-1.443623751401901245e-01,8.754821121692657471e-02,-1.326952129602432251e-01,5.244752764701843262e-01,3.911838829517364502e-01,4.221857190132141113e-01,4.644221812486648560e-02,-1.050834078341722488e-02
1.718472391366958618e-01,-5.486409738659858704e-02,6.271747350692749023e-01,-8.821474313735961914e-01,-5.062861442565917969e-01,2.723119556903839111e-01,-7.205901741981506348e-01,-5.147204548120498657e-02,-2.071212977170944214e-01,-2.860515117645263672e-01,-2.524152584373950958e-02,1.369827836751937866e-01,2.674606144428253174e-01,-3.769327402114868164e-01,2.386052347719669342e-02,-2.385213077068328857e-01,5.898524522781372070e-01,5.555324554443359375e-01,1.500522047281265259e-01,1.394572854042053223e-01,-4.654117394238710403e-03
7.031963765621185303e-02,-9.927643090486526489e-02,5.776816606521606445e-01,-8.831085562705993652e-01,-6.543534994125366211e-01,1.771766394376754761e-01,-5.685380697250366211e-01,-6.312740594148635864e-02,-1.653310805559158325e-01,-3.274205625057220459e-01,9.314693510532379150e-02,5.902486667037010193e-02,3.438842296600341797e-01,-2.797998189926147461e-01,2.658128440380096436e-01,4.585959017276763916e-02,6.251923441886901855e-01,4.794525802135467529e-01,2.443697601556777954e-01,3.433037921786308289e-02,-7.855615019798278809e-02
2.268904894590377808e-01,-9.171339869499206543e-02,1.891878545284271240e-01,-9.603955149650573730e-01,-5.498154163360595703e-01,2.227663099765777588e-01,-4.346743822097778320e-01,-2.901769280433654785e-01,-5.832024291157722473e-02,-2.957567870616912842e-01,9.792213141918182373e-02,8.383490145206451416e-02,3.523254990577697754e-01,-1.548576168715953827e-02,4.306158423423767090e-01,-9.299099445343017578e-03,3.902238011360168457e-01,2.466513663530349731e-01,1.314689964056015015e-01,5.277929455041885376e-02,-5.502553656697273254e-03
1.894429773092269897e-01,-1.359190046787261963e-01,2.992268204689025879e-01,-7.483394145965576172e-01,-7.633982300758361816e-01,1.252115070819854736e-01,-5.958364009857177734e-01,-1.214688345789909363e-01,-8.011160045862197876e-02,-3.055339455604553223e-01,1.648562401533126831e-01,-8.917535096406936646e-02,5.256243348121643066e-01,-2.414801120758056641e-01,3.192543089389801025e-01,1.378290355205535889e-01,4.090819358825683594e-01,4.157811403274536133e-01,4.309432506561279297e-01,1.387084424495697021e-01,-6.837825477123260498e-02
7.248763740062713623e-02,-1.263984106481075287e-02,3.329543769359588623e-02,-9.173952937126159668e-01,-4.869396984577178955e-01,2.520149350166320801e-01,-6.831700801849365234e-01,-3.019579052925109863e-01,-1.820019632577896118e-02,-3.678048551082611084e-01,9.650280699133872986e-03,8.387847244739532471e-02,4.318373501300811768e-01,-7.654585689306259155e-02,5.162772536277770996e-01,3.069078326225280762e-01,3.256241083145141602e-01,1.734731644392013550e-01,3.812846839427947998e-01,4.638898745179176331e-02,4.705760627985000610e-02
-2.846416831016540527e-02,-1.355724632740020752e-01,-1.088974550366401672e-01,-8.752914071083068848e-01,-7.078618407249450684e-01,2.259930372238159180e-01,-7.424911856651306152e-01,-2.964526116847991943e-01,4.311413690447807312e-02,-5.715433955192565918e-01,-3.019594401121139526e-02,-3.039599657058715820e-01,3.363395929336547852e-01,-7.045487314462661743e-02,2.581270635128021240e-01,3.937406539916992188e-01,4.979365170001983643e-01,3.013732731342315674e-01,3.033546172082424164e-02,2.149419486522674561e-01,-2.341739237308502197e-01
1.311054229736328125e-01,-2.268986701965332031e-01,-5.397725105285644531e-02,-7.334392666816711426e-01,-6.585900783538818359e-01,1.406298428773880005e-01,-5.522053837776184082e-01,-3.315843343734741211e-01,3.225414156913757324e-01,-4.184217154979705811e-01,2.216060906648635864e-01,-1.882465630769729614e-01,5.182258486747741699e-01,1.593864709138870239e-01,4.679606556892395020e-01,4.654033780097961426e-01,1.630651950836181641e-01,1.245507001876831055e-01,1.606372594833374023e-01,3.327459096908569336e-01,-7.955823838710784912e-02
6.856720894575119019e-02,-8.330093324184417725e-02,-1.457001566886901855e-01,-7.923429608345031738e-01,-6.246818304061889648e-01,1.932275742292404175e-01,-6.936382651329040527e-01,-2.290422469377517700e-01,4.474896192550659180e-01,-3.658000528812408447e-01,3.440975844860076904e-01,-2.240617722272872925e-01,4.659142494201660156e-01,1.522599160671234131e-01,3.352824747562408447e-01,5.849705934524536133e-01,4.029038548469543457e-02,3.265030980110168457e-01,2.150924503803253174e-01,2.312045991420745850e-01,-1.371227204799652100e-01
-7.593114674091339111e-02,2.361937612295150757e-02,-1.628809124231338501e-01,-6.514778137207031250e-01,-3.977068364620208740e-01,2.725382745265960693e-01,-6.278360486030578613e-01,-3.526799380779266357e-01,4.513666033744812012e-01,-3.626846969127655029e-01,2.417504340410232544e-01,-3.948814272880554199e-01,3.030339181423187256e-01,2.205822616815567017e-01,3.667511343955993652e-01,5.285441875457763672e-01,1.305709779262542725e-01,1.016097664833068848e-01,1.476782560348510742e-01,3.722555339336395264e-01,-1.335734724998474121e-01
-2.504628002643585205e-01,6.138388812541961670e-02,-1.699047088623046875e-01,-8.394094109535217285e-01,-5.636947751045227051e-01,4.076669514179229736e-01,-4.930450618267059326e-01,-3.897163271903991699e-01,5.153688192367553711e-01,-6.190108060836791992e-01,1.731331795454025269e-01,-2.850889265537261963e-01,3.860196769237518311e-01,3.319185078144073486e-01,3.141239881515502930e-01,5.696699619293212891e-01,-1.195758208632469177e-01,-6.723149213939905167e-03,1.414974778890609741e-01,3.280289769172668457e-01,-1.267110556364059448e-01
-3.378730118274688721e-01,-8.207082003355026245e-02,-4.317653477191925049e-01,-5.163025856018066406e-01,-3.920089006423950195e-01,3.237511217594146729e-01,-3.810226321220397949e-01,-5.123451352119445801e-01,4.529097080230712891e-01,-5.140896439552307129e-01,2.123472839593887329e-01,-4.443884491920471191e-01,3.014691472053527832e-01,5.361834764480590820e-01,4.343112111091613770e-01,7.329319715499877930e-01,-8.040123619139194489e-03,-1.802576184272766113e-01,5.356029421091079712e-02,2.651088833808898926e-01,3.789453208446502686e-02
-3.990414142608642578e-01,-1.397776603698730469e-01,-2.857110500335693359e-01,-3.439290225505828857e-01,-3.149567842483520508e-01,2.576527595520019531e-01,-2.755470871925354004e-01,-6.136814951896667480e-01,6.097012758255004883e-01,-3.897368311882019043e-01,2.544623017311096191e-01,-4.176282882690429688e-01,1.202033534646034241e-01,5.864819288253784180e-01,3.962263762950897217e-01,8.088067770004272461e-01,-2.363018542528152466e-01,-1.560667157173156738e-01,-2.020648568868637085e-01,3.090802729129791260e-01,-9.897697716951370239e-02
-5.564578175544738770e-01,-9.446597844362258911e-02,-5.497550964355468750e-01,-3.924545943737030029e-01,-2.576293647289276123e-01,3.851950466632843018e-01,-1.538777500391006470e-01,-5.183452367782592773e-01,8.707665205001831055e-01,-3.828853070735931396e-01,1.273388117551803589e-01,-4.627268016338348389e-01,4.662988334894180298e-02,6.779924035072326660e-01,3.989602625370025635e-01,5.903052687644958496e-01,-3.371513783931732178e-01,-1.370074152946472168e-01,-4.023563116788864136e-02,2.473593503236770630e-01,8.894566446542739868e-02
-5.499321222305297852e-01,4.684285447001457214e-02,-3.958063721656799316e-01,-1.123156473040580750e-01,-9.332616627216339111e-02,2.149084359407424927e-01,-2.501390576362609863e-01,-4.861137568950653076e-01,7.630488872528076172e-01,-3.298005461692810059e-01,2.643143832683563232e-01,-4.312743842601776123e-01,1.178736910223960876e-01,5.112438797950744629e-01,3.177371621131896973e-01,8.442170619964599609e-01,-3.002039194107055664e-01,-3.797305524349212646e-01,-2.074893414974212646e-01,-2.305968292057514191e-02,-3.423687443137168884e-02
-4.345239400863647461e-01,-1.744750440120697021e-01,-5.619542002677917480e-01,-7.360433042049407959e-02,-1.363480687141418457e-01,3.677124381065368652e-01,-2.984617352485656738e-01,-7.734882831573486328e-01,8.294780850410461426e-01,-3.826851844787597656e-01,3.713482916355133057e-01,-7.899430394172668457e-01,-4.936866462230682373e-02,7.298123836517333984e-01,3.580259382724761963e-01,6.750859618186950684e-01,-4.736180305480957031e-01,-5.121323466300964355e-01,-2.028716802597045898e-01,8.289021998643875122e-02,2.216462641954421997e-01
-5.544778704643249512e-01,-1.788082160055637360e-02,-4.717667698860168457e-01,7.845430076122283936e-02,-1.583169102668762207e-01,3.140623867511749268e-01,-3.323921561241149902e-01,-8.324832320213317871e-01,6.773592233657836914e-01,-2.828480005264282227e-01,3.398194313049316406e-01,-5.259181857109069824e-01,-5.692875757813453674e-02,7.501416206359863281e-01,1.571032702922821045e-01,5.902704000473022461e-01,-7.520077228546142578e-01,-5.927712917327880859e-01,-5.352023243904113770e-01,5.129919946193695068e-02,2.378393858671188354e-01
-8.101943731307983398e-01,1.382455378770828247e-01,-6.180302500724792480e-01,1.521217543631792068e-02,-2.842862308025360107e-01,8.987206220626831055e-02,-2.595102488994598389e-01,-1.006887674331665039e+00,6.772964596748352051e-01,-2.914244830608367920e-01,3.609076738357543945e-01,-5.935547351837158203e-01,-7.299789041280746460e-02,8.877890706062316895e-01,1.666730046272277832e-01,7.120873928070068359e-01,-6.617074012756347656e-01,-4.500572383403778076e-01,-1.015062034130096436e-01,-2.349683828651905060e-02,2.641685307025909424e-02
-7.307157516479492188e-01,2.827679216861724854e-01,-5.458858609199523926e-01,1.930187940597534180e-01,-2.621423006057739258e-01,1.450645178556442261e-01,-1.202172487974166870e-01,-9.259594678878784180e-01,8.793259859085083008e-01,-8.291657269001007080e-02,1.862305104732513428e-01,-6.109716892242431641e-01,-2.437167614698410034e-01,6.980702280998229980e-01,7.392005622386932373e-02,6.330549716949462891e-01,-5.712712407112121582e-01,-5.298554301261901855e-01,-1.806512922048568726e-01,7.027938216924667358e-02,1.336113065481185913e-01
-6.634951829910278320e-01,3.431916534900665283e-01,-7.276908755302429199e-01,2.524740062654018402e-02,-1.481741070747375488e-01,3.520516455173492432e-01,-1.686139404773712158e-01,-9.292981028556823730e-01,1.013829946517944336e+00,-4.013460874557495117e-02,3.579380214214324951e-01,-4.372068047523498535e-01,-4.178794324398040771e-01,9.438222050666809082e-01,-9.898652881383895874e-02,5.780795216560363770e-01,-6.802918910980224609e-01,-6.372368931770324707e-01,-5.433200001716613770e-01,-9.938549250364303589e-02,1.074396073818206787e-01
-8.190287947654724121e-01,5.777534842491149902e-01,-5.597575902938842773e-01,7.221232354640960693e-02,-6.603676080703735352e-02,1.361612696200609207e-02,-1.470155119895935059e-01,-7.247976660728454590e-01,1.075940012931823730e+00,-4.038994386792182922e-02,2.139119356870651245e-01,-6.783522367477416992e-01,-3.003962635993957520e-01,9.963650703430175781e-01,-5.597180128097534180e-02,4.249698519706726074e-01,-6.942239403724670410e-01,-6.211930513381958008e-01,-2.834773063659667969e-01,6.402528844773769379e-03,6.574889272451400757e-02
-6.138961911201477051e-01,4.809540808200836182e-01,-5.097655057907104492e-01,2.371265590190887451e-01,-1.896877288818359375e-01,1.625473350286483765e-01,-1.534663736820220947e-01,-7.904007434844970703e-01,8.966439962387084961e-01,-1.404003798961639404e-01,5.133953690528869629e-01,-4.087328612804412842e-01,-5.053525567054748535e-01,7.711100578308105469e-01,-3.642702698707580566e-01,4.771651327610015869e-01,-6.424742937088012695e-01,-8.217154741287231445e-01,-2.028523385524749756e-01,-2.153087779879570007e-02,3.235755860805511475e-01
-9.362185597419738770e-01,4.580100178718566895e-01,-2.473435103893280029e-01,1.233230228535830975e-03,-2.803164124488830566e-01,1.690007597208023071e-01,7.915486581623554230e-03,-7.922150492668151855e-01,9.865630269050598145e-01,-3.069957531988620758e-02,4.334141910076141357e-01,-3.653615117073059082e-01,-4.097951948642730713e-01,7.556614279747009277e-01,-4.394820928573608398e-01,7.180450558662414551e-01,-7.445699572563171387e-01,-6.457098126411437988e-01,-2.528060972690582275e-01,-5.482787266373634338e-02,2.398595213890075684e-01
-7.230867743492126465e-01,3.927420377731323242e-01,-5.922859311103820801e-01,-6.392798852175474167e-03,-2.581082880496978760e-01,9.738519042730331421e-02,1.940073668956756592e-01,-7.240310311317443848e-01,8.997837305068969727e-01,1.010418310761451721e-01,5.202892422676086426e-01,-3.004467487335205078e-01,-5.706788301467895508e-01,9.758351445198059082e-01,-5.816907286643981934e-01,3.028421401977539062e-01,-7.489480972290039062e-01,-6.996113657951354980e-01,-1.842081397771835327e-01,-1.961816549301147461e-01,9.066554158926010132e-02
-9.121550917625427246e-01,7.028682827949523926e-01,-5.924974083900451660e-01,1.167679205536842346e-01,-9.113237261772155762e-02,2.489653676748275757e-01,2.746871709823608398e-01,-5.950918793678283691e-01,8.683668971061706543e-01,1.201577633619308472e-01,5.545665621757507324e-01,-1.593984812498092651e-01,-4.592621028423309326e-01,9.470934867858886719e-01,-5.257884860038757324e-01,3.085457086563110352e-01,-7.331320047378540039e-01,-7.718998789787292480e-01,8.978705853223800659e-02,-1.582892090082168579e-01,2.025754451751708984e-01
-7.732298970222473145e-01,7.468441724777221680e-01,-3.534525930881500244e-01,7.178437896072864532e-03,-1.015455126762390137e-01,1.399887651205062866e-01,3.636668324470520020e-01,-5.120023488998413086e-01,7.921681404113769531e-01,8.337840437889099121e-02,7.172251939773559570e-01,-1.594143919646739960e-02,-5.591415762901306152e-01,7.059265971183776855e-01,-6.194663643836975098e-01,2.643766999244689941e-01,-6.385641098022460938e-01,-6.390450596809387207e-01,-1.120524704456329346e-01,-1.699574142694473267e-01,1.381521858274936676e-02
-8.828095197677612305e-01,7.264209985733032227e-01,-1.489881873130798340e-01,-8.891353756189346313e-02,-2.079235613346099854e-01,-1.353297531604766846e-01,3.592189848423004150e-01,-3.372736573219299316e-01,8.316510915756225586e-01,3.454934358596801758e-01,7.092902064323425293e-01,-1.870561391115188599e-01,-4.235574007034301758e-01,7.229792475700378418e-01,-5.646113157272338867e-01,2.583206593990325928e-01,-6.633577346801757812e-01,-3.900639414787292480e-01,9.825958311557769775e-02,-1.217801645398139954e-01,1.102160736918449402e-01
-7.305283546447753906e-01,5.739587545394897461e-01,-4.678692221641540527e-01,2.292724996805191040e-01,2.800251841545104980e-01,-1.241132766008377075e-01,3.483144938945770264e-01,-3.291705250740051270e-01,8.052580952644348145e-01,1.594225019216537476e-01,6.871592402458190918e-01,5.363646894693374634e-03,-3.710709214210510254e-01,7.723113894462585449e-01,-6.491713523864746094e-01,2.736343741416931152e-01,-8.251679539680480957e-01,-4.417515695095062256e-01,8.637202531099319458e-02,-2.732785642147064209e-01,1.846756041049957275e-01
-6.948947906494140625e-01,9.511246681213378906e-01,-4.759549498558044434e-01,2.083762288093566895e-01,2.684162855148315430e-01,-1.559806913137435913e-01,5.693424344062805176e-01,-4.018430113792419434e-01,5.398380756378173828e-01,2.042887657880783081e-01,7.187123298645019531e-01,-1.726388558745384216e-02,-3.394695818424224854e-01,7.323435544967651367e-01,-8.274788260459899902e-01,3.789674118161201477e-02,-6.073658466339111328e-01,-2.641271352767944336e-01,8.306868374347686768e-02,-3.015146255493164062e-01,-7.887461781501770020e-02
-5.263944268226623535e-01,7.712865471839904785e-01,-4.279462397098541260e-01,2.285682708024978638e-01,1.995262354612350464e-01,-1.831440627574920654e-01,6.227806806564331055e-01,-2.773748338222503662e-01,5.946462750434875488e-01,1.034828722476959229e-01,7.490274310111999512e-01,-3.800441697239875793e-02,-3.820538520812988281e-01,6.947754621505737305e-01,-6.961973309516906738e-01,1.989323347806930542e-01,-8.136754631996154785e-01,-2.386350035667419434e-01,2.045296579599380493e-01,-2.183766365051269531e-01,2.392163425683975220e-01
-5.139550566673278809e-01,7.050781846046447754e-01,-3.010898530483245850e-01,1.959873586893081665e-01,3.354285061359405518e-01,-3.479229807853698730e-01,8.218150734901428223e-01,-1.984508335590362549e-01,5.741629004478454590e-01,1.212976798415184021e-01,6.245797872543334961e-01,1.615908890962600708e-01,-1.604058593511581421e-01,7.132796049118041992e-01,-8.847675323486328125e-01,1.667198091745376587e-01,-6.581024527549743652e-01,-3.027361929416656494e-01,1.523450762033462524e-01,-3.634717166423797607e-01,2.788683585822582245e-02
-4.664683341979980469e-01,6.800161600112915039e-01,-4.569968879222869873e-01,1.874321103096008301e-01,3.086692094802856445e-01,-5.392423868179321289e-01,7.197798490524291992e-01,-2.075420618057250977e-01,7.067698836326599121e-01,-8.855416625738143921e-02,6.111971139907836914e-01,-3.477926552295684814e-02,-2.759072482585906982e-01,7.136074900627136230e-01,-6.712225079536437988e-01,-4.169229045510292053e-02,-8.785649538040161133e-01,-1.065690517425537109e-01,1.903430223464965820e-01,-2.993189990520477295e-01,1.972416341304779053e-01
-2.228227108716964722e-01,7.218513488769531250e-01,-2.906932234764099121e-01,8.813303709030151367e-02,3.889563977718353271e-01,-4.323256015777587891e-01,8.631812334060668945e-01,-4.209326803684234619e-01,6.571259498596191406e-01,-9.367517381906509399e-02,4.735281765460968018e-01,-1.301496773958206177e-01,-6.924295425415039062e-02,7.099409699440002441e-01,-8.341376185417175293e-01,4.552379716187715530e-03,-7.691667675971984863e-01,1.026227548718452454e-01,1.369326710700988770e-01,-4.416829347610473633e-01,2.785890400409698486e-01
-3.511197268962860107e-01,7.653827071189880371e-01,-3.086718022823333740e-01,9.558621048927307129e-02,3.151360154151916504e-01,-4.950573444366455078e-01,9.868083596229553223e-01,-3.158640265464782715e-01,5.289763808250427246e-01,-2.061177194118499756e-01,4.295797348022460938e-01,-5.953497812151908875e-02,1.368824094533920288e-01,6.311447620391845703e-01,-8.253600001335144043e-01,-1.862459778785705566e-01,-8.333330154418945312e-01,-2.203938551247119904e-02,2.555744647979736328e-01,-6.983916163444519043e-01,3.701226711273193359e-01
-1.617922335863113403e-01,6.526663303375244141e-01,-2.535055279731750488e-01,1.292601786553859711e-02,5.342819690704345703e-01,-5.065457224845886230e-01,8.748425841331481934e-01,-2.198024988174438477e-01,5.085256695747375488e-01,-2.064265459775924683e-01,1.892082206904888153e-02,2.410182170569896698e-02,-1.936395652592182159e-02,6.429513692855834961e-01,-6.881806850433349609e-01,-1.136949136853218079e-01,-4.721258878707885742e-01,8.884811401367187500e-02,5.407661944627761841e-02,-5.703929066658020020e-01,1.736260354518890381e-01
-1.485017091035842896e-01,4.529623091220855713e-01,-1.021896377205848694e-01,2.090814113616943359e-01,4.003381729125976562e-01,-2.946132421493530273e-01,7.856032252311706543e-01,-8.672398328781127930e-02,3.474311530590057373e-01,-3.293613195419311523e-01,6.529113650321960449e-02,-1.781117916107177734e-01,1.272442042827606201e-01,8.546323776245117188e-01,-5.687382221221923828e-01,-4.888955503702163696e-02,-8.077108860015869141e-01,-1.666830666363239288e-02,3.222509920597076416e-01,-6.155762672424316406e-01,1.834114193916320801e-01
1.664454466663300991e-04,4.261354804039001465e-01,-1.316124945878982544e-01,2.318757176399230957e-01,5.449124574661254883e-01,-4.019129872322082520e-01,1.044416069984436035e+00,-1.420433372259140015e-01,4.010851383209228516e-01,-2.441088259220123291e-01,4.577704891562461853e-02,-5.292194709181785583e-02,4.366953670978546143e-02,7.283688783645629883e-01,-6.634299159049987793e-01,-1.348461955785751343e-01,-7.435430884361267090e-01,6.453437358140945435e-02,1.489996016025543213e-01,-7.644956111907958984e-01,4.202806949615478516e-01
-1.588128209114074707e-01,2.711947560310363770e-01,-1.534228622913360596e-01,1.060357019305229187e-01,4.152439832687377930e-01,-3.752945363521575928e-01,8.094028830528259277e-01,-7.154941558837890625e-02,4.385277032852172852e-01,-4.346411824226379395e-01,-4.788441956043243408e-02,-1.762696057558059692e-01,1.787095516920089722e-02,8.163861036300659180e-01,-7.152744531631469727e-01,-2.041062265634536743e-01,-7.296475768089294434e-01,6.006828974932432175e-03,3.088262975215911865e-01,-9.096044301986694336e-01,1.255865544080734253e-01
-3.008006215095520020e-01,3.035825788974761963e-01,-2.062900923192501068e-02,3.558024764060974121e-02,5.262334942817687988e-01,-3.905696272850036621e-01,6.899441480636596680e-01,-1.279662996530532837e-01,3.089007437229156494e-01,-3.578225076198577881e-01,-2.438673228025436401e-01,2.862523198127746582e-01,1.520181894302368164e-01,6.195126771926879883e-01,-8.373942971229553223e-01,-2.831937372684478760e-01,-6.404721736907958984e-01,1.700481772422790527e-01,2.184059470891952515e-01,-1.039161086082458496e+00,-7.847546786069869995e-02
-2.859433889389038086e-01,6.722199916839599609e-02,1.788084805011749268e-01,5.645867809653282166e-02,6.996164321899414062e-01,-2.936791181564331055e-01,6.105350255966186523e-01,-2.129379808902740479e-01,3.163046538829803467e-01,-6.005020141601562500e-01,-1.065211594104766846e-01,-1.422180235385894775e-01,2.663062512874603271e-01,5.253745913505554199e-01,-1.005211472511291504e+00,-2.312696166336536407e-02,-6.827232241630554199e-01,6.487074494361877441e-02,-9.798531234264373779e-02,-1.081770539283752441e+00,-4.470679908990859985e-02
-1.205731853842735291e-01,-7.146894186735153198e-02,3.582207262516021729e-01,1.725224964320659637e-02,5.875232219696044922e-01,-1.508011519908905029e-01,7.179629206657409668e-01,-3.521412983536720276e-02,7.788024842739105225e-02,-5.096386671066284180e-01,-3.478991985321044922e-01,-1.548576354980468750e-01,1.349574327468872070e-01,4.654741287231445312e-01,-8.222967982292175293e-01,-2.945367395877838135e-01,-4.724925756454467773e-01,-6.526142358779907227e-02,-8.211676031351089478e-02,-1.141924023628234863e+00,-3.278544871136546135e-03
-2.496594339609146118e-01,-6.184981763362884521e-02,2.898506224155426025e-01,-1.241824105381965637e-01,4.443470537662506104e-01,2.859485149383544922e-02,6.526596546173095703e-01,-2.908452153205871582e-01,2.276942729949951172e-01,-5.504588484764099121e-01,-1.031451895833015442e-01,-1.358424276113510132e-01,1.151762753725051880e-01,2.522963285446166992e-01,-7.081193923950195312e-01,-2.212039232254028320e-01,-3.434672355651855469e-01,2.497077174484729767e-02,2.828936651349067688e-02,-1.028247714042663574e+00,-1.634030640125274658e-01
8.844662457704544067e-03,-3.256851136684417725e-01,5.086057186126708984e-01,-2.172078005969524384e-02,3.737195730209350586e-01,-6.833744049072265625e-02,4.766325950622558594e-01,-2.820188999176025391e-01,5.381889641284942627e-02,-5.088507533073425293e-01,-1.721407324075698853e-01,-8.186510205268859863e-02,2.495537549257278442e-01,1.445827782154083252e-01,-8.943704366683959961e-01,-3.668853342533111572e-01,-4.357254505157470703e-01,2.978384196758270264e-01,-1.425702869892120361e-01,-1.175811886787414551e+00,-1.300862431526184082e-01
-2.966701686382293701e-01,-1.299355030059814453e-01,3.822228908538818359e-01,-6.486825644969940186e-02,4.464703500270843506e-01,2.018406242132186890e-01,4.957868456840515137e-01,-5.558876991271972656e-01,-1.014233678579330444e-01,-6.431577801704406738e-01,-4.031553566455841064e-01,-1.705576777458190918e-01,2.325719147920608521e-01,3.776035457849502563e-02,-8.580477833747863770e-01,-8.957461267709732056e-02,-3.091731965541839600e-01,2.498809546232223511e-01,-7.474031299352645874e-02,-1.168094158172607422e+00,-1.005701050162315369e-01
-4.474350810050964355e-01,-3.667186200618743896e-01,4.929821789264678955e-01,-4.466236531734466553e-01,4.961419105529785156e-01,1.721088439226150513e-01,4.079710841178894043e-01,-5.567566752433776855e-01,-4.548544529825448990e-03,-6.304569244384765625e-01,-1.485266629606485367e-02,1.322153955698013306e-02,2.787398099899291992e-01,-2.512212470173835754e-02,-6.522586345672607422e-01,-4.950693249702453613e-01,-9.527684748172760010e-02,2.242738753557205200e-01,-2.130687683820724487e-01,-1.156815290451049805e+00,-3.469969928264617920e-01
-1.483569592237472534e-01,-4.152658283710479736e-01,4.150412380695343018e-01,-2.755095660686492920e-01,3.899952173233032227e-01,1.126181557774543762e-01,3.141668736934661865e-01,-3.794569671154022217e-01,-2.930615842342376709e-01,-7.159438133239746094e-01,-4.676957130432128906e-01,-1.829851120710372925e-01,3.688663542270660400e-01,-1.255148798227310181e-01,-5.336152911186218262e-01,-6.585921049118041992e-01,-1.945738792419433594e-01,5.653784275054931641e-01,-3.984168171882629395e-01,-9.621326923370361328e-01,-3.264922797679901123e-01
-3.722919523715972900e-01,-5.310813784599304199e-01,4.611834883689880371e-01,-3.044883012771606445e-01,3.313121199607849121e-01,3.662434518337249756e-01,2.415118962526321411e-01,-6.521515846252441406e-01,-4.469999969005584717e-01,-7.496446967124938965e-01,-3.676542937755584717e-01,-3.172602951526641846e-01,5.314361453056335449e-01,-2.605439126491546631e-01,-5.428747534751892090e-01,-4.802243411540985107e-01,-2.919663488864898682e-02,2.857140004634857178e-01,-3.632720410823822021e-01,-9.550381302833557129e-01,-4.701962172985076904e-01
-2.548178136348724365e-01,-3.246076703071594238e-01,3.197209537029266357e-01,-4.235903620719909668e-01,5.966933444142341614e-02,3.941981792449951172e-01,2.020822912454605103e-01,-4.306243062019348145e-01,-2.775264382362365723e-01,-6.390984058380126953e-01,-4.522649049758911133e-01,-2.478726059198379517e-01,6.057696342468261719e-01,-3.076186776161193848e-01,-5.159509778022766113e-01,-5.190735459327697754e-01,1.151788756251335144e-01,4.285565614700317383e-01,-3.403915464878082275e-01,-9.262572526931762695e-01,-4.900093674659729004e-01
-2.981948852539062500e-01,-5.535243749618530273e-01,5.429923534393310547e-01,-5.880504846572875977e-01,4.305359348654747009e-02,4.654251933097839355e-01,2.795114815235137939e-01,-3.821437060832977295e-01,-4.125050008296966553e-01,-7.500911951065063477e-01,-1.832489073276519775e-01,-6.184929609298706055e-02,5.066508650779724121e-01,-2.575877010822296143e-01,-6.620047688484191895e-01,-4.586217403411865234e-01,2.513613700866699219e-01,6.045079827308654785e-01,-6.286928653717041016e-01,-6.318922638893127441e-01,-5.065402388572692871e-01
-2.694455385208129883e-01,-5.566291809082031250e-01,5.201777219772338867e-01,-6.334071159362792969e-01,-1.329873800277709961e-01,3.441699445247650146e-01,6.758921593427658081e-02,-5.438673496246337891e-01,-3.878227770328521729e-01,-9.130690693855285645e-01,-1.566840857267379761e-01,-3.087899386882781982e-01,5.637016892433166504e-01,-3.019786179065704346e-01,-4.761430919170379639e-01,-3.606786429882049561e-01,3.044383823871612549e-01,3.773095309734344482e-01,-4.788733422756195068e-01,-6.926141381263732910e-01,-5.461224913597106934e-01
-3.254103660583496094e-01,-4.037593901157379150e-01,3.396584093570709229e-01,-6.620543003082275391e-01,-1.361899673938751221e-01,4.638773500919342041e-01,-7.682840526103973389e-02,-2.541728913784027100e-01,-4.437373876571655273e-01,-8.727122545242309570e-01,-2.618569433689117432e-01,-2.370269298553466797e-01,5.843384861946105957e-01,-4.009046554565429688e-01,-5.711967349052429199e-01,-3.937938511371612549e-01,2.934193313121795654e-01,4.127162694931030273e-01,-4.876439273357391357e-01,-7.960787415504455566e-01,-7.201264500617980957e-01
-9.982647001743316650e-02,-4.672390818595886230e-01,4.843636751174926758e-01,-6.471310853958129883e-01,-3.707983493804931641e-01,5.816442370414733887e-01,4.647966125048696995e-04,-3.469119369983673096e-01,-2.034965604543685913e-01,-8.014993667602539062e-01,-2.597807645797729492e-01,-4.255585372447967529e-01,8.776438832283020020e-01,-3.763206899166107178e-01,-6.153467297554016113e-01,-3.957755267620086670e-01,6.655603647232055664e-01,5.423118472099304199e-01,-4.272596240043640137e-01,-5.254942774772644043e-01,-6.210548877716064453e-01
-2.429794073104858398e-01,-5.499459505081176758e-01,4.771264493465423584e-01,-8.466992378234863281e-01,-2.568791508674621582e-01,6.511306166648864746e-01,9.856060892343521118e-02,-4.270246028900146484e-01,-3.187014758586883545e-01,-7.904874682426452637e-01,-9.785217046737670898e-02,-3.655130267143249512e-01,7.395948171615600586e-01,-4.220426380634307861e-01,-1.527489125728607178e-01,-4.354046881198883057e-01,3.514592647552490234e-01,6.769759058952331543e-01,-4.715177714824676514e-01,-6.700929999351501465e-01,-6.106578707695007324e-01
-2.394630461931228638e-01,-4.052554666996002197e-01,4.754468202590942383e-01,-8.046488165855407715e-01,-4.478213489055633545e-01,5.762712955474853516e-01,1.965228095650672913e-02,-3.360393345355987549e-01,-3.695344626903533936e-01,-8.375665545463562012e-01,-1.030808389186859131e-01,-3.683192431926727295e-01,9.192413687705993652e-01,-3.270959854125976562e-01,-2.470824122428894043e-01,-1.971762478351593018e-01,4.957233369350433350e-01,4.072422683238983154e-01,-3.339610397815704346e-01,-5.246203541755676270e-01,-7.298026084899902344e-01
-2.116127610206604004e-01,-5.816221237182617188e-01,5.582205653190612793e-01,-7.396912574768066406e-01,-5.984786152839660645e-01,6.647676825523376465e-01,1.137126907706260681e-01,-1.297060400247573853e-01,-2.387212365865707397e-01,-9.615337848663330078e-01,1.557565033435821533e-01,-2.942501306533813477e-01,1.018856287002563477e+00,-4.127560853958129883e-01,-2.340330928564071655e-01,-3.060608208179473877e-01,5.754010081291198730e-01,6.060470342636108398e-01,-5.048612952232360840e-01,-5.129426121711730957e-01,-7.987588047981262207e-01
-2.183144092559814453e-01,-7.207310199737548828e-01,3.453813195228576660e-01,-5.006520152091979980e-01,-4.332160949707031250e-01,4.615934193134307861e-01,2.981447987258434296e-02,-2.984110414981842041e-01,-2.751809954643249512e-01,-7.803251147270202637e-01,-1.536448858678340912e-02,-3.487506210803985596e-01,1.130742907524108887e+00,-4.375026226043701172e-01,-8.027151972055435181e-02,-2.957384884357452393e-01,4.651779830455780029e-01,5.645970106124877930e-01,-4.793424308300018311e-01,-4.488352537155151367e-01,-5.279604196548461914e-01
-2.665313184261322021e-01,-4.529846608638763428e-01,1.881560087203979492e-01,-6.398608684539794922e-01,-5.010743141174316406e-01,6.693958044052124023e-01,1.861281394958496094e-01,-3.860035538673400879e-01,-3.687343001365661621e-01,-7.151501178741455078e-01,-1.218925565481185913e-01,-4.239690899848937988e-01,9.163711667060852051e-01,-3.970925211906433105e-01,1.417730003595352173e-01,-6.229571998119354248e-02,2.772025167942047119e-01,3.800405859947204590e-01,-3.505501747131347656e-01,-2.922236621379852295e-01,-5.516159534454345703e-01
-1.729460209608078003e-01,-5.468555092811584473e-01,2.040065079927444458e-01,-4.874510467052459717e-01,-4.260310530662536621e-01,6.115725636482238770e-01,2.559556066989898682e-01,-1.936261057853698730e-01,-2.344485968351364136e-01,-5.813775658607482910e-01,-7.384995371103286743e-02,-5.891068577766418457e-01,9.693372249603271484e-01,-3.366070687770843506e-01,1.164295375347137451e-01,-1.877353042364120483e-01,2.566224932670593262e-01,5.928674340248107910e-01,-6.445984244346618652e-01,-1.588217616081237793e-01,-5.399299263954162598e-01
-4.230961799621582031e-01,-5.793401598930358887e-01,-1.796905100345611572e-01,-5.325062870979309082e-01,-3.640979528427124023e-01,4.786068499088287354e-01,1.514110863208770752e-01,-4.784501791000366211e-01,1.726447045803070068e-02,-6.655393242835998535e-01,-1.988778859376907349e-01,-6.878492832183837891e-01,1.167391061782836914e+00,-2.153181433677673340e-01,2.680048346519470215e-01,-8.313028956763446331e-04,2.949387133121490479e-01,6.973918080329895020e-01,-4.418981969356536865e-01,-4.996095225214958191e-02,-4.861887097358703613e-01
-4.017003178596496582e-01,-7.157124280929565430e-01,-1.555149406194686890e-01,-5.019337534904479980e-01,-5.330958366394042969e-01,6.174861192703247070e-01,2.903978824615478516e-01,-4.977143406867980957e-01,-2.245739661157131195e-02,-6.670061349868774414e-01,2.316714376211166382e-01,-5.267278552055358887e-01,9.804142117500305176e-01,-1.537763029336929321e-01,3.387212455272674561e-01,-1.527558863162994385e-01,2.021924853324890137e-01,4.516474604606628418e-01,-4.579878449440002441e-01,7.131167501211166382e-02,-3.469103276729583740e-01
-3.363601565361022949e-01,-6.541950106620788574e-01,-3.263196647167205811e-01,-2.631287872791290283e-01,-4.297517240047454834e-01,4.048725366592407227e-01,-4.168285522609949112e-03,-1.870839744806289673e-01,-1.597088016569614410e-02,-6.373955607414245605e-01,2.084784209728240967e-01,-8.126948475837707520e-01,9.788349270820617676e-01,-2.712911665439605713e-01,3.654010891914367676e-01,-5.054964125156402588e-02,1.594089120626449585e-01,4.583738148212432861e-01,-5.071927905082702637e-01,-1.012499481439590454e-01,-2.717333137989044189e-01
-3.318656682968139648e-01,-4.721378684043884277e-01,-1.617148071527481079e-01,-2.677842974662780762e-01,-5.288110375404357910e-01,4.317464530467987061e-01,9.640458226203918457e-02,-3.679192662239074707e-01,1.502974778413772583e-01,-5.446370840072631836e-01,7.376692444086074829e-02,-9.996143579483032227e-01,8.440591692924499512e-01,-1.808232814073562622e-01,2.877377569675445557e-01,5.836819857358932495e-02,-9.014599770307540894e-02,5.881514549255371094e-01,-3.578273057937622070e-01,1.404362451285123825e-02,-3.542177975177764893e-01
-1.955641508102416992e-01,-5.053119063377380371e-01,-4.003840684890747070e-01,-2.530411481857299805e-01,-4.287447929382324219e-01,5.624838471412658691e-01,-7.493980973958969116e-02,-4.579901099205017090e-01,4.704733937978744507e-02,-7.325671911239624023e-01,1.103103533387184143e-01,-9.039443731307983398e-01,7.962638139724731445e-01,-1.545038521289825439e-01,2.858026623725891113e-01,-5.292767286300659180e-02,-2.059930562973022461e-01,2.777776718139648438e-01,-6.907020211219787598e-01,3.570996522903442383e-01,-2.657939493656158447e-01
-5.464074611663818359e-01,-4.988798499107360840e-01,-4.551058709621429443e-01,-2.385155558586120605e-01,-8.641859143972396851e-02,4.533683657646179199e-01,2.760455012321472168e-01,-4.754449129104614258e-01,4.034547507762908936e-01,-5.802577733993530273e-01,4.487868025898933411e-02,-1.020701885223388672e+00,7.439271807670593262e-01,2.832622081041336060e-02,2.767031192779541016e-01,-3.173037618398666382e-02,-8.450764231383800507e-03,1.509173214435577393e-01,-6.852133274078369141e-01,8.763094246387481689e-02,-2.390420287847518921e-01
-3.666648566722869873e-01,-6.350966691970825195e-01,-2.775745987892150879e-01,-1.363720893859863281e-01,-2.417502701282501221e-01,4.467466175556182861e-01,7.251507043838500977e-02,-4.070058763027191162e-01,3.375160992145538330e-01,-6.041203737258911133e-01,2.685031592845916748e-01,-1.040113329887390137e+00,7.636249065399169922e-01,-5.743520334362983704e-03,4.508957862854003906e-01,3.838789882138371468e-03,-2.954128012061119080e-02,1.101856306195259094e-01,-5.518341660499572754e-01,1.264641731977462769e-01,-3.257053196430206299e-01
-4.072422683238983154e-01,-6.559879779815673828e-01,-3.589649796485900879e-01,-9.049943834543228149e-02,-3.171741962432861328e-01,4.499338865280151367e-01,4.445876181125640869e-02,-4.440662264823913574e-01,4.055641889572143555e-01,-3.740786612033843994e-01,3.371094763278961182e-01,-9.874629378318786621e-01,4.097485840320587158e-01,1.868683844804763794e-01,3.439252972602844238e-01,-3.439486958086490631e-03,-2.269358932971954346e-01,2.564566209912300110e-02,-6.489672064781188965e-01,1.099312826991081238e-01,-2.268645167350769043e-01
-3.502520322799682617e-01,-6.129269599914550781e-01,-3.204315304756164551e-01,-5.795970931649208069e-02,-3.628328144550323486e-01,7.302247285842895508e-01,-5.401545017957687378e-02,-5.331311225891113281e-01,6.117713451385498047e-01,-3.209598958492279053e-01,4.099003970623016357e-01,-1.033880114555358887e+00,3.890674710273742676e-01,3.379379808902740479e-01,1.660845279693603516e-01,-4.249981045722961426e-02,-1.517210751771926880e-01,3.639987111091613770e-02,-3.366852998733520508e-01,-1.754219830036163330e-02,8.568732440471649170e-02
-5.608108043670654297e-01,-6.297417283058166504e-01,-3.820119500160217285e-01,-7.914398610591888428e-02,-2.984341681003570557e-01,6.503694653511047363e-01,9.558840841054916382e-02,-4.714005887508392334e-01,5.103543996810913086e-01,-3.276324272155761719e-01,3.657861351966857910e-01,-9.706207513809204102e-01,4.432103335857391357e-01,6.932070851325988770e-02,1.349001228809356689e-01,-2.777571976184844971e-01,-3.323018550872802734e-02,1.103600561618804932e-01,-3.490119576454162598e-01,-1.374505609273910522e-01,-6.369236856698989868e-02
-4.733168482780456543e-01,-5.891099572181701660e-01,-4.112491011619567871e-01,-6.503672897815704346e-02,-3.416458666324615479e-01,5.905239582061767578e-01,1.134186312556266785e-01,-5.360785126686096191e-01,5.322828292846679688e-01,-2.702417969703674316e-01,5.788787603378295898e-01,-8.483327627182006836e-01,2.994541823863983154e-01,1.657482683658599854e-01,-1.491482257843017578e-01,-3.887462988495826721e-02,-2.021113485097885132e-01,-2.037992179393768311e-01,-2.317437231540679932e-01,-1.505423150956630707e-02,-4.738292098045349121e-02
-6.241399645805358887e-01,-6.593549847602844238e-01,-3.810586631298065186e-01,-1.343707591295242310e-01,-1.700016707181930542e-01,6.666075587272644043e-01,5.493500083684921265e-02,-5.424048900604248047e-01,4.717573225498199463e-01,1.975662410259246826e-01,7.485105991363525391e-01,-7.295947074890136719e-01,1.640316992998123169e-01,4.824493452906608582e-02,-4.590386152267456055e-02,-1.853683590888977051e-01,-7.832860201597213745e-02,-1.531782597303390503e-01,-2.323790043592453003e-01,1.217626705765724182e-01,2.274011634290218353e-02
-6.336002349853515625e-01,-6.361485123634338379e-01,-4.226467609405517578e-01,-7.241692394018173218e-02,-2.482636570930480957e-01,7.242145538330078125e-01,3.733396157622337341e-02,-4.305056631565093994e-01,4.285454750061035156e-01,1.201336085796356201e-01,7.486025094985961914e-01,-6.499017477035522461e-01,9.909145534038543701e-03,6.754397600889205933e-02,2.711709961295127869e-02,-1.092726439237594604e-01,-1.183886751532554626e-01,-1.945339590311050415e-01,-3.912455439567565918e-01,3.153061270713806152e-01,2.090534120798110962e-01
-5.642641782760620117e-01,-5.706241726875305176e-01,-3.446080088615417480e-01,-2.203475497663021088e-02,-2.611191868782043457e-01,5.691499710083007812e-01,8.853969722986221313e-02,-3.985011875629425049e-01,5.832244157791137695e-01,2.695866823196411133e-01,8.078844547271728516e-01,-6.532044410705566406e-01,-9.882742911577224731e-02,-2.872665971517562866e-02,-1.989167034626007080e-01,-1.836474388837814331e-01,-1.810223460197448730e-01,-3.535254672169685364e-02,-3.225238025188446045e-01,3.093237578868865967e-01,2.389822602272033691e-01
-6.673282980918884277e-01,-2.945137619972229004e-01,-4.911944866180419922e-01,-2.542198263108730316e-02,-8.599165081977844238e-02,3.109481930732727051e-01,3.908811509609222412e-02,-2.697713673114776611e-01,5.380405783653259277e-01,2.476083636283874512e-01,8.477120399475097656e-01,-4.042229354381561279e-01,-1.464140415191650391e-01,-4.232289642095565796e-02,-7.290108501911163330e-02,-3.719166517257690430e-01,-1.843310892581939697e-01,-8.399474620819091797e-02,-1.338815242052078247e-01,1.176851317286491394e-01,9.668891131877899170e-02
