AF3,F7,F3,FC5,T7,P7,O1,O2,P8,T8,FC6,F4,F8,AF4
5.450688004493713379e-01,4.343927800655364990e-01,1.987145096063613892e-01,1.093542203307151794e-01,-6.586998701095581055e-01,-1.086562722921371460e-01,3.885537087917327881e-01,-5.858794450759887695e-01,2.954064607620239258e-01,4.362820833921432495e-02,4.685887992382049561e-01,-5.758492350578308105e-01,4.763947054743766785e-02,1.007074356079101562e+00
7.890406847000122070e-01,6.472157835960388184e-01,3.096347302198410034e-02,1.263291686773300171e-01,-5.008688569068908691e-01,-1.898689866065979004e-01,4.134463071823120117e-01,-5.691171884536743164e-01,2.975248359143733978e-02,2.390310168266296387e-01,5.878429412841796875e-01,-5.896596312522888184e-01,-1.054511368274688721e-01,9.729123115539550781e-01
7.095731496810913086e-01,6.012904047966003418e-01,-1.089540496468544006e-01,1.059780120849609375e-01,-5.328387022018432617e-01,-3.141829967498779297e-01,3.442191481590270996e-01,-4.436117410659790039e-01,1.535499095916748047e-01,1.007432937622070312e-01,5.837935209274291992e-01,-6.096301078796386719e-01,-2.702457904815673828e-01,9.872079491615295410e-01
6.468519568443298340e-01,6.761844754219055176e-01,-2.966797947883605957e-01,1.064381375908851624e-01,-4.481159746646881104e-01,-5.387495756149291992e-01,2.105249464511871338e-01,-4.606477022171020508e-01,1.710108816623687744e-01,1.497812569141387939e-01,5.509104728698730469e-01,-6.494655013084411621e-01,3.014542460441589355e-01,7.702014446258544922e-01
6.350906491279602051e-01,7.420088648796081543e-01,-3.988024890422821045e-01,5.319438874721527100e-02,-6.421656012535095215e-01,-4.629531204700469971e-01,1.713871806859970093e-01,-3.793457448482513428e-01,1.036253049969673157e-01,1.458484977483749390e-01,4.280328452587127686e-01,-7.076121568679809570e-01,1.032042279839515686e-01,7.465797662734985352e-01
7.412478327751159668e-01,4.282297492027282715e-01,-3.045436441898345947e-01,2.226099818944931030e-01,-2.704652249813079834e-01,-3.006974756717681885e-01,1.091495975852012634e-01,-4.149936139583587646e-01,-1.228550300002098083e-01,1.293580085039138794e-01,3.044376671314239502e-01,-6.821959018707275391e-01,8.265025168657302856e-02,9.554882049560546875e-01
5.823718309402465820e-01,4.911402761936187744e-01,-2.568835318088531494e-01,3.095420002937316895e-01,-1.554117798805236816e-01,-4.979005455970764160e-01,2.979436218738555908e-01,-5.457026958465576172e-01,4.175310581922531128e-02,-1.427970640361309052e-02,3.211010098457336426e-01,-5.804564356803894043e-01,1.958189755678176880e-01,8.962554335594177246e-01
6.329820752143859863e-01,5.069884061813354492e-01,-5.784562602639198303e-02,1.447782367467880249e-01,-1.811327636241912842e-01,-6.440755724906921387e-01,2.234735935926437378e-01,-6.316334009170532227e-01,-7.679250091314315796e-02,2.054413706064224243e-01,2.157368212938308716e-01,-7.330424785614013672e-01,2.586247026920318604e-01,7.593817114830017090e-01
7.041581273078918457e-01,5.383346676826477051e-01,-3.159946203231811523e-01,3.912968337535858154e-01,-1.254323869943618774e-01,-5.325807332992553711e-01,2.836592197418212891e-01,-5.152122378349304199e-01,-2.672708332538604736e-01,1.627926528453826904e-01,-3.837499022483825684e-02,-7.124303579330444336e-01,1.769983619451522827e-01,8.442907929420471191e-01
5.365675687789916992e-01,5.631255507469177246e-01,-2.781101465225219727e-01,2.526270151138305664e-01,-7.526044547557830811e-02,-6.617079377174377441e-01,-2.642866596579551697e-02,-3.180142045021057129e-01,-1.796244084835052490e-01,-1.773702446371316910e-03,1.364987939596176147e-01,-1.013448476791381836e+00,2.615396082401275635e-01,6.162960529327392578e-01
7.133708596229553223e-01,4.464209973812103271e-01,-2.551795840263366699e-01,2.523169815540313721e-01,-1.586447954177856445e-01,-6.389003396034240723e-01,5.980611220002174377e-02,-2.983669340610504150e-01,-3.092087805271148682e-01,1.133030951023101807e-01,-1.207253113389015198e-01,-7.987610101699829102e-01,2.423592209815979004e-01,5.948210954666137695e-01
3.928336203098297119e-01,4.129825830459594727e-01,-2.631646096706390381e-01,3.057281076908111572e-01,-2.080929875373840332e-01,-4.983690083026885986e-01,-2.762972144410014153e-03,-2.446199059486389160e-01,-2.108370214700698853e-01,5.298484861850738525e-02,-4.330055043101310730e-02,-7.190555930137634277e-01,1.903892606496810913e-01,5.459060668945312500e-01
5.254226922988891602e-01,5.692026019096374512e-01,-9.897492080926895142e-02,3.546038269996643066e-01,-5.171104148030281067e-02,-4.498483538627624512e-01,-2.639255672693252563e-02,-2.222281843423843384e-01,-2.144277244806289673e-01,3.942635655403137207e-02,-9.062143415212631226e-02,-7.188169360160827637e-01,1.016032770276069641e-01,7.379424571990966797e-01
4.885598123073577881e-01,5.248740315437316895e-01,-1.367755085229873657e-01,2.324449717998504639e-01,1.330732833594083786e-02,-5.873045921325683594e-01,-4.954295605421066284e-02,-1.529495269060134888e-01,-2.264453023672103882e-01,2.693983912467956543e-01,6.572563946247100830e-02,-7.441276311874389648e-01,4.064012467861175537e-01,7.228279709815979004e-01
2.222454398870468140e-01,5.039753913879394531e-01,-2.621088027954101562e-01,3.586678802967071533e-01,-1.945217102766036987e-01,-5.482765436172485352e-01,1.638246625661849976e-01,-1.703036576509475708e-01,-3.941679596900939941e-01,3.208405151963233948e-02,-2.568195760250091553e-01,-8.424267768859863281e-01,3.417328298091888428e-01,6.524267792701721191e-01
3.088414669036865234e-01,2.647790610790252686e-01,-3.184194266796112061e-01,4.377548396587371826e-01,-8.560238406062126160e-03,-6.220210790634155273e-01,1.177347153425216675e-01,2.508302405476570129e-02,-5.265612602233886719e-01,3.801651298999786377e-02,-1.563118100166320801e-01,-8.437361717224121094e-01,2.250753343105316162e-01,6.328092217445373535e-01
3.868344128131866455e-01,6.107679605484008789e-01,-3.056507408618927002e-01,3.293692171573638916e-01,-4.535266011953353882e-02,-4.823344349861145020e-01,-1.994774192571640015e-01,-6.683322042226791382e-02,-6.027815937995910645e-01,3.529233336448669434e-01,-2.438184320926666260e-01,-9.618797898292541504e-01,3.639144599437713623e-01,9.593901038169860840e-01
1.960019767284393311e-01,5.215408802032470703e-01,-2.388725429773330688e-01,4.054930210113525391e-01,-7.653775066137313843e-02,-6.572163105010986328e-01,-1.047069802880287170e-01,1.641364395618438721e-01,-4.599151015281677246e-01,9.127786010503768921e-02,-1.899260729551315308e-01,-8.153045177459716797e-01,2.624808251857757568e-01,6.981372833251953125e-01
1.809328347444534302e-01,5.005340576171875000e-01,-3.046714663505554199e-01,3.681972622871398926e-01,-7.892040908336639404e-02,-4.886967837810516357e-01,-3.752215802669525146e-01,-3.854922205209732056e-02,-4.712711870670318604e-01,1.802104562520980835e-01,-3.177629411220550537e-01,-9.658999443054199219e-01,3.755901157855987549e-01,8.661702275276184082e-01
1.062584295868873596e-01,4.470589756965637207e-01,-1.323285996913909912e-01,4.359732270240783691e-01,-6.703828461468219757e-03,-4.493352472782135010e-01,-3.128661513328552246e-01,1.644052565097808838e-02,-5.485240817070007324e-01,2.042901515960693359e-01,-4.175969064235687256e-01,-8.229835033416748047e-01,4.716736078262329102e-01,7.116129994392395020e-01
1.860038638114929199e-01,4.748048186302185059e-01,-2.768402993679046631e-01,4.890388846397399902e-01,-7.311653345823287964e-02,-6.328147053718566895e-01,-3.869176805019378662e-01,1.160490736365318298e-01,-7.151700854301452637e-01,1.471528261899948120e-01,-2.516711354255676270e-01,-8.699150085449218750e-01,4.932242035865783691e-01,6.693401336669921875e-01
6.866309791803359985e-02,4.533192217350006104e-01,-3.668000549077987671e-02,4.684180319309234619e-01,3.259139060974121094e-01,-5.582588911056518555e-01,-2.765339016914367676e-01,1.800911873579025269e-01,-7.103241682052612305e-01,6.461785733699798584e-02,-2.595793604850769043e-01,-8.454421162605285645e-01,4.408765137195587158e-01,8.476589918136596680e-01
-5.900393426418304443e-02,3.408670127391815186e-01,-1.024563312530517578e-01,5.811597704887390137e-01,-7.065223157405853271e-02,-4.630827903747558594e-01,-2.345296144485473633e-01,1.943644285202026367e-01,-7.091428637504577637e-01,2.905815094709396362e-02,-2.398092001676559448e-01,-7.087652087211608887e-01,5.966547727584838867e-01,7.646118402481079102e-01
-1.268545985221862793e-01,4.500899910926818848e-01,-2.777256369590759277e-01,6.407634019851684570e-01,-1.476640254259109497e-01,-4.745016992092132568e-01,-3.438445925712585449e-02,3.168262839317321777e-01,-7.959428429603576660e-01,7.371576875448226929e-02,-2.862859666347503662e-01,-7.035323977470397949e-01,5.471603870391845703e-01,6.559801697731018066e-01
-1.575215603224933147e-03,3.557290732860565186e-01,2.778000570833683014e-02,6.604350805282592773e-01,1.855952739715576172e-01,-4.650789797306060791e-01,-3.280339539051055908e-01,2.827384471893310547e-01,-5.772008299827575684e-01,-1.082680840045213699e-02,-2.919031381607055664e-01,-6.712861061096191406e-01,5.211006402969360352e-01,7.382538914680480957e-01
-9.822487831115722656e-02,4.859882295131683350e-01,-2.217279523611068726e-01,5.350610613822937012e-01,2.175448387861251831e-01,-4.133645594120025635e-01,-6.814889609813690186e-02,2.564530372619628906e-01,-6.123532056808471680e-01,7.740591466426849365e-02,-1.797887831926345825e-01,-6.792734861373901367e-01,7.650226354598999023e-01,8.380532860755920410e-01
-2.797572501003742218e-02,3.464390635490417480e-01,1.026848852634429932e-01,5.409936308860778809e-01,3.148674666881561279e-01,-5.982242226600646973e-01,-2.054015100002288818e-01,2.964368760585784912e-01,-4.151724278926849365e-01,-1.737578026950359344e-02,-1.978635638952255249e-01,-3.908066153526306152e-01,5.044872760772705078e-01,4.697681665420532227e-01
-7.541412860155105591e-02,4.978825449943542480e-01,4.830827564001083374e-02,6.596630215644836426e-01,2.717230655252933502e-02,-3.460427522659301758e-01,-1.828170418739318848e-01,4.720343053340911865e-01,-6.071885824203491211e-01,-1.645733835175633430e-03,-3.639944493770599365e-01,-4.328910410404205322e-01,6.721011996269226074e-01,5.443204045295715332e-01
-4.661416113376617432e-01,2.167802602052688599e-01,2.289353609085083008e-01,4.743097424507141113e-01,1.770091205835342407e-01,-4.321112036705017090e-01,-1.152546629309654236e-01,3.922685682773590088e-01,-4.696777164936065674e-01,2.085482180118560791e-01,-3.184345662593841553e-01,-3.026303052902221680e-01,7.852441668510437012e-01,4.088474512100219727e-01
-2.968351915478706360e-02,4.571279883384704590e-01,-2.201648503541946411e-01,5.669448971748352051e-01,3.576382994651794434e-01,-4.414246678352355957e-01,1.380658298730850220e-01,1.998113542795181274e-01,-5.207180976867675781e-01,-1.788267306983470917e-02,-4.488326013088226318e-01,-2.791437506675720215e-01,4.816500246524810791e-01,3.085997700691223145e-01
-1.194420531392097473e-01,3.730260431766510010e-01,7.357259839773178101e-02,3.509706258773803711e-01,5.244217514991760254e-01,-5.489973425865173340e-01,-2.294279336929321289e-01,5.223344564437866211e-01,-3.736280500888824463e-01,4.350113123655319214e-02,-3.008957505226135254e-01,-2.678858339786529541e-01,8.213794827461242676e-01,2.587263286113739014e-01
-1.019427105784416199e-01,1.327373236417770386e-01,7.910955697298049927e-02,3.939990103244781494e-01,2.807195484638214111e-01,-3.700435161590576172e-01,3.265221044421195984e-02,4.154562652111053467e-01,-1.967849880456924438e-01,9.719097614288330078e-02,-3.430988192558288574e-01,-7.829523086547851562e-02,8.308421373367309570e-01,4.683425724506378174e-01
-3.234930932521820068e-01,1.789974719285964966e-01,3.843986615538597107e-02,3.583254814147949219e-01,5.237786769866943359e-01,-2.737482190132141113e-01,1.145546957850456238e-01,4.335971176624298096e-01,-2.134305536746978760e-01,1.170798391103744507e-01,-2.802762389183044434e-01,-9.495662152767181396e-02,6.180585622787475586e-01,8.235120028257369995e-02
-1.715302616357803345e-01,5.160072818398475647e-02,2.145518362522125244e-01,-5.795714259147644043e-02,4.614898562431335449e-01,-2.939559519290924072e-01,-8.619686216115951538e-02,4.563668370246887207e-01,-2.639133036136627197e-01,1.113546788692474365e-01,-3.798663914203643799e-01,7.861765474081039429e-02,6.961460709571838379e-01,2.728685140609741211e-01
-1.220281794667243958e-01,1.432258039712905884e-01,9.621216356754302979e-02,2.172631323337554932e-01,5.000874400138854980e-01,-2.759810388088226318e-01,6.731852144002914429e-02,4.507216215133666992e-01,-2.715651988983154297e-01,-2.707114815711975098e-02,-4.648438990116119385e-01,-2.309957891702651978e-01,5.951351523399353027e-01,9.804777801036834717e-02
-2.673572003841400146e-01,2.132492810487747192e-01,2.836517095565795898e-01,1.858384162187576294e-01,4.715231359004974365e-01,-3.136173188686370850e-01,-5.861216410994529724e-02,2.444120943546295166e-01,-1.165613904595375061e-01,1.322372406721115112e-01,-2.498860955238342285e-01,1.058894991874694824e-01,5.867869257926940918e-01,3.170481622219085693e-01
-2.412899769842624664e-02,9.844800084829330444e-02,5.792309343814849854e-02,-4.706899449229240417e-02,4.553144276142120361e-01,-2.736360728740692139e-01,2.076691091060638428e-01,2.065123766660690308e-01,-3.106645867228507996e-02,1.615142524242401123e-01,-4.929687678813934326e-01,1.845967471599578857e-01,5.549046993255615234e-01,7.187360525131225586e-02
-1.064943224191665649e-01,-1.427195519208908081e-01,-2.751431241631507874e-02,-4.852421209216117859e-02,4.321650266647338867e-01,-3.665537238121032715e-01,-1.200112402439117432e-01,5.230774879455566406e-01,5.498499423265457153e-02,2.766556143760681152e-01,-4.859635233879089355e-01,1.207314059138298035e-01,8.335953354835510254e-01,2.177657373249530792e-02
-2.513808310031890869e-01,-1.187265813350677490e-01,1.063473671674728394e-01,-2.284340113401412964e-01,5.179322361946105957e-01,-2.436994165182113647e-01,6.605590134859085083e-02,1.756253540515899658e-01,-8.308174461126327515e-02,2.673373222351074219e-01,-7.299834489822387695e-01,2.737258076667785645e-01,6.330457329750061035e-01,1.733556389808654785e-01
-6.452813744544982910e-02,-3.666701912879943848e-02,2.602467834949493408e-01,-1.637971848249435425e-01,3.812390863895416260e-01,-2.775621712207794189e-01,-3.226335346698760986e-02,2.371459603309631348e-01,-7.181230187416076660e-02,3.510326743125915527e-01,-4.687454402446746826e-01,2.086479663848876953e-01,5.045074820518493652e-01,6.142871826887130737e-02
-2.466303855180740356e-01,-1.979273557662963867e-01,3.315963745117187500e-01,-4.020130727440118790e-03,4.481342732906341553e-01,-3.225275576114654541e-01,4.938778933137655258e-03,3.083375692367553711e-01,2.281559258699417114e-01,1.741152852773666382e-01,-3.033326566219329834e-01,2.576941847801208496e-01,7.271310091018676758e-01,-1.413493417203426361e-02
-1.852891743183135986e-01,-2.135467082262039185e-01,1.717469394207000732e-01,-5.146667361259460449e-01,2.702358365058898926e-01,-1.111671850085258484e-01,4.198193084448575974e-03,3.953104838728904724e-02,2.190488018095493317e-02,2.260557264089584351e-01,-5.060617923736572266e-01,2.060498893260955811e-01,6.630110740661621094e-01,-3.230891749262809753e-02
-4.423381388187408447e-01,-3.159736990928649902e-01,3.633155226707458496e-01,-3.856123685836791992e-01,3.937926888465881348e-01,-3.145848214626312256e-01,1.652195900678634644e-01,-1.942798681557178497e-02,1.276286840438842773e-01,4.167105257511138916e-01,-4.415804147720336914e-01,3.583401739597320557e-01,5.970488190650939941e-01,-2.635600864887237549e-01
-3.486296832561492920e-01,-4.415053129196166992e-01,3.978789746761322021e-01,-2.930130362510681152e-01,2.262315601110458374e-01,-6.818307191133499146e-02,1.019240841269493103e-01,3.765359893441200256e-02,-8.573600649833679199e-02,5.616987943649291992e-01,-3.907338678836822510e-01,3.140323162078857422e-01,4.483985006809234619e-01,-1.210503950715065002e-01
-2.937546074390411377e-01,-5.243420004844665527e-01,4.418236017227172852e-01,-2.811871469020843506e-01,1.952897161245346069e-01,-1.821346953511238098e-02,-2.314704656600952148e-02,-1.074621304869651794e-01,8.303097635507583618e-02,4.978612661361694336e-01,-3.003767132759094238e-01,2.868427038192749023e-01,4.197649061679840088e-01,-2.511370778083801270e-01
-3.357833325862884521e-01,-7.053362727165222168e-01,6.597025990486145020e-01,-5.785308480262756348e-01,7.737720850855112076e-03,-7.902435958385467529e-02,1.966485381126403809e-01,-1.528069823980331421e-01,1.366107463836669922e-01,5.165567398071289062e-01,-3.964587748050689697e-01,2.608092725276947021e-01,6.050270795822143555e-01,-2.254039943218231201e-01
-3.732418715953826904e-01,-7.243355512619018555e-01,5.235921740531921387e-01,-5.358775258064270020e-01,6.210636720061302185e-02,1.334609240293502808e-01,2.327117323875427246e-01,-2.812601029872894287e-01,8.245900273323059082e-02,5.041185617446899414e-01,-5.906690359115600586e-01,5.053829550743103027e-01,3.670182228088378906e-01,-2.357995510101318359e-01
-3.630422353744506836e-01,-7.960157394409179688e-01,5.271230936050415039e-01,-5.609229207038879395e-01,4.817021265625953674e-02,3.698261082172393799e-02,3.594512641429901123e-01,-3.916584253311157227e-01,-8.184948563575744629e-02,7.727832198143005371e-01,-3.828415870666503906e-01,2.342762798070907593e-01,2.012173384428024292e-01,-4.089575707912445068e-01
-3.415315747261047363e-01,-7.915350198745727539e-01,6.959490776062011719e-01,-5.979897975921630859e-01,-9.805870056152343750e-02,9.486303478479385376e-02,3.411159515380859375e-01,-4.308275282382965088e-01,1.792567782104015350e-02,7.933643460273742676e-01,-2.993592619895935059e-01,1.775428205728530884e-01,2.510891556739807129e-01,-2.417833209037780762e-01
-7.257566452026367188e-01,-7.875647544860839844e-01,7.358623743057250977e-01,-5.726583600044250488e-01,-4.043073579668998718e-02,1.005809158086776733e-01,2.084893137216567993e-01,-3.275418579578399658e-01,1.620644330978393555e-01,8.228851556777954102e-01,-2.760720849037170410e-01,1.259749084711074829e-01,1.833370029926300049e-01,-3.118290603160858154e-01
-5.330374836921691895e-01,-8.383741378784179688e-01,9.001283645629882812e-01,-7.301337122917175293e-01,7.627823203802108765e-02,2.823669314384460449e-01,5.310709476470947266e-01,-5.155032873153686523e-01,-1.875256188213825226e-02,1.009597301483154297e+00,-3.265445828437805176e-01,3.279283046722412109e-01,2.047000229358673096e-01,-3.976944088935852051e-01
-6.557771563529968262e-01,-8.238437771797180176e-01,8.599432706832885742e-01,-6.359594464302062988e-01,4.819118976593017578e-02,2.453215122222900391e-01,5.794892907142639160e-01,-4.709725081920623779e-01,4.082676768302917480e-01,9.524940252304077148e-01,-3.093762695789337158e-01,3.919495940208435059e-01,-4.091035574674606323e-02,-2.576723694801330566e-01
-6.423013210296630859e-01,-7.840561866760253906e-01,9.240517020225524902e-01,-7.234647870063781738e-01,-2.388630956411361694e-01,3.129259347915649414e-01,5.679373145103454590e-01,-6.274808049201965332e-01,2.802201509475708008e-01,9.913012981414794922e-01,-2.650772631168365479e-01,1.321935355663299561e-01,-3.797489032149314880e-02,-2.000774890184402466e-01
-5.072026252746582031e-01,-8.843303322792053223e-01,8.986467123031616211e-01,-6.513217091560363770e-01,5.846951156854629517e-02,4.272224903106689453e-01,5.931596755981445312e-01,-3.327675759792327881e-01,2.361053973436355591e-02,1.098443388938903809e+00,-1.945248991250991821e-01,1.730826348066329956e-01,-1.128090620040893555e-01,-9.306100010871887207e-02
-4.821689724922180176e-01,-7.491949796676635742e-01,7.157684564590454102e-01,-7.241030335426330566e-01,-5.833316221833229065e-02,4.621237516403198242e-01,6.483483910560607910e-01,-5.017021894454956055e-01,2.051810920238494873e-01,1.231889605522155762e+00,-1.111360788345336914e-01,1.465895622968673706e-01,-2.816611230373382568e-01,-3.349020481109619141e-01
-2.866399288177490234e-01,-6.786296367645263672e-01,9.680503606796264648e-01,-6.738269925117492676e-01,3.602648153901100159e-02,6.086586713790893555e-01,7.718854546546936035e-01,-4.886508285999298096e-01,1.877763271331787109e-01,9.603975415229797363e-01,-8.658400736749172211e-03,1.478058993816375732e-01,-3.798043727874755859e-01,3.396966261789202690e-03
-5.247423648834228516e-01,-7.114342451095581055e-01,1.062511086463928223e+00,-7.580574154853820801e-01,-8.468733727931976318e-02,5.820850133895874023e-01,8.370021581649780273e-01,-4.131897389888763428e-01,2.874432504177093506e-01,8.980426788330078125e-01,4.159986600279808044e-02,-4.148185253143310547e-02,-2.026090174913406372e-01,-2.423737943172454834e-02
-3.699219226837158203e-01,-7.611752152442932129e-01,9.874119758605957031e-01,-5.511749982833862305e-01,-2.142861299216747284e-02,5.374068617820739746e-01,7.982937693595886230e-01,-5.334128141403198242e-01,-7.495490461587905884e-02,8.579744100570678711e-01,3.225193545222282410e-02,1.894039511680603027e-01,-2.060385942459106445e-01,1.693854629993438721e-01
-2.094344645738601685e-01,-5.615569949150085449e-01,7.535713315010070801e-01,-6.663661599159240723e-01,-1.746435016393661499e-01,4.490716755390167236e-01,8.526308536529541016e-01,-3.438605666160583496e-01,1.866885274648666382e-01,9.680899977684020996e-01,3.106226772069931030e-02,2.007036805152893066e-01,-5.190050005912780762e-01,1.462701708078384399e-01
-3.643155097961425781e-01,-5.557133555412292480e-01,8.401299118995666504e-01,-6.162633299827575684e-01,-2.897081375122070312e-01,3.940389454364776611e-01,8.533970713615417480e-01,-5.931158065795898438e-01,4.430557787418365479e-02,7.692846059799194336e-01,2.634526193141937256e-01,-1.350803077220916748e-01,-2.147591412067413330e-01,1.656258851289749146e-01
-1.315055638551712036e-01,-4.905088245868682861e-01,8.124657273292541504e-01,-6.139671206474304199e-01,-1.707240790128707886e-01,3.933908343315124512e-01,1.118376374244689941e+00,-4.831288754940032959e-01,2.040382921695709229e-01,7.954295873641967773e-01,2.713305950164794922e-01,2.067973017692565918e-01,-2.608301937580108643e-01,2.264600545167922974e-01
-4.890577495098114014e-01,-3.500784635543823242e-01,8.521493077278137207e-01,-5.798753499984741211e-01,-3.948384225368499756e-01,2.947804927825927734e-01,7.180761694908142090e-01,-4.851505160331726074e-01,4.870197921991348267e-02,7.570483684539794922e-01,5.322729945182800293e-01,1.713199764490127563e-01,-1.896862685680389404e-01,3.143741190433502197e-01
-3.578853607177734375e-01,-3.883655369281768799e-01,7.676300406455993652e-01,-5.626541972160339355e-01,-1.514451801776885986e-01,2.293715327978134155e-01,8.988328576087951660e-01,-5.802646875381469727e-01,2.939154803752899170e-01,8.940753340721130371e-01,5.282184481620788574e-01,-3.152261078357696533e-01,-2.587687373161315918e-01,3.996598422527313232e-01
-8.639066666364669800e-02,-2.633154094219207764e-01,4.066860377788543701e-01,-4.671448469161987305e-01,-9.568844735622406006e-02,2.372252494096755981e-01,9.258183240890502930e-01,-4.362752139568328857e-01,1.898286491632461548e-01,8.118422031402587891e-01,5.285461544990539551e-01,-2.394516766071319580e-01,-4.141598567366600037e-02,2.386384606361389160e-01
-2.724685072898864746e-01,-4.033917486667633057e-01,5.582338571548461914e-01,-5.647271871566772461e-01,5.624799430370330811e-02,1.011776551604270935e-01,1.252178668975830078e+00,-3.835386633872985840e-01,-1.731048896908760071e-02,4.950385391712188721e-01,4.664335846900939941e-01,-4.552253708243370056e-02,-6.038890406489372253e-02,3.038877248764038086e-01
-1.895989179611206055e-01,-4.059388339519500732e-01,5.770760178565979004e-01,-6.009976267814636230e-01,3.574316576123237610e-02,5.088463053107261658e-02,1.050794243812561035e+00,-4.853127598762512207e-01,-8.693680912256240845e-02,7.656843066215515137e-01,4.430446028709411621e-01,9.240281581878662109e-02,-2.802478373050689697e-01,4.883468747138977051e-01
4.294236376881599426e-02,-2.281861305236816406e-01,4.995769858360290527e-01,-5.224413275718688965e-01,2.826356329023838043e-02,1.722740381956100464e-01,8.958035707473754883e-01,-4.997802376747131348e-01,2.235202342271804810e-01,4.462900161743164062e-01,6.023863554000854492e-01,-1.512891799211502075e-02,-2.193175703287124634e-01,3.024703264236450195e-01
-1.538826152682304382e-02,-4.271179139614105225e-01,4.941885769367218018e-01,-5.899083018302917480e-01,-1.049101259559392929e-02,-1.157314479351043701e-01,1.028537988662719727e+00,-3.731600940227508545e-01,1.082078218460083008e-01,5.463667511940002441e-01,6.283209323883056641e-01,-4.623952507972717285e-02,-9.769799560308456421e-02,3.680197298526763916e-01
-2.046728432178497314e-01,-1.292001456022262573e-01,4.150837659835815430e-01,-5.416903495788574219e-01,1.080684959888458252e-01,-1.348475515842437744e-01,1.168396830558776855e+00,-3.858961164951324463e-01,2.358070462942123413e-01,4.103147685527801514e-01,4.396248161792755127e-01,3.668096382170915604e-03,-1.501743048429489136e-01,1.976890861988067627e-01
6.033397465944290161e-02,-1.800767034292221069e-01,3.847696185111999512e-01,-6.472260355949401855e-01,2.100404351949691772e-01,4.466906562447547913e-02,1.106852889060974121e+00,-4.037356376647949219e-01,1.080131381750106812e-01,4.185177087783813477e-01,6.493403911590576172e-01,-1.426583379507064819e-01,3.353756293654441833e-02,1.380045562982559204e-01
-3.807419165968894958e-02,-2.951468825340270996e-01,4.312224984169006348e-01,-4.453764855861663818e-01,2.046322822570800781e-01,-1.727067828178405762e-01,1.071777224540710449e+00,-5.008225440979003906e-01,2.828356623649597168e-01,3.221938610076904297e-01,5.862880945205688477e-01,5.318323895335197449e-02,-1.632521450519561768e-01,1.935017704963684082e-01
1.032939832657575607e-02,-1.776523441076278687e-01,4.099648594856262207e-01,-6.352411508560180664e-01,4.764492809772491455e-02,-4.625774919986724854e-02,1.068096518516540527e+00,-4.079533517360687256e-01,2.431977242231369019e-01,5.492770671844482422e-01,2.863158583641052246e-01,-1.036703512072563171e-01,5.745971947908401489e-02,2.171693891286849976e-01
6.855523586273193359e-02,-2.247102856636047363e-01,2.167406976222991943e-01,-4.404691159725189209e-01,3.353917300701141357e-01,-3.509838879108428955e-01,1.115309596061706543e+00,-4.264737367630004883e-01,1.552885025739669800e-01,3.273434042930603027e-01,4.347784817218780518e-01,-2.825458943843841553e-01,-2.800609171390533447e-01,3.798182606697082520e-01
2.791808731853961945e-02,-4.117950201034545898e-01,2.288935631513595581e-01,-5.640847086906433105e-01,3.085454404354095459e-01,-2.776431739330291748e-01,1.036032676696777344e+00,-3.398364484310150146e-01,-1.874740049242973328e-02,3.215227127075195312e-01,4.056144058704376221e-01,-2.325355261564254761e-01,-6.447687745094299316e-02,3.815517127513885498e-01
1.312154829502105713e-01,-3.547173142433166504e-01,1.493804007768630981e-01,-4.624507129192352295e-01,3.178292512893676758e-01,-2.591471970081329346e-01,7.955825328826904297e-01,-3.906149864196777344e-01,-3.924774006009101868e-02,1.475157290697097778e-01,3.262059986591339111e-01,-1.576965600252151489e-01,1.292142421007156372e-01,6.566015630960464478e-02
-2.035409025847911835e-02,-2.333930134773254395e-01,1.822837293148040771e-01,-6.060041785240173340e-01,3.875653147697448730e-01,-4.786260426044464111e-01,8.331372737884521484e-01,-3.233908116817474365e-01,-6.877953559160232544e-02,6.770300120115280151e-02,4.520350098609924316e-01,-2.724829614162445068e-01,-8.872837042872561142e-07,1.959223747253417969e-01
7.006519287824630737e-02,-2.339389026165008545e-01,5.253652110695838928e-02,-6.973733305931091309e-01,3.255550861358642578e-01,-2.722152471542358398e-01,8.805661797523498535e-01,-4.347490072250366211e-01,-2.194103896617889404e-01,1.187459155917167664e-01,5.601705908775329590e-01,-3.379145264625549316e-01,2.447335980832576752e-02,3.112099468708038330e-01
7.736241072416305542e-02,-1.067628711462020874e-01,1.360894143581390381e-01,-6.268846392631530762e-01,4.757009148597717285e-01,-5.294355154037475586e-01,6.671721339225769043e-01,-4.277886450290679932e-01,-1.274976134300231934e-01,1.697347462177276611e-01,3.998704850673675537e-01,-3.378423750400543213e-01,1.153469905257225037e-01,2.210258096456527710e-01
-5.242149159312248230e-02,-1.956615149974822998e-01,-5.118219926953315735e-02,-1.632432192564010620e-01,2.895611226558685303e-01,-4.883177578449249268e-01,5.072993636131286621e-01,-2.178888320922851562e-01,-3.109284341335296631e-01,6.142507493495941162e-02,3.936067223548889160e-01,-3.841974437236785889e-01,1.051318049430847168e-01,3.701828420162200928e-01
-9.391011297702789307e-02,-3.425112962722778320e-01,-3.260921537876129150e-01,-4.159935414791107178e-01,2.765289247035980225e-01,-6.526900529861450195e-01,3.757364451885223389e-01,-1.843523830175399780e-01,-3.842852413654327393e-01,1.295923590660095215e-01,2.344647943973541260e-01,-6.050311923027038574e-01,5.381833016872406006e-02,2.727554142475128174e-01
-1.521175056695938110e-01,-2.621929347515106201e-01,-6.511315703392028809e-02,-1.818435043096542358e-01,2.798350155353546143e-01,-4.768992066383361816e-01,4.429322779178619385e-01,-2.894096374511718750e-01,-5.063077211380004883e-01,6.576252635568380356e-03,3.491258919239044189e-01,-4.191175997257232666e-01,2.062672823667526245e-01,1.615816652774810791e-01
-2.114044874906539917e-01,-1.281761974096298218e-01,-1.335923969745635986e-01,-3.509705364704132080e-01,3.726412951946258545e-01,-6.311649680137634277e-01,3.335847556591033936e-01,-2.385640144348144531e-01,-5.420973300933837891e-01,-3.913339227437973022e-02,2.696455419063568115e-01,-6.092005372047424316e-01,9.246595203876495361e-02,1.507832854986190796e-01
-2.980131208896636963e-01,-3.826206028461456299e-01,-1.526428759098052979e-01,-1.296842098236083984e-01,3.733624517917633057e-01,-4.804166555404663086e-01,2.749888896942138672e-01,-2.789859175682067871e-01,-6.041856408119201660e-01,-1.594349928200244904e-02,2.806355059146881104e-01,-6.017406582832336426e-01,1.338171064853668213e-01,1.410669684410095215e-01
-3.641862571239471436e-01,-3.423252999782562256e-01,-3.816367387771606445e-01,-3.802622109651565552e-02,3.065109848976135254e-01,-5.933392643928527832e-01,2.704287171363830566e-01,-1.176768243312835693e-01,-7.513290643692016602e-01,-8.502350002527236938e-02,2.144559025764465332e-01,-6.728327274322509766e-01,1.685637384653091431e-01,3.880887478590011597e-02
-4.184790551662445068e-01,-2.417753338813781738e-01,-1.409603357315063477e-01,2.843159437179565430e-01,3.692287206649780273e-01,-6.407716870307922363e-01,1.385852247476577759e-01,-2.407071441411972046e-01,-7.867841124534606934e-01,-2.277932688593864441e-02,1.119095310568809509e-01,-7.524262666702270508e-01,-1.799546778202056885e-01,1.935765296220779419e-01
-4.391945898532867432e-01,-1.168529093265533447e-01,-1.447392553091049194e-01,3.922875598073005676e-02,4.187285900115966797e-01,-8.254875540733337402e-01,3.008857965469360352e-01,-2.616278827190399170e-01,-8.669760227203369141e-01,-8.130598068237304688e-02,3.563779592514038086e-01,-6.383840441703796387e-01,-2.521938644349575043e-02,1.509317904710769653e-01
-5.457167625427246094e-01,-2.368516176939010620e-01,-3.716671168804168701e-01,6.531090289354324341e-02,4.518910944461822510e-01,-7.200065851211547852e-01,1.359570920467376709e-01,-1.034807488322257996e-01,-9.142056703567504883e-01,-6.417615711688995361e-02,2.743957042694091797e-01,-7.287473678588867188e-01,-3.278403729200363159e-02,1.011639162898063660e-01
-5.544383525848388672e-01,-1.741621792316436768e-01,-1.462497264146804810e-01,2.307398766279220581e-01,3.917778432369232178e-01,-7.525048851966857910e-01,3.173957467079162598e-01,-2.616907656192779541e-01,-9.035495519638061523e-01,-1.023406758904457092e-01,2.280544340610504150e-01,-7.264748811721801758e-01,6.852284073829650879e-02,6.219231709837913513e-02
-4.705738127231597900e-01,-2.230404615402221680e-01,-1.725895553827285767e-01,1.553335338830947876e-01,3.350812792778015137e-01,-7.062006592750549316e-01,2.007911801338195801e-01,-1.476077437400817871e-01,-1.189842224121093750e+00,-5.844976380467414856e-02,4.251385033130645752e-01,-9.701654911041259766e-01,1.520099192857742310e-01,-7.762777805328369141e-02
-3.921593427658081055e-01,-2.379350662231445312e-01,-1.871961355209350586e-01,3.335227668285369873e-01,3.439382016658782959e-01,-6.793769598007202148e-01,7.000459730625152588e-02,-2.412979751825332642e-01,-8.138602972030639648e-01,-1.352474987506866455e-01,1.338709294795989990e-01,-6.186221241950988770e-01,-2.335212379693984985e-01,6.549456715583801270e-02
-3.638436198234558105e-01,-2.857380509376525879e-01,-1.862234324216842651e-01,3.246281147003173828e-01,4.551742076873779297e-01,-7.688247561454772949e-01,-6.993023306131362915e-02,-3.722253814339637756e-02,-8.905961513519287109e-01,-7.135383039712905884e-02,2.884052693843841553e-01,-6.903360486030578613e-01,-1.109750568866729736e-01,2.363346889615058899e-02
-6.088727712631225586e-01,-1.285520046949386597e-01,-3.630213439464569092e-01,2.850753366947174072e-01,5.047538280487060547e-01,-6.802198290824890137e-01,1.039063185453414917e-01,1.621094532310962677e-02,-9.575312137603759766e-01,-3.332525491714477539e-01,4.213612079620361328e-01,-5.653922557830810547e-01,2.145308814942836761e-02,2.110259979963302612e-01
-7.341223359107971191e-01,-3.257363140583038330e-01,-1.803005039691925049e-01,4.340939819812774658e-01,4.478447139263153076e-01,-6.629521250724792480e-01,6.327021121978759766e-02,-1.512110084295272827e-01,-8.916158080101013184e-01,-2.339670360088348389e-01,2.513159215450286865e-01,-4.404616653919219971e-01,-2.753089666366577148e-01,-1.148405522108078003e-01
-6.618238687515258789e-01,-2.074805945158004761e-01,-1.032817587256431580e-01,4.141686260700225830e-01,3.920546472072601318e-01,-7.474279403686523438e-01,-7.714652270078659058e-02,-1.206190958619117737e-01,-1.108866810798645020e+00,-4.988040626049041748e-01,8.935002237558364868e-02,-4.845088124275207520e-01,-7.012261450290679932e-02,-5.178467184305191040e-02
-6.281529664993286133e-01,-5.026462674140930176e-02,-2.772608995437622070e-01,4.932827055454254150e-01,3.697331845760345459e-01,-5.647335052490234375e-01,-1.460845768451690674e-01,1.002040281891822815e-01,-1.142515540122985840e+00,-3.134014606475830078e-01,3.023535907268524170e-01,-5.221984982490539551e-01,-6.334187835454940796e-02,-1.312863975763320923e-01
-5.393887162208557129e-01,-2.203973382711410522e-01,-2.203340679407119751e-01,5.922655463218688965e-01,5.022357702255249023e-01,-6.265566349029541016e-01,-5.777575820684432983e-02,3.120641112327575684e-01,-1.148686766624450684e+00,-4.525108933448791504e-01,1.527427434921264648e-01,-5.166325569152832031e-01,-4.902404919266700745e-02,1.137930527329444885e-02
-7.243458628654479980e-01,-2.787648439407348633e-01,-2.898994684219360352e-01,3.828827440738677979e-01,2.934758067131042480e-01,-5.769531726837158203e-01,-5.795348808169364929e-02,2.497919201850891113e-01,-9.057524204254150391e-01,-4.153256714344024658e-01,1.522851139307022095e-01,-1.957776099443435669e-01,-2.032261937856674194e-01,-1.380066275596618652e-01
-6.702262163162231445e-01,-3.159910142421722412e-01,-3.093463480472564697e-01,3.943038284778594971e-01,3.640224337577819824e-01,-6.236673593521118164e-01,-8.923897892236709595e-02,1.780224293470382690e-01,-9.213125705718994141e-01,-3.905221223831176758e-01,1.332130432128906250e-01,-3.604075908660888672e-01,-7.829359173774719238e-02,1.528637856245040894e-01
-7.641355991363525391e-01,-2.290070429444313049e-02,-4.786382615566253662e-01,2.995051741600036621e-01,5.523492097854614258e-01,-8.611626625061035156e-01,-1.268763840198516846e-01,1.439950019121170044e-01,-8.825887441635131836e-01,-5.240988731384277344e-01,3.986186385154724121e-01,-3.480106890201568604e-01,-1.750329285860061646e-01,1.355887055397033691e-01
-5.010986328125000000e-01,-7.352122571319341660e-03,-2.565540373325347900e-01,4.805497825145721436e-01,5.239889621734619141e-01,-7.920777201652526855e-01,-2.691194042563438416e-02,1.285047531127929688e-01,-8.042377233505249023e-01,-6.851488351821899414e-01,2.090908586978912354e-01,-3.469610512256622314e-01,7.608238607645034790e-02,-4.824648145586252213e-03
-6.168699860572814941e-01,-1.139430776238441467e-01,-3.455358743667602539e-01,3.534533381462097168e-01,4.277874827384948730e-01,-5.618596673011779785e-01,-2.259155958890914917e-01,3.317444920539855957e-01,-1.110023379325866699e+00,-7.841179966926574707e-01,1.715726107358932495e-01,-3.770700991153717041e-01,-1.223349869251251221e-01,-1.133142858743667603e-01
-7.078987360000610352e-01,-2.142888456583023071e-01,-4.495684206485748291e-01,4.362959861755371094e-01,3.616184592247009277e-01,-6.644213199615478516e-01,1.480113994330167770e-02,3.507581353187561035e-01,-9.626189470291137695e-01,-6.431475877761840820e-01,4.009599089622497559e-01,-4.399462342262268066e-01,2.875621663406491280e-03,-1.952694058418273926e-01
-6.643486618995666504e-01,-1.190261170268058777e-01,-2.626940011978149414e-01,4.956682622432708740e-01,3.883489668369293213e-01,-9.160426259040832520e-01,-3.503544330596923828e-01,1.822670251131057739e-01,-8.724483847618103027e-01,-7.354362607002258301e-01,1.275117695331573486e-01,-4.878558591008186340e-02,2.174724638462066650e-01,-1.513640284538269043e-01
-8.004583716392517090e-01,-1.349783223122358322e-02,-3.046456277370452881e-01,2.809810638427734375e-01,4.256338775157928467e-01,-7.111296057701110840e-01,-2.624641060829162598e-01,1.966451555490493774e-01,-7.000187635421752930e-01,-6.385058760643005371e-01,2.987071275711059570e-01,-2.335511595010757446e-01,1.229020059108734131e-01,-6.253679841756820679e-02
-6.106601357460021973e-01,-2.942497432231903076e-01,-3.977711200714111328e-01,2.648257911205291748e-01,6.295160651206970215e-01,-8.373512625694274902e-01,-3.126249909400939941e-01,1.921431422233581543e-01,-7.063401937484741211e-01,-7.413814663887023926e-01,2.253257632255554199e-01,-1.284920871257781982e-01,-1.737481057643890381e-01,-2.521199882030487061e-01
-6.041088104248046875e-01,-1.054904013872146606e-01,-2.599103450775146484e-01,3.690392971038818359e-01,5.196661949157714844e-01,-9.505704641342163086e-01,-1.735914945602416992e-01,3.267082273960113525e-01,-4.084890782833099365e-01,-7.578256130218505859e-01,3.494924008846282959e-01,-7.385706901550292969e-02,-4.386217892169952393e-02,-3.301974385976791382e-02
-8.023784756660461426e-01,-4.311141967773437500e-01,-2.139239311218261719e-01,2.865640819072723389e-01,4.999590814113616943e-01,-5.522031784057617188e-01,-1.579805612564086914e-01,1.037703156471252441e-01,-7.289176583290100098e-01,-6.526293754577636719e-01,2.364970445632934570e-01,1.251942217350006104e-01,-3.311823680996894836e-02,-1.250340193510055542e-01
-6.775315403938293457e-01,-4.297757148742675781e-01,-4.481935799121856689e-01,2.179697901010513306e-01,3.821504414081573486e-01,-6.777172684669494629e-01,-2.565806917846202850e-02,-5.294505879282951355e-02,-5.137190222740173340e-01,-5.328930616378784180e-01,1.225928291678428650e-01,-5.207815021276473999e-02,-9.411571174860000610e-02,-3.215886652469635010e-01
-6.115257143974304199e-01,-3.614824414253234863e-01,-4.432550966739654541e-01,5.577205121517181396e-02,3.269653618335723877e-01,-6.218300461769104004e-01,-1.845760494470596313e-01,-1.243138685822486877e-01,-4.175156652927398682e-01,-5.181428194046020508e-01,2.589643299579620361e-01,8.893518894910812378e-02,-7.991369813680648804e-02,-4.104558527469635010e-01
-5.864676833152770996e-01,-3.333754241466522217e-01,-5.295895934104919434e-01,-1.147904545068740845e-01,3.268558681011199951e-01,-7.195386290550231934e-01,-1.288044601678848267e-01,-1.531527042388916016e-01,-3.146380782127380371e-01,-5.539578795433044434e-01,1.769772619009017944e-01,1.474659442901611328e-01,-1.075900346040725708e-01,-4.567809700965881348e-01
-5.843338370323181152e-01,-3.337358236312866211e-01,-3.502665758132934570e-01,-1.096121892333030701e-01,4.065801203250885010e-01,-6.530315279960632324e-01,-3.326792716979980469e-01,1.325681153684854507e-02,-4.338282048702239990e-01,-2.318917512893676758e-01,2.847280204296112061e-01,-1.621543616056442261e-02,-4.128409549593925476e-02,-2.669862508773803711e-01
-4.985482990741729736e-01,-4.293853342533111572e-01,-2.907214760780334473e-01,-2.055668383836746216e-01,4.207788109779357910e-01,-6.359559893608093262e-01,-3.750261664390563965e-01,-1.092101037502288818e-01,-5.008322596549987793e-01,-3.640854954719543457e-01,1.863411962985992432e-01,-7.918870076537132263e-03,-3.299933671951293945e-01,-5.097137689590454102e-01
-3.521401882171630859e-01,-4.141469597816467285e-01,-3.882151544094085693e-01,-1.093734726309776306e-01,1.154186800122261047e-01,-2.711633741855621338e-01,-1.212266758084297180e-01,-2.376874089241027832e-01,-2.684584259986877441e-01,-5.153445601463317871e-01,3.765412569046020508e-01,7.701233029365539551e-02,-2.688812613487243652e-01,-3.575386404991149902e-01
-4.274961352348327637e-01,-5.838576555252075195e-01,-2.831963300704956055e-01,-1.966246813535690308e-01,-9.362911432981491089e-02,-5.119679570198059082e-01,-1.741257756948471069e-01,-5.329518318176269531e-01,-2.751423716545104980e-01,-1.369192302227020264e-01,9.522034227848052979e-02,1.720149964094161987e-01,-4.208783507347106934e-01,-4.454626142978668213e-01
-3.453914523124694824e-01,-6.880468130111694336e-01,-1.011366769671440125e-01,-3.353511095046997070e-01,4.090898111462593079e-02,-1.209536045789718628e-01,-2.602073550224304199e-01,-3.575136661529541016e-01,-2.239165455102920532e-01,-1.752234995365142822e-01,2.641951143741607666e-01,1.491854339838027954e-01,-3.034079372882843018e-01,-3.632387816905975342e-01
-4.186205267906188965e-01,-5.222303867340087891e-01,-1.259045600891113281e-01,-3.602205514907836914e-01,9.893669188022613525e-02,-3.177520036697387695e-01,-3.854682743549346924e-01,-2.644731402397155762e-01,-1.299955099821090698e-01,-1.386251449584960938e-01,1.168992593884468079e-01,1.070462167263031006e-01,-4.755947291851043701e-01,-4.948691129684448242e-01
-4.823524653911590576e-01,-5.102539658546447754e-01,-2.065919935703277588e-01,-3.025577664375305176e-01,-1.379015743732452393e-01,-2.806202471256256104e-01,-6.458695977926254272e-02,-2.855857610702514648e-01,-2.778160870075225830e-01,-9.169597923755645752e-02,1.546110361814498901e-01,1.584513038396835327e-01,-5.612962245941162109e-01,-4.169557094573974609e-01
-4.660575091838836670e-01,-5.514028668403625488e-01,1.439874991774559021e-02,-4.053164124488830566e-01,-1.071319356560707092e-01,-1.049286648631095886e-01,-2.288236767053604126e-01,-3.043776750564575195e-01,-3.508906364440917969e-01,-4.564940184354782104e-02,2.671844363212585449e-01,-2.360144071280956268e-02,-6.379746794700622559e-01,-3.510214090347290039e-01
-3.670599758625030518e-01,-5.740262866020202637e-01,-2.232548594474792480e-01,-4.457754492759704590e-01,-3.317605257034301758e-01,-1.123084202408790588e-01,-3.774737417697906494e-01,-4.880657494068145752e-01,-1.855003833770751953e-01,1.821836233139038086e-01,1.318933367729187012e-01,1.059904601424932480e-02,-7.411243915557861328e-01,-3.723297715187072754e-01
-3.915976881980895996e-01,-4.809668362140655518e-01,-1.700131222605705261e-02,-1.961241513490676880e-01,-3.085879981517791748e-01,1.856772415339946747e-02,-2.909927070140838623e-01,-3.475438356399536133e-01,-2.066342830657958984e-01,1.016812175512313843e-01,3.880974352359771729e-01,-1.912890747189521790e-02,-6.057910919189453125e-01,-1.419616192579269409e-01
-3.080421686172485352e-01,-5.661306381225585938e-01,-6.789088249206542969e-02,-4.488354027271270752e-01,-4.090590178966522217e-01,-2.857141755521297455e-02,-4.205434620380401611e-01,-4.724487960338592529e-01,-2.625544071197509766e-01,1.191737428307533264e-01,3.887969255447387695e-01,-1.248857676982879639e-01,-8.093782663345336914e-01,-2.993461489677429199e-01
-4.317372739315032959e-01,-5.789252519607543945e-01,-1.174837350845336914e-02,-3.223540782928466797e-01,-3.862252235412597656e-01,7.612792402505874634e-02,-2.311473488807678223e-01,-3.821247220039367676e-01,-3.215105831623077393e-01,1.030806228518486023e-01,4.541962146759033203e-01,1.575644016265869141e-01,-9.457526803016662598e-01,-2.359357625246047974e-01
-5.565770268440246582e-01,-4.781374633312225342e-01,3.294777870178222656e-02,-3.428567647933959961e-01,-3.803324103355407715e-01,7.840647548437118530e-02,-2.490172684192657471e-01,-4.642215073108673096e-01,-1.703538447618484497e-01,3.368460834026336670e-01,5.271810293197631836e-01,-3.140973150730133057e-01,-8.844140172004699707e-01,2.426356077194213867e-03
-4.130901396274566650e-01,-4.746348559856414795e-01,1.469552516937255859e-01,-5.270179510116577148e-01,-3.499620854854583740e-01,2.858395576477050781e-01,8.532896637916564941e-02,-2.827388048171997070e-01,-9.650900214910507202e-02,2.811876237392425537e-01,5.507341623306274414e-01,7.172600366175174713e-03,-7.998738288879394531e-01,2.767426893115043640e-02
-5.103120803833007812e-01,-4.037503898143768311e-01,1.217632070183753967e-01,-4.368433356285095215e-01,-4.685194492340087891e-01,2.951738834381103516e-01,-2.120572328567504883e-02,-3.548658192157745361e-01,-3.117048144340515137e-01,3.264648020267486572e-01,6.186689734458923340e-01,-4.832262918353080750e-02,-9.617447853088378906e-01,1.144687160849571228e-01
-3.322921395301818848e-01,-4.735336601734161377e-01,1.816659867763519287e-01,-2.846518456935882568e-01,-5.376978516578674316e-01,3.113174736499786377e-01,-2.894749641418457031e-01,-3.973687589168548584e-01,-1.114039644598960876e-01,2.830403745174407959e-01,7.365497350692749023e-01,-5.133245512843132019e-02,-9.417250156402587891e-01,-1.905541867017745972e-01
-3.843823969364166260e-01,-3.353802561759948730e-01,-1.165324263274669647e-02,-3.819701373577117920e-01,-5.647674798965454102e-01,4.323583245277404785e-01,2.107596099376678467e-01,-2.341083586215972900e-01,-1.340400241315364838e-02,3.788861930370330811e-01,6.546012163162231445e-01,-1.192138344049453735e-01,-1.068519711494445801e+00,6.542765349149703979e-02
-2.156050503253936768e-01,-3.039674758911132812e-01,7.371765375137329102e-02,-5.229659676551818848e-01,-2.857621312141418457e-01,3.906743228435516357e-01,1.302632093429565430e-01,-3.922895491123199463e-01,1.564859151840209961e-01,3.367605805397033691e-01,6.789159774780273438e-01,1.415394898504018784e-02,-9.760499596595764160e-01,1.003131121397018433e-01
-1.232384294271469116e-01,-3.287608027458190918e-01,1.335247792303562164e-02,-3.502639234066009521e-01,-4.510073959827423096e-01,4.152991175651550293e-01,3.044954836368560791e-01,-4.725586771965026855e-01,3.585664182901382446e-02,2.726109325885772705e-01,7.808043360710144043e-01,-1.496294587850570679e-01,-7.305089831352233887e-01,8.213785290718078613e-02
-7.599471509456634521e-02,-3.819700479507446289e-01,-2.585235796868801117e-02,-4.664245247840881348e-01,-2.891385555267333984e-01,4.128523766994476318e-01,2.339316159486770630e-01,-1.942253261804580688e-01,2.392931878566741943e-01,3.517170548439025879e-01,7.706552743911743164e-01,-4.806123301386833191e-02,-9.666585922241210938e-01,2.189048230648040771e-01
-1.377526111900806427e-02,-1.359037458896636963e-01,1.823631674051284790e-01,-3.874848186969757080e-01,-4.680645167827606201e-01,3.736369311809539795e-01,2.700826227664947510e-01,-2.361355870962142944e-01,2.220743745565414429e-01,5.215001106262207031e-01,8.751928210258483887e-01,-6.131999939680099487e-02,-9.078856110572814941e-01,2.033038288354873657e-01
5.421410873532295227e-02,-3.301194906234741211e-01,-1.271289885044097900e-01,-1.883388459682464600e-01,-1.181050613522529602e-01,3.859802186489105225e-01,2.116673439741134644e-01,-2.480356693267822266e-01,2.761977016925811768e-01,3.207789957523345947e-01,9.824102520942687988e-01,-7.392713427543640137e-02,-6.576529145240783691e-01,3.008460700511932373e-01
2.834563553333282471e-01,-2.506051063537597656e-01,-2.364217489957809448e-02,-4.465748965740203857e-01,3.837037459015846252e-02,4.748965501785278320e-01,3.912412524223327637e-01,-2.295693606138229370e-01,1.575099825859069824e-01,4.076698124408721924e-01,7.095213532447814941e-01,-2.302188426256179810e-02,-8.237428665161132812e-01,6.732546091079711914e-01
2.721011936664581299e-01,-8.093278110027313232e-02,-6.427384167909622192e-02,-4.513433277606964111e-01,-1.709745824337005615e-01,5.547957420349121094e-01,4.556684494018554688e-01,-5.873503535985946655e-02,5.275275111198425293e-01,3.722554147243499756e-01,8.169328570365905762e-01,-1.184789761900901794e-01,-7.927225232124328613e-01,4.111146926879882812e-01
1.598596274852752686e-01,-2.897658646106719971e-01,-8.395820856094360352e-02,-5.641523599624633789e-01,-1.957757174968719482e-01,4.927043318748474121e-01,1.825328022241592407e-01,2.961443923413753510e-02,3.205157816410064697e-01,2.751364707946777344e-01,6.993825435638427734e-01,-8.330582827329635620e-02,-8.725721240043640137e-01,4.580163657665252686e-01
3.857155740261077881e-01,1.742686331272125244e-01,-2.380101233720779419e-01,-6.739371418952941895e-01,1.540997158735990524e-02,4.650014042854309082e-01,2.777984440326690674e-01,-6.963133066892623901e-02,3.609624207019805908e-01,3.450396060943603516e-01,7.795130014419555664e-01,1.423840373754501343e-01,-7.005636096000671387e-01,5.416186451911926270e-01
5.760051608085632324e-01,7.884556055068969727e-02,-2.637180685997009277e-01,-4.787146747112274170e-01,-1.379706561565399170e-01,2.619370520114898682e-01,2.304312884807586670e-01,1.210423260927200317e-01,3.605154752731323242e-01,-8.075907081365585327e-02,7.772209644317626953e-01,2.682764232158660889e-01,-4.883108437061309814e-01,5.079798698425292969e-01
4.204919040203094482e-01,2.853043377399444580e-01,-7.290548831224441528e-02,-6.559621691703796387e-01,-4.097367078065872192e-02,3.814618885517120361e-01,5.190465450286865234e-01,1.437414586544036865e-01,4.922553002834320068e-01,-9.115872532129287720e-02,7.414373159408569336e-01,2.280694246292114258e-02,-7.145247459411621094e-01,4.020442962646484375e-01
4.610111415386199951e-01,3.604343533515930176e-01,-3.554595708847045898e-01,-6.273571848869323730e-01,-2.775854170322418213e-01,2.404320538043975830e-01,4.341682791709899902e-01,8.487250655889511108e-02,5.662049651145935059e-01,2.221819162368774414e-01,8.558905720710754395e-01,4.061244428157806396e-02,-5.404530763626098633e-01,3.594080507755279541e-01
5.862599015235900879e-01,2.061888128519058228e-01,-4.853460788726806641e-01,-4.289933741092681885e-01,3.932836279273033142e-02,2.459294199943542480e-01,2.636503875255584717e-01,2.109278887510299683e-01,4.316868782043457031e-01,-5.533100664615631104e-02,7.825248241424560547e-01,-3.423163667321205139e-02,-5.658844709396362305e-01,5.228903889656066895e-01
4.525795578956604004e-01,3.897244334220886230e-01,-4.365339875221252441e-01,-6.412639617919921875e-01,2.136409580707550049e-01,2.308650165796279907e-01,3.818768560886383057e-01,1.913241446018218994e-01,3.171404600143432617e-01,-1.443653088063001633e-02,6.635102629661560059e-01,-3.247841820120811462e-02,-2.142775803804397583e-01,4.898830354213714600e-01
4.274252057075500488e-01,1.725517511367797852e-01,-5.088832378387451172e-01,-4.810473322868347168e-01,1.055059581995010376e-01,9.155712090432643890e-03,1.104366928339004517e-01,3.978857696056365967e-01,5.107423067092895508e-01,1.208559349179267883e-01,7.858178615570068359e-01,-4.270254075527191162e-02,-4.245786070823669434e-01,3.009385168552398682e-01
3.898736238479614258e-01,3.356691598892211914e-01,-3.719625771045684814e-01,-5.557045340538024902e-01,1.625906378030776978e-01,9.378343075513839722e-02,2.495470494031906128e-01,2.295321822166442871e-01,1.968335658311843872e-01,-5.542566999793052673e-02,6.495594382286071777e-01,-1.197781041264533997e-02,-3.129630982875823975e-01,6.311432719230651855e-01
6.097581982612609863e-01,2.489494383335113525e-01,-6.303511261940002441e-01,-6.393128633499145508e-01,2.196930348873138428e-01,6.112069264054298401e-02,2.835743129253387451e-01,4.594640433788299561e-01,2.331811040639877319e-01,8.015444129705429077e-02,5.670830011367797852e-01,2.138814143836498260e-02,-3.015757203102111816e-01,4.416122734546661377e-01
6.196319460868835449e-01,3.607576191425323486e-01,-5.830020308494567871e-01,-5.379080176353454590e-01,5.155020356178283691e-01,1.045665740966796875e-01,1.064337715506553650e-01,3.308284878730773926e-01,1.420434266328811646e-01,-1.335147619247436523e-01,4.709688127040863037e-01,-2.351846396923065186e-01,-2.751347422599792480e-01,5.312089920043945312e-01
4.612756371498107910e-01,3.663049936294555664e-01,-7.705967426300048828e-01,-6.308543086051940918e-01,3.959109187126159668e-01,-7.100843638181686401e-02,1.290252655744552612e-01,1.489723324775695801e-01,2.209136486053466797e-01,-3.228675201535224915e-02,3.719995021820068359e-01,1.243052333593368530e-01,-8.772780001163482666e-02,1.162311136722564697e-01
3.881260156631469727e-01,2.428166568279266357e-01,-7.322877049446105957e-01,-4.553725123405456543e-01,4.275284111499786377e-01,-4.030857235193252563e-02,1.481385380029678345e-01,1.107833459973335266e-01,3.335646688938140869e-01,-8.189804852008819580e-02,4.113893806934356689e-01,-1.536639630794525146e-01,-1.007555276155471802e-01,4.355219006538391113e-01
5.711632370948791504e-01,2.899006009101867676e-01,-7.244049906730651855e-01,-4.072658121585845947e-01,4.286876320838928223e-01,-2.313491329550743103e-02,1.793179512023925781e-01,3.126234114170074463e-01,1.849293112754821777e-01,7.111825048923492432e-02,3.976460695266723633e-01,-1.602289527654647827e-01,-7.576440926641225815e-03,1.917960494756698608e-01
4.487990140914916992e-01,3.045492470264434814e-01,-8.058719038963317871e-01,-5.123980641365051270e-01,6.113136410713195801e-01,-8.964884281158447266e-02,-1.248205080628395081e-01,4.750326871871948242e-01,1.853288561105728149e-01,-9.273588657379150391e-02,4.143687188625335693e-01,-2.200870215892791748e-01,3.559736534953117371e-02,3.193525373935699463e-01
2.341375797986984253e-01,2.037617415189743042e-01,-6.433318257331848145e-01,-3.669660389423370361e-01,4.601654112339019775e-01,-8.251481503248214722e-02,-2.806734107434749603e-02,4.774271845817565918e-01,1.856706887483596802e-01,-1.521076560020446777e-01,4.463629424571990967e-02,-2.231784164905548096e-01,-1.839053928852081299e-01,1.722583621740341187e-01
4.412005245685577393e-01,4.160382449626922607e-01,-6.100692152976989746e-01,-4.668854475021362305e-01,6.912369132041931152e-01,-7.228100299835205078e-02,-1.441781073808670044e-01,3.895052075386047363e-01,9.326435625553131104e-02,-9.400136768817901611e-02,3.625120222568511963e-01,-1.235391125082969666e-01,2.168805524706840515e-02,1.589055359363555908e-01
3.975127637386322021e-01,1.295033544301986694e-01,-6.078706383705139160e-01,-3.699381947517395020e-01,5.710070729255676270e-01,-1.033335365355014801e-02,-4.091081768274307251e-02,3.242820203304290771e-01,-3.195727616548538208e-02,-8.531760424375534058e-02,2.805854193866252899e-02,-1.243489906191825867e-01,-9.412114322185516357e-02,1.280074268579483032e-01
4.663109183311462402e-01,2.950241863727569580e-01,-7.665196061134338379e-01,-1.406448185443878174e-01,7.102712392807006836e-01,1.958569288253784180e-01,-1.712087988853454590e-01,3.882029652595520020e-01,-1.254892200231552124e-01,-1.089927479624748230e-01,-7.040359196253120899e-04,-1.347364485263824463e-01,1.744240149855613708e-02,1.527626905590295792e-02
3.649683594703674316e-01,2.359946221113204956e-01,-6.870655417442321777e-01,-1.577103585004806519e-01,5.608730316162109375e-01,3.021894022822380066e-02,-1.041897088289260864e-01,4.890851080417633057e-01,1.275726109743118286e-01,-1.208214610815048218e-01,-5.831299722194671631e-02,-2.402489036321640015e-01,4.419150203466415405e-02,-2.586688473820686340e-02
3.187421262264251709e-01,-6.665574014186859131e-02,-6.158598065376281738e-01,-3.874951004981994629e-01,6.799833178520202637e-01,1.045113727450370789e-01,-3.641079664230346680e-01,6.210782527923583984e-01,-1.121065914630889893e-01,4.585307091474533081e-02,-1.400963515043258667e-01,-4.683373272418975830e-01,-4.190701991319656372e-03,-1.160066854208707809e-02
8.454637229442596436e-02,2.718571722507476807e-01,-6.798365116119384766e-01,-2.983307540416717529e-01,6.500762701034545898e-01,7.216449826955795288e-02,-3.187266886234283447e-01,6.175007820129394531e-01,-1.641694009304046631e-01,5.362914502620697021e-02,-1.521809995174407959e-01,-3.804220855236053467e-01,1.681567877531051636e-01,-1.336515396833419800e-01
-2.396042831242084503e-02,2.374965101480484009e-01,-7.545331120491027832e-01,-3.862688243389129639e-01,5.876142978668212891e-01,4.773425310850143433e-02,-1.082179024815559387e-01,7.082037329673767090e-01,-2.921440005302429199e-01,-7.452391833066940308e-02,-1.808386296033859253e-01,-2.002790719270706177e-01,-8.778307586908340454e-02,-4.393612965941429138e-02
9.875987470149993896e-02,1.519299447536468506e-01,-4.419834911823272705e-01,-1.497809141874313354e-01,7.294420599937438965e-01,8.157802373170852661e-02,-3.603016436100006104e-01,7.272397279739379883e-01,-2.018673419952392578e-01,-2.095934003591537476e-01,-1.979834288358688354e-01,-1.654590815305709839e-01,-3.407924994826316833e-02,-7.521773874759674072e-02
-1.570596918463706970e-02,1.889658421277999878e-01,-3.733592033386230469e-01,-1.364002078771591187e-01,7.243848443031311035e-01,1.627251356840133667e-01,-2.558285593986511230e-01,8.070715665817260742e-01,-1.756542026996612549e-01,-2.375424355268478394e-01,-4.103890433907508850e-02,-2.335949689149856567e-01,1.292644888162612915e-01,-1.668656468391418457e-01
-1.734124869108200073e-02,2.122295647859573364e-01,-3.950062692165374756e-01,-1.970662921667098999e-01,5.372496247291564941e-01,7.916426658630371094e-02,-4.854701757431030273e-01,5.344190001487731934e-01,-3.024745881557464600e-01,-4.222454726696014404e-01,-2.820048034191131592e-01,-2.470365911722183228e-01,3.447355031967163086e-01,1.319969911128282547e-02
-1.312320083379745483e-01,3.088631033897399902e-01,-4.630547463893890381e-01,5.391207709908485413e-02,5.426098704338073730e-01,6.500488519668579102e-02,-5.352749228477478027e-01,7.141654491424560547e-01,-2.595247924327850342e-01,-2.127306908369064331e-01,-2.783975563943386078e-02,-1.262624263763427734e-01,6.913158297538757324e-02,-5.220152810215950012e-02
-5.659296363592147827e-02,1.343102902173995972e-01,-5.316461324691772461e-01,-3.950883820652961731e-02,6.087683439254760742e-01,5.318415910005569458e-02,-2.438422739505767822e-01,7.301793694496154785e-01,-5.115694403648376465e-01,-3.531735539436340332e-01,-1.550825834274291992e-01,-1.357366144657135010e-01,1.861284524202346802e-01,-5.442011728882789612e-02
-2.951070368289947510e-01,3.331226706504821777e-01,-2.324671298265457153e-01,-1.862109079957008362e-02,6.276678442955017090e-01,-2.700349688529968262e-02,-2.930853366851806641e-01,7.515113949775695801e-01,-3.057242929935455322e-01,-1.692253053188323975e-01,-3.610219359397888184e-01,-1.317211687564849854e-01,3.394401073455810547e-01,-4.142353311181068420e-02
-2.909699678421020508e-01,5.876781791448593140e-02,-3.160914778709411621e-01,1.122216582298278809e-01,7.909440994262695312e-01,1.732043027877807617e-01,-3.972875177860260010e-01,8.961524367332458496e-01,-3.612437546253204346e-01,-4.819291234016418457e-01,-2.849117815494537354e-01,-1.944963037967681885e-01,3.367561399936676025e-01,-1.730527430772781372e-01
-3.929094672203063965e-01,-2.285066433250904083e-02,-4.769156575202941895e-01,5.504430085420608521e-02,7.561291456222534180e-01,2.335755527019500732e-02,-1.680790185928344727e-01,7.682899832725524902e-01,-4.504851996898651123e-01,-4.269798994064331055e-01,-2.946504056453704834e-01,-5.629588291049003601e-02,3.276149034500122070e-01,-2.866030335426330566e-01
-4.423506259918212891e-01,1.918958425521850586e-01,-2.134370505809783936e-01,1.166815683245658875e-01,6.655305027961730957e-01,2.163941264152526855e-01,-3.655683398246765137e-01,8.297801613807678223e-01,-4.435086846351623535e-01,-3.966552317142486572e-01,-2.030345201492309570e-01,1.913976520299911499e-01,2.107154130935668945e-01,-2.102130055427551270e-01
-2.385964989662170410e-01,2.317141592502593994e-01,-3.167503178119659424e-01,3.008961677551269531e-01,7.052494287490844727e-01,9.806787222623825073e-02,-3.592113852500915527e-01,9.197656512260437012e-01,-3.329391181468963623e-01,-3.558875918388366699e-01,-7.456458359956741333e-02,7.940930128097534180e-02,2.920026779174804688e-01,-5.839015245437622070e-01
-3.903990983963012695e-01,5.582794919610023499e-02,-1.705233752727508545e-01,5.908893793821334839e-02,8.345680832862854004e-01,2.209157645702362061e-01,-2.425064295530319214e-01,7.698340415954589844e-01,-3.255337178707122803e-01,-2.338847219944000244e-01,-1.359711140394210815e-01,3.250535428524017334e-01,3.048672080039978027e-01,-3.554253578186035156e-01
-1.335120350122451782e-01,-1.888821125030517578e-01,-1.139992028474807739e-01,1.706481277942657471e-01,9.381512999534606934e-01,6.917510181665420532e-02,-2.440633922815322876e-01,8.779457211494445801e-01,-1.202833205461502075e-01,-5.601155161857604980e-01,-3.351382017135620117e-01,4.834258556365966797e-01,4.094882607460021973e-01,-3.215605020523071289e-01
-5.100783705711364746e-01,-1.508428901433944702e-01,-3.131718337535858154e-01,1.659661903977394104e-02,1.029785513877868652e+00,2.608738094568252563e-02,-3.102649152278900146e-01,9.832278490066528320e-01,-5.859130620956420898e-02,-4.599982798099517822e-01,-1.325982511043548584e-01,3.522253632545471191e-01,2.917122244834899902e-01,-3.461756706237792969e-01
-3.584131002426147461e-01,7.088931743055582047e-04,-2.375964671373367310e-01,-5.966977775096893311e-02,9.041607975959777832e-01,2.144958078861236572e-01,-1.890223473310470581e-01,7.863804101943969727e-01,-3.066778741776943207e-02,-5.778324604034423828e-01,-3.827604055404663086e-01,4.711688756942749023e-01,4.377894401550292969e-01,-5.549719333648681641e-01
-3.433229327201843262e-01,-8.595664054155349731e-02,-1.806787550449371338e-01,-1.493925973773002625e-02,8.790118098258972168e-01,6.448760628700256348e-02,-1.416768282651901245e-01,9.750281572341918945e-01,4.298962280154228210e-02,-3.601660430431365967e-01,-3.943102359771728516e-01,6.938567757606506348e-01,2.920116186141967773e-01,-7.750426530838012695e-01
-2.268978208303451538e-01,1.369153382256627083e-03,-1.817940324544906616e-01,2.123612612485885620e-01,8.636309504508972168e-01,2.584256827831268311e-01,-8.044227212667465210e-02,7.979444265365600586e-01,-1.016904041171073914e-01,-5.071151256561279297e-01,-2.275424003601074219e-01,7.907959818840026855e-01,3.054349422454833984e-01,-8.605133891105651855e-01
-4.347864091396331787e-01,-1.614654213190078735e-01,-2.834402620792388916e-01,-2.970289438962936401e-02,7.977572083473205566e-01,1.953317821025848389e-01,9.925079345703125000e-02,8.850741386413574219e-01,1.511612534523010254e-01,-4.550001621246337891e-01,-2.559222877025604248e-01,6.664815545082092285e-01,2.718345522880554199e-01,-5.770923495292663574e-01
-4.055455923080444336e-01,-2.839466035366058350e-01,-1.621156334877014160e-01,-1.136239618062973022e-01,8.379235863685607910e-01,2.895535230636596680e-01,-5.301814526319503784e-02,7.220808267593383789e-01,2.057526558637619019e-01,-4.626449048519134521e-01,-3.007742464542388916e-01,6.220303177833557129e-01,2.592585682868957520e-01,-7.177370190620422363e-01
-4.920884072780609131e-01,-2.196873575448989868e-01,-1.972533762454986572e-01,-2.623488008975982666e-01,7.634218335151672363e-01,4.929494485259056091e-02,-2.946790754795074463e-01,8.473905324935913086e-01,1.981718391180038452e-01,-4.322632849216461182e-01,-3.996755778789520264e-01,9.519081711769104004e-01,2.611790001392364502e-01,-5.202792286872863770e-01
-2.146087288856506348e-01,-1.897164583206176758e-01,-1.907233446836471558e-01,-2.947982549667358398e-01,7.302060127258300781e-01,2.451436966657638550e-01,6.759691238403320312e-02,7.347033619880676270e-01,1.855105459690093994e-01,-4.547032117843627930e-01,-4.232554137706756592e-01,9.160366654396057129e-01,2.613019347190856934e-01,-9.016046524047851562e-01
-5.494400262832641602e-01,-1.973666399717330933e-01,-3.142857849597930908e-01,-4.462521374225616455e-01,7.834684252738952637e-01,7.738712430000305176e-02,-2.162897437810897827e-01,7.675421237945556641e-01,1.388525962829589844e-01,-5.269969701766967773e-01,-5.408504009246826172e-01,9.184118509292602539e-01,8.264201134443283081e-02,-7.641101479530334473e-01
-3.862993419170379639e-01,-3.859338164329528809e-01,-1.708141714334487915e-01,-1.543236076831817627e-01,5.284003019332885742e-01,-8.498019725084304810e-02,-2.036716043949127197e-01,6.145575642585754395e-01,2.588607966899871826e-01,-4.065181016921997070e-01,-4.265739321708679199e-01,9.810608625411987305e-01,1.998471021652221680e-01,-6.697137951850891113e-01
-1.735586822032928467e-01,-4.120825231075286865e-01,8.085184544324874878e-02,-3.369626700878143311e-01,4.259714484214782715e-01,2.495033890008926392e-01,-3.172263205051422119e-01,6.649329066276550293e-01,1.939982771873474121e-01,-4.730527997016906738e-01,-4.879074394702911377e-01,7.739565372467041016e-01,3.746075928211212158e-01,-8.527903556823730469e-01
-3.366718292236328125e-01,-3.868534564971923828e-01,-6.766527891159057617e-02,-3.699948489665985107e-01,4.658183455467224121e-01,1.682596951723098755e-01,-2.580118179321289062e-01,6.266102790832519531e-01,3.285304605960845947e-01,-2.834691405296325684e-01,-4.277261495590209961e-01,9.279493689537048340e-01,-4.147520754486322403e-03,-1.069781184196472168e+00
-3.548183441162109375e-01,-5.875639915466308594e-01,-1.175680309534072876e-01,-3.870312869548797607e-01,5.825078487396240234e-01,2.792803347110748291e-01,-2.616658508777618408e-01,4.795858561992645264e-01,2.662974894046783447e-01,-3.228790163993835449e-01,-1.645456999540328979e-01,8.517134189605712891e-01,1.166318804025650024e-01,-6.695338487625122070e-01
-3.326223790645599365e-01,-4.885286688804626465e-01,2.703400328755378723e-03,-2.133583128452301025e-01,4.804508984088897705e-01,2.127125114202499390e-01,-1.866464018821716309e-01,3.397200405597686768e-01,2.237728834152221680e-01,-3.888408243656158447e-01,-3.415562808513641357e-01,9.285439848899841309e-01,4.056746140122413635e-02,-8.230025172233581543e-01
-5.093805193901062012e-01,-6.356775164604187012e-01,1.319303363561630249e-01,-4.040792286396026611e-01,4.815908074378967285e-01,2.332770824432373047e-01,-1.527547836303710938e-01,2.804766595363616943e-01,2.092614024877548218e-01,6.316402927041053772e-03,-4.612668454647064209e-01,9.341718554496765137e-01,7.624753564596176147e-02,-1.034768819808959961e+00
-5.278275012969970703e-01,-6.698222160339355469e-01,-3.208612650632858276e-02,-4.625961482524871826e-01,1.645637303590774536e-01,4.159943461418151855e-01,-2.638900279998779297e-01,9.183602780103683472e-02,2.324069738388061523e-01,-1.249877084046602249e-02,-2.000828534364700317e-01,9.369295835494995117e-01,3.293241187930107117e-02,-9.562465548515319824e-01
-5.564459562301635742e-01,-7.096958160400390625e-01,2.624229490756988525e-01,-2.712269723415374756e-01,3.226447999477386475e-01,3.203956782817840576e-01,-8.340670913457870483e-02,1.536144167184829712e-01,2.399068027734756470e-01,1.256958693265914917e-01,-1.622941642999649048e-01,8.837978243827819824e-01,-7.295665889978408813e-02,-9.746479392051696777e-01
-5.685337781906127930e-01,-7.407122254371643066e-01,4.431674629449844360e-02,-4.709681272506713867e-01,6.883715093135833740e-02,3.097909390926361084e-01,-2.291675209999084473e-01,1.138340309262275696e-01,2.568864226341247559e-01,-9.161406010389328003e-02,-1.238609850406646729e-01,8.335937857627868652e-01,-3.647395670413970947e-01,-1.004549860954284668e+00
-6.193959712982177734e-01,-5.999561548233032227e-01,1.706314235925674438e-01,-6.333770751953125000e-01,4.474087804555892944e-02,4.023286700248718262e-01,-3.151906281709671021e-02,1.319881379604339600e-01,1.469316035509109497e-01,-8.034607023000717163e-02,-2.843614518642425537e-01,8.213233947753906250e-01,-4.468888938426971436e-01,-1.208084702491760254e+00
-4.099543094635009766e-01,-8.677961826324462891e-01,2.191209793090820312e-01,-6.224358677864074707e-01,-3.787215054035186768e-02,4.839284121990203857e-01,-1.753492504358291626e-01,3.784811496734619141e-02,3.128803074359893799e-01,1.409525275230407715e-01,-2.156401425600051880e-01,8.133367896080017090e-01,-5.935357213020324707e-01,-1.027493596076965332e+00
-5.842089653015136719e-01,-8.822162151336669922e-01,4.419855773448944092e-01,-4.933528006076812744e-01,-8.346993476152420044e-02,2.416128665208816528e-01,-1.885279864072799683e-01,-2.493900507688522339e-01,3.195613324642181396e-01,2.223929613828659058e-01,-2.963811755180358887e-01,6.967183351516723633e-01,-4.236012995243072510e-01,-8.918480277061462402e-01
-5.371429920196533203e-01,-7.037922739982604980e-01,2.568692862987518311e-01,-4.477589726448059082e-01,2.302597314119338989e-01,6.315287351608276367e-01,-7.078593224287033081e-02,-1.781328916549682617e-01,1.978599131107330322e-01,1.744684278964996338e-01,2.282189391553401947e-02,7.025949954986572266e-01,-6.544917225837707520e-01,-9.532357454299926758e-01
-6.137800812721252441e-01,-7.993112802505493164e-01,5.129408836364746094e-01,-3.949512541294097900e-01,-4.479419440031051636e-02,7.705275416374206543e-01,-3.260801732540130615e-02,-2.486242204904556274e-01,3.505962491035461426e-01,-2.229965105652809143e-02,-7.994593679904937744e-02,7.576864957809448242e-01,-7.997016906738281250e-01,-9.178612232208251953e-01
-3.669009506702423096e-01,-7.491061687469482422e-01,4.174298048019409180e-01,-5.658035278320312500e-01,-3.461014032363891602e-01,6.754081845283508301e-01,-7.494098693132400513e-02,-1.377377510070800781e-01,3.362369835376739502e-01,1.119942665100097656e-01,-1.842067688703536987e-01,7.570790648460388184e-01,-7.238314151763916016e-01,-9.542499780654907227e-01
-2.564460933208465576e-01,-8.978191018104553223e-01,4.681119322776794434e-01,-4.891126155853271484e-01,-3.801182806491851807e-01,6.752156019210815430e-01,1.531801279634237289e-02,-3.434673845767974854e-01,2.615943253040313721e-01,2.624268233776092529e-01,1.684593409299850464e-01,5.979888439178466797e-01,-7.573963999748229980e-01,-9.246292710304260254e-01
-6.026432514190673828e-01,-7.266650199890136719e-01,5.798403620719909668e-01,-5.353128314018249512e-01,-2.730673849582672119e-01,7.826681733131408691e-01,2.711829915642738342e-02,-1.877034455537796021e-01,4.096251726150512695e-01,1.522115319967269897e-01,-9.088157676160335541e-03,5.229890942573547363e-01,-7.434306740760803223e-01,-9.178853034973144531e-01
-1.873015612363815308e-01,-6.157090663909912109e-01,5.051644444465637207e-01,-3.255327045917510986e-01,-3.173966407775878906e-01,9.333131313323974609e-01,1.084031239151954651e-01,-3.687430322170257568e-01,4.845670759677886963e-01,6.833785772323608398e-02,8.035863190889358521e-02,4.275713264942169189e-01,-7.685526609420776367e-01,-6.064602732658386230e-01
-2.297556400299072266e-01,-7.004130482673645020e-01,5.696940422058105469e-01,-2.860249876976013184e-01,-4.439611732959747314e-01,8.088793158531188965e-01,1.889508962631225586e-01,-2.686798274517059326e-01,2.927947640419006348e-01,1.553912311792373657e-01,8.107166737318038940e-02,4.310165345668792725e-01,-7.850539684295654297e-01,-6.236787438392639160e-01
-1.370158940553665161e-01,-4.994127452373504639e-01,5.216637849807739258e-01,-1.910262256860733032e-01,-2.490187287330627441e-01,7.744325995445251465e-01,1.518864482641220093e-01,-3.301993906497955322e-01,3.584737777709960938e-01,-1.758645474910736084e-01,1.347989588975906372e-01,4.638425111770629883e-01,-7.191312313079833984e-01,-6.555914878845214844e-01
-1.858889013528823853e-01,-5.075494050979614258e-01,6.462982296943664551e-01,-3.203259706497192383e-01,-5.345267653465270996e-01,6.937038898468017578e-01,9.283168613910675049e-02,-4.196465909481048584e-01,4.702351689338684082e-01,4.937746748328208923e-02,3.665817081928253174e-01,4.335789382457733154e-01,-8.296322822570800781e-01,-3.466755151748657227e-01
-1.205191314220428467e-01,-4.746304154396057129e-01,4.600101411342620850e-01,-1.347945332527160645e-01,-3.692532777786254883e-01,5.955230593681335449e-01,1.765574514865875244e-01,-2.946365177631378174e-01,1.239895299077033997e-01,2.338498458266258240e-02,3.305485844612121582e-01,4.114665985107421875e-01,-7.152104973793029785e-01,-4.310765862464904785e-01
-1.022254973649978638e-01,-2.323355525732040405e-01,3.122018277645111084e-01,-3.551237881183624268e-01,-3.861169815063476562e-01,6.660782098770141602e-01,3.392385840415954590e-01,-2.122715115547180176e-01,5.319329500198364258e-01,5.077569931745529175e-02,3.185184299945831299e-01,2.830468416213989258e-01,-8.072538375854492188e-01,-3.932033777236938477e-01
-1.871453225612640381e-01,-1.461973041296005249e-01,2.576337158679962158e-01,-2.290120124816894531e-01,-2.210307121276855469e-01,6.225737929344177246e-01,2.010415196418762207e-01,-2.869369089603424072e-02,3.524612784385681152e-01,2.765068225562572479e-02,6.367684602737426758e-01,1.894170492887496948e-01,-7.884966731071472168e-01,-3.002440929412841797e-01
-4.749006405472755432e-02,-1.779843866825103760e-01,3.743390440940856934e-01,-3.233325183391571045e-01,-2.001439034938812256e-01,3.752510845661163330e-01,1.976479440927505493e-01,-2.680040597915649414e-01,4.248791337013244629e-01,-3.514953330159187317e-02,6.480818390846252441e-01,3.545042276382446289e-01,-7.784263491630554199e-01,-2.219130396842956543e-01
-2.864544652402400970e-02,-8.244763314723968506e-02,1.808086931705474854e-01,-1.299013197422027588e-01,-3.494729399681091309e-01,4.430819451808929443e-01,1.645079851150512695e-01,-2.111651152372360229e-01,1.866908669471740723e-01,-2.673246711492538452e-02,8.278452157974243164e-01,3.301046490669250488e-01,-6.954704523086547852e-01,-1.175841838121414185e-01
1.883985996246337891e-01,6.179077550768852234e-02,1.486217975616455078e-01,-1.332671940326690674e-01,-3.819533288478851318e-01,5.778872966766357422e-01,2.708569169044494629e-01,-2.890364229679107666e-01,2.309505194425582886e-01,-1.737442016601562500e-01,6.523782014846801758e-01,3.593549132347106934e-01,-5.958021283149719238e-01,-2.199663072824478149e-01
1.156149134039878845e-01,-5.999239906668663025e-02,1.645716726779937744e-01,-3.869294226169586182e-01,-3.112688362598419189e-01,3.827516138553619385e-01,4.376428127288818359e-01,-2.628805860877037048e-02,2.835197150707244873e-01,-3.396395742893218994e-01,7.220950722694396973e-01,3.621889054775238037e-01,-5.682594776153564453e-01,-7.728599011898040771e-03
2.564799487590789795e-01,5.839029699563980103e-02,-4.133794084191322327e-02,-1.595640555024147034e-02,-2.441370934247970581e-01,1.108430176973342896e-01,2.909038662910461426e-01,-1.861062198877334595e-01,2.877117991447448730e-01,-2.235687226057052612e-01,7.546868324279785156e-01,3.059895336627960205e-01,-5.429299473762512207e-01,-4.264732450246810913e-02
1.648048460483551025e-01,2.342493459582328796e-02,-1.501351296901702881e-01,-3.204669058322906494e-02,-4.498332142829895020e-01,4.663039445877075195e-01,3.605207800865173340e-01,-1.724311113357543945e-01,1.729145497083663940e-01,-3.467040359973907471e-01,7.497094273567199707e-01,2.654835581779479980e-01,-5.458684563636779785e-01,-1.293273270130157471e-01
5.230258107185363770e-01,-5.607855040580034256e-03,-5.874774977564811707e-02,-1.682753860950469971e-01,-3.738843500614166260e-01,1.688834130764007568e-01,3.051646649837493896e-01,-1.710295677185058594e-01,2.968408465385437012e-01,-4.240030348300933838e-01,7.503278851509094238e-01,3.284155428409576416e-01,-6.665040254592895508e-01,-8.360715955495834351e-02
4.271101653575897217e-01,8.786141872406005859e-02,-2.214584797620773315e-01,-8.285550028085708618e-02,-9.087594598531723022e-02,1.648038029670715332e-01,2.779291868209838867e-01,-3.270493447780609131e-01,3.382773995399475098e-01,-2.584273815155029297e-01,6.708803176879882812e-01,3.677909970283508301e-01,-2.507232129573822021e-01,-1.012470424175262451e-01
3.228729367256164551e-01,4.409764334559440613e-02,-7.896699756383895874e-02,-2.600199580192565918e-01,-2.167220786213874817e-02,2.734218239784240723e-01,4.310816526412963867e-01,-2.716364562511444092e-01,2.770137488842010498e-01,-4.853371679782867432e-01,4.903961420059204102e-01,1.383545696735382080e-01,-6.351714134216308594e-01,-4.420008510351181030e-02
6.093532443046569824e-01,2.277299463748931885e-01,-5.354156494140625000e-01,-1.867330223321914673e-01,1.364574860781431198e-02,4.942048713564872742e-02,2.397927343845367432e-01,-2.098694443702697754e-01,5.600988864898681641e-01,-3.041703701019287109e-01,6.589833498001098633e-01,2.582680881023406982e-01,-4.644780457019805908e-01,1.097569242119789124e-01
5.744144320487976074e-01,1.367489397525787354e-01,-4.018518626689910889e-01,6.085135042667388916e-02,-1.404296606779098511e-01,-1.163771748542785645e-01,7.290516048669815063e-02,-3.937869891524314880e-02,4.565121829509735107e-01,-5.304532647132873535e-01,6.414052844047546387e-01,8.751324564218521118e-02,-1.506431847810745239e-01,-7.618931680917739868e-02
6.587578058242797852e-01,1.038297563791275024e-01,-3.830345869064331055e-01,-2.130645364522933960e-01,-7.763163745403289795e-02,5.953712388873100281e-02,-2.076162770390510559e-02,-3.339723348617553711e-01,2.905235886573791504e-01,-4.604153037071228027e-01,5.004512667655944824e-01,1.333708763122558594e-01,-3.342094421386718750e-01,-3.806139808148145676e-03
9.131057858467102051e-01,3.483439683914184570e-01,-5.377447009086608887e-01,-8.165866881608963013e-02,-1.539725065231323242e-01,7.462599128484725952e-02,-4.851156845688819885e-02,-1.029266789555549622e-02,3.830760121345520020e-01,-5.187978148460388184e-01,7.316229939460754395e-01,1.727586686611175537e-01,-4.626060724258422852e-01,-8.198256045579910278e-02
7.190263271331787109e-01,3.731733560562133789e-01,-3.875652551651000977e-01,-1.992144733667373657e-01,7.259972393512725830e-02,-9.469015896320343018e-02,-1.407555937767028809e-01,-8.576527237892150879e-03,3.096441924571990967e-01,-3.801573812961578369e-01,3.848999738693237305e-01,-1.386140659451484680e-02,-2.390495389699935913e-01,5.158643797039985657e-02
7.079650759696960449e-01,3.040053844451904297e-01,-5.636312961578369141e-01,6.186199374496936798e-03,-1.572850644588470459e-01,-1.022242084145545959e-01,-2.166468463838100433e-02,-2.018523514270782471e-01,4.597618803381919861e-02,-4.655078351497650146e-01,3.219800591468811035e-01,-1.394826620817184448e-01,-3.082751929759979248e-01,3.566376119852066040e-02
5.457658171653747559e-01,4.385226666927337646e-01,-7.040887475013732910e-01,6.989602744579315186e-02,-2.060407400131225586e-01,-2.487611770629882812e-01,-2.138094007968902588e-01,-2.950418367981910706e-02,1.962191164493560791e-01,-6.371381282806396484e-01,3.842468559741973877e-01,-1.517757773399353027e-01,-3.756425976753234863e-01,1.489144563674926758e-01
5.647319555282592773e-01,3.174206316471099854e-01,-6.575525403022766113e-01,1.362254619598388672e-01,-1.537752151489257812e-01,-2.688237428665161133e-01,-2.699344754219055176e-01,1.403144747018814087e-01,4.140928760170936584e-02,-5.978764295578002930e-01,3.227724432945251465e-01,-2.644421458244323730e-01,-2.387149930000305176e-01,-6.148402765393257141e-02
4.829260706901550293e-01,3.883781731128692627e-01,-8.618780970573425293e-01,1.688608676195144653e-01,-1.859136372804641724e-01,-2.363853305578231812e-01,-3.809905946254730225e-01,-6.285137683153152466e-02,7.938965409994125366e-02,-4.732078611850738525e-01,1.054532304406166077e-01,-3.391809165477752686e-01,-2.647313773632049561e-01,9.297163039445877075e-02
3.462017476558685303e-01,4.908745586872100830e-01,-6.960417032241821289e-01,3.296191990375518799e-01,-1.606343239545822144e-01,-1.694620996713638306e-01,-4.493997693061828613e-01,7.474055048078298569e-03,-1.707642674446105957e-01,-4.766752123832702637e-01,3.099485039710998535e-01,-1.706022024154663086e-01,-2.204309105873107910e-01,1.495215743780136108e-01
3.895305693149566650e-01,5.744225382804870605e-01,-6.340641975402832031e-01,2.011706829071044922e-01,-6.662865728139877319e-02,-2.485991865396499634e-01,-4.007251560688018799e-01,3.554705679416656494e-01,-7.858243584632873535e-02,-7.779294848442077637e-01,1.552268862724304199e-01,-2.920161485671997070e-01,-1.688411980867385864e-01,-2.466963231563568115e-02
5.001684427261352539e-01,4.497881531715393066e-01,-7.896890640258789062e-01,2.230108380317687988e-01,-1.437414884567260742e-01,-1.733491718769073486e-01,-4.504554569721221924e-01,1.272734701633453369e-01,-9.341844916343688965e-02,-5.195561051368713379e-01,2.975233793258666992e-01,-4.635587930679321289e-01,-8.170682191848754883e-02,-4.309436772018671036e-04
3.803808987140655518e-01,4.415941834449768066e-01,-7.739347815513610840e-01,3.427568972110748291e-01,-2.113412171602249146e-01,-1.191878914833068848e-01,-4.214099645614624023e-01,8.358527719974517822e-02,-2.174556553363800049e-01,-5.326204299926757812e-01,1.876623183488845825e-01,-5.270040035247802734e-01,-4.501736536622047424e-02,2.244633808732032776e-02
1.843986511230468750e-01,6.091927289962768555e-01,-8.756885528564453125e-01,3.376488387584686279e-01,-2.096846550703048706e-01,-1.970125436782836914e-01,-7.276896834373474121e-01,7.680469751358032227e-02,-4.868360757827758789e-01,-6.400616765022277832e-01,9.838924556970596313e-02,-5.464354157447814941e-01,-1.965523213148117065e-01,-3.023516386747360229e-02
2.540791332721710205e-01,5.793459415435791016e-01,-8.205353617668151855e-01,5.470998287200927734e-01,-1.872399449348449707e-01,-4.378993511199951172e-01,-7.105945348739624023e-01,1.785916686058044434e-01,-1.026782691478729248e-01,-6.652921438217163086e-01,2.229500263929367065e-01,-5.418918132781982422e-01,-8.088011294603347778e-02,1.317837275564670563e-03
1.561098396778106689e-01,5.385008454322814941e-01,-6.153892278671264648e-01,5.866795778274536133e-01,-3.154581785202026367e-01,-2.933112084865570068e-01,-6.768531203269958496e-01,2.294764071702957153e-01,-3.200719058513641357e-01,-7.078356146812438965e-01,1.292269211262464523e-02,-3.582842648029327393e-01,-1.406436264514923096e-01,4.241848364472389221e-02
2.575980722904205322e-01,6.469025015830993652e-01,-7.045600414276123047e-01,7.030221223831176758e-01,-1.710995845496654510e-02,-1.572176814079284668e-01,-5.584522485733032227e-01,-3.078407421708106995e-02,-4.246972501277923584e-01,-7.745019793510437012e-01,-9.486832469701766968e-02,-4.772632718086242676e-01,-3.670865669846534729e-02,-4.238805919885635376e-02
1.253435015678405762e-01,7.294884920120239258e-01,-4.405342042446136475e-01,5.406820178031921387e-01,-3.250171616673469543e-02,-2.323644608259201050e-01,-8.007413148880004883e-01,-9.744420647621154785e-03,-3.503901362419128418e-01,-6.129840612411499023e-01,-1.281131654977798462e-01,-2.358150780200958252e-01,-2.161407172679901123e-01,-4.589437320828437805e-02
1.269844770431518555e-01,5.793269276618957520e-01,-5.774587392807006836e-01,7.401283979415893555e-01,7.374510914087295532e-02,-3.551877140998840332e-01,-6.497445702552795410e-01,1.483282893896102905e-01,-2.051040232181549072e-01,-6.643905043601989746e-01,9.940202580764889717e-04,-4.270016252994537354e-01,-1.159564480185508728e-01,-5.875313654541969299e-03
4.769588634371757507e-02,4.945159256458282471e-01,-7.231110930442810059e-01,8.941897153854370117e-01,-3.366365283727645874e-02,-2.206313908100128174e-01,-8.170773386955261230e-01,2.729663848876953125e-01,-5.540744662284851074e-01,-6.083701848983764648e-01,1.270648390054702759e-01,-4.475128054618835449e-01,-2.941901385784149170e-01,-6.725841760635375977e-02
3.403366804122924805e-01,6.173318028450012207e-01,-3.568125963211059570e-01,8.539159893989562988e-01,-2.143131196498870850e-01,-3.661615252494812012e-01,-6.702659726142883301e-01,3.414345085620880127e-01,-2.938889861106872559e-01,-6.152164936065673828e-01,-1.002940088510513306e-01,-2.585847079753875732e-01,-3.416024148464202881e-02,-5.342925339937210083e-02
1.688444912433624268e-01,5.030968189239501953e-01,-7.140981554985046387e-01,6.244207620620727539e-01,-4.270293191075325012e-02,-1.432349234819412231e-01,-7.701634764671325684e-01,2.133951485157012939e-01,-4.055521786212921143e-01,-4.235911667346954346e-01,-3.951384499669075012e-02,-4.758453965187072754e-01,8.772421628236770630e-02,-9.659478813409805298e-02
1.642501503229141235e-01,7.297550439834594727e-01,-5.988587141036987305e-01,8.242198228836059570e-01,-3.571214526891708374e-02,-1.650784313678741455e-01,-8.960918188095092773e-01,4.159757196903228760e-01,-4.026774764060974121e-01,-5.747779607772827148e-01,-1.113459989428520203e-01,-2.448911666870117188e-01,8.078181743621826172e-02,2.443549688905477524e-03
2.106510847806930542e-01,5.578556656837463379e-01,-5.380651354789733887e-01,7.584572434425354004e-01,2.231649495661258698e-02,-1.192645281553268433e-01,-8.162739872932434082e-01,4.829127192497253418e-01,-3.758250474929809570e-01,-6.627632975578308105e-01,-2.075618058443069458e-01,-3.383933901786804199e-01,3.521595150232315063e-02,6.482742726802825928e-02
2.190087437629699707e-01,6.318498253822326660e-01,-5.241217017173767090e-01,8.349572420120239258e-01,1.295471042394638062e-01,4.239544644951820374e-02,-7.555017471313476562e-01,4.574533998966217041e-01,-5.359171032905578613e-01,-9.567328691482543945e-01,-3.521462678909301758e-01,-3.881276845932006836e-01,4.091554507613182068e-02,4.758277907967567444e-03
1.097740605473518372e-01,5.894761085510253906e-01,-6.213595271110534668e-01,7.935791015625000000e-01,-1.719097048044204712e-01,-2.072105556726455688e-01,-1.116377711296081543e+00,5.376431941986083984e-01,-2.531144022941589355e-01,-7.301427721977233887e-01,-1.861282438039779663e-01,-1.341300755739212036e-01,2.278801053762435913e-01,-3.770013526082038879e-02
2.006432116031646729e-01,7.105303406715393066e-01,-5.647081732749938965e-01,9.997512102127075195e-01,1.118031982332468033e-02,-1.492139697074890137e-01,-7.469099760055541992e-01,5.610392689704895020e-01,-5.158829689025878906e-01,-6.361011862754821777e-01,-1.352811604738235474e-01,8.858965709805488586e-03,8.004350587725639343e-03,3.260528296232223511e-02
1.838738173246383667e-01,7.281039357185363770e-01,-4.391970634460449219e-01,8.246440887451171875e-01,-5.766729265451431274e-02,-1.985998302698135376e-01,-9.912659525871276855e-01,7.144824862480163574e-01,-2.945226132869720459e-01,-8.582943081855773926e-01,-1.804156750440597534e-01,-5.116998217999935150e-03,8.351214230060577393e-02,7.761205732822418213e-02
2.739999294281005859e-01,7.877351641654968262e-01,-4.431211650371551514e-01,8.336712718009948730e-01,2.229125946760177612e-01,1.369143836200237274e-02,-8.698328137397766113e-01,6.930475831031799316e-01,-2.583003342151641846e-01,-6.118272542953491211e-01,-2.683882713317871094e-01,3.166048601269721985e-02,2.959302067756652832e-01,3.839087858796119690e-02
2.444457262754440308e-01,7.239738702774047852e-01,-3.975623846054077148e-01,7.785698771476745605e-01,6.341106444597244263e-02,1.068414002656936646e-02,-8.581299185752868652e-01,5.910574197769165039e-01,-2.081200778484344482e-01,-7.837304472923278809e-01,-2.953475415706634521e-01,-1.877366900444030762e-01,1.849255561828613281e-01,2.276926338672637939e-01
1.668547242879867554e-01,7.053815126419067383e-01,-6.638017296791076660e-01,8.057315945625305176e-01,-3.996841236948966980e-02,-7.327798008918762207e-02,-1.114969491958618164e+00,8.015954494476318359e-01,-3.430990874767303467e-01,-8.060548305511474609e-01,-3.148562908172607422e-01,1.078536510467529297e-01,1.466020643711090088e-01,-9.027209877967834473e-02
1.706772595643997192e-01,6.216334700584411621e-01,-5.382882356643676758e-01,7.055107355117797852e-01,1.345203220844268799e-01,-8.107305318117141724e-02,-8.944541215896606445e-01,5.579507946968078613e-01,8.775565773248672485e-03,-9.208831787109375000e-01,-3.287122249603271484e-01,1.615045219659805298e-01,1.213128343224525452e-01,-7.688764482736587524e-02
1.501221656799316406e-01,6.181012988090515137e-01,-5.058718323707580566e-01,7.664678692817687988e-01,-1.371993310749530792e-02,-2.284653782844543457e-01,-7.783682942390441895e-01,5.003079175949096680e-01,-2.126738280057907104e-01,-6.459431052207946777e-01,-2.732617259025573730e-01,2.921232283115386963e-01,2.157498449087142944e-01,-2.776394225656986237e-02
1.883865147829055786e-01,4.651702642440795898e-01,-7.100555896759033203e-01,6.044971942901611328e-01,8.963311463594436646e-02,-7.746513932943344116e-02,-6.181418895721435547e-01,6.134667396545410156e-01,-6.547842919826507568e-02,-8.420267105102539062e-01,-3.128663003444671631e-01,1.789604425430297852e-01,4.927407205104827881e-01,-2.238545566797256470e-01
1.835790574550628662e-01,6.927416920661926270e-01,-5.272520780563354492e-01,7.285743355751037598e-01,-9.453057311475276947e-03,-1.899411231279373169e-01,-7.046151757240295410e-01,5.704339742660522461e-01,3.168322890996932983e-02,-7.667499780654907227e-01,-2.710739374160766602e-01,4.224701523780822754e-01,3.138751387596130371e-01,-1.296460721641778946e-02
2.149815410375595093e-01,4.857438504695892334e-01,-4.030728340148925781e-01,5.809178352355957031e-01,3.918623924255371094e-02,-4.495179653167724609e-02,-6.780596375465393066e-01,5.532855391502380371e-01,1.159077510237693787e-01,-8.395863771438598633e-01,-4.481436908245086670e-01,3.420770168304443359e-01,2.453350126743316650e-01,-2.570461034774780273e-01
6.688463687896728516e-02,5.960621237754821777e-01,-4.299433231353759766e-01,4.503717124462127686e-01,1.549770087003707886e-01,-4.579630494117736816e-02,-9.665936231613159180e-01,3.736898005008697510e-01,2.472225725650787354e-01,-4.944355487823486328e-01,-3.877237141132354736e-01,4.139384627342224121e-01,3.000109195709228516e-01,-2.509843707084655762e-01
1.656615138053894043e-01,3.541122674942016602e-01,-4.354238212108612061e-01,4.795632660388946533e-01,-2.123520523309707642e-02,-2.499664202332496643e-02,-7.644541859626770020e-01,5.244317054748535156e-01,2.717844247817993164e-01,-4.511878192424774170e-01,-4.259795248508453369e-01,5.432649254798889160e-01,3.201058506965637207e-01,-3.503164947032928467e-01
3.895486891269683838e-01,1.101125776767730713e-01,-2.783172130584716797e-01,3.715198636054992676e-01,-3.093931376934051514e-01,9.027231484651565552e-02,-5.380699634552001953e-01,5.494832396507263184e-01,5.207975506782531738e-01,-4.302766919136047363e-01,-5.125882029533386230e-01,4.122554063796997070e-01,7.307662069797515869e-02,-2.889326810836791992e-01
1.950848996639251709e-01,1.916871964931488037e-01,-1.416859924793243408e-01,3.310154080390930176e-01,-1.123789697885513306e-01,2.138375341892242432e-01,-6.084018349647521973e-01,3.201464712619781494e-01,4.158417880535125732e-01,-2.761848270893096924e-01,-4.702193140983581543e-01,6.469584703445434570e-01,1.355450600385665894e-01,-5.274609327316284180e-01
2.599121332168579102e-01,1.773237884044647217e-01,-1.900586634874343872e-01,1.843703538179397583e-01,7.106094062328338623e-02,3.862539529800415039e-01,-7.500780224800109863e-01,3.010890781879425049e-01,4.559574425220489502e-01,-2.040933668613433838e-01,-6.272373795509338379e-01,4.537713825702667236e-01,3.767916560173034668e-02,-2.850252985954284668e-01
3.042630255222320557e-01,1.312219947576522827e-01,-3.729280233383178711e-01,8.289239555597305298e-02,3.193990513682365417e-02,3.285333812236785889e-01,-6.798689961433410645e-01,9.044321253895759583e-03,4.111096858978271484e-01,-2.250384241342544556e-01,-4.513278901576995850e-01,6.699390411376953125e-01,2.926141023635864258e-01,-4.301418960094451904e-01
2.709826231002807617e-01,1.470316052436828613e-01,1.456645037978887558e-02,5.756819620728492737e-02,-2.550673484802246094e-01,5.663592219352722168e-01,-5.866291522979736328e-01,1.325911879539489746e-01,5.315403342247009277e-01,-1.894592493772506714e-01,-5.542440414428710938e-01,5.861664414405822754e-01,9.407015144824981689e-02,-3.886280059814453125e-01
2.319276183843612671e-01,5.973984673619270325e-02,-1.836274266242980957e-01,-6.134843081235885620e-02,-4.053826928138732910e-01,4.226417541503906250e-01,-5.819412469863891602e-01,6.657479703426361084e-02,4.770432710647583008e-01,-2.086553275585174561e-01,-5.598636269569396973e-01,5.899032950401306152e-01,4.909498617053031921e-02,-5.200409889221191406e-01
3.760270774364471436e-01,-1.975136436522006989e-02,-1.252874135971069336e-01,4.025043174624443054e-02,-3.587826490402221680e-01,6.425518989562988281e-01,-6.805850267410278320e-01,1.478125434368848801e-02,4.952414631843566895e-01,1.474360190331935883e-02,-6.293500065803527832e-01,2.853447794914245605e-01,1.161396503448486328e-02,-3.957327306270599365e-01
1.715856045484542847e-01,-9.760648012161254883e-02,6.523042172193527222e-02,5.265487730503082275e-02,-2.823697030544281006e-01,5.660808682441711426e-01,-6.789893507957458496e-01,3.060512244701385498e-03,8.710952997207641602e-01,-3.302427753806114197e-02,-6.522095799446105957e-01,5.116465091705322266e-01,-1.163065806031227112e-01,-5.023120045661926270e-01
5.759963393211364746e-02,-5.910963565111160278e-02,1.129526123404502869e-01,-6.295202672481536865e-02,-4.661605656147003174e-01,6.011062860488891602e-01,-5.911217927932739258e-01,-1.561365369707345963e-02,7.141847014427185059e-01,1.751462668180465698e-01,-6.777370572090148926e-01,5.225807428359985352e-01,1.686377078294754028e-02,-2.582705020904541016e-01
3.788205683231353760e-01,3.634851798415184021e-02,6.654340028762817383e-02,3.933028317987918854e-03,-7.042667865753173828e-01,6.110123991966247559e-01,-5.112205743789672852e-01,-1.315567791461944580e-01,4.757561385631561279e-01,2.001252472400665283e-01,-6.643902063369750977e-01,6.674317121505737305e-01,1.212788298726081848e-01,-4.709077477455139160e-01
1.075544655323028564e-01,6.171680614352226257e-02,2.513774931430816650e-01,-3.366665542125701904e-02,-5.031144022941589355e-01,7.047092914581298828e-01,-6.127554774284362793e-01,-5.917906016111373901e-02,6.291021704673767090e-01,2.299406230449676514e-01,-7.000105381011962891e-01,4.762833714485168457e-01,-1.482806056737899780e-01,-2.897796928882598877e-01
2.976892590522766113e-01,-8.707193285226821899e-02,2.223442047834396362e-01,-1.745969206094741821e-01,-5.028121471405029297e-01,7.615327835083007812e-01,-7.139233946800231934e-01,-1.375747025012969971e-01,5.936754941940307617e-01,4.259296059608459473e-01,-4.956813156604766846e-01,3.824929296970367432e-01,-1.936723664402961731e-02,-3.056849539279937744e-01
1.793660074472427368e-01,8.885751664638519287e-02,1.168195083737373352e-01,-6.043222546577453613e-02,-4.842052459716796875e-01,6.172619462013244629e-01,-4.827421009540557861e-01,2.378215827047824860e-02,5.056228041648864746e-01,2.712659835815429688e-01,-3.867465555667877197e-01,5.017877817153930664e-01,-1.389476060867309570e-01,-3.840285539627075195e-01
3.672852814197540283e-01,5.546746402978897095e-02,2.177423685789108276e-01,-2.654518783092498779e-01,-8.746249675750732422e-01,8.671151399612426758e-01,-5.376747250556945801e-01,-4.217016324400901794e-02,7.899597883224487305e-01,2.313240468502044678e-01,-5.264263153076171875e-01,3.430438041687011719e-01,-2.220435440540313721e-01,-2.820685803890228271e-01
1.988282799720764160e-01,-7.775180786848068237e-02,3.351499140262603760e-01,-1.107161492109298706e-01,-5.692558288574218750e-01,6.845514774322509766e-01,-1.465174406766891479e-01,-6.020870059728622437e-02,5.766773819923400879e-01,4.372171163558959961e-01,-2.178675532341003418e-01,4.777572751045227051e-01,-7.162149995565414429e-02,-1.044111251831054688e-01
1.848461180925369263e-01,4.976300895214080811e-02,4.146850407123565674e-01,-2.407336682081222534e-01,-6.701093912124633789e-01,9.366764426231384277e-01,-3.571369349956512451e-01,-1.116262003779411316e-02,7.566162943840026855e-01,4.263230264186859131e-01,-4.537758827209472656e-01,3.882623612880706787e-01,-3.392919600009918213e-01,-1.998648196458816528e-01
3.524911999702453613e-01,7.800052314996719360e-02,3.995094895362854004e-01,-1.293355524539947510e-01,-7.503238320350646973e-01,9.575557708740234375e-01,-1.910835653543472290e-01,-2.033127546310424805e-01,5.798364281654357910e-01,5.491899847984313965e-01,-1.599008589982986450e-01,2.665530145168304443e-01,-3.326540887355804443e-01,-1.376748830080032349e-01
4.218141138553619385e-01,-4.737955704331398010e-02,3.077823221683502197e-01,-2.621734440326690674e-01,-8.364556431770324707e-01,1.067775607109069824e+00,-1.657590717077255249e-01,-1.009656488895416260e-01,7.889066934585571289e-01,4.775495231151580811e-01,-2.828405201435089111e-01,4.510382413864135742e-01,-2.442774921655654907e-02,6.726158317178487778e-03
5.026044845581054688e-01,-5.615782365202903748e-02,4.548752903938293457e-01,-1.332326419651508331e-02,-8.378939628601074219e-01,8.634051680564880371e-01,-6.247047334909439087e-02,-2.270003221929073334e-02,8.502330780029296875e-01,6.368770599365234375e-01,-4.868018254637718201e-02,4.234817624092102051e-01,-2.489147186279296875e-01,1.021316945552825928e-01
1.396910846233367920e-01,1.508890688419342041e-01,6.161386966705322266e-01,-1.717070490121841431e-01,-7.047214508056640625e-01,8.696760535240173340e-01,1.537383645772933960e-01,-2.149283438920974731e-01,6.603029370307922363e-01,5.163625478744506836e-01,-4.466726258397102356e-02,4.630276858806610107e-01,-9.232545644044876099e-02,1.193765029311180115e-01
2.488173246383666992e-01,8.554922789335250854e-02,5.724762678146362305e-01,-5.562039464712142944e-02,-6.813151836395263672e-01,1.091364145278930664e+00,2.511785030364990234e-01,-3.172352612018585205e-01,7.660740017890930176e-01,5.260154008865356445e-01,1.732594817876815796e-01,3.675266802310943604e-01,-2.203684002161026001e-01,9.275199472904205322e-02
3.973446488380432129e-01,3.136627674102783203e-01,6.638418436050415039e-01,-1.715719699859619141e-01,-5.799817442893981934e-01,8.775284290313720703e-01,2.795468270778656006e-01,-1.658090204000473022e-01,8.307852149009704590e-01,6.879252195358276367e-01,-1.310216933488845825e-01,4.584244191646575928e-01,-4.525207579135894775e-01,1.645018309354782104e-01
4.550737142562866211e-01,3.701031506061553955e-01,6.438482403755187988e-01,-3.687130212783813477e-01,-3.895306885242462158e-01,8.629321455955505371e-01,3.697911202907562256e-01,2.262429334223270416e-02,1.040164589881896973e+00,6.143148541450500488e-01,-2.750740945339202881e-01,6.013195514678955078e-01,-1.129044070839881897e-01,2.005633562803268433e-01
5.768300294876098633e-01,2.845157086849212646e-01,3.749197423458099365e-01,-2.539955377578735352e-01,-5.122548341751098633e-01,9.862239360809326172e-01,2.693143188953399658e-01,-1.394012272357940674e-01,1.064156532287597656e+00,4.837891161441802979e-01,-2.282488197088241577e-01,4.340178966522216797e-01,-1.175280958414077759e-01,1.306740343570709229e-01
6.869082450866699219e-01,3.748996853828430176e-01,4.533928930759429932e-01,-2.793438434600830078e-01,-6.267338395118713379e-01,9.350344538688659668e-01,2.507394552230834961e-01,-5.778757482767105103e-02,8.945493102073669434e-01,4.822829663753509521e-01,-5.174199864268302917e-02,3.798358738422393799e-01,-1.933998763561248779e-01,3.062716126441955566e-01
7.510015368461608887e-01,2.217548638582229614e-01,5.501981973648071289e-01,-2.462769150733947754e-01,-5.413327813148498535e-01,9.186671972274780273e-01,3.133926093578338623e-01,-5.423370748758316040e-02,9.129378795623779297e-01,5.076622962951660156e-01,-1.011446677148342133e-02,5.711151957511901855e-01,3.554777428507804871e-02,2.147025913000106812e-01
8.299219608306884766e-01,2.359364330768585205e-01,4.842841029167175293e-01,-1.089557707309722900e-01,-3.723218739032745361e-01,9.098173975944519043e-01,4.495466053485870361e-01,3.999349102377891541e-02,9.841489791870117188e-01,3.921715021133422852e-01,-9.652318805456161499e-02,4.741067588329315186e-01,7.223739475011825562e-02,4.167959988117218018e-01
7.389758825302124023e-01,3.988419771194458008e-01,4.305542111396789551e-01,-1.026815995573997498e-01,-4.463365375995635986e-01,8.537405729293823242e-01,5.374320745468139648e-01,-1.225262694060802460e-02,8.016767501831054688e-01,4.351439774036407471e-01,1.101162284612655640e-02,3.466404378414154053e-01,-3.705219551920890808e-02,3.986236155033111572e-01
8.247823715209960938e-01,3.252098560333251953e-01,4.237032830715179443e-01,-2.980353534221649170e-01,-3.463769853115081787e-01,7.269459962844848633e-01,2.940032482147216797e-01,-2.580156922340393066e-02,1.076304078102111816e+00,3.942197859287261963e-01,6.103196740150451660e-02,5.435411334037780762e-01,2.116961777210235596e-01,1.905496269464492798e-01
8.433097600936889648e-01,5.206877589225769043e-01,3.928149938583374023e-01,-4.000653326511383057e-01,-1.809666156768798828e-01,6.688038110733032227e-01,3.774822056293487549e-01,1.029850617051124573e-01,8.447725772857666016e-01,2.836583852767944336e-01,2.471682988107204437e-02,2.229018658399581909e-01,1.935362517833709717e-01,5.176710486412048340e-01
8.581133484840393066e-01,4.410897493362426758e-01,3.385734930634498596e-02,-3.419078886508941650e-01,-1.905672997236251831e-01,5.827964544296264648e-01,3.764735758304595947e-01,1.379118114709854126e-01,9.154842495918273926e-01,3.986999392509460449e-01,-4.594898596405982971e-02,3.653761744499206543e-01,2.473475337028503418e-01,3.705089688301086426e-01
8.045306801795959473e-01,5.601094365119934082e-01,1.124694496393203735e-01,-2.077672332525253296e-01,-2.672834992408752441e-01,5.172968506813049316e-01,3.136697411537170410e-01,2.869799435138702393e-01,1.014400124549865723e+00,1.943504661321640015e-01,-1.384593695402145386e-01,3.936195969581604004e-01,2.339996993541717529e-01,3.550956249237060547e-01
8.678064942359924316e-01,5.364581942558288574e-01,1.713461577892303467e-01,-2.502695024013519287e-01,-2.654000520706176758e-01,3.006089925765991211e-01,4.352871477603912354e-01,1.845758855342864990e-01,8.823565244674682617e-01,3.895165920257568359e-01,1.309389062225818634e-02,3.512772321701049805e-01,2.794216275215148926e-01,4.942568242549896240e-01
7.281584143638610840e-01,6.208561658859252930e-01,1.442771553993225098e-01,-3.770629167556762695e-01,7.623121142387390137e-02,4.442792832851409912e-01,4.581883251667022705e-01,5.597677081823348999e-02,7.578545808792114258e-01,2.185268253087997437e-01,4.669768735766410828e-02,1.190860420465469360e-01,5.701724886894226074e-01,3.565458655357360840e-01
9.843145012855529785e-01,5.838858485221862793e-01,2.081203609704971313e-01,-2.472711801528930664e-01,-1.438658535480499268e-01,4.086073935031890869e-01,5.847935676574707031e-01,8.867907524108886719e-02,6.523481011390686035e-01,1.571081876754760742e-01,-1.787370741367340088e-01,5.087101459503173828e-02,5.161295533180236816e-01,3.993516564369201660e-01
7.007387876510620117e-01,4.964872300624847412e-01,1.597198843955993652e-01,-4.128101840615272522e-02,2.112585604190826416e-01,3.099060058593750000e-01,5.166193246841430664e-01,2.168216556310653687e-01,7.040606737136840820e-01,2.667775452136993408e-01,-2.690044939517974854e-01,1.653067916631698608e-01,6.128821372985839844e-01,2.354020625352859497e-01
8.012855648994445801e-01,3.784280121326446533e-01,1.110991165041923523e-01,-1.175459474325180054e-01,1.775967031717300415e-01,2.531241774559020996e-01,3.759755790233612061e-01,8.345860987901687622e-02,6.339002847671508789e-01,2.123260796070098877e-01,-7.586036622524261475e-02,1.822265833616256714e-01,5.017275810241699219e-01,3.387848734855651855e-01
6.996431350708007812e-01,5.043815970420837402e-01,-5.696495622396469116e-02,-1.155711561441421509e-01,4.633118584752082825e-02,5.781373381614685059e-02,2.266421914100646973e-01,-4.301215987652540207e-03,8.770381212234497070e-01,2.858745157718658447e-01,-2.043423056602478027e-01,-2.464357577264308929e-02,6.219920516014099121e-01,2.346853315830230713e-01
6.506595015525817871e-01,2.832657098770141602e-01,7.669606059789657593e-02,-1.319711655378341675e-01,-3.241103887557983398e-02,-1.615059934556484222e-02,3.162838518619537354e-01,9.334402531385421753e-02,4.840529561042785645e-01,1.403828244656324387e-02,-2.563954591751098633e-01,8.647000044584274292e-02,5.499998927116394043e-01,2.131612896919250488e-01
5.135762095451354980e-01,5.502332448959350586e-01,1.965400725603103638e-01,-1.108781546354293823e-01,1.211423650383949280e-01,1.848987340927124023e-01,1.997850835323333740e-02,-1.081519853323698044e-02,4.593140184879302979e-01,2.713858485221862793e-01,-1.682939827442169189e-01,-1.150747537612915039e-01,6.573671102523803711e-01,1.157718002796173096e-01
5.724543929100036621e-01,4.475505352020263672e-01,1.590096652507781982e-01,1.928454264998435974e-02,2.693106234073638916e-01,8.777604997158050537e-02,2.481566518545150757e-01,1.037721708416938782e-01,3.576425313949584961e-01,1.725910604000091553e-01,-5.750994682312011719e-01,1.117607504129409790e-01,4.504021704196929932e-01,2.625451385974884033e-01
5.606269240379333496e-01,4.509117603302001953e-01,5.964596942067146301e-02,1.121170353144407272e-02,1.120880916714668274e-01,9.004063904285430908e-02,1.818584799766540527e-01,8.611235022544860840e-02,3.742778897285461426e-01,2.304130047559738159e-01,-4.724333286285400391e-01,-7.645852863788604736e-02,4.482185840606689453e-01,2.588039338588714600e-01
4.810433387756347656e-01,2.462831586599349976e-01,1.806304305791854858e-01,1.094742938876152039e-01,2.311583049595355988e-02,8.594166487455368042e-02,1.133290976285934448e-01,-6.415002793073654175e-02,3.913899660110473633e-01,2.156019806861877441e-01,-4.667569696903228760e-01,-6.126144900918006897e-02,4.702722728252410889e-01,-1.694826781749725342e-01
5.558902025222778320e-01,3.612667620182037354e-01,7.192392647266387939e-02,1.265497803688049316e-01,9.665410220623016357e-02,8.298006653785705566e-02,-1.435494329780340195e-02,2.370408773422241211e-01,1.801186203956604004e-01,3.511745035648345947e-01,-3.520258665084838867e-01,1.523857656866312027e-02,5.736378431320190430e-01,1.296771317720413208e-01
6.001927852630615234e-01,2.479101121425628662e-01,8.552078902721405029e-02,1.182662919163703918e-01,1.833341270685195923e-01,1.143528148531913757e-01,1.002806797623634338e-01,6.107922643423080444e-02,2.424539327621459961e-01,1.607602834701538086e-02,-6.011767983436584473e-01,-2.117892354726791382e-02,3.485496044158935547e-01,-7.826342433691024780e-02
3.658730983734130859e-01,3.249346017837524414e-01,5.070322006940841675e-02,2.044985890388488770e-01,1.787946969270706177e-01,3.075384162366390228e-02,-1.206638962030410767e-01,-1.721472591161727905e-01,1.590291038155555725e-02,3.423976600170135498e-01,-6.794788837432861328e-01,-7.837521284818649292e-02,6.149878501892089844e-01,7.882925122976303101e-02
3.597479760646820068e-01,2.116658836603164673e-01,-5.621626973152160645e-02,1.620738804340362549e-01,1.246638000011444092e-01,-1.625281125307083130e-01,4.316097870469093323e-02,1.578673720359802246e-01,1.589568555355072021e-01,2.240212559700012207e-01,-6.353219151496887207e-01,-4.986216127872467041e-02,6.324096322059631348e-01,-1.477293372154235840e-01
3.647221326828002930e-01,3.096306025981903076e-01,1.858768463134765625e-01,2.768536806106567383e-01,5.422423779964447021e-02,8.095771819353103638e-02,-3.931374475359916687e-02,-1.113398000597953796e-01,-5.130800977349281311e-02,1.352828443050384521e-01,-6.001244187355041504e-01,-1.373650580644607544e-01,4.026244878768920898e-01,7.482735812664031982e-02
6.392861902713775635e-02,1.901135146617889404e-01,8.771273493766784668e-02,4.803279936313629150e-01,7.442051917314529419e-02,5.030160024762153625e-02,-8.826114237308502197e-02,2.824226021766662598e-01,-1.076822727918624878e-01,-6.109510734677314758e-02,-5.605652332305908203e-01,-5.595986172556877136e-02,5.468674898147583008e-01,-4.422470182180404663e-02
2.777700424194335938e-01,3.237461745738983154e-01,1.195235177874565125e-01,4.147165119647979736e-01,2.973440475761890411e-02,-1.598948687314987183e-01,-2.547328472137451172e-01,2.135260403156280518e-01,1.984544069273397326e-04,-1.257787048816680908e-01,-5.302910804748535156e-01,-3.896112442016601562e-01,7.866057753562927246e-01,-2.971371170133352280e-03
-1.005358174443244934e-01,1.870272010564804077e-01,1.642906218767166138e-01,4.603823721408843994e-01,8.316675573587417603e-02,-1.727283746004104614e-01,-2.389331609010696411e-01,2.202796638011932373e-01,-2.436734586954116821e-01,-5.687298253178596497e-02,-8.583730459213256836e-01,-2.360422164201736450e-01,5.727559328079223633e-01,2.145886537618935108e-04
-3.449061140418052673e-02,5.360085964202880859e-01,6.518418341875076294e-02,5.705050826072692871e-01,9.558545053005218506e-02,4.749830812215805054e-03,-3.313995003700256348e-01,2.497270107269287109e-01,-2.119500041007995605e-01,2.079518139362335205e-02,-7.273015379905700684e-01,-2.440516650676727295e-01,5.327155590057373047e-01,-3.379990160465240479e-02
-2.745192125439643860e-02,3.836586773395538330e-01,2.231400460004806519e-01,4.968093037605285645e-01,5.083882063627243042e-02,3.523367631714791059e-04,-9.918301552534103394e-02,3.267425596714019775e-01,-2.230451256036758423e-01,-8.346928656101226807e-02,-5.434669256210327148e-01,-2.504521310329437256e-01,6.124891638755798340e-01,-3.999342024326324463e-02
6.191760767251253128e-03,3.696882426738739014e-01,1.347907483577728271e-01,6.935315728187561035e-01,2.953429473564028740e-03,-4.053189456462860107e-01,-1.720721274614334106e-01,2.327839732170104980e-01,-1.945874541997909546e-01,-6.215443834662437439e-02,-5.808922052383422852e-01,-1.636241972446441650e-01,7.821913957595825195e-01,-2.347769960761070251e-02
-1.944392025470733643e-01,4.325122237205505371e-01,1.557702124118804932e-01,8.910518288612365723e-01,2.295952588319778442e-01,-1.205761656165122986e-01,-2.149504721164703369e-01,2.865933477878570557e-01,-3.111742436885833740e-01,-2.994553744792938232e-01,-5.406066179275512695e-01,-1.665513068437576294e-01,5.623367428779602051e-01,-1.890036091208457947e-02
-2.187276333570480347e-01,2.246105521917343140e-01,-1.321128010749816895e-01,6.805579066276550293e-01,1.556150019168853760e-01,-2.098599523305892944e-01,-1.548430919647216797e-01,3.003461360931396484e-01,-3.830596208572387695e-01,-1.773134022951126099e-01,-6.258603334426879883e-01,-7.008294761180877686e-02,7.410688996315002441e-01,4.122625105082988739e-03
-9.185938537120819092e-02,2.599785327911376953e-01,2.214132100343704224e-01,8.165686130523681641e-01,2.210747152566909790e-01,-2.003645151853561401e-01,-1.261760015040636063e-02,-4.097563214600086212e-03,-3.994259238243103027e-01,-9.618896245956420898e-02,-5.220773220062255859e-01,-2.264670878648757935e-01,7.325597405433654785e-01,1.292657554149627686e-01
-4.214337170124053955e-01,3.690035045146942139e-01,1.337908804416656494e-01,8.034951686859130859e-01,9.909437596797943115e-02,-2.112578600645065308e-01,-2.064129859209060669e-01,3.341298401355743408e-01,-3.011485636234283447e-01,-8.004810661077499390e-02,-5.569589734077453613e-01,1.732704788446426392e-01,6.892063021659851074e-01,-1.828622221946716309e-01
-3.790122568607330322e-01,3.050171434879302979e-01,2.114188671112060547e-01,8.041579723358154297e-01,1.862930655479431152e-01,-3.139459788799285889e-01,-1.118535250425338745e-01,3.376853466033935547e-01,-3.850869536399841309e-01,-3.661471307277679443e-01,-4.794213473796844482e-01,-3.723828867077827454e-02,6.483283638954162598e-01,-1.083262041211128235e-01
-4.005680978298187256e-01,1.860458254814147949e-01,1.883810162544250488e-01,7.931787371635437012e-01,1.369228214025497437e-01,-1.829936951398849487e-01,-2.042522132396697998e-01,2.900180518627166748e-01,-2.248981297016143799e-01,-2.880967259407043457e-01,-4.746623337268829346e-01,9.167334437370300293e-02,7.708963155746459961e-01,-7.671448588371276855e-02
-3.804485797882080078e-01,2.892637848854064941e-01,2.100795209407806396e-01,8.507407307624816895e-01,3.666701912879943848e-01,-3.254760801792144775e-01,-1.342935562133789062e-01,2.636938989162445068e-01,-2.240511029958724976e-01,-2.964643836021423340e-01,-4.967724084854125977e-01,1.042560636997222900e-01,5.532288551330566406e-01,-2.568540275096893311e-01
-3.544769287109375000e-01,2.196136862039566040e-01,2.698079645633697510e-01,6.390497684478759766e-01,1.214615926146507263e-01,-1.890651583671569824e-01,-4.285438731312751770e-02,3.636621236801147461e-01,-3.240156471729278564e-01,-3.324405252933502197e-01,-5.095590353012084961e-01,1.929677724838256836e-01,6.943419575691223145e-01,-4.417603611946105957e-01
-1.271664351224899292e-01,2.041940540075302124e-01,3.484253585338592529e-01,7.793831229209899902e-01,1.247483789920806885e-01,-1.735318154096603394e-01,9.521313011646270752e-02,1.759671419858932495e-01,-2.936688959598541260e-01,-1.848158985376358032e-01,-5.646175146102905273e-01,1.869237869977951050e-01,4.842588901519775391e-01,-4.345043599605560303e-01
-8.730097860097885132e-02,1.570726484060287476e-01,4.519670009613037109e-01,6.734277009963989258e-01,2.189630270004272461e-01,-3.646393120288848877e-01,4.852172732353210449e-02,1.534270197153091431e-01,-1.284865885972976685e-01,7.235146127641201019e-03,-4.005061388015747070e-01,3.098854720592498779e-01,7.203535437583923340e-01,-4.903770685195922852e-01
-1.925215870141983032e-01,1.502691302448511124e-02,3.168872892856597900e-01,4.429333806037902832e-01,7.277744263410568237e-02,-3.700444698333740234e-01,7.419408857822418213e-02,6.036001443862915039e-02,-1.356430798768997192e-01,-3.939735889434814453e-01,-4.588333368301391602e-01,3.877396285533905029e-01,6.837940812110900879e-01,-1.363423615694046021e-01
-1.277028471231460571e-01,4.137857258319854736e-02,2.509139776229858398e-01,6.088545322418212891e-01,2.992167770862579346e-01,-2.828443944454193115e-01,2.672242559492588043e-02,-9.818006306886672974e-02,-1.013565342873334885e-03,-2.406912893056869507e-01,-5.742863416671752930e-01,1.202553510665893555e-01,5.503120422363281250e-01,-2.485871016979217529e-01
-1.441406309604644775e-01,-1.704065650701522827e-01,2.584735453128814697e-01,5.349563360214233398e-01,-2.245431207120418549e-02,-1.537236124277114868e-01,-1.548667550086975098e-01,1.021608188748359680e-01,-1.561852395534515381e-01,-2.512602210044860840e-01,-4.994386732578277588e-01,3.478898704051971436e-01,5.521118640899658203e-01,-2.522215843200683594e-01
-2.313207238912582397e-01,-6.934741884469985962e-02,3.787720799446105957e-01,3.918075859546661377e-01,4.864031448960304260e-02,-3.736393749713897705e-01,8.891250938177108765e-02,-4.023076221346855164e-02,2.050448022782802582e-02,-2.428113967180252075e-01,-3.834521472454071045e-01,3.539774715900421143e-01,6.055116653442382812e-01,-2.462950944900512695e-01
-1.498068571090698242e-01,-7.685885578393936157e-02,3.212733566761016846e-01,4.544276297092437744e-01,-2.066769450902938843e-02,-3.644521236419677734e-01,-2.876313775777816772e-02,-2.266093641519546509e-01,2.920469827950000763e-02,-1.298024803400039673e-01,-6.719703078269958496e-01,6.227413415908813477e-01,4.023592174053192139e-01,-4.179968237876892090e-01
-1.824516057968139648e-01,-2.484948746860027313e-02,1.507990956306457520e-01,2.708424627780914307e-01,-3.967283759266138077e-03,-3.000519871711730957e-01,5.568939074873924255e-02,-9.671199321746826172e-02,-1.642074584960937500e-01,-2.081099003553390503e-01,-6.410776972770690918e-01,4.677731096744537354e-01,4.851109683513641357e-01,-1.459953188896179199e-01
-2.127893120050430298e-01,-7.321187108755111694e-02,2.092555016279220581e-01,3.030471503734588623e-01,-1.716318726539611816e-01,-2.713458836078643799e-01,2.563010156154632568e-02,-1.614796817302703857e-01,-7.127486169338226318e-02,-4.341426789760589600e-01,-5.466441512107849121e-01,5.154294967651367188e-01,4.871798157691955566e-01,-3.586136698722839355e-01
-2.897709310054779053e-01,-2.385965436697006226e-01,2.901952266693115234e-01,3.489950299263000488e-01,-1.240414679050445557e-01,-2.845354974269866943e-01,-1.638044118881225586e-01,-2.428367137908935547e-01,8.225966244935989380e-02,-3.312792181968688965e-01,-5.026630163192749023e-01,3.990354537963867188e-01,2.834226191043853760e-01,-4.151376485824584961e-01
-3.015211224555969238e-01,-2.818757593631744385e-01,2.825876772403717041e-01,1.546555459499359131e-01,-2.943336963653564453e-01,-3.281405866146087646e-01,-2.104073315858840942e-01,-2.808454930782318115e-01,-2.052483521401882172e-02,-2.530601918697357178e-01,-5.617036223411560059e-01,3.250865638256072998e-01,5.036002397537231445e-01,-3.118399381637573242e-01
-3.571623861789703369e-01,-1.165864467620849609e-01,2.694933414459228516e-01,1.892896145582199097e-01,-3.670040071010589600e-01,-3.488070368766784668e-01,-3.849877715110778809e-01,-5.297849178314208984e-01,-7.611772418022155762e-02,-1.718447357416152954e-01,-4.084155261516571045e-01,3.243189752101898193e-01,5.739538669586181641e-01,-3.694198727607727051e-01
-5.327680110931396484e-01,-3.204920887947082520e-01,3.379466533660888672e-01,1.877682060003280640e-01,-3.455839753150939941e-01,-2.638955712318420410e-01,-1.378438323736190796e-01,-3.567053973674774170e-01,1.565238833427429199e-02,-5.413017794489860535e-02,-4.552187025547027588e-01,3.700595498085021973e-01,5.504714250564575195e-01,-3.129896521568298340e-01
-3.748375177383422852e-01,-3.232835829257965088e-01,4.243076741695404053e-01,2.807572782039642334e-01,-3.894087672233581543e-01,-5.875704288482666016e-01,-1.445169150829315186e-01,-4.956403374671936035e-01,-1.205842122435569763e-01,1.357405912131071091e-03,-3.040522336959838867e-01,4.025000035762786865e-01,5.103475600481033325e-02,-3.129344582557678223e-01
-3.685920238494873047e-01,-2.980064451694488525e-01,4.795493483543395996e-01,3.023881316184997559e-01,-4.622925519943237305e-01,-4.287248104810714722e-02,-1.844548434019088745e-01,-4.962522089481353760e-01,-1.024010628461837769e-01,-9.208055585622787476e-02,-4.453062415122985840e-01,2.279642820358276367e-01,2.913010716438293457e-01,-4.872506856918334961e-01
-4.620164334774017334e-01,-4.226618111133575439e-01,4.938983023166656494e-01,1.543329507112503052e-01,-5.278967022895812988e-01,-2.033375054597854614e-01,-1.452453732490539551e-01,-7.534990310668945312e-01,-4.774871468544006348e-02,-9.094002307392656803e-04,-4.289613962173461914e-01,1.065579354763031006e-01,3.540337830781936646e-02,-4.249279797077178955e-01
-4.119320213794708252e-01,-4.624024331569671631e-01,6.321715712547302246e-01,1.337457448244094849e-01,-4.075989723205566406e-01,-1.155552044510841370e-01,-1.430531032383441925e-02,-7.260750532150268555e-01,8.537712693214416504e-02,1.759918779134750366e-02,-3.264085054397583008e-01,2.331214249134063721e-01,6.689947098493576050e-03,-5.168244242668151855e-01
-2.782106101512908936e-01,-5.036224126815795898e-01,6.345373392105102539e-01,2.272002696990966797e-01,-5.690867900848388672e-01,1.311636567115783691e-01,-2.228565514087677002e-01,-1.018362164497375488e+00,-1.386795639991760254e-01,1.409163922071456909e-01,-2.849717438220977783e-01,2.747042290866374969e-02,-1.629288792610168457e-01,-5.603660345077514648e-01
-2.383827716112136841e-01,-5.383206605911254883e-01,5.338060259819030762e-01,2.093585878610610962e-01,-6.303923726081848145e-01,-9.613122045993804932e-02,1.268014907836914062e-01,-9.667824506759643555e-01,1.196308620274066925e-02,4.570466279983520508e-01,-3.210831880569458008e-01,1.236397922039031982e-01,-8.571498841047286987e-02,-2.740868330001831055e-01
-4.641338586807250977e-01,-4.773806333541870117e-01,6.424795985221862793e-01,1.138259023427963257e-01,-6.030728220939636230e-01,2.672412097454071045e-01,1.197044923901557922e-01,-1.060850143432617188e+00,-6.317176669836044312e-02,3.850315213203430176e-01,-1.804130673408508301e-01,1.235150322318077087e-01,-4.750044941902160645e-01,-2.106757760047912598e-01
-3.350783288478851318e-01,-6.660284399986267090e-01,6.954094767570495605e-01,3.539063930511474609e-01,-9.016494750976562500e-01,1.607112437486648560e-01,2.957527711987495422e-02,-9.254112839698791504e-01,1.124014630913734436e-01,3.616217076778411865e-01,-2.130947858095169067e-01,1.364538911730051041e-02,-4.170070886611938477e-01,-4.419999122619628906e-01
-1.497314274311065674e-01,-4.993447363376617432e-01,7.174808382987976074e-01,1.791304200887680054e-01,-6.114589571952819824e-01,1.783496439456939697e-01,8.968101441860198975e-02,-1.077143073081970215e+00,7.469183951616287231e-02,2.992740273475646973e-01,8.957722038030624390e-02,-9.921014308929443359e-02,-5.868258476257324219e-01,-2.426994144916534424e-01
-3.172565400600433350e-01,-3.761154711246490479e-01,6.675818562507629395e-01,1.366416662931442261e-01,-1.038177371025085449e+00,2.371083647012710571e-01,1.599558591842651367e-01,-1.013879299163818359e+00,-1.470252173021435738e-03,4.124777019023895264e-01,-5.476641654968261719e-02,-8.990214765071868896e-02,-4.723952710628509521e-01,-8.398445695638656616e-02
-1.636933535337448120e-01,-3.428987562656402588e-01,6.946750879287719727e-01,1.119855791330337524e-01,-7.937123775482177734e-01,1.179389432072639465e-01,2.396395653486251831e-01,-9.633116126060485840e-01,7.174728065729141235e-02,5.857084989547729492e-01,4.438991844654083252e-02,-1.143163293600082397e-01,-4.877705872058868408e-01,1.341998018324375153e-02
