AF3,F7,F3,FC5,T7,P7,O1,O2,P8,T8,FC6,F4,F8,AF4
-2.785896658897399902e-01,-5.910224318504333496e-01,9.124325215816497803e-02,-5.005016922950744629e-01,-3.387028574943542480e-01,-3.232612460851669312e-02,-1.950553506612777710e-01,6.448675692081451416e-02,-2.861779332160949707e-01,-5.370715260505676270e-02,9.502469003200531006e-02,3.103702962398529053e-01,-1.291095167398452759e-01,1.873501390218734741e-01
-2.126235514879226685e-01,-5.193862915039062500e-01,4.089578688144683838e-01,-3.801111876964569092e-01,-1.442682743072509766e-01,-3.088763356208801270e-01,1.360950320959091187e-01,2.445544451475143433e-01,-5.426749587059020996e-01,-1.714745759963989258e-01,2.392787784337997437e-01,1.561101675033569336e-01,-5.261752009391784668e-01,7.436840236186981201e-02
-3.768605589866638184e-01,-7.041580677032470703e-01,1.529410034418106079e-01,-3.404304087162017822e-01,-1.967044621706008911e-01,-1.122780963778495789e-01,-4.945690184831619263e-02,2.567306160926818848e-02,-2.283618152141571045e-01,-1.001495495438575745e-01,3.426038920879364014e-01,4.096801578998565674e-01,-3.881005048751831055e-01,2.522011399269104004e-01
-3.739843666553497314e-01,-8.575984835624694824e-01,2.891521751880645752e-01,-2.986413240432739258e-01,-4.975109100341796875e-01,1.056137960404157639e-03,-8.262559026479721069e-02,2.482760399580001831e-01,-1.933542937040328979e-01,-2.428022474050521851e-01,8.686424046754837036e-02,2.644316256046295166e-01,-2.837053239345550537e-01,1.526341438293457031e-01
-3.782537579536437988e-01,-8.850250840187072754e-01,-1.118493080139160156e-01,-4.333078563213348389e-01,-3.226474821567535400e-01,1.301783472299575806e-01,6.504357606172561646e-02,4.584350585937500000e-01,-1.013453453779220581e-01,-4.139366373419761658e-02,-4.805785045027732849e-02,1.426468342542648315e-01,-5.078628063201904297e-01,1.044921651482582092e-01
-4.092009365558624268e-01,-7.564368844032287598e-01,-7.234860211610794067e-02,-4.430957734584808350e-01,-4.648951590061187744e-01,-9.970928542315959930e-03,-1.696181744337081909e-01,2.024644911289215088e-01,-1.977111846208572388e-01,-2.335071265697479248e-01,2.302691787481307983e-01,7.704628258943557739e-02,-4.537361562252044678e-01,1.281714439392089844e-01
-5.686273574829101562e-01,-7.660931944847106934e-01,-7.643509190529584885e-03,-5.070171952247619629e-01,-3.700598776340484619e-01,-1.202118024230003357e-01,-2.430654466152191162e-01,2.441352605819702148e-01,-2.528735995292663574e-01,-2.659471333026885986e-01,2.338730245828628540e-01,1.091669425368309021e-01,-4.894504845142364502e-01,1.476398948580026627e-02
-1.966049224138259888e-01,-9.034540653228759766e-01,-1.472235172986984253e-01,-4.948778152465820312e-01,-3.855576515197753906e-01,1.573466956615447998e-01,-2.159973829984664917e-01,4.340225756168365479e-01,-1.396101564168930054e-01,-2.499931454658508301e-01,-1.671402454376220703e-01,1.486978381872177124e-01,-4.372916221618652344e-01,-3.162331581115722656e-01
-1.867899447679519653e-01,-7.589544653892517090e-01,-1.924549043178558350e-01,-4.236755371093750000e-01,-4.983593821525573730e-01,6.005445122718811035e-02,-3.369849324226379395e-01,2.311342656612396240e-01,-5.000944137573242188e-01,-1.149827539920806885e-01,3.129899129271507263e-02,5.239645019173622131e-02,-2.940471172332763672e-01,-1.752153486013412476e-01
-3.891594111919403076e-01,-9.868134260177612305e-01,-4.527899324893951416e-01,-3.484656512737274170e-01,-2.850352227687835693e-01,3.361782059073448181e-02,-2.137047350406646729e-01,3.458244800567626953e-01,-3.325528204441070557e-01,-1.787285506725311279e-01,-3.768441081047058105e-02,3.330477920826524496e-04,-4.675225317478179932e-01,-7.298070937395095825e-02
-2.388035804033279419e-01,-8.129991292953491211e-01,-2.701948583126068115e-01,-2.730252444744110107e-01,-3.670104146003723145e-01,1.202289611101150513e-01,-3.031311333179473877e-01,4.867518246173858643e-01,-3.750037550926208496e-01,-1.973997652530670166e-01,-1.811402440071105957e-01,-5.860969424247741699e-03,-5.498495697975158691e-01,-3.483852446079254150e-01
-2.201391160488128662e-01,-9.015655517578125000e-01,-4.070818126201629639e-01,-4.188616573810577393e-01,-4.117167294025421143e-01,1.954081207513809204e-01,-3.267770707607269287e-01,3.748322427272796631e-01,-3.180179297924041748e-01,6.674694269895553589e-02,-2.786030471324920654e-01,-1.072278916835784912e-01,-8.258175253868103027e-01,-3.704096078872680664e-01
-1.571058928966522217e-01,-8.091405630111694336e-01,-5.157058238983154297e-01,-1.587576717138290405e-01,-4.236745536327362061e-01,1.854106336832046509e-01,-3.383241593837738037e-01,4.182456731796264648e-01,-5.475098490715026855e-01,-1.503343135118484497e-01,-7.029061764478683472e-02,-1.182506158947944641e-01,-5.222694277763366699e-01,-5.360771417617797852e-01
-2.334390878677368164e-01,-6.937541961669921875e-01,-6.876811981201171875e-01,-3.006946742534637451e-01,-3.645377457141876221e-01,5.755568295717239380e-02,-2.854107022285461426e-01,5.120378136634826660e-01,-2.040430456399917603e-01,-2.637279964983463287e-02,-1.747648864984512329e-01,-3.319680690765380859e-01,-5.176308155059814453e-01,-3.371824920177459717e-01
-8.369807153940200806e-03,-7.321731448173522949e-01,-6.405535936355590820e-01,-2.384946048259735107e-01,-3.396700620651245117e-01,3.993230164051055908e-01,-2.559865415096282959e-01,4.679706692695617676e-01,-3.633599877357482910e-01,6.822284311056137085e-02,-1.833164691925048828e-01,-6.804719567298889160e-02,-7.891766428947448730e-01,-4.291553795337677002e-01
1.932666748762130737e-01,-6.276659369468688965e-01,-7.453777790069580078e-01,-2.725640833377838135e-01,-3.992448151111602783e-01,4.667292833328247070e-01,-3.005261123180389404e-01,4.337352812290191650e-01,-3.020715415477752686e-01,-1.302423030138015747e-01,-2.804243862628936768e-01,-1.800405979156494141e-01,-6.424002051353454590e-01,-7.625912427902221680e-01
4.709368050098419189e-01,-4.295535385608673096e-01,-9.135790467262268066e-01,-4.022006094455718994e-01,-6.813151836395263672e-01,4.308592379093170166e-01,-2.643108367919921875e-01,3.483351171016693115e-01,-3.001699745655059814e-01,1.071215122938156128e-01,-3.023099303245544434e-01,-3.337867259979248047e-01,-6.264951229095458984e-01,-7.292566895484924316e-01
3.359473347663879395e-01,-5.291265845298767090e-01,-7.750392556190490723e-01,-3.561736643314361572e-02,-4.129605293273925781e-01,2.739625275135040283e-01,-2.132455408573150635e-01,3.894945383071899414e-01,-1.780689507722854614e-01,-2.408382296562194824e-02,-4.671934247016906738e-01,-1.143110170960426331e-01,-5.530182123184204102e-01,-8.728466629981994629e-01
3.877082169055938721e-01,-3.315588831901550293e-01,-7.970775961875915527e-01,-1.873479224741458893e-02,-5.803704857826232910e-01,3.840190172195434570e-01,-1.976492553949356079e-01,3.065380454063415527e-01,-4.666033089160919189e-01,1.824428141117095947e-01,-2.412982285022735596e-01,-3.433435559272766113e-01,-7.196524739265441895e-01,-7.938272953033447266e-01
3.978083431720733643e-01,-4.759996831417083740e-01,-6.778316497802734375e-01,-9.476529061794281006e-02,-4.828964471817016602e-01,4.134860634803771973e-01,-1.489382833242416382e-01,3.283498287200927734e-01,-2.409794330596923828e-01,1.970029994845390320e-02,-7.019057124853134155e-02,-5.023043155670166016e-01,-7.271673679351806641e-01,-8.438744544982910156e-01
4.558382332324981689e-01,-2.634434103965759277e-01,-1.003190040588378906e+00,-4.130477085709571838e-02,-6.309432983398437500e-01,4.770176410675048828e-01,-1.910532563924789429e-01,1.946331560611724854e-01,-1.069827228784561157e-01,1.990308463573455811e-01,-2.989004254341125488e-01,-3.569947779178619385e-01,-6.734465956687927246e-01,-8.420785069465637207e-01
6.679265499114990234e-01,-1.318838149309158325e-01,-7.469414472579956055e-01,1.416533719748258591e-02,-6.616848111152648926e-01,4.799568653106689453e-01,6.963533814996480942e-03,1.865226179361343384e-01,-2.005132734775543213e-01,2.531739175319671631e-01,-3.593466579914093018e-01,-4.427402913570404053e-01,-4.842621982097625732e-01,-9.078026413917541504e-01
6.491114497184753418e-01,-4.892007112503051758e-01,-8.739129900932312012e-01,-1.915205270051956177e-01,-4.249621033668518066e-01,3.291270136833190918e-01,-5.247228592634201050e-02,6.522176414728164673e-02,-2.569190561771392822e-01,2.416779696941375732e-01,-1.630611568689346313e-01,-4.775795340538024902e-01,-4.909627139568328857e-01,-6.554710865020751953e-01
5.920979976654052734e-01,-2.937194108963012695e-01,-7.135893702507019043e-01,-9.419789910316467285e-02,-6.055156588554382324e-01,3.945470154285430908e-01,-7.930447161197662354e-02,1.191210299730300903e-01,-1.973838806152343750e-01,1.946445405483245850e-01,-1.468981057405471802e-01,-5.877246856689453125e-01,-5.786845088005065918e-01,-1.051383852958679199e+00
5.779200196266174316e-01,-1.334755420684814453e-01,-6.963529586791992188e-01,2.472067065536975861e-02,-6.324936747550964355e-01,4.116440713405609131e-01,4.122363030910491943e-02,-1.392274163663387299e-03,-1.575348377227783203e-01,1.620843261480331421e-01,-2.725797593593597412e-01,-5.212305784225463867e-01,-4.549153745174407959e-01,-1.112298369407653809e+00
6.776674389839172363e-01,-1.926187276840209961e-01,-7.333340644836425781e-01,-1.996048241853713989e-01,-5.560507774353027344e-01,4.885597229003906250e-01,3.811279684305191040e-02,-7.640121132135391235e-02,-1.791627109050750732e-01,1.453687697649002075e-01,-2.564154565334320068e-01,-6.064823865890502930e-01,-7.735182046890258789e-01,-9.678251147270202637e-01
6.447046995162963867e-01,-1.189277097582817078e-01,-6.384026408195495605e-01,-6.858985126018524170e-02,-6.431941986083984375e-01,3.899214565753936768e-01,-8.552958816289901733e-02,1.382078602910041809e-02,-1.197557076811790466e-01,3.700233399868011475e-01,-2.045102566480636597e-01,-5.320226550102233887e-01,-4.366030097007751465e-01,-1.068702697753906250e+00
6.937401294708251953e-01,-2.013341337442398071e-01,-8.422887325286865234e-01,-2.596251666545867920e-01,-3.866208493709564209e-01,3.762961924076080322e-01,1.680398136377334595e-01,-4.067818447947502136e-02,3.987099975347518921e-02,1.746616512537002563e-01,-2.567567825317382812e-01,-7.795964479446411133e-01,-6.057815551757812500e-01,-1.041912198066711426e+00
6.613840460777282715e-01,-1.170016378164291382e-01,-6.095617413520812988e-01,-1.034211218357086182e-01,-6.034621596336364746e-01,2.870029509067535400e-01,8.179078996181488037e-02,-3.677814826369285583e-02,-1.861108541488647461e-01,1.637448668479919434e-01,-1.514612734317779541e-01,-6.294860839843750000e-01,-2.937787175178527832e-01,-9.718889594078063965e-01
7.090433835983276367e-01,-1.246789246797561646e-01,-7.972468733787536621e-01,-1.776724457740783691e-01,-5.069938898086547852e-01,4.058171212673187256e-01,3.302004337310791016e-01,-2.145673930644989014e-01,-1.988321095705032349e-01,3.571240007877349854e-01,-1.705537922680377960e-02,-4.080724716186523438e-01,-5.512102842330932617e-01,-9.419867992401123047e-01
5.269975066184997559e-01,2.627020142972469330e-02,-8.906403779983520508e-01,-3.557023704051971436e-01,-4.024841189384460449e-01,2.980160713195800781e-01,2.678971886634826660e-01,-1.900155842304229736e-01,-1.349013745784759521e-01,2.334386706352233887e-01,-4.392466545104980469e-01,-6.502661705017089844e-01,-5.013697147369384766e-01,-9.223709702491760254e-01
7.454045414924621582e-01,-4.401677101850509644e-02,-7.721284031867980957e-01,-9.229327738285064697e-02,-2.852862775325775146e-01,1.699902564287185669e-01,4.263480603694915771e-01,-2.373611181974411011e-01,-2.347957789897918701e-01,2.388858199119567871e-01,-1.506127566099166870e-01,-6.282359361648559570e-01,-3.275510966777801514e-01,-7.512246370315551758e-01
8.973692655563354492e-01,-1.221534796059131622e-02,-9.640268087387084961e-01,-2.902529239654541016e-01,-4.571488797664642334e-01,4.023695886135101318e-01,3.408336639404296875e-01,-3.106787800788879395e-01,-3.905610442161560059e-01,2.079257220029830933e-01,-2.658079862594604492e-01,-6.097816228866577148e-01,-2.816185951232910156e-01,-8.283876776695251465e-01
7.237926721572875977e-01,-6.163477152585983276e-02,-7.370418310165405273e-01,-2.988138198852539062e-01,-3.557026982307434082e-01,3.441089093685150146e-01,4.636339545249938965e-01,-4.999704360961914062e-01,-3.061894476413726807e-01,3.193683922290802002e-01,-1.378760933876037598e-01,-6.879780292510986328e-01,-3.518613874912261963e-01,-7.684393525123596191e-01
6.131973862648010254e-01,-4.233269765973091125e-02,-7.933263182640075684e-01,-1.918111443519592285e-01,-1.131657883524894714e-01,2.475608140230178833e-01,6.256141662597656250e-01,-4.623638391494750977e-01,-3.527685999870300293e-01,3.714967072010040283e-01,-2.027045488357543945e-01,-7.943304181098937988e-01,-2.261886000633239746e-01,-6.311342716217041016e-01
6.684219837188720703e-01,-9.516805410385131836e-03,-6.448841094970703125e-01,-8.485859632492065430e-02,-8.439172804355621338e-02,2.651454806327819824e-01,5.187137126922607422e-01,-4.963302016258239746e-01,-2.869885861873626709e-01,4.130597710609436035e-01,-2.662979662418365479e-01,-6.096423864364624023e-01,-1.671272218227386475e-01,-7.640285491943359375e-01
4.698352813720703125e-01,9.992840141057968140e-02,-6.993750929832458496e-01,-2.841261029243469238e-01,1.710650138556957245e-02,3.657264709472656250e-01,5.187335014343261719e-01,-5.808567404747009277e-01,-5.211099386215209961e-01,4.902655184268951416e-01,-1.934571862220764160e-01,-5.921450853347778320e-01,-1.292198300361633301e-01,-6.770567297935485840e-01
4.037470817565917969e-01,4.359241947531700134e-02,-8.942874670028686523e-01,-1.557474732398986816e-01,-1.544685959815979004e-01,4.049625694751739502e-01,6.651304364204406738e-01,-8.303718566894531250e-01,-3.618230819702148438e-01,4.524944424629211426e-01,-3.067142963409423828e-01,-6.355764865875244141e-01,-1.610673516988754272e-01,-5.734694600105285645e-01
6.306494474411010742e-01,1.375227421522140503e-01,-8.245913386344909668e-01,-9.678553789854049683e-02,2.062723934650421143e-01,3.983724713325500488e-01,6.735256910324096680e-01,-6.353342533111572266e-01,-5.023676753044128418e-01,3.848347663879394531e-01,-3.443309068679809570e-01,-6.736693382263183594e-01,-2.436169423162937164e-02,-7.600864768028259277e-01
4.894911944866180420e-01,3.360220491886138916e-01,-6.695954203605651855e-01,-4.840729385614395142e-02,3.952973708510398865e-02,4.251590967178344727e-01,5.534238219261169434e-01,-4.478957653045654297e-01,-6.321868896484375000e-01,3.889962434768676758e-01,-1.879658252000808716e-01,-6.863237023353576660e-01,1.071590185165405273e-01,-7.573038339614868164e-01
3.964903950691223145e-01,2.323703616857528687e-01,-6.137958765029907227e-01,-8.026982843875885010e-02,1.935613304376602173e-01,5.730537772178649902e-01,3.962106108665466309e-01,-7.101495265960693359e-01,-6.775652170181274414e-01,4.668611586093902588e-01,-3.586710691452026367e-01,-6.203557252883911133e-01,-1.210813596844673157e-01,-4.349768161773681641e-01
4.279551208019256592e-01,1.263794302940368652e-01,-5.499019622802734375e-01,-1.185851097106933594e-01,2.124184668064117432e-01,5.115730762481689453e-01,5.090783834457397461e-01,-7.389153242111206055e-01,-3.754422664642333984e-01,5.535094738006591797e-01,-2.183139473199844360e-01,-7.720384001731872559e-01,-5.602198466658592224e-02,-3.702190518379211426e-01
3.842642605304718018e-01,2.902240157127380371e-01,-5.220950841903686523e-01,-1.536677479743957520e-01,1.867193132638931274e-01,4.163780510425567627e-01,6.033419966697692871e-01,-6.080785393714904785e-01,-6.044681072235107422e-01,4.536469876766204834e-01,-2.905597388744354248e-01,-8.368461728096008301e-01,4.715355113148689270e-02,-1.632279455661773682e-01
4.882956445217132568e-01,1.385492384433746338e-01,-6.225187778472900391e-01,-5.723953619599342346e-02,1.755222082138061523e-01,4.756426513195037842e-01,4.156596064567565918e-01,-5.818312764167785645e-01,-5.122953057289123535e-01,4.138092994689941406e-01,-5.396152734756469727e-01,-8.279766440391540527e-01,-5.600010976195335388e-02,-3.058618605136871338e-01
5.069606304168701172e-01,-1.613385044038295746e-02,-5.466556549072265625e-01,-1.743267625570297241e-01,1.801181137561798096e-01,2.540815174579620361e-01,4.438492059707641602e-01,-4.513677358627319336e-01,-7.924284338951110840e-01,3.861853778362274170e-01,-3.778568208217620850e-01,-7.545288205146789551e-01,-1.373772323131561279e-01,-1.948229819536209106e-01
5.082513689994812012e-01,9.527543187141418457e-02,-4.221786856651306152e-01,-3.667551279067993164e-01,4.003348648548126221e-01,3.654032349586486816e-01,3.275879323482513428e-01,-6.459315419197082520e-01,-3.718093931674957275e-01,3.702975511550903320e-01,-2.998047769069671631e-01,-6.746507287025451660e-01,1.337952911853790283e-01,-2.556688189506530762e-01
4.772171676158905029e-01,1.845938339829444885e-02,-5.514087080955505371e-01,-4.424262791872024536e-02,2.666408717632293701e-01,4.685132503509521484e-01,1.475402563810348511e-01,-3.907572627067565918e-01,-5.582980513572692871e-01,6.143869161605834961e-01,-3.840660750865936279e-01,-8.719789981842041016e-01,-2.280153036117553711e-01,-1.706792563199996948e-01
4.301010370254516602e-01,1.816720068454742432e-01,-4.517973065376281738e-01,-1.575284823775291443e-02,3.337637484073638916e-01,2.229744642972946167e-01,2.219182997941970825e-01,-3.452971279621124268e-01,-6.827566027641296387e-01,6.405808925628662109e-01,-6.037290692329406738e-01,-7.821891903877258301e-01,-8.484155684709548950e-02,-3.238282399252057076e-03
3.002111017704010010e-01,2.322560399770736694e-01,-4.902674555778503418e-01,-3.646424412727355957e-01,4.507091343402862549e-01,1.141105964779853821e-01,3.087298274040222168e-01,-3.580910861492156982e-01,-6.941246986389160156e-01,6.756836175918579102e-01,-2.161714434623718262e-01,-7.310037612915039062e-01,-1.620843075215816498e-02,-3.570463657379150391e-01
2.253573089838027954e-01,4.140295386314392090e-01,-4.787935316562652588e-01,-2.543821632862091064e-01,2.312548607587814331e-01,8.633171021938323975e-02,-3.890398144721984863e-02,-2.508209049701690674e-01,-5.919618606567382812e-01,6.381497979164123535e-01,-3.225357830524444580e-01,-8.274185657501220703e-01,-1.187569424510002136e-01,-8.243288099765777588e-02
1.048801392316818237e-01,2.970455884933471680e-01,-3.823226094245910645e-01,-1.183569133281707764e-01,5.924725532531738281e-01,-4.648180678486824036e-03,1.857856512069702148e-01,-1.256524622440338135e-01,-5.939967632293701172e-01,8.203068971633911133e-01,-2.771946191787719727e-01,-6.811293363571166992e-01,-2.408573776483535767e-01,1.072685569524765015e-01
3.353407084941864014e-01,2.615446448326110840e-01,-4.157191216945648193e-01,-2.295431913807988167e-03,2.891425192356109619e-01,-1.999170891940593719e-02,1.057665329426527023e-02,-8.971446752548217773e-02,-6.328688859939575195e-01,6.529898643493652344e-01,-3.412098586559295654e-01,-7.778390645980834961e-01,-3.694605827331542969e-01,-6.243762373924255371e-02
1.790889352560043335e-01,3.853282034397125244e-01,-3.153019249439239502e-01,-2.340036034584045410e-01,5.331911444664001465e-01,-2.204314619302749634e-02,1.646797358989715576e-01,-2.448357641696929932e-01,-6.313984990119934082e-01,8.097813129425048828e-01,-2.032145708799362183e-01,-7.509059906005859375e-01,-2.814058363437652588e-01,8.995825797319412231e-02
1.288310736417770386e-01,9.836925566196441650e-02,-3.557327985763549805e-01,-3.368478715419769287e-01,5.475177168846130371e-01,-1.660789996385574341e-01,1.553318500518798828e-01,-7.585341576486825943e-03,-5.487954616546630859e-01,7.125442028045654297e-01,-2.611207962036132812e-02,-4.762184023857116699e-01,-4.670898616313934326e-01,-1.207316145300865173e-01
2.616898715496063232e-01,3.563854396343231201e-01,-2.157445251941680908e-01,-3.102100491523742676e-01,5.983011722564697266e-01,-6.131142750382423401e-02,5.116168782114982605e-02,-6.032631173729896545e-02,-7.420083880424499512e-01,6.458114981651306152e-01,-2.282770574092864990e-01,-4.877356886863708496e-01,-3.887961804866790771e-01,-4.018583148717880249e-02
2.756252326071262360e-02,4.174824059009552002e-01,-9.104669839143753052e-02,-1.824890077114105225e-01,5.314780473709106445e-01,-6.900129839777946472e-03,3.895245492458343506e-02,-1.527115702629089355e-02,-5.583654046058654785e-01,7.435423135757446289e-01,7.306940853595733643e-02,-3.643001317977905273e-01,-4.419200122356414795e-01,-7.689726073294878006e-03
1.730630099773406982e-01,1.923906505107879639e-01,-1.291941702365875244e-01,-4.133158922195434570e-01,7.208357453346252441e-01,-2.193779796361923218e-01,-3.545193001627922058e-02,1.269972603768110275e-02,-6.302692890167236328e-01,6.903025507926940918e-01,1.150272600352764130e-02,-3.210749626159667969e-01,-4.743652045726776123e-01,-2.005596011877059937e-01
8.856083452701568604e-02,4.450442194938659668e-01,-2.854189660865813494e-04,-4.587020576000213623e-01,5.162876248359680176e-01,-5.812177900224924088e-03,-9.977873414754867554e-02,1.622093468904495239e-02,-3.414484560489654541e-01,6.381199359893798828e-01,-4.833519086241722107e-02,-3.517738580703735352e-01,-5.796887278556823730e-01,-5.637780949473381042e-02
-7.983800023794174194e-02,3.441774845123291016e-01,8.371054381132125854e-02,-4.590872824192047119e-01,5.682525038719177246e-01,-1.339155733585357666e-01,1.933124214410781860e-01,1.755480766296386719e-01,-3.993509709835052490e-01,5.528721213340759277e-01,3.259228169918060303e-01,-1.937864720821380615e-01,-3.314688801765441895e-01,-2.890958450734615326e-03
-2.411324530839920044e-02,2.368873357772827148e-01,1.858728379011154175e-01,-5.406743288040161133e-01,3.522812128067016602e-01,-1.076495647430419922e-01,-7.607069611549377441e-02,7.365292310714721680e-02,-4.143268465995788574e-01,4.741935133934020996e-01,2.065321356058120728e-01,-2.478915005922317505e-01,-5.123839378356933594e-01,2.419814467430114746e-01
3.384132310748100281e-02,2.980066835880279541e-01,1.956597119569778442e-01,-4.703976213932037354e-01,3.932527899742126465e-01,-3.007917404174804688e-01,1.518023461103439331e-01,-2.738183829933404922e-03,-2.598082125186920166e-01,6.429936289787292480e-01,2.920373082160949707e-01,7.927536964416503906e-02,-5.843113064765930176e-01,3.055024445056915283e-01
-3.775187209248542786e-02,4.067752957344055176e-01,3.811553418636322021e-01,-3.602733612060546875e-01,4.889723658561706543e-01,-1.722826510667800903e-01,-1.088469550013542175e-01,9.931138157844543457e-02,-8.910986036062240601e-02,4.438900947570800781e-01,2.469202429056167603e-01,-1.302283406257629395e-01,-5.344705581665039062e-01,3.131245970726013184e-01
-2.852090075612068176e-02,1.326119601726531982e-01,1.188439428806304932e-01,-5.328137278556823730e-01,2.618990838527679443e-01,-3.875876963138580322e-01,9.427462704479694366e-03,1.885734796524047852e-01,-5.103413015604019165e-02,3.164058625698089600e-01,2.347311526536941528e-01,5.172175914049148560e-02,-6.402399539947509766e-01,4.274623692035675049e-01
-2.112823277711868286e-01,6.535947322845458984e-02,6.697964072227478027e-01,-6.341526508331298828e-01,2.567963600158691406e-01,-2.071343660354614258e-01,-1.787707209587097168e-01,3.281999230384826660e-01,-7.946261018514633179e-02,1.733897179365158081e-01,3.618499338626861572e-01,3.389816358685493469e-02,-6.018402576446533203e-01,3.925766944885253906e-01
1.999753341078758240e-02,-8.577604591846466064e-02,3.250100314617156982e-01,-6.819955706596374512e-01,2.900013625621795654e-01,-2.927291393280029297e-01,-3.542698547244071960e-02,3.022752702236175537e-01,-7.142182439565658569e-02,1.822440773248672485e-01,5.238442420959472656e-01,2.627810835838317871e-01,-3.237882852554321289e-01,5.903475284576416016e-01
-4.847877621650695801e-01,-2.092501521110534668e-01,4.764069318771362305e-01,-8.514529466629028320e-01,7.625421136617660522e-02,-2.630067467689514160e-01,-1.430105268955230713e-01,1.949928402900695801e-01,1.590098738670349121e-01,5.530898272991180420e-02,3.455564975738525391e-01,2.405647933483123779e-01,-6.393553018569946289e-01,5.271122455596923828e-01
-5.093790888786315918e-01,-1.271092593669891357e-01,3.534486591815948486e-01,-6.456210017204284668e-01,-1.014768257737159729e-01,-4.375576078891754150e-01,-1.633090078830718994e-01,5.671197175979614258e-01,1.364958733320236206e-01,-6.822735816240310669e-02,3.756054639816284180e-01,2.893698811531066895e-01,-5.700522661209106445e-01,5.809515118598937988e-01
-5.511959791183471680e-01,-3.805027306079864502e-01,5.103300809860229492e-01,-7.749194502830505371e-01,1.110250204801559448e-01,-4.030445516109466553e-01,-9.069678187370300293e-02,3.831057846546173096e-01,2.018149346113204956e-01,-1.713458895683288574e-01,5.176997780799865723e-01,4.924954473972320557e-01,-6.073690056800842285e-01,5.887119770050048828e-01
-7.588620185852050781e-01,-3.689762949943542480e-01,4.602911770343780518e-01,-8.107464313507080078e-01,1.620950102806091309e-01,-2.380405962467193604e-01,-2.156206816434860229e-01,5.207115411758422852e-01,2.351138293743133545e-01,-2.148656845092773438e-01,3.291653990745544434e-01,4.730155467987060547e-01,-6.645359992980957031e-01,7.138096094131469727e-01
-5.784084796905517578e-01,-4.995747506618499756e-01,3.437438905239105225e-01,-4.894535243511199951e-01,-8.739425987005233765e-02,-3.666499257087707520e-01,-3.255212306976318359e-01,4.122678339481353760e-01,3.088463246822357178e-01,-5.854437351226806641e-01,3.920959532260894775e-01,5.799299478530883789e-01,-5.158975124359130859e-01,6.226906776428222656e-01
-6.495091915130615234e-01,-4.724273979663848877e-01,4.835589230060577393e-01,-7.839495539665222168e-01,1.052651852369308472e-01,-1.889557987451553345e-01,-1.175394430756568909e-01,5.122314691543579102e-01,3.579563796520233154e-01,-3.052500784397125244e-01,4.067448973655700684e-01,4.818709790706634521e-01,-5.495938658714294434e-01,7.711841464042663574e-01
-7.848300933837890625e-01,-5.472424626350402832e-01,3.206822574138641357e-01,-8.820331692695617676e-01,1.010962501168251038e-01,-3.249746263027191162e-01,-3.165104091167449951e-01,5.712834000587463379e-01,2.897093594074249268e-01,-4.299057424068450928e-01,2.744936645030975342e-01,4.831092655658721924e-01,-4.543736577033996582e-01,5.588036179542541504e-01
-8.753456473350524902e-01,-5.283788442611694336e-01,3.483315706253051758e-01,-8.300436735153198242e-01,-1.958434581756591797e-01,-4.663760960102081299e-02,-1.564445197582244873e-01,6.347345113754272461e-01,2.410790324211120605e-01,-2.739277482032775879e-01,2.984124124050140381e-01,6.682577133178710938e-01,-4.529899656772613525e-01,5.512672662734985352e-01
-9.941313862800598145e-01,-7.258965373039245605e-01,1.564389914274215698e-01,-6.408356428146362305e-01,-6.304077059030532837e-02,-1.893661618232727051e-01,-1.157780140638351440e-01,6.418645977973937988e-01,2.718512415885925293e-01,-4.812102913856506348e-01,3.054381906986236572e-01,6.488131284713745117e-01,-4.284648895263671875e-01,7.109605073928833008e-01
-9.336979985237121582e-01,-7.363331913948059082e-01,1.997701376676559448e-01,-7.011801004409790039e-01,-1.100615318864583969e-02,6.122354045510292053e-02,-2.554286122322082520e-01,6.449803709983825684e-01,2.316505759954452515e-01,-6.500086188316345215e-01,1.699873656034469604e-01,7.550405263900756836e-01,-5.906661152839660645e-01,6.078018546104431152e-01
-7.784657478332519531e-01,-8.341618776321411133e-01,3.599024713039398193e-01,-8.031492233276367188e-01,5.522153805941343307e-03,1.452463418245315552e-01,-1.052870675921440125e-01,5.472890734672546387e-01,9.894672781229019165e-02,-5.820057392120361328e-01,2.611613273620605469e-01,6.845206618309020996e-01,-4.111575782299041748e-01,5.406076908111572266e-01
-8.610842227935791016e-01,-8.011643886566162109e-01,2.159870713949203491e-01,-5.061343908309936523e-01,-6.074104085564613342e-02,9.181718528270721436e-02,-1.827214509248733521e-01,5.431275963783264160e-01,3.725329041481018066e-01,-7.250847816467285156e-01,9.281346201896667480e-02,7.020204067230224609e-01,-3.818809986114501953e-01,6.406918764114379883e-01
-8.600479364395141602e-01,-7.340661883354187012e-01,1.149568781256675720e-01,-5.978310704231262207e-01,-8.220641314983367920e-02,2.980555891990661621e-01,-3.102322816848754883e-01,6.565430164337158203e-01,3.569396138191223145e-01,-6.134562492370605469e-01,4.588004574179649353e-02,4.981230795383453369e-01,-5.213979482650756836e-01,4.542501270771026611e-01
-7.369753718376159668e-01,-7.068173885345458984e-01,8.637263439595699310e-03,-2.733764648437500000e-01,1.415529847145080566e-01,3.412923216819763184e-01,-1.128851920366287231e-01,7.418680191040039062e-01,4.719312787055969238e-01,-6.679815053939819336e-01,-7.598295807838439941e-02,8.197928071022033691e-01,-4.210023581981658936e-01,4.568176567554473877e-01
-6.352850794792175293e-01,-8.819858431816101074e-01,3.443330526351928711e-02,-2.816559374332427979e-01,-6.672847270965576172e-02,3.315211236476898193e-01,-3.820346891880035400e-01,6.543518304824829102e-01,5.105542540550231934e-01,-6.324692964553833008e-01,-1.323231775313615799e-02,5.785737633705139160e-01,-5.049452185630798340e-01,5.778328180313110352e-01
-6.855527162551879883e-01,-7.072069048881530762e-01,2.600903250277042389e-02,-3.649999201297760010e-01,-1.628377288579940796e-01,3.475857675075531006e-01,-3.221750557422637939e-01,8.140966296195983887e-01,1.764770448207855225e-01,-8.323323130607604980e-01,-8.716829866170883179e-02,6.246782541275024414e-01,-2.642962038516998291e-01,5.524091124534606934e-01
-6.379509568214416504e-01,-6.604453921318054199e-01,3.346516564488410950e-02,-1.265071034431457520e-01,-1.409427970647811890e-01,3.067239522933959961e-01,-3.224422037601470947e-01,8.863016366958618164e-01,2.732538282871246338e-01,-7.676662206649780273e-01,-9.144796431064605713e-02,4.295407533645629883e-01,-2.396645992994308472e-01,5.158315300941467285e-01
-4.898561537265777588e-01,-7.539256811141967773e-01,-1.339699625968933105e-01,-1.875451803207397461e-01,-1.314222812652587891e-01,5.832310914993286133e-01,-2.577192783355712891e-01,6.845023632049560547e-01,5.706090927124023438e-01,-9.174719452857971191e-01,-3.844449669122695923e-02,5.028736591339111328e-01,-1.420046836137771606e-01,2.897565960884094238e-01
-5.677924752235412598e-01,-6.039513349533081055e-01,2.766833454370498657e-02,-5.528105795383453369e-02,-2.314195483922958374e-01,4.276498556137084961e-01,-2.203997075557708740e-01,7.278414368629455566e-01,3.267861604690551758e-01,-7.123920321464538574e-01,-3.221925795078277588e-01,3.035615980625152588e-01,-2.913545966148376465e-01,3.993358314037322998e-01
-5.760039687156677246e-01,-8.619354963302612305e-01,-1.598103642463684082e-01,-4.538089409470558167e-02,-3.098774552345275879e-01,6.205674409866333008e-01,-2.356055527925491333e-01,8.314893841743469238e-01,3.642559945583343506e-01,-7.239108681678771973e-01,-3.975832462310791016e-01,4.454566538333892822e-01,-2.114423662424087524e-01,1.382093578577041626e-01
-4.392620623111724854e-01,-8.978514671325683594e-01,1.011914014816284180e-01,-1.388633996248245239e-01,-4.063757359981536865e-01,6.036185026168823242e-01,-3.206462562084197998e-01,9.069025516510009766e-01,1.934257149696350098e-01,-7.116470932960510254e-01,-3.245578706264495850e-01,3.369668722152709961e-01,-1.502165645360946655e-01,9.752524644136428833e-02
-4.954968988895416260e-01,-9.353259801864624023e-01,-1.498436629772186279e-01,-8.554836362600326538e-02,-4.571789503097534180e-01,7.102457284927368164e-01,-3.644876480102539062e-01,8.488324880599975586e-01,3.623895645141601562e-01,-7.396326661109924316e-01,-2.504622638225555420e-01,3.544114828109741211e-01,-3.201597630977630615e-01,-9.350465238094329834e-02
-4.713405072689056396e-01,-5.866079926490783691e-01,-5.344285443425178528e-02,1.091284826397895813e-01,-4.962706565856933594e-01,6.196213364601135254e-01,-5.022285580635070801e-01,1.054155468940734863e+00,5.382568836212158203e-01,-6.714184880256652832e-01,-3.103505969047546387e-01,4.069294929504394531e-01,-3.331619501113891602e-01,2.606093585491180420e-01
-2.729027867317199707e-01,-6.439067721366882324e-01,7.662035524845123291e-03,-4.574339371174573898e-03,-4.428130388259887695e-01,6.213064789772033691e-01,-4.228310585021972656e-01,9.696721434593200684e-01,4.674300849437713623e-01,-5.218394994735717773e-01,-4.525266885757446289e-01,2.057450562715530396e-01,-3.129359781742095947e-01,-4.224532470107078552e-02
-3.956589698791503906e-01,-6.824080944061279297e-01,-1.265399307012557983e-01,8.033297955989837646e-03,-6.101509928703308105e-01,7.305512428283691406e-01,-7.461155205965042114e-02,9.287893176078796387e-01,2.679231166839599609e-01,-6.784013509750366211e-01,-2.886543571949005127e-01,2.576496005058288574e-01,-2.719918489456176758e-01,-1.766803115606307983e-02
-5.981814861297607422e-01,-6.111172437667846680e-01,-7.358143478631973267e-02,-2.963716350495815277e-02,-4.988583624362945557e-01,6.942262053489685059e-01,-3.829112946987152100e-01,7.671554088592529297e-01,2.765922546386718750e-01,-6.039232611656188965e-01,-4.928363859653472900e-01,3.727715015411376953e-01,-3.168438971042633057e-01,-1.439287215471267700e-01
-2.640453279018402100e-01,-7.094663977622985840e-01,3.254835307598114014e-02,1.247957199811935425e-01,-4.177369177341461182e-01,6.971639394760131836e-01,-2.146881669759750366e-01,7.530632615089416504e-01,1.884327679872512817e-01,-6.965203285217285156e-01,-3.934860825538635254e-01,5.399955511093139648e-01,-2.848914861679077148e-01,-2.843593060970306396e-02
-3.037968873977661133e-01,-3.068384528160095215e-01,-5.398049578070640564e-02,3.051686882972717285e-01,-5.410435199737548828e-01,7.195861339569091797e-01,5.102466791868209839e-02,8.749597072601318359e-01,2.005799263715744019e-01,-6.487739682197570801e-01,-4.801320731639862061e-01,3.199518620967864990e-01,-1.086860522627830505e-01,-1.760602891445159912e-01
-2.588146626949310303e-01,-4.911399483680725098e-01,-6.973201781511306763e-02,9.058360941708087921e-03,-6.194539666175842285e-01,5.288443565368652344e-01,3.819674625992774963e-02,5.850847959518432617e-01,7.850616425275802612e-02,-5.314298272132873535e-01,-5.268456339836120605e-01,3.952371478080749512e-01,-1.778045296669006348e-01,-3.033125102519989014e-01
-1.508834064006805420e-01,-4.455842077732086182e-01,-2.636108100414276123e-01,1.356659531593322754e-01,-7.162020206451416016e-01,7.703396081924438477e-01,1.962708681821823120e-01,8.419003486633300781e-01,2.451073229312896729e-01,-4.161008894443511963e-01,-4.897136092185974121e-01,3.251042962074279785e-01,-9.972691535949707031e-02,-1.552238911390304565e-01
-1.805797070264816284e-01,-3.379524648189544678e-01,-1.732505410909652710e-01,2.921941578388214111e-01,-4.282043278217315674e-01,7.701533436775207520e-01,2.470495253801345825e-01,6.599294543266296387e-01,3.891634047031402588e-01,-5.436450242996215820e-01,-3.397479355335235596e-01,5.258905887603759766e-01,-1.384502649307250977e-01,-3.602645099163055420e-01
-1.129126399755477905e-01,-3.196308016777038574e-01,4.483427479863166809e-02,1.604796648025512695e-01,-6.989845037460327148e-01,6.226084828376770020e-01,4.294961392879486084e-01,9.303209185600280762e-01,2.586673200130462646e-01,-5.389908552169799805e-01,-3.575918972492218018e-01,1.482854634523391724e-01,-8.930464088916778564e-02,-3.082027435302734375e-01
-3.109351694583892822e-01,-3.071711063385009766e-01,2.117069438099861145e-02,2.301197499036788940e-01,-4.898391366004943848e-01,7.152844667434692383e-01,3.998396694660186768e-01,7.647388577461242676e-01,3.446541726589202881e-01,-5.583788752555847168e-01,-2.761131823062896729e-01,3.190364539623260498e-01,6.413379311561584473e-02,-4.324295818805694580e-01
-1.823857575654983521e-01,-3.761282563209533691e-01,6.322737783193588257e-02,9.315946698188781738e-02,-5.004272460937500000e-01,7.500571012496948242e-01,5.201702713966369629e-01,4.439104199409484863e-01,2.993638515472412109e-01,-5.769223570823669434e-01,-3.168184757232666016e-01,1.290115416049957275e-01,1.172841861844062805e-01,-3.513336777687072754e-01
6.679151207208633423e-02,-2.237499207258224487e-01,8.294506371021270752e-02,2.539440989494323730e-01,-5.742288827896118164e-01,7.525941133499145508e-01,4.588763415813446045e-01,3.820305168628692627e-01,1.193474382162094116e-01,-5.013548135757446289e-01,-4.967065453529357910e-01,1.892606355249881744e-02,2.553414106369018555e-01,-1.689977794885635376e-01
-6.792584806680679321e-02,-6.286978721618652344e-02,1.764746755361557007e-01,2.005648463964462280e-01,-5.593330860137939453e-01,8.082963824272155762e-01,6.600221991539001465e-01,4.273370802402496338e-01,7.674036920070648193e-02,-6.875956654548645020e-01,-1.110865771770477295e-01,2.742865681648254395e-01,3.819883763790130615e-01,-3.532800674438476562e-01
-2.332409620285034180e-01,-1.025706455111503601e-01,4.751175269484519958e-02,3.219613730907440186e-01,-6.945745348930358887e-01,9.230417609214782715e-01,6.236759424209594727e-01,4.392836987972259521e-01,5.454882979393005371e-02,-4.143210053443908691e-01,-2.773423492908477783e-01,2.314995229244232178e-01,2.559656798839569092e-01,-2.687939405441284180e-01
-1.802675276994705200e-01,-6.867147237062454224e-02,1.082963645458221436e-01,3.419897258281707764e-01,-4.505672454833984375e-01,8.888539075851440430e-01,6.714205741882324219e-01,5.348057672381401062e-02,-7.701391726732254028e-02,-6.090688109397888184e-01,-2.616886198520660400e-01,1.613086462020874023e-01,4.811484813690185547e-01,-8.080258965492248535e-02
-1.861544698476791382e-01,-2.733395695686340332e-01,1.104226242750883102e-02,4.779962599277496338e-01,-3.878280818462371826e-01,6.460108160972595215e-01,8.514031171798706055e-01,-5.385860800743103027e-03,5.897881090641021729e-02,-4.643404185771942139e-01,-3.550731241703033447e-01,1.517677009105682373e-01,3.515135347843170166e-01,-9.318889677524566650e-02
-9.626549482345581055e-02,-3.169280886650085449e-01,-2.154357032850384712e-03,2.692544758319854736e-01,-5.178157687187194824e-01,8.321226835250854492e-01,8.896583318710327148e-01,7.467713952064514160e-02,-2.812586128711700439e-01,-6.501757502555847168e-01,-2.156173437833786011e-01,4.461036324501037598e-01,7.241459488868713379e-01,2.013806551694869995e-01
-1.736209988594055176e-01,-2.257963865995407104e-01,-3.342135623097419739e-02,2.334446012973785400e-01,-3.758026361465454102e-01,8.922443985939025879e-01,9.991558790206909180e-01,1.660085916519165039e-01,1.400867104530334473e-02,-4.348458647727966309e-01,-4.499378502368927002e-01,8.630286902189254761e-02,4.869570136070251465e-01,2.236454188823699951e-01
-2.225917428731918335e-01,-2.003508359193801880e-01,4.135118052363395691e-02,2.083036452531814575e-01,-2.997017502784729004e-01,7.850342392921447754e-01,1.017729997634887695e+00,1.347237676382064819e-01,-9.962082654237747192e-02,-4.048368334770202637e-01,-2.958750724792480469e-01,1.412792503833770752e-01,6.742669343948364258e-01,-1.325398962944746017e-02
-1.830443739891052246e-01,-8.477035909891128540e-02,2.782623469829559326e-01,1.412120014429092407e-01,-1.804210096597671509e-01,8.409101366996765137e-01,9.675326943397521973e-01,1.747690290212631226e-01,-1.277068555355072021e-01,-3.960706591606140137e-01,-5.816792845726013184e-01,5.770734511315822601e-03,5.266625285148620605e-01,1.563274115324020386e-01
-1.608320325613021851e-01,-3.456802666187286377e-01,-4.375125095248222351e-02,1.989411413669586182e-01,-1.666781306266784668e-01,9.177930951118469238e-01,7.203655838966369629e-01,-6.504021584987640381e-02,-1.420121788978576660e-01,-4.894868135452270508e-01,-3.214231133460998535e-01,8.263906836509704590e-02,6.411687731742858887e-01,1.955539733171463013e-01
-2.561604082584381104e-01,1.431403681635856628e-03,6.667183339595794678e-02,1.261167079210281372e-01,-2.518413066864013672e-01,8.036522269248962402e-01,1.088679432868957520e+00,-1.861811727285385132e-01,-3.034938573837280273e-01,-3.151050508022308350e-01,-5.090625286102294922e-01,1.308783702552318573e-02,8.233827948570251465e-01,7.357307523488998413e-02
-3.042183518409729004e-01,-1.346764713525772095e-01,-4.784698784351348877e-02,1.658955067396163940e-01,-5.998779088258743286e-02,7.112756967544555664e-01,1.008488535881042480e+00,1.242601796984672546e-01,-2.362871766090393066e-01,-4.045227766036987305e-01,-3.800565004348754883e-01,-1.969895884394645691e-02,5.918185114860534668e-01,-1.050871610641479492e-02
-2.990091145038604736e-01,-1.211972832679748535e-01,6.883835885673761368e-03,2.774763703346252441e-01,9.998381137847900391e-02,7.762964367866516113e-01,8.482311964035034180e-01,-4.939814656972885132e-02,-4.111395776271820068e-01,-2.556343972682952881e-01,-2.718288898468017578e-01,1.875491738319396973e-01,8.921872377395629883e-01,1.374614089727401733e-01
-2.259226739406585693e-01,-1.322582662105560303e-01,7.268163561820983887e-02,4.498934745788574219e-02,2.461385279893875122e-01,6.717334985733032227e-01,1.002937912940979004e+00,-1.718023419380187988e-01,-6.181282997131347656e-01,-7.139446586370468140e-02,-3.171613514423370361e-01,1.068531870841979980e-01,6.638842821121215820e-01,1.163137108087539673e-01
-2.565258443355560303e-01,-1.431569159030914307e-01,-2.036765962839126587e-02,2.623054087162017822e-01,1.821510046720504761e-01,6.443499922752380371e-01,8.281611800193786621e-01,4.288333281874656677e-02,-6.279774904251098633e-01,-4.019918292760848999e-02,-2.603287100791931152e-01,-1.503470167517662048e-02,7.500407695770263672e-01,8.184413611888885498e-02
-1.682878285646438599e-01,1.622967571020126343e-01,1.594011932611465454e-01,2.844495475292205811e-01,5.396229624748229980e-01,5.896911621093750000e-01,9.915455579757690430e-01,1.080588623881340027e-01,-8.826671242713928223e-01,-6.690187752246856689e-02,-2.453939914703369141e-01,-2.784720361232757568e-01,6.769749522209167480e-01,1.602021604776382446e-01
-3.436486423015594482e-01,1.472661048173904419e-01,2.126803994178771973e-01,1.456680148839950562e-01,2.011245191097259521e-01,7.608510851860046387e-01,7.910940647125244141e-01,1.947633922100067139e-02,-7.879197001457214355e-01,-1.185811385512351990e-01,-3.763973414897918701e-01,-1.047857925295829773e-01,6.632091403007507324e-01,3.198169916868209839e-02
-2.858322858810424805e-01,7.105199992656707764e-02,-1.480814665555953979e-01,-5.141558498144149780e-02,3.948089182376861572e-01,4.976642727851867676e-01,8.295403718948364258e-01,-7.928440347313880920e-03,-7.646502852439880371e-01,8.593613654375076294e-02,-2.232192307710647583e-01,1.803121119737625122e-01,4.524874985218048096e-01,-1.488207187503576279e-02
-1.084987074136734009e-01,1.286608725786209106e-01,3.480510413646697998e-02,9.989190846681594849e-02,4.929988980293273926e-01,7.015925645828247070e-01,9.631457924842834473e-01,3.198223933577537537e-02,-6.879445910453796387e-01,6.064628437161445618e-02,-4.083446264266967773e-01,-1.340089291334152222e-01,5.220422744750976562e-01,1.080152317881584167e-01
-2.434972971677780151e-01,2.787187993526458740e-01,1.434520334005355835e-01,2.849078178405761719e-01,5.200853943824768066e-01,5.597428083419799805e-01,9.752193093299865723e-01,2.533894218504428864e-02,-8.209233283996582031e-01,-1.410734951496124268e-01,-2.523722648620605469e-01,-1.984575763344764709e-02,6.594200730323791504e-01,1.369679719209671021e-01
-4.528500139713287354e-03,5.276314020156860352e-01,2.916112840175628662e-01,1.402470171451568604e-01,4.444012939929962158e-01,3.227973580360412598e-01,8.704414367675781250e-01,-5.322113633155822754e-02,-8.618440032005310059e-01,1.967541873455047607e-01,1.138148829340934753e-02,-1.846111495979130268e-03,4.716366827487945557e-01,-1.306482963263988495e-02
1.388336531817913055e-02,3.762056529521942139e-01,1.804765909910202026e-01,2.118596620857715607e-02,6.289569139480590820e-01,4.435007870197296143e-01,7.740415334701538086e-01,3.397154808044433594e-02,-9.065495133399963379e-01,1.394443660974502563e-01,-1.082445234060287476e-01,-1.349197775125503540e-01,4.814001321792602539e-01,2.086195796728134155e-01
2.312415651977062225e-02,2.854625582695007324e-01,2.743315696716308594e-01,3.939181193709373474e-02,6.280242800712585449e-01,1.317836642265319824e-01,5.517258048057556152e-01,1.856687366962432861e-01,-7.488866448402404785e-01,2.819697260856628418e-01,-1.971267461776733398e-01,-2.449632734060287476e-01,2.689622342586517334e-01,-4.546733573079109192e-02
-2.006479054689407349e-01,4.366601705551147461e-01,2.125059664249420166e-01,1.323266327381134033e-01,5.942181348800659180e-01,3.310291171073913574e-01,7.000044584274291992e-01,1.972260326147079468e-01,-4.583389163017272949e-01,6.912728399038314819e-02,2.509271204471588135e-01,-3.999428749084472656e-01,3.206175863742828369e-01,9.330921620130538940e-02
-1.090935841202735901e-01,4.514068663120269775e-01,2.260836511850357056e-01,5.106996372342109680e-02,6.147980093955993652e-01,2.765287458896636963e-01,7.306931614875793457e-01,2.155912071466445923e-01,-5.851625800132751465e-01,-1.245777010917663574e-01,1.656533330678939819e-01,-7.411003857851028442e-02,4.318860471248626709e-01,1.475776135921478271e-01
-1.782080084085464478e-01,2.189710140228271484e-01,5.724519491195678711e-01,-8.889559656381607056e-02,5.272185206413269043e-01,4.287261143326759338e-02,6.025895476341247559e-01,1.336912512779235840e-01,-4.736962318420410156e-01,2.331387251615524292e-01,2.455734908580780029e-01,-1.998910456895828247e-01,1.314971446990966797e-01,1.335453391075134277e-01
-5.611868575215339661e-02,4.866021871566772461e-01,2.897423207759857178e-01,-1.712812334299087524e-01,3.937523663043975830e-01,2.533151023089885712e-02,5.911450982093811035e-01,2.484517544507980347e-01,-6.112177968025207520e-01,2.441138774156570435e-01,1.307233273983001709e-01,-6.632052361965179443e-02,2.674707770347595215e-01,1.647933125495910645e-01
-3.942660987377166748e-03,4.667426645755767822e-01,7.436313033103942871e-01,-2.497191429138183594e-01,4.695922136306762695e-01,1.185322850942611694e-01,5.377677083015441895e-01,7.947882264852523804e-02,-6.316145658493041992e-01,5.278097838163375854e-02,3.170950114727020264e-01,-1.645422875881195068e-01,1.466331332921981812e-01,4.318159520626068115e-01
-1.187199875712394714e-01,5.527876615524291992e-01,6.154296398162841797e-01,-3.828384876251220703e-01,5.442686676979064941e-01,-2.153909206390380859e-01,4.921480715274810791e-01,3.410958945751190186e-01,-5.498628616333007812e-01,1.273365318775177002e-01,3.750707805156707764e-01,-1.290398649871349335e-02,3.706629201769828796e-02,1.814718097448348999e-01
-2.403845041990280151e-01,6.579403877258300781e-01,6.361808180809020996e-01,-2.107519209384918213e-01,5.349344015121459961e-01,-3.540837168693542480e-01,5.058075189590454102e-01,4.861995875835418701e-01,-3.918951451778411865e-01,4.995557069778442383e-01,3.289078474044799805e-01,7.731928676366806030e-02,-3.491874039173126221e-02,5.304469466209411621e-01
-3.151254653930664062e-01,5.729633569717407227e-01,6.441519260406494141e-01,-4.853181838989257812e-01,5.164489150047302246e-01,-1.764229983091354370e-01,4.510999917984008789e-01,2.088596820831298828e-01,-5.370808243751525879e-01,1.867685914039611816e-01,4.572132229804992676e-01,1.661566197872161865e-01,-1.209798753261566162e-01,3.475266993045806885e-01
-2.513158023357391357e-01,4.186395704746246338e-01,5.733000040054321289e-01,-4.088490307331085205e-01,5.646420121192932129e-01,-1.956874728202819824e-01,6.088751554489135742e-01,3.029012382030487061e-01,-3.946562409400939941e-01,2.771115005016326904e-01,3.887116611003875732e-01,9.573120623826980591e-02,-1.723623275756835938e-01,3.283815383911132812e-01
-4.750285446643829346e-01,3.183273077011108398e-01,6.439327001571655273e-01,-4.504396021366119385e-01,4.526950418949127197e-01,-4.483298659324645996e-01,2.353313565254211426e-01,3.918056786060333252e-01,-3.093516528606414795e-01,1.181067600846290588e-01,5.697695016860961914e-01,3.947655558586120605e-01,-9.295675158500671387e-02,3.804727196693420410e-01
-3.332395255565643311e-01,6.679619550704956055e-01,5.869731307029724121e-01,-5.675168037414550781e-01,5.174459218978881836e-01,-3.927226364612579346e-01,3.967866003513336182e-01,4.742527902126312256e-01,-3.393396437168121338e-01,-5.487554147839546204e-02,7.679342031478881836e-01,2.805825173854827881e-01,-2.748323976993560791e-01,5.984703898429870605e-01
-5.091864466667175293e-01,3.960877060890197754e-01,6.580964326858520508e-01,-7.667872309684753418e-01,5.779228806495666504e-01,-3.929514288902282715e-01,3.620289564132690430e-01,2.879350781440734863e-01,-3.753873407840728760e-01,9.967917948961257935e-02,6.613132357597351074e-01,2.329403012990951538e-01,-8.739760518074035645e-02,2.584483623504638672e-01
-3.826984465122222900e-01,3.685030043125152588e-01,5.928346514701843262e-01,-7.302924990653991699e-01,5.189808607101440430e-01,-6.228963136672973633e-01,4.689820110797882080e-01,2.425574213266372681e-01,-8.861616253852844238e-02,4.448356851935386658e-02,9.900661706924438477e-01,4.424475133419036865e-01,-2.650049924850463867e-01,2.585174441337585449e-01
-4.839296042919158936e-01,3.384721577167510986e-01,4.915675520896911621e-01,-8.106790781021118164e-01,4.095216989517211914e-01,-6.078587174415588379e-01,4.510740935802459717e-01,9.103278070688247681e-02,-6.612171977758407593e-02,-2.207053638994693756e-02,7.152214646339416504e-01,5.010035634040832520e-01,-3.696961402893066406e-01,3.088175356388092041e-01
-5.259742736816406250e-01,3.307608067989349365e-01,4.871553182601928711e-01,-9.270473718643188477e-01,4.426157772541046143e-01,-4.373177587985992432e-01,5.981461405754089355e-01,2.736234068870544434e-01,5.543230473995208740e-02,-5.286712944507598877e-02,8.865591883659362793e-01,5.480641126632690430e-01,-2.227920889854431152e-01,4.025678634643554688e-01
-5.916680693626403809e-01,2.624999284744262695e-01,4.605335295200347900e-01,-8.241427540779113770e-01,6.243950128555297852e-01,-3.849621117115020752e-01,6.181296110153198242e-01,4.441906511783599854e-01,-8.430829644203186035e-02,-7.873773574829101562e-02,8.929983973503112793e-01,6.924509406089782715e-01,-2.579356133937835693e-01,2.430947124958038330e-01
-5.519821643829345703e-01,1.813653111457824707e-01,6.375768780708312988e-01,-9.868007898330688477e-01,6.801455020904541016e-01,-4.839664101600646973e-01,3.259477913379669189e-01,2.477768212556838989e-01,1.521784365177154541e-01,-1.862383037805557251e-01,9.771996736526489258e-01,5.467782616615295410e-01,-4.797282814979553223e-01,4.350595772266387939e-01
-4.716900885105133057e-01,1.419109702110290527e-01,4.564520716667175293e-01,-7.559350728988647461e-01,6.548202037811279297e-01,-6.105212569236755371e-01,3.758363127708435059e-01,2.029350101947784424e-01,2.778235077857971191e-01,-3.635915815830230713e-01,1.157928109169006348e+00,5.632879137992858887e-01,-4.075109958648681641e-01,6.193307042121887207e-01
-4.321946203708648682e-01,1.479308158159255981e-01,3.001405894756317139e-01,-9.215329289436340332e-01,5.538316965103149414e-01,-3.032402396202087402e-01,3.599563837051391602e-01,2.288312315940856934e-01,1.978981345891952515e-01,-2.519418597221374512e-01,9.357810616493225098e-01,4.615153968334197998e-01,-3.032726645469665527e-01,4.810553193092346191e-01
-4.917719066143035889e-01,4.931949079036712646e-02,4.988611936569213867e-01,-8.508377075195312500e-01,4.010155498981475830e-01,-5.329411029815673828e-01,2.174229919910430908e-01,1.940485686063766479e-01,1.542914807796478271e-01,-5.538481473922729492e-01,9.898582100868225098e-01,6.436427235603332520e-01,-4.378097653388977051e-01,4.498754143714904785e-01
-4.144117236137390137e-01,-1.582188159227371216e-02,5.724508762359619141e-01,-8.347528576850891113e-01,5.095149874687194824e-01,-4.907730817794799805e-01,3.101736009120941162e-01,1.196085065603256226e-01,2.690304815769195557e-01,-6.151002049446105957e-01,1.088541388511657715e+00,5.645012259483337402e-01,-6.012316420674324036e-02,4.261777698993682861e-01
-3.014796078205108643e-01,1.906875148415565491e-02,4.536696970462799072e-01,-8.777902126312255859e-01,6.541882157325744629e-01,-4.005964696407318115e-01,1.681932508945465088e-01,2.957510054111480713e-01,2.226012498140335083e-01,-3.783253431320190430e-01,1.008522033691406250e+00,4.848366081714630127e-01,-1.803091168403625488e-01,5.806149840354919434e-01
-5.899906754493713379e-01,-6.092492863535881042e-02,2.648120820522308350e-01,-7.788714766502380371e-01,5.475416183471679688e-01,-2.573899030685424805e-01,2.668771520256996155e-02,2.542627751827239990e-01,2.337282896041870117e-01,-4.334944784641265869e-01,9.821131229400634766e-01,3.148415684700012207e-01,-2.620081901550292969e-01,4.032970666885375977e-01
-5.768783092498779297e-01,7.638610154390335083e-02,1.089684441685676575e-01,-8.673339486122131348e-01,4.534381031990051270e-01,-3.056913316249847412e-01,4.537198692560195923e-02,2.559890151023864746e-01,4.058799445629119873e-01,-5.110225677490234375e-01,8.245209455490112305e-01,6.270789504051208496e-01,-2.984848320484161377e-01,6.566910147666931152e-01
-6.945018172264099121e-01,-3.704439401626586914e-01,1.912216991186141968e-01,-7.112787365913391113e-01,5.269527435302734375e-01,-3.278279006481170654e-01,-8.583050966262817383e-02,1.817021667957305908e-01,3.388309478759765625e-01,-6.550524234771728516e-01,8.636015653610229492e-01,3.368812799453735352e-01,-3.331438899040222168e-01,6.417421102523803711e-01
-4.198490977287292480e-01,-1.855020783841609955e-02,1.214654818177223206e-01,-9.072854518890380859e-01,3.288220763206481934e-01,-3.006278872489929199e-01,6.102435290813446045e-02,4.350818991661071777e-01,4.828560650348663330e-01,-5.862948298454284668e-01,9.293342828750610352e-01,3.776683211326599121e-01,-4.834274947643280029e-01,4.402792453765869141e-01
-3.904312252998352051e-01,-1.514270901679992676e-02,-2.937168627977371216e-02,-7.294578552246093750e-01,3.796330690383911133e-01,-3.190984129905700684e-01,9.560959786176681519e-02,3.951685726642608643e-01,3.232368528842926025e-01,-5.327414274215698242e-01,5.988715887069702148e-01,4.500009119510650635e-01,-4.779968261718750000e-01,3.697533011436462402e-01
-5.805527567863464355e-01,-3.480356037616729736e-01,5.226214975118637085e-02,-5.122407674789428711e-01,3.356077373027801514e-01,-2.424958646297454834e-01,-1.157947778701782227e-01,2.939829528331756592e-01,3.354858160018920898e-01,-6.496320366859436035e-01,6.343962550163269043e-01,2.718772292137145996e-01,-1.346769481897354126e-01,4.212536215782165527e-01
-3.968741297721862793e-01,-1.646059155464172363e-01,1.131341382861137390e-01,-7.645367980003356934e-01,4.864602386951446533e-01,-5.241999626159667969e-01,-1.676398217678070068e-01,4.650596976280212402e-01,3.137990236282348633e-01,-5.420864224433898926e-01,4.696904420852661133e-01,2.190859615802764893e-01,-1.881969422101974487e-01,3.674021959304809570e-01
-2.928147017955780029e-01,-1.462506651878356934e-01,-1.139577105641365051e-01,-6.849861741065979004e-01,5.060032010078430176e-01,-2.718963921070098877e-01,-1.941955834627151489e-01,3.245532214641571045e-01,2.598510086536407471e-01,-3.777497112751007080e-01,6.566201448440551758e-01,1.319018900394439697e-01,-4.227775633335113525e-01,1.114897206425666809e-01
-3.391278684139251709e-01,-2.188039124011993408e-01,-1.785320192575454712e-01,-5.132472515106201172e-01,4.126798510551452637e-01,-1.874619722366333008e-01,-1.139703467488288879e-01,2.986374199390411377e-01,4.571114182472229004e-01,-2.737731337547302246e-01,6.829377412796020508e-01,3.906289041042327881e-01,-2.911554574966430664e-01,7.039932161569595337e-02
-2.164266854524612427e-01,-1.165500432252883911e-01,-3.384550511837005615e-01,-4.896126091480255127e-01,3.313147127628326416e-01,-2.950660586357116699e-01,-1.312992274761199951e-01,2.962332665920257568e-01,6.020236611366271973e-01,-4.325630068778991699e-01,5.059607028961181641e-01,2.361518591642379761e-01,-3.436169028282165527e-01,-7.881520688533782959e-02
-2.166398763656616211e-01,-1.043346822261810303e-01,-1.453317254781723022e-01,-4.121330380439758301e-01,4.030224680900573730e-01,-1.096633672714233398e-01,-2.672185897827148438e-01,1.835025250911712646e-01,3.582470715045928955e-01,-2.912275493144989014e-01,3.941697478294372559e-01,5.532074570655822754e-01,-3.384367823600769043e-01,2.674560993909835815e-02
-2.841717004776000977e-01,2.313423752784729004e-01,-3.220728039741516113e-01,-3.361256718635559082e-01,3.375604152679443359e-01,-1.382148116827011108e-01,-2.327128350734710693e-01,3.898037075996398926e-01,3.474443256855010986e-01,-5.377981662750244141e-01,3.735461533069610596e-01,1.285864114761352539e-01,-5.434538125991821289e-01,-1.049024332314729691e-02
1.643168181180953979e-02,2.005596160888671875e-01,-3.906459212303161621e-01,-2.594250142574310303e-01,2.819912135601043701e-01,8.585885167121887207e-02,-1.900954991579055786e-01,1.360975652933120728e-01,3.662050962448120117e-01,-2.638542056083679199e-01,4.230024218559265137e-01,1.015582382678985596e-01,-5.748983621597290039e-01,-2.683070003986358643e-01
1.178428456187248230e-01,2.841569483280181885e-01,-3.334765434265136719e-01,-1.516908556222915649e-01,3.648603558540344238e-01,9.193349629640579224e-02,-3.626019656658172607e-01,1.685138344764709473e-01,4.038421511650085449e-01,-3.976302742958068848e-01,4.079667031764984131e-01,1.017412915825843811e-01,-2.620979249477386475e-01,-2.263560146093368530e-01
1.298940330743789673e-01,2.761960923671722412e-01,-2.894643843173980713e-01,-1.652384996414184570e-01,2.187962532043457031e-01,-9.256359189748764038e-02,-1.180075332522392273e-01,5.263264849781990051e-02,6.727382540702819824e-01,-2.776455879211425781e-01,5.169179439544677734e-01,1.471298038959503174e-01,-5.581566095352172852e-01,-3.531727790832519531e-01
2.690067142248153687e-02,1.334347575902938843e-01,-3.106335401535034180e-01,-1.794112324714660645e-01,9.674331545829772949e-02,-4.752827808260917664e-02,-5.382919311523437500e-02,2.181251943111419678e-01,4.752358496189117432e-01,-3.273094594478607178e-01,3.473510444164276123e-01,4.158026725053787231e-02,-3.492885828018188477e-01,-3.353545367717742920e-01
1.057185530662536621e-01,2.302397042512893677e-01,-1.847046464681625366e-01,-4.398719593882560730e-02,7.428552955389022827e-02,-3.268423303961753845e-02,-9.681962430477142334e-02,1.767781972885131836e-01,5.293647050857543945e-01,-1.666889935731887817e-01,4.456727802753448486e-01,1.182730719447135925e-01,-3.408444523811340332e-01,-2.067475765943527222e-01
1.170630902051925659e-01,3.613354265689849854e-01,-2.426310777664184570e-01,1.149477884173393250e-01,2.059240825474262238e-03,-6.976434588432312012e-02,-3.219088315963745117e-01,1.233173534274101257e-01,5.039865374565124512e-01,-3.833085894584655762e-01,3.578076660633087158e-01,-6.833325326442718506e-02,-3.161301612854003906e-01,-3.414154946804046631e-01
3.458985388278961182e-01,2.131318449974060059e-01,-2.822600603103637695e-01,-6.034347414970397949e-02,1.413567066192626953e-01,-1.045280974358320236e-02,-3.761572837829589844e-01,1.525654550641775131e-02,6.945835351943969727e-01,-2.300749123096466064e-01,2.975140810012817383e-01,-1.308636665344238281e-01,-2.021763622760772705e-01,-2.951848804950714111e-01
4.234172403812408447e-01,4.232554733753204346e-01,-1.858380436897277832e-01,-1.246417313814163208e-01,8.873839676380157471e-02,-1.162815839052200317e-01,-8.741693198680877686e-02,-3.488775715231895447e-02,6.905803084373474121e-01,-3.166210651397705078e-01,3.196149766445159912e-01,-1.885198652744293213e-01,-2.632237374782562256e-01,-4.170159101486206055e-01
3.555853664875030518e-01,3.390811085700988770e-01,-1.492365151643753052e-01,9.609559178352355957e-02,4.606160521507263184e-02,-1.678089797496795654e-01,-2.101774364709854126e-01,9.056442230939865112e-02,6.086262464523315430e-01,-2.984678149223327637e-01,3.639947474002838135e-01,-2.402584850788116455e-01,-1.166927888989448547e-01,-2.184584438800811768e-01
4.132439792156219482e-01,3.325615227222442627e-01,-3.047631680965423584e-01,-2.010872960090637207e-02,6.449218094348907471e-02,-8.878820575773715973e-03,-7.745504379272460938e-02,-5.067747831344604492e-02,6.495184898376464844e-01,-2.927061021327972412e-01,3.969321548938751221e-01,-7.203993946313858032e-02,-1.022281497716903687e-01,-2.197497338056564331e-01
2.291309237480163574e-01,4.452679157257080078e-01,-3.985121101140975952e-02,-2.231220901012420654e-01,1.038654223084449768e-01,-2.480965852737426758e-02,7.968163490295410156e-02,-5.872372072190046310e-03,8.989310860633850098e-01,-3.482261896133422852e-01,2.534502446651458740e-01,-4.622514918446540833e-02,1.341814547777175903e-01,-2.631894946098327637e-01
3.194174766540527344e-01,4.214011430740356445e-01,-1.688229739665985107e-01,7.877507060766220093e-02,-8.499784767627716064e-02,-1.830639988183975220e-01,-1.025961264967918396e-01,-1.706101745367050171e-01,7.456547617912292480e-01,-2.523489296436309814e-01,1.304913461208343506e-01,-6.966213881969451904e-02,-1.725509762763977051e-01,-1.822710484266281128e-01
1.508707851171493530e-01,3.437338769435882568e-01,-1.544652730226516724e-01,-5.981249362230300903e-02,1.583284698426723480e-02,-2.438228204846382141e-02,-3.320790454745292664e-02,-1.116376072168350220e-01,7.393256425857543945e-01,-2.430161237716674805e-01,3.231371939182281494e-01,1.315536350011825562e-01,1.215975079685449600e-02,-1.175086498260498047e-01
1.897690296173095703e-01,4.998226761817932129e-01,-4.374417662620544434e-02,-1.376616954803466797e-02,-1.702714264392852783e-01,-1.832081675529479980e-01,7.769598066806793213e-02,-5.026774853467941284e-02,7.171926498413085938e-01,-1.977829039096832275e-01,1.066554710268974304e-01,1.461464613676071167e-01,9.783606976270675659e-02,-1.889061927795410156e-01
3.318860232830047607e-01,2.818697988986968994e-01,-3.893030807375907898e-02,3.379352390766143799e-02,1.491238623857498169e-01,-9.456007182598114014e-02,-3.114844858646392822e-02,-1.757669448852539062e-01,8.154034614562988281e-01,-1.988794505596160889e-01,1.977198123931884766e-01,6.460675038397312164e-03,7.743437588214874268e-02,-2.268802970647811890e-01
1.968270391225814819e-01,4.601195156574249268e-01,-1.800762712955474854e-01,3.018715232610702515e-02,-7.969829440116882324e-02,-3.073233179748058319e-02,7.314812391996383667e-02,-3.316690325736999512e-01,5.340850949287414551e-01,-1.141350343823432922e-01,1.467593014240264893e-01,-1.243665665388107300e-01,2.120819501578807831e-02,1.296231001615524292e-01
3.195702135562896729e-01,4.688809514045715332e-01,-2.623174712061882019e-02,9.885901212692260742e-02,1.568344235420227051e-02,-1.020418331027030945e-01,2.017854452133178711e-01,-3.218919038772583008e-01,5.567156076431274414e-01,-9.015008807182312012e-02,1.136929839849472046e-01,1.006686035543680191e-02,3.362597227096557617e-01,-8.540111780166625977e-02
2.323111593723297119e-01,3.918101191520690918e-01,-1.578633487224578857e-01,7.810825016349554062e-03,7.523134350776672363e-02,-3.270921483635902405e-02,2.176690548658370972e-01,-4.284832477569580078e-01,5.340942144393920898e-01,-2.786276638507843018e-01,6.377515196800231934e-02,1.351748686283826828e-02,3.036492764949798584e-01,-1.783313462510704994e-03
4.343716502189636230e-01,4.700643718242645264e-01,8.736383169889450073e-02,1.326229870319366455e-01,3.489791601896286011e-02,-1.040529087185859680e-01,3.528977632522583008e-01,-4.582091867923736572e-01,3.321252167224884033e-01,-8.045638352632522583e-02,1.596014052629470825e-01,8.446610532701015472e-03,2.060053646564483643e-01,1.406750977039337158e-01
1.552809029817581177e-01,3.276491761207580566e-01,-1.666233986616134644e-01,9.108370542526245117e-02,2.452703267335891724e-01,-4.262784123420715332e-02,6.068227291107177734e-01,-5.418587923049926758e-01,3.660233318805694580e-01,-2.822650969028472900e-01,-2.740238308906555176e-01,-1.673063961789011955e-03,4.417387843132019043e-01,4.264900982379913330e-01
-7.587720174342393875e-03,5.601330399513244629e-01,-4.479647055268287659e-02,2.311828285455703735e-01,3.177164494991302490e-01,-1.246382016688585281e-02,3.702111244201660156e-01,-5.696302652359008789e-01,5.170649886131286621e-01,-1.031098291277885437e-01,1.850031167268753052e-01,-1.005478855222463608e-02,6.343028545379638672e-01,-1.418953202664852142e-02
1.182043477892875671e-01,4.629398584365844727e-01,-1.272976845502853394e-01,2.620150148868560791e-01,3.296355605125427246e-01,-3.594338893890380859e-02,2.965202331542968750e-01,-5.674584507942199707e-01,4.454017579555511475e-01,-9.923461824655532837e-02,-3.312779590487480164e-02,-2.331281313672661781e-03,5.261563658714294434e-01,1.947134137153625488e-01
1.448344811797142029e-02,4.408084154129028320e-01,1.973335593938827515e-01,1.511534154415130615e-01,2.432171106338500977e-01,4.889995604753494263e-02,5.321196913719177246e-01,-7.132769227027893066e-01,4.227661788463592529e-01,-3.515084087848663330e-01,8.434443920850753784e-02,-5.120561271905899048e-02,5.925554037094116211e-01,1.210293471813201904e-01
1.971368342638015747e-01,6.070553064346313477e-01,-1.204833090305328369e-01,3.965995311737060547e-01,6.395736336708068848e-01,-6.522958725690841675e-02,2.296877354383468628e-01,-7.292401790618896484e-01,2.326392829418182373e-01,-1.487430930137634277e-01,6.238279491662979126e-02,5.840383470058441162e-03,8.077354431152343750e-01,1.819746047258377075e-01
9.078881144523620605e-02,4.380085766315460205e-01,8.732154965400695801e-02,2.749103009700775146e-01,5.348585844039916992e-01,5.698306858539581299e-02,2.367091178894042969e-01,-7.678180932998657227e-01,2.100941836833953857e-01,-1.996634155511856079e-01,1.351613998413085938e-01,-7.664400618523359299e-03,6.050466895103454590e-01,2.090179622173309326e-01
5.777639150619506836e-02,3.712425827980041504e-01,-4.574773367494344711e-03,4.453569054603576660e-01,7.765913605690002441e-01,8.613595366477966309e-02,2.925953567028045654e-01,-7.776737213134765625e-01,4.521375894546508789e-02,-2.193035334348678589e-01,5.611547734588384628e-03,-1.626463234424591064e-01,9.169712066650390625e-01,2.136068642139434814e-01
4.121432453393936157e-02,3.579095304012298584e-01,6.900990754365921021e-02,4.315439462661743164e-01,4.606369435787200928e-01,8.875608444213867188e-02,2.911038696765899658e-01,-7.158428430557250977e-01,2.863379716873168945e-01,6.207678001374006271e-03,-1.211273446679115295e-01,3.070062212646007538e-02,8.729348182678222656e-01,3.657819032669067383e-01
1.067980378866195679e-01,5.742615461349487305e-01,1.858415305614471436e-01,6.022249460220336914e-01,6.601626873016357422e-01,8.093056827783584595e-02,2.173518985509872437e-01,-5.434615015983581543e-01,2.732605040073394775e-01,-1.739233583211898804e-01,-2.241281867027282715e-01,-2.140935957431793213e-01,7.027304172515869141e-01,2.634116709232330322e-01
-3.617889434099197388e-02,3.852727413177490234e-01,2.988402247428894043e-01,4.125538468360900879e-01,6.614520549774169922e-01,8.085492253303527832e-02,2.307126969099044800e-01,-6.044039726257324219e-01,2.434696853160858154e-01,-1.629790663719177246e-01,-1.240861862897872925e-01,-2.906171679496765137e-01,7.352736592292785645e-01,5.423973202705383301e-01
6.073093414306640625e-02,6.890594363212585449e-01,3.739740550518035889e-01,4.094030261039733887e-01,5.702615976333618164e-01,1.089671254158020020e-01,2.130369693040847778e-01,-4.119515120983123779e-01,2.679451704025268555e-01,-4.309410229325294495e-02,-3.090836703777313232e-01,-9.521208703517913818e-02,7.440038323402404785e-01,4.848865568637847900e-01
5.995948240160942078e-02,3.072504103183746338e-01,9.240945428609848022e-02,4.452188611030578613e-01,7.535046935081481934e-01,1.157163307070732117e-01,2.436294257640838623e-01,-4.028444886207580566e-01,1.234281659126281738e-01,5.405185371637344360e-02,-1.968473792076110840e-01,-2.103326171636581421e-01,5.955970883369445801e-01,5.473664402961730957e-01
-1.070734038949012756e-01,6.893547773361206055e-01,3.067719936370849609e-01,4.138396084308624268e-01,5.826814174652099609e-01,-7.472137361764907837e-02,9.871957451105117798e-02,-5.434582829475402832e-01,2.123821228742599487e-01,1.046211179345846176e-02,-1.787548363208770752e-01,-8.231189846992492676e-02,7.768125534057617188e-01,4.779932796955108643e-01
-1.933531463146209717e-01,5.479749441146850586e-01,4.597913026809692383e-01,5.163123011589050293e-01,5.958919525146484375e-01,-1.716796010732650757e-01,-1.011642813682556152e-02,-2.211166769266128540e-01,1.479866076260805130e-02,1.814467161893844604e-01,-2.269100844860076904e-01,-3.314472734928131104e-01,6.258100271224975586e-01,5.013074874877929688e-01
-1.786112785339355469e-01,5.273568630218505859e-01,1.798986643552780151e-01,2.630906701087951660e-01,2.914229035377502441e-01,-1.991370618343353271e-01,1.091048568487167358e-01,-1.474617123603820801e-01,-1.598990857601165771e-01,1.569102853536605835e-01,-1.535245329141616821e-01,8.000237494707107544e-02,6.996065378189086914e-01,5.747994184494018555e-01
-8.077854663133621216e-02,4.953125417232513428e-01,4.161505401134490967e-01,3.050376474857330322e-01,6.834675073623657227e-01,-1.876726448535919189e-01,-1.065360009670257568e-01,-2.736171782016754150e-01,8.991394191980361938e-02,-7.855379581451416016e-02,-1.712743937969207764e-01,4.716954380273818970e-02,4.928275644779205322e-01,4.333871304988861084e-01
-1.644437760114669800e-01,6.042683720588684082e-01,4.234700500965118408e-01,2.874702811241149902e-01,5.107539296150207520e-01,-2.173463702201843262e-01,-2.140132635831832886e-01,-8.302643150091171265e-02,-1.831152439117431641e-01,1.158920750021934509e-01,-1.599156707525253296e-01,-1.249821037054061890e-01,6.643959283828735352e-01,5.149899721145629883e-01
-1.298968642950057983e-01,5.756229758262634277e-01,5.076718926429748535e-01,4.719191789627075195e-01,5.848603248596191406e-01,-3.005992472171783447e-01,5.009913444519042969e-02,-1.674536615610122681e-01,1.531847566366195679e-02,1.342178136110305786e-01,-3.385097980499267578e-01,-7.328386604785919189e-02,5.965968966484069824e-01,4.648433923721313477e-01
-3.341925516724586487e-02,7.035695314407348633e-01,4.357523620128631592e-01,5.297104716300964355e-01,5.288963913917541504e-01,-3.923253417015075684e-01,2.952359244227409363e-02,-3.499329090118408203e-02,1.033988744020462036e-01,2.501389980316162109e-01,-1.845564097166061401e-01,2.942194938659667969e-01,4.056431055068969727e-01,4.626615643501281738e-01
-2.017052322626113892e-01,6.154263019561767578e-01,4.207071363925933838e-01,3.290996849536895752e-01,5.805599093437194824e-01,-3.448923230171203613e-01,-1.735413372516632080e-01,-1.400872617959976196e-01,5.898069217801094055e-02,-5.949126929044723511e-02,5.894990637898445129e-02,1.071288064122200012e-01,4.699326157569885254e-01,3.443677127361297607e-01
-3.200921714305877686e-01,6.246978640556335449e-01,4.286110401153564453e-01,3.024135231971740723e-01,6.406114101409912109e-01,-3.152530193328857422e-01,-1.406841129064559937e-01,-1.670122146606445312e-01,2.822895646095275879e-01,4.470099210739135742e-01,1.318980306386947632e-01,1.516423374414443970e-01,4.055191278457641602e-01,6.972351074218750000e-01
-1.484538018703460693e-01,5.719228386878967285e-01,7.769203782081604004e-01,3.044028878211975098e-01,5.693434476852416992e-01,-3.058847486972808838e-01,-1.971893757581710815e-01,-4.158203024417161942e-03,-1.054295599460601807e-01,2.226448059082031250e-01,-7.077663391828536987e-02,6.212658435106277466e-02,5.148751735687255859e-01,5.081419348716735840e-01
-2.660824358463287354e-01,5.924417972564697266e-01,8.515838980674743652e-01,3.894054591655731201e-01,6.041414141654968262e-01,-4.514515101909637451e-01,-7.723101228475570679e-02,4.074598103761672974e-02,1.273748427629470825e-01,1.507937312126159668e-01,9.563493728637695312e-02,3.063000440597534180e-01,2.390666306018829346e-01,7.128987312316894531e-01
-2.044361978769302368e-01,6.086748242378234863e-01,8.342383503913879395e-01,1.533776074647903442e-01,6.180518865585327148e-01,-4.661189913749694824e-01,5.799578130245208740e-02,3.085337392985820770e-02,1.881933212280273438e-01,2.105476409196853638e-01,3.481073379516601562e-01,3.700537085533142090e-01,3.086043000221252441e-01,7.296301126480102539e-01
-2.102163583040237427e-01,3.757261633872985840e-01,8.122115135192871094e-01,2.393946349620819092e-01,4.071684181690216064e-01,-5.457345247268676758e-01,-5.211628600955009460e-02,-3.052476048469543457e-02,1.071601584553718567e-01,2.750251293182373047e-01,2.301927059888839722e-01,5.147268772125244141e-01,2.463328987360000610e-01,5.263077020645141602e-01
-4.435294568538665771e-01,3.696495890617370605e-01,7.615569829940795898e-01,2.787841260433197021e-01,3.443148732185363770e-01,-4.837206900119781494e-01,-2.850559353828430176e-02,6.593028455972671509e-02,1.833790689706802368e-01,6.978701055049896240e-02,3.469296395778656006e-01,3.528177738189697266e-01,3.054158389568328857e-01,5.831412672996520996e-01
-2.463680505752563477e-01,5.258270502090454102e-01,1.032619714736938477e+00,1.933943182229995728e-01,4.333100318908691406e-01,-5.920362472534179688e-01,-6.245731562376022339e-02,1.523922532796859741e-01,2.710330188274383545e-01,1.560873538255691528e-02,5.514294505119323730e-01,3.898138105869293213e-01,3.475389480590820312e-01,9.884529113769531250e-01
-3.371285796165466309e-01,4.059909880161285400e-01,9.104972481727600098e-01,1.210402697324752808e-01,3.857758045196533203e-01,-4.751048386096954346e-01,-1.592822223901748657e-01,1.423585712909698486e-01,2.995381951332092285e-01,-1.300326287746429443e-01,4.119290411472320557e-01,6.359580755233764648e-01,2.238378971815109253e-01,9.492782950401306152e-01
-5.366474390029907227e-01,2.999171018600463867e-01,9.835210442543029785e-01,1.586648225784301758e-01,3.018655776977539062e-01,-7.340043187141418457e-01,-6.773315370082855225e-02,1.882773339748382568e-01,4.475499987602233887e-01,-2.208754271268844604e-01,4.292541146278381348e-01,7.406348586082458496e-01,2.478682100772857666e-01,8.119336962699890137e-01
-4.988115727901458740e-01,2.436775416135787964e-01,1.018174290657043457e+00,-2.562723755836486816e-01,8.150839805603027344e-02,-6.110322475433349609e-01,-1.195309087634086609e-01,1.275786310434341431e-01,4.398517906665802002e-01,-3.159390687942504883e-01,4.861688017845153809e-01,5.319505929946899414e-01,3.757690191268920898e-01,8.784983158111572266e-01
-5.592370629310607910e-01,1.966403126716613770e-01,1.066208004951477051e+00,3.804085403680801392e-02,1.728676706552505493e-01,-5.599272847175598145e-01,-6.829464435577392578e-02,3.370022177696228027e-01,5.652267336845397949e-01,-4.092215597629547119e-01,7.001135945320129395e-01,8.459218740463256836e-01,4.089070558547973633e-01,8.218654394149780273e-01
-6.388638019561767578e-01,2.705891244113445282e-02,1.005604267120361328e+00,-1.362741589546203613e-01,1.017942726612091064e-01,-5.805107355117797852e-01,-2.756859958171844482e-01,1.272271424531936646e-01,6.222640275955200195e-01,-4.492092132568359375e-01,5.637582540512084961e-01,7.890663743019104004e-01,3.155171275138854980e-01,9.528706669807434082e-01
-6.085735559463500977e-01,-7.598482072353363037e-02,1.066940426826477051e+00,-2.902746200561523438e-01,1.636476963758468628e-01,-3.309452533721923828e-01,-4.194720089435577393e-01,3.174059391021728516e-01,6.297138929367065430e-01,-5.645866394042968750e-01,5.179439187049865723e-01,9.397559165954589844e-01,2.445511221885681152e-01,8.534671068191528320e-01
-6.022360324859619141e-01,-5.373929440975189209e-02,9.708095192909240723e-01,-8.558768779039382935e-02,-2.367111295461654663e-02,-5.579176545143127441e-01,-1.548669785261154175e-01,4.084997475147247314e-01,5.354247689247131348e-01,-4.811608791351318359e-01,4.543163180351257324e-01,8.651221394538879395e-01,2.269229143857955933e-01,7.272248268127441406e-01
-7.886935472488403320e-01,-2.402888387441635132e-01,1.061193346977233887e+00,-2.010638639330863953e-02,-1.503767818212509155e-01,-6.763669848442077637e-01,-2.356070429086685181e-01,3.571460545063018799e-01,6.014021635055541992e-01,-6.813394427299499512e-01,5.465320944786071777e-01,6.561654806137084961e-01,2.973642349243164062e-01,7.927179932594299316e-01
-6.908133029937744141e-01,-1.631444394588470459e-01,1.042731285095214844e+00,-1.817105114459991455e-01,7.461296766996383667e-02,-5.585488080978393555e-01,-3.088435232639312744e-01,3.041230142116546631e-01,6.660062074661254883e-01,-5.288137197494506836e-01,5.409991741180419922e-01,9.224143624305725098e-01,2.589202523231506348e-01,9.105150103569030762e-01
-7.487518191337585449e-01,-4.270943403244018555e-01,8.917258381843566895e-01,-7.184265553951263428e-02,-2.556336820125579834e-01,-6.897349953651428223e-01,-3.097243010997772217e-01,2.832636535167694092e-01,5.913577079772949219e-01,-5.829023122787475586e-01,3.476852476596832275e-01,1.064156770706176758e+00,6.693640351295471191e-02,7.684614062309265137e-01
-8.358908295631408691e-01,-1.976416558027267456e-01,8.634048104286193848e-01,6.739722099155187607e-03,-7.476188987493515015e-02,-4.740064740180969238e-01,-3.519197553396224976e-02,4.479994177818298340e-01,7.137078046798706055e-01,-5.928617715835571289e-01,5.020737648010253906e-01,8.791637420654296875e-01,2.875514924526214600e-01,8.385975360870361328e-01
-8.402130007743835449e-01,-2.879048585891723633e-01,9.625698328018188477e-01,1.293271780014038086e-03,-1.041711121797561646e-01,-4.950436949729919434e-01,-3.592186868190765381e-01,2.074974328279495239e-01,6.056846380233764648e-01,-6.854442358016967773e-01,3.956476449966430664e-01,9.289020299911499023e-01,1.459712386131286621e-01,6.935158967971801758e-01
-9.588804244995117188e-01,-3.355418145656585693e-01,5.667223334312438965e-01,6.893638521432876587e-02,-1.056088805198669434e-01,-2.596859037876129150e-01,-3.850934505462646484e-01,2.561124563217163086e-01,6.594117879867553711e-01,-3.488588929176330566e-01,3.897098600864410400e-01,9.373776912689208984e-01,9.541055560111999512e-02,6.718127131462097168e-01
-9.671147465705871582e-01,-2.810660004615783691e-01,4.952714145183563232e-01,2.374434657394886017e-02,-8.082143962383270264e-02,-3.415136039257049561e-01,-2.974669337272644043e-01,3.156431913375854492e-01,2.203983962535858154e-01,-5.414506196975708008e-01,2.742472887039184570e-01,6.403864026069641113e-01,7.846289128065109253e-02,7.794113159179687500e-01
-7.626647353172302246e-01,-2.242472022771835327e-01,6.256597638130187988e-01,9.224985726177692413e-03,1.082075759768486023e-01,-2.318465709686279297e-01,-1.965591311454772949e-01,4.814819395542144775e-01,4.644282460212707520e-01,-8.200947642326354980e-01,2.967294752597808838e-01,1.061391711235046387e+00,2.343824356794357300e-01,6.593648195266723633e-01
-8.171460032463073730e-01,-2.952277064323425293e-01,6.922550797462463379e-01,-1.010681539773941040e-01,5.522729828953742981e-02,-2.181513160467147827e-01,-9.841334819793701172e-02,3.991003334522247314e-01,4.112013578414916992e-01,-6.871598362922668457e-01,2.058574408292770386e-01,7.577184438705444336e-01,1.665915101766586304e-01,5.719475746154785156e-01
-6.800115704536437988e-01,-5.821202397346496582e-01,4.173901677131652832e-01,9.480033814907073975e-02,-7.186456769704818726e-02,8.157419413328170776e-02,-2.754768133163452148e-01,2.696718871593475342e-01,4.237851500511169434e-01,-7.818144559860229492e-01,1.707508862018585205e-01,8.433483242988586426e-01,4.821519553661346436e-02,5.979005098342895508e-01
-6.681239604949951172e-01,-5.237722396850585938e-01,5.663957595825195312e-01,9.569877386093139648e-02,3.993039578199386597e-02,-6.767746806144714355e-02,-4.863630235195159912e-01,3.432880043983459473e-01,3.520126342773437500e-01,-8.277809619903564453e-01,2.831025421619415283e-01,7.224133610725402832e-01,2.566297352313995361e-01,4.946335256099700928e-01
-7.282330393791198730e-01,-4.531458318233489990e-01,3.577029109001159668e-01,4.557285606861114502e-01,-2.130109965801239014e-01,1.970888674259185791e-01,-1.828449070453643799e-01,3.233509659767150879e-01,4.711755216121673584e-01,-8.593761324882507324e-01,1.735948026180267334e-01,7.909044027328491211e-01,2.527120411396026611e-01,5.276233553886413574e-01
-4.463435709476470947e-01,-3.803130388259887695e-01,2.377458810806274414e-01,2.756125032901763916e-01,-2.657534182071685791e-01,1.359340399503707886e-01,-4.038659930229187012e-01,3.265522718429565430e-01,2.515786886215209961e-01,-6.739670038223266602e-01,3.981918841600418091e-02,6.380425095558166504e-01,2.925315797328948975e-01,2.732449471950531006e-01
-4.557566642761230469e-01,-3.208410143852233887e-01,1.671591103076934814e-01,3.544412851333618164e-01,-1.032235324382781982e-01,1.339766532182693481e-01,-5.075193047523498535e-01,5.096243023872375488e-01,4.742510616779327393e-01,-7.692272067070007324e-01,3.455553650856018066e-01,5.069068670272827148e-01,2.459041625261306763e-01,2.122127264738082886e-01
-3.392639756202697754e-01,-4.320196807384490967e-01,2.913441359996795654e-01,4.394614994525909424e-01,-1.781630516052246094e-01,1.443520933389663696e-01,-5.515070557594299316e-01,2.889369130134582520e-01,3.576556146144866943e-01,-5.799263119697570801e-01,-2.835799567401409149e-02,3.768857419490814209e-01,4.879688918590545654e-01,6.037234514951705933e-02
-3.711325228214263916e-01,-3.242664337158203125e-01,1.001228392124176025e-01,4.236199855804443359e-01,-3.297506272792816162e-01,1.595223098993301392e-01,-3.757154047489166260e-01,5.998722910881042480e-01,3.840280473232269287e-01,-5.447342395782470703e-01,1.489114016294479370e-01,4.865645170211791992e-01,3.479050397872924805e-01,8.191848546266555786e-02
-2.517941892147064209e-01,-3.980222940444946289e-01,1.634712964296340942e-01,6.165010333061218262e-01,-4.440362453460693359e-01,-6.797365844249725342e-02,-4.451597929000854492e-01,5.312802791595458984e-01,4.745887815952301025e-01,-4.664457738399505615e-01,-1.515910327434539795e-01,1.660106778144836426e-01,2.326791286468505859e-01,1.544212549924850464e-01
-7.577359210699796677e-04,-3.585983812808990479e-01,2.776747643947601318e-01,4.057869017124176025e-01,-2.286688387393951416e-01,9.499815851449966431e-02,-4.362483918666839600e-01,5.615459084510803223e-01,4.321350455284118652e-01,-6.421346664428710938e-01,4.195929213892668486e-04,3.713038563728332520e-01,2.590334415435791016e-01,1.198454052209854126e-01
-8.416807651519775391e-02,-4.079925119876861572e-01,5.296788737177848816e-02,5.028159618377685547e-01,-5.866420269012451172e-01,2.006702125072479248e-01,-3.342577219009399414e-01,4.027193486690521240e-01,5.197809338569641113e-01,-4.571969211101531982e-01,-1.075691133737564087e-01,1.571006178855895996e-01,3.873150646686553955e-01,1.683191396296024323e-02
1.638625189661979675e-02,-3.241719603538513184e-01,1.800897568464279175e-01,4.198567271232604980e-01,-5.090928673744201660e-01,1.015574038028717041e-01,-5.245931744575500488e-01,4.213573932647705078e-01,3.043068945407867432e-01,-3.858940601348876953e-01,-1.771536022424697876e-01,3.590168952941894531e-01,3.214412927627563477e-01,-3.279843330383300781e-01
-1.080492958426475525e-01,-3.262276947498321533e-01,-1.063305363059043884e-01,3.696179091930389404e-01,-4.548354446887969971e-01,-4.495264217257499695e-02,-2.779956161975860596e-01,2.697713077068328857e-01,3.772382736206054688e-01,-4.395427405834197998e-01,-1.194607540965080261e-01,2.222468256950378418e-01,6.756170094013214111e-02,-1.089522838592529297e-01
3.151193261146545410e-01,-2.429704964160919189e-01,-6.957865506410598755e-02,4.460283517837524414e-01,-3.193664550781250000e-01,7.987271249294281006e-02,-4.256026446819305420e-01,3.258733153343200684e-01,4.561165571212768555e-01,-4.129494428634643555e-01,-1.500214338302612305e-01,2.470558434724807739e-01,9.470274299383163452e-02,-4.678416252136230469e-01
3.175383806228637695e-01,9.721281938254833221e-03,-1.850119233131408691e-01,5.082994699478149414e-01,-4.766371846199035645e-01,2.467718273401260376e-01,-1.059302985668182373e-01,3.811975419521331787e-01,3.840112984180450439e-01,-1.211207285523414612e-01,-2.463802099227905273e-01,1.699649691581726074e-01,1.044063270092010498e-01,-2.573546767234802246e-01
3.262999057769775391e-01,-1.379728913307189941e-01,-6.099291890859603882e-02,4.739609360694885254e-01,-4.761257767677307129e-01,1.948561370372772217e-01,-2.020053565502166748e-01,4.035362601280212402e-01,3.706945180892944336e-01,-2.100169211626052856e-01,-2.516545057296752930e-01,-3.345133736729621887e-02,1.362838745117187500e-01,-4.418626129627227783e-01
3.290353119373321533e-01,2.741853296756744385e-01,-9.411978535354137421e-03,4.531631171703338623e-01,-5.847668647766113281e-01,6.072263792157173157e-02,-2.862150371074676514e-01,9.492031484842300415e-02,4.195476770401000977e-01,-1.256018728017807007e-01,-3.165219724178314209e-01,3.499764204025268555e-02,1.268508881330490112e-01,-3.857669234275817871e-01
3.026646375656127930e-01,1.139295399188995361e-01,-9.367912262678146362e-02,3.880748748779296875e-01,-4.698670208454132080e-01,1.617044955492019653e-01,-3.240648508071899414e-01,9.198071807622909546e-02,2.496525794267654419e-01,-2.344146370887756348e-01,-1.154930666089057922e-01,1.654359549283981323e-01,2.051461040973663330e-01,-6.316336989402770996e-01
3.981989324092864990e-01,1.346342712640762329e-01,1.320022344589233398e-02,5.272819399833679199e-01,-5.110446810722351074e-01,3.193899244070053101e-02,3.452208265662193298e-02,2.954072318971157074e-02,2.113077193498611450e-01,-2.439794391393661499e-01,-2.536284327507019043e-01,8.874258399009704590e-02,3.000084161758422852e-01,-4.137704074382781982e-01
5.083305239677429199e-01,7.808040082454681396e-02,-1.875485032796859741e-01,3.920755684375762939e-01,-6.719073057174682617e-01,-9.819274395704269409e-02,-8.713073097169399261e-03,-1.831378042697906494e-01,3.143663108348846436e-01,-1.553336232900619507e-01,-1.072627305984497070e-01,1.601372361183166504e-01,3.502259850502014160e-01,-6.991228461265563965e-01
3.856401741504669189e-01,2.764623463153839111e-01,-8.875339478254318237e-02,6.248366236686706543e-01,-4.223192930221557617e-01,-1.611002907156944275e-02,8.569202572107315063e-02,-7.446827739477157593e-02,2.261952310800552368e-01,-9.270772337913513184e-02,-2.714526653289794922e-02,4.819215461611747742e-02,2.685254812240600586e-01,-6.300727128982543945e-01
4.431979358196258545e-01,1.850307434797286987e-01,-1.593242138624191284e-01,5.618311166763305664e-01,-3.903566896915435791e-01,2.361802756786346436e-01,2.456923872232437134e-01,-2.953150868415832520e-01,3.374455273151397705e-01,-1.728147119283676147e-01,-4.575054720044136047e-02,-1.268801838159561157e-01,1.850649118423461914e-01,-6.627007722854614258e-01
3.529659807682037354e-01,2.839736938476562500e-01,-6.374552100896835327e-02,4.102141559123992920e-01,-3.899296224117279053e-01,5.438058450818061829e-02,3.314287960529327393e-01,-3.286667466163635254e-01,2.448683232069015503e-01,-5.585104227066040039e-02,-1.224024221301078796e-01,-1.511593610048294067e-01,2.958613336086273193e-01,-7.278330922126770020e-01
4.671845138072967529e-01,5.498794913291931152e-01,-4.253550246357917786e-02,5.243402719497680664e-01,-4.464471340179443359e-01,5.675247684121131897e-02,4.062629938125610352e-01,-4.353879392147064209e-01,1.254682093858718872e-01,-2.125721573829650879e-01,5.227764695882797241e-02,-1.049281507730484009e-01,4.010309875011444092e-01,-5.236543416976928711e-01
7.267997264862060547e-01,2.997498810291290283e-01,-2.900041639804840088e-02,4.757679700851440430e-01,-5.208647251129150391e-01,4.719540104269981384e-02,2.113375067710876465e-01,-5.434400439262390137e-01,1.974132210016250610e-01,-1.429059356451034546e-01,-7.404469698667526245e-02,-3.914747834205627441e-01,3.809603750705718994e-01,-3.261990547180175781e-01
5.353864431381225586e-01,4.341560304164886475e-01,-1.915492862462997437e-01,5.748915076255798340e-01,-6.267362236976623535e-01,2.601439654827117920e-01,5.075343847274780273e-01,-5.316777825355529785e-01,4.364192113280296326e-02,5.261992290616035461e-02,-1.680295318365097046e-01,-3.755335509777069092e-02,6.690480709075927734e-01,-2.089705616235733032e-01
5.375286340713500977e-01,2.546342015266418457e-01,-1.749751418828964233e-01,6.654749512672424316e-01,-3.448932468891143799e-01,2.213802039623260498e-01,3.346100747585296631e-01,-6.105980277061462402e-01,1.924563795328140259e-01,6.759679317474365234e-02,-7.106322795152664185e-02,-2.043840587139129639e-01,4.814836382865905762e-01,-4.322935938835144043e-01
5.949653387069702148e-01,3.248328864574432373e-01,-1.631653308868408203e-01,3.293935060501098633e-01,-2.105887532234191895e-01,2.665962874889373779e-01,1.865545213222503662e-01,-6.758399009704589844e-01,-8.525779098272323608e-02,-3.792595583945512772e-03,1.810657093301415443e-03,-1.673893481492996216e-01,6.989025473594665527e-01,-2.965427637100219727e-01
3.906619846820831299e-01,5.084495544433593750e-01,-1.290670484304428101e-01,5.118001103401184082e-01,-1.702316403388977051e-01,1.228359621018171310e-02,3.070216476917266846e-01,-7.530739307403564453e-01,1.260150671005249023e-01,-3.100342117249965668e-02,-1.434375047683715820e-01,-4.868727326393127441e-01,4.988205432891845703e-01,-3.532557785511016846e-01
6.317239999771118164e-01,2.733952701091766357e-01,-1.145406514406204224e-01,4.666996300220489502e-01,-1.317526698112487793e-01,3.960001096129417419e-02,4.534439146518707275e-01,-6.825533509254455566e-01,-2.172333560883998871e-02,1.075495686382055283e-02,-1.065674517303705215e-02,-2.399043589830398560e-01,7.538800239562988281e-01,-2.987611591815948486e-01
6.477200388908386230e-01,5.256235003471374512e-01,-7.553187757730484009e-02,5.325441360473632812e-01,-1.571221351623535156e-01,-1.604810208082199097e-01,3.356977999210357666e-01,-5.770918726921081543e-01,-1.339042931795120239e-01,1.258092373609542847e-01,-1.994348317384719849e-01,-1.735799014568328857e-01,6.865242719650268555e-01,-3.603990674018859863e-01
5.433286428451538086e-01,4.285736382007598877e-01,-2.580598592758178711e-01,4.709607362747192383e-01,2.924866974353790283e-02,1.201827526092529297e-01,4.228249490261077881e-01,-7.511280179023742676e-01,-1.092624813318252563e-01,2.831989824771881104e-01,-2.091478258371353149e-01,-5.583207011222839355e-01,8.554074168205261230e-01,-2.904300689697265625e-01
6.577935814857482910e-01,3.212263882160186768e-01,-3.624584972858428955e-01,3.613199889659881592e-01,8.846453577280044556e-02,-1.621330827474594116e-01,4.603428244590759277e-01,-6.838756203651428223e-01,-2.051356583833694458e-01,3.717735111713409424e-01,-2.710247039794921875e-01,-3.763018250465393066e-01,5.867727398872375488e-01,-2.464302629232406616e-01
3.512078821659088135e-01,4.672178626060485840e-01,-1.612075231969356537e-02,3.949704170227050781e-01,3.299250081181526184e-02,-4.026447236537933350e-02,4.005379378795623779e-01,-9.374103546142578125e-01,-1.940819621086120605e-01,2.924019396305084229e-01,-1.142525896430015564e-01,-4.789796471595764160e-01,6.322968602180480957e-01,-3.544219136238098145e-01
6.648809313774108887e-01,5.345406532287597656e-01,-3.722637891769409180e-01,3.415685892105102539e-01,2.237018495798110962e-01,-1.869520246982574463e-01,3.587825298309326172e-01,-7.946080565452575684e-01,-2.634928524494171143e-01,2.908687591552734375e-01,-1.981430798768997192e-01,-6.583991050720214844e-01,6.345250010490417480e-01,-3.060075342655181885e-01
4.101247787475585938e-01,5.389509201049804688e-01,-1.988375782966613770e-01,5.269936919212341309e-01,1.824462860822677612e-01,-1.504294276237487793e-01,2.698778808116912842e-01,-9.294701814651489258e-01,-4.238900244235992432e-01,4.963660240173339844e-01,-2.938795089721679688e-01,-4.794426858425140381e-01,6.343433856964111328e-01,-3.097487986087799072e-01
3.640636801719665527e-01,3.642279207706451416e-01,-2.966307103633880615e-01,4.231620728969573975e-01,3.667622804641723633e-01,-1.893736720085144043e-01,3.806130588054656982e-01,-9.740701317787170410e-01,-6.024166345596313477e-01,4.480731785297393799e-01,-2.308920919895172119e-01,-4.705450832843780518e-01,5.891556143760681152e-01,-2.292477637529373169e-01
4.828336238861083984e-01,4.963732957839965820e-01,-2.841856181621551514e-01,6.152035593986511230e-01,2.538237869739532471e-01,-1.814115494489669800e-01,1.515252441167831421e-01,-9.039136171340942383e-01,-6.159852147102355957e-01,5.354686379432678223e-01,-4.859429001808166504e-01,-6.397722959518432617e-01,5.621369481086730957e-01,-4.270211756229400635e-01
7.128801941871643066e-01,5.935609340667724609e-01,-3.100995719432830811e-01,4.240552484989166260e-01,3.244969546794891357e-01,-1.917291283607482910e-01,2.644910812377929688e-01,-7.107874751091003418e-01,-6.044004559516906738e-01,7.716032862663269043e-01,-8.116510510444641113e-02,-4.892026484012603760e-01,5.289152264595031738e-01,-3.328700065612792969e-01
5.458839535713195801e-01,6.593461632728576660e-01,-3.394847810268402100e-01,3.635376989841461182e-01,6.056466698646545410e-01,-2.135300934314727783e-01,2.102552801370620728e-01,-7.307144403457641602e-01,-5.121707320213317871e-01,7.677783370018005371e-01,-1.495503038167953491e-01,-7.983727455139160156e-01,3.220532238483428955e-01,-1.409653872251510620e-01
4.778616726398468018e-01,7.744407057762145996e-01,-2.360552996397018433e-01,2.845280170440673828e-01,6.354357004165649414e-01,-1.014143079519271851e-01,2.435047775506973267e-01,-7.922328710556030273e-01,-6.763210892677307129e-01,7.407690882682800293e-01,-3.411000072956085205e-01,-8.058263063430786133e-01,5.918628573417663574e-01,-2.160457521677017212e-01
4.639726877212524414e-01,7.708470821380615234e-01,-2.987361848354339600e-01,2.523819804191589355e-01,6.348592042922973633e-01,-3.277339935302734375e-01,2.048674076795578003e-01,-9.551681280136108398e-01,-6.657135486602783203e-01,6.316764950752258301e-01,-2.099212110042572021e-01,-6.647363305091857910e-01,7.390482425689697266e-01,-1.927391737699508667e-01
6.022430062294006348e-01,6.536747217178344727e-01,-1.027801483869552612e-01,2.645035386085510254e-01,5.979430079460144043e-01,-2.351308315992355347e-01,2.755506038665771484e-01,-8.011475801467895508e-01,-4.294824302196502686e-01,8.082751631736755371e-01,-6.729966402053833008e-02,-6.936844587326049805e-01,4.397037625312805176e-01,-3.148826956748962402e-01
4.275275468826293945e-01,8.515058159828186035e-01,-1.208044514060020447e-01,4.317272305488586426e-01,3.560044169425964355e-01,-1.833014637231826782e-01,2.865022718906402588e-01,-7.252683639526367188e-01,-6.000815033912658691e-01,9.166153669357299805e-01,-1.158036664128303528e-01,-7.797608971595764160e-01,2.492331862449645996e-01,-2.693763077259063721e-01
5.046008229255676270e-01,8.921576142311096191e-01,-7.156035304069519043e-02,4.287581741809844971e-01,5.830641388893127441e-01,-4.123039245605468750e-01,-3.873515501618385315e-02,-7.065309286117553711e-01,-6.195581555366516113e-01,7.916035652160644531e-01,1.362905949354171753e-01,-6.313837766647338867e-01,2.078130245208740234e-01,-1.803434193134307861e-01
7.886321544647216797e-01,8.957170248031616211e-01,-1.338410675525665283e-01,1.828641891479492188e-01,6.224080324172973633e-01,-4.960468709468841553e-01,2.148919850587844849e-01,-8.726738691329956055e-01,-4.378544390201568604e-01,9.793123006820678711e-01,1.399694234132766724e-01,-6.543507575988769531e-01,3.163112401962280273e-01,-9.940104186534881592e-02
7.577698826789855957e-01,9.476453661918640137e-01,-5.823015794157981873e-02,3.838848173618316650e-01,5.029064416885375977e-01,-5.167788863182067871e-01,-1.204316988587379456e-01,-7.383171319961547852e-01,-4.755467474460601807e-01,9.851850867271423340e-01,1.745834946632385254e-01,-6.064226627349853516e-01,2.325837165117263794e-01,-4.223054349422454834e-01
5.950002074241638184e-01,9.145529270172119141e-01,-1.066867560148239136e-01,1.904823184013366699e-01,4.595935344696044922e-01,-4.496991634368896484e-01,-8.225748687982559204e-02,-6.149932742118835449e-01,-5.601886510848999023e-01,1.030885219573974609e+00,-8.205542713403701782e-02,-6.783620715141296387e-01,1.003943830728530884e-01,-3.284935951232910156e-01
5.353742837905883789e-01,8.613195419311523438e-01,1.996542699635028839e-02,1.901934742927551270e-01,6.469575166702270508e-01,-6.245049834251403809e-01,-1.025579944252967834e-01,-5.142997503280639648e-01,-2.669977843761444092e-01,9.004467725753784180e-01,1.649684756994247437e-01,-5.685018897056579590e-01,1.355380266904830933e-01,-3.512495383620262146e-02
5.545124411582946777e-01,7.863434553146362305e-01,-1.008810475468635559e-02,2.676027715206146240e-01,4.673528373241424561e-01,-7.730926871299743652e-01,4.116557538509368896e-02,-7.487335205078125000e-01,-3.955774009227752686e-01,9.304845333099365234e-01,1.866356134414672852e-01,-6.254391074180603027e-01,-2.169764339923858643e-01,-1.633002609014511108e-01
7.441252470016479492e-01,6.000654697418212891e-01,2.574353218078613281e-01,1.232817843556404114e-01,4.906072616577148438e-01,-7.448146939277648926e-01,-3.013747036457061768e-01,-5.101010799407958984e-01,-2.671881914138793945e-01,1.010714650154113770e+00,2.000896632671356201e-01,-3.181309700012207031e-01,-6.516942754387855530e-03,-1.736245155334472656e-01
5.060269236564636230e-01,7.778217196464538574e-01,1.575704663991928101e-01,-6.724618375301361084e-02,4.964407682418823242e-01,-9.712321758270263672e-01,-4.639958739280700684e-01,-4.494268298149108887e-01,-2.304705828428268433e-01,9.064076542854309082e-01,2.937429249286651611e-01,-5.396207571029663086e-01,-1.281573772430419922e-01,-2.045812159776687622e-01
5.099731683731079102e-01,7.210965156555175781e-01,1.897850334644317627e-01,-2.022103816270828247e-01,2.957280874252319336e-01,-8.528377413749694824e-01,-1.654122322797775269e-01,-3.548221886157989502e-01,-1.543438434600830078e-01,7.977124452590942383e-01,2.633859515190124512e-01,-1.770642101764678955e-01,-3.182004094123840332e-01,-1.094822213053703308e-01
3.511982560157775879e-01,6.903349757194519043e-01,1.646288037300109863e-01,-3.972890377044677734e-01,3.952638804912567139e-01,-9.302215576171875000e-01,-4.210589230060577393e-01,-3.534158468246459961e-01,-3.515619039535522461e-01,7.819222211837768555e-01,4.393348693847656250e-01,-3.101991415023803711e-01,-4.232681393623352051e-01,-1.710308045148849487e-01
3.305073678493499756e-01,4.960420429706573486e-01,2.161178588867187500e-01,-3.172381818294525146e-01,4.910051524639129639e-01,-1.040574550628662109e+00,-3.910430669784545898e-01,-3.543399274349212646e-01,-1.220439448952674866e-01,8.214638829231262207e-01,5.370615124702453613e-01,-3.768578469753265381e-01,-3.219536244869232178e-01,1.998989284038543701e-01
3.439242839813232422e-01,4.738462567329406738e-01,4.476302862167358398e-01,-3.221296370029449463e-01,5.264701843261718750e-01,-1.120017647743225098e+00,-4.789659976959228516e-01,-4.890016913414001465e-01,6.743911653757095337e-02,6.306675672531127930e-01,5.711808800697326660e-01,-3.028926067054271698e-02,-2.388131916522979736e-01,9.128337725996971130e-03
2.493675798177719116e-01,6.429381966590881348e-01,1.722474545240402222e-01,-4.466749131679534912e-01,3.355297744274139404e-01,-1.138523697853088379e+00,-4.121721982955932617e-01,-6.017229557037353516e-01,1.251047402620315552e-01,6.985797286033630371e-01,5.311869978904724121e-01,-8.692750334739685059e-02,-4.380235373973846436e-01,2.586009167134761810e-02
7.892192341387271881e-03,4.863276481628417969e-01,1.353396773338317871e-01,-3.985710144042968750e-01,2.950994670391082764e-01,-9.976946115493774414e-01,-4.681865870952606201e-01,-4.561614692211151123e-01,-5.642329528927803040e-02,7.670701146125793457e-01,7.844333648681640625e-01,4.643348231911659241e-02,-5.258568525314331055e-01,1.111245006322860718e-01
2.900647521018981934e-01,5.075528621673583984e-01,2.489300519227981567e-01,-4.056273698806762695e-01,3.323678672313690186e-01,-9.180726408958435059e-01,-3.251237869262695312e-01,-3.247989416122436523e-01,1.796552687883377075e-01,3.749147057533264160e-01,7.340462207794189453e-01,1.361693888902664185e-01,-4.365980625152587891e-01,1.701209545135498047e-01
6.824746727943420410e-02,3.873213529586791992e-01,-6.338317692279815674e-02,-4.543552100658416748e-01,3.145517110824584961e-01,-1.084272980690002441e+00,-3.960600495338439941e-01,-2.938384115695953369e-01,5.699635297060012817e-02,6.775426268577575684e-01,6.395832896232604980e-01,9.059327840805053711e-02,-2.792117297649383545e-01,1.912222206592559814e-01
3.116283714771270752e-01,3.281879425048828125e-01,1.863478571176528931e-01,-5.068188309669494629e-01,4.108855724334716797e-01,-9.456764459609985352e-01,-4.881080687046051025e-01,-3.683684766292572021e-01,1.414672881364822388e-01,5.616113543510437012e-01,6.234678030014038086e-01,3.066654689610004425e-02,-4.153986573219299316e-01,2.278432399034500122e-01
1.423823386430740356e-01,3.553424179553985596e-01,1.306794434785842896e-01,-4.272691905498504639e-01,1.513415426015853882e-01,-1.164384841918945312e+00,-3.421269059181213379e-01,-3.987815380096435547e-01,1.920047700405120850e-01,3.260865807533264160e-01,8.179603815078735352e-01,2.107501924037933350e-01,-3.951620459556579590e-01,8.187127113342285156e-02
5.592364817857742310e-02,1.420956850051879883e-01,5.301796272397041321e-02,-3.957383036613464355e-01,1.983177959918975830e-01,-9.733094573020935059e-01,-4.446259438991546631e-01,-4.004287123680114746e-01,2.788621783256530762e-01,3.489430844783782959e-01,7.864082455635070801e-01,1.273827254772186279e-01,-3.127550184726715088e-01,1.393927037715911865e-01
6.938117742538452148e-02,1.321050375699996948e-01,1.831420511007308960e-01,-5.393689870834350586e-01,8.663799613714218140e-02,-8.737880587577819824e-01,-6.901136040687561035e-01,-4.838351309299468994e-01,4.092032015323638916e-01,2.198533713817596436e-01,5.340748429298400879e-01,2.019336521625518799e-01,-3.712540566921234131e-01,2.688084840774536133e-01
-7.514617405831813812e-03,2.816135995090007782e-03,1.127862557768821716e-01,-2.752276957035064697e-01,6.641465425491333008e-02,-9.155688285827636719e-01,-4.555579721927642822e-01,-4.235207736492156982e-01,3.726550638675689697e-01,2.723341286182403564e-01,7.606201171875000000e-01,-8.270372450351715088e-02,-4.798005223274230957e-01,1.588601768016815186e-01
-6.610132753849029541e-02,-6.855005770921707153e-02,-1.036479026079177856e-01,-4.085418283939361572e-01,1.725440919399261475e-01,-8.713257312774658203e-01,-5.767802596092224121e-01,-2.182622551918029785e-01,3.655561804771423340e-01,1.844847202301025391e-01,6.010567545890808105e-01,1.714858859777450562e-01,-5.610694289207458496e-01,2.260439693927764893e-01
-1.579040102660655975e-02,-1.289900392293930054e-01,-2.516784518957138062e-02,-3.760189116001129150e-01,1.820542812347412109e-01,-7.973685264587402344e-01,-5.082260370254516602e-01,-4.469445347785949707e-01,5.007030367851257324e-01,-1.080025210976600647e-01,4.831057190895080566e-01,5.335748195648193359e-02,-4.670637845993041992e-01,2.749137580394744873e-01
3.526450693607330322e-02,-1.455892771482467651e-01,-2.929263412952423096e-01,-2.833388447761535645e-01,2.203366486355662346e-03,-6.544241905212402344e-01,-6.894138455390930176e-01,-1.526520550251007080e-01,3.426351547241210938e-01,4.672115296125411987e-02,3.135378062725067139e-01,2.706565558910369873e-01,-4.782311916351318359e-01,3.139593303203582764e-01
-1.129734963178634644e-01,-2.800327837467193604e-01,-2.457486838102340698e-02,-3.040127754211425781e-01,1.112108752131462097e-01,-6.555171608924865723e-01,-8.358892798423767090e-01,-3.032154738903045654e-01,4.269379377365112305e-01,-6.569062173366546631e-02,4.182237982749938965e-01,1.545406132936477661e-01,-2.999143302440643311e-01,4.867366701364517212e-02
-1.374392509460449219e-01,-1.635289192199707031e-01,-8.086425811052322388e-02,-2.017562240362167358e-01,1.134986579418182373e-01,-8.135198950767517090e-01,-8.303137421607971191e-01,-9.264829009771347046e-02,5.389924645423889160e-01,-5.904181674122810364e-02,3.711865544319152832e-01,1.027022823691368103e-01,-2.893928885459899902e-01,2.786144018173217773e-01
-1.135869324207305908e-01,-4.263271093368530273e-01,-2.481007128953933716e-01,-2.341491281986236572e-01,1.660347729921340942e-01,-7.539739608764648438e-01,-7.788364291191101074e-01,-3.193841278553009033e-01,4.907450079917907715e-01,-1.520047783851623535e-01,4.545655548572540283e-01,1.138213500380516052e-01,-3.598507046699523926e-01,1.537946462631225586e-01
2.144908346235752106e-02,-3.927589058876037598e-01,-1.769873946905136108e-01,-2.854103744029998779e-01,-4.830593615770339966e-02,-5.535752177238464355e-01,-9.799794554710388184e-01,-7.500965893268585205e-02,3.843311965465545654e-01,9.294500946998596191e-02,3.136796355247497559e-01,-4.814323782920837402e-02,-5.162525177001953125e-01,2.075025886297225952e-01
8.394643664360046387e-02,-4.438449144363403320e-01,-4.221358001232147217e-01,-1.443762183189392090e-01,-1.455015242099761963e-01,-3.964475095272064209e-01,-9.834559559822082520e-01,-1.654736548662185669e-01,2.690399885177612305e-01,2.703277021646499634e-02,8.296050876379013062e-02,2.003066241741180420e-01,-2.250929474830627441e-01,1.644580811262130737e-01
-3.780062310397624969e-03,-2.693223953247070312e-01,-4.518741369247436523e-01,-2.460571229457855225e-01,-2.071075737476348877e-01,-6.643931269645690918e-01,-9.899113178253173828e-01,-1.964505910873413086e-01,4.387664198875427246e-01,-1.403909772634506226e-01,1.068462505936622620e-01,2.226701229810714722e-01,-4.604733288288116455e-01,1.894306540489196777e-01
4.865010827779769897e-02,-3.972493112087249756e-01,-3.710032403469085693e-01,-6.682974845170974731e-02,-2.424546927213668823e-01,-3.851730525493621826e-01,-1.102230668067932129e+00,-2.369997557252645493e-03,2.369937747716903687e-01,-1.857053190469741821e-01,8.235774934291839600e-02,4.702946543693542480e-02,-3.725632131099700928e-01,9.968517720699310303e-02
-3.300731256604194641e-02,-3.063442409038543701e-01,-5.330574512481689453e-01,-2.227179333567619324e-02,-3.397915884852409363e-02,-3.318709433078765869e-01,-1.073635578155517578e+00,1.004686057567596436e-01,3.624531030654907227e-01,-7.505773752927780151e-02,-5.342293530702590942e-02,1.490172594785690308e-01,-4.392768442630767822e-01,3.087405115365982056e-02
1.652397513389587402e-01,-5.419970750808715820e-01,-5.139550566673278809e-01,2.288946695625782013e-02,-3.396736979484558105e-01,-8.364018797874450684e-02,-9.829773902893066406e-01,-6.848569959402084351e-02,4.937247335910797119e-01,2.246092259883880615e-02,-1.753665059804916382e-01,-8.716434240341186523e-02,-4.303569793701171875e-01,-2.877855487167835236e-02
1.871618926525115967e-01,-3.439180552959442139e-01,-5.980498194694519043e-01,9.618858993053436279e-02,-9.930732846260070801e-02,-2.043815255165100098e-01,-8.744471073150634766e-01,-1.245078891515731812e-01,4.321888685226440430e-01,1.676851883530616760e-02,-2.172785103321075439e-01,-1.329258680343627930e-01,-3.959307372570037842e-01,-2.119666635990142822e-01
1.203956454992294312e-01,-2.543764412403106689e-01,-6.062629222869873047e-01,-1.267490256577730179e-02,-3.455240428447723389e-01,-7.239031046628952026e-02,-9.506294727325439453e-01,1.904227025806903839e-02,1.721845865249633789e-01,1.289500445127487183e-01,-1.661465913057327271e-01,-7.479449361562728882e-02,-5.175898075103759766e-01,-3.019188642501831055e-01
7.484355568885803223e-02,-3.057395219802856445e-01,-6.144631505012512207e-01,1.864176243543624878e-01,-3.700972199440002441e-01,-4.413161426782608032e-02,-9.688314795494079590e-01,1.660843752324581146e-02,4.022248983383178711e-01,9.006823599338531494e-02,-1.981581598520278931e-01,-6.339431554079055786e-02,-3.060487508773803711e-01,-2.757282853126525879e-01
1.940750181674957275e-01,-1.782730519771575928e-01,-6.503053903579711914e-01,3.137297630310058594e-01,-3.650914430618286133e-01,-2.229947298765182495e-01,-1.024572253227233887e+00,7.261959463357925415e-02,3.631288409233093262e-01,1.119157671928405762e-01,-2.988918423652648926e-01,-1.758898645639419556e-01,-5.765996575355529785e-01,-3.397113382816314697e-01
3.095054626464843750e-01,-3.097070157527923584e-01,-5.414385199546813965e-01,3.790469765663146973e-01,-4.737632870674133301e-01,1.098696291446685791e-01,-8.053386807441711426e-01,1.015550345182418823e-01,2.848388552665710449e-01,4.831844568252563477e-02,-5.584733486175537109e-01,-1.128821298480033875e-01,-4.985216856002807617e-01,-4.845053255558013916e-01
5.482313632965087891e-01,-9.420400112867355347e-02,-6.180852651596069336e-01,3.126337528228759766e-01,-3.678582012653350830e-01,9.128881245851516724e-02,-8.418055772781372070e-01,-1.318569201976060867e-02,4.657215774059295654e-01,-1.251060217618942261e-01,-4.508780837059020996e-01,-1.654870659112930298e-01,-2.362131327390670776e-01,-4.438929259777069092e-01
6.360639333724975586e-01,1.237677596509456635e-02,-5.307072997093200684e-01,5.866220593452453613e-01,-3.401507437229156494e-01,1.504119783639907837e-01,-9.234170317649841309e-01,1.626096069812774658e-01,4.040367007255554199e-01,-9.046835824847221375e-03,-2.848057746887207031e-01,-3.233388960361480713e-01,-2.730431258678436279e-01,-5.086893439292907715e-01
4.769217371940612793e-01,-2.420404553413391113e-01,-5.776069760322570801e-01,4.094277918338775635e-01,-6.485575437545776367e-01,5.150605440139770508e-01,-7.278420925140380859e-01,-1.754684932529926300e-02,4.245058000087738037e-01,1.128651574254035950e-01,-5.856241583824157715e-01,-1.955550312995910645e-01,-4.149606823921203613e-02,-6.018972992897033691e-01
5.102962255477905273e-01,-2.445050626993179321e-01,-6.283066868782043457e-01,6.199006438255310059e-01,-6.860702037811279297e-01,-6.972922384738922119e-02,-7.238922715187072754e-01,-9.275955706834793091e-02,5.019505620002746582e-01,-1.206464366987347603e-03,-2.815018296241760254e-01,-1.803318411111831665e-01,-2.501572966575622559e-01,-3.902699053287506104e-01
5.969589948654174805e-01,-5.431863665580749512e-02,-3.536085784435272217e-01,5.836554765701293945e-01,-7.155401110649108887e-01,3.216612040996551514e-01,-8.201103210449218750e-01,-2.386281043291091919e-01,4.379433691501617432e-01,5.309038236737251282e-02,-3.256966471672058105e-01,-2.631761133670806885e-01,-4.727343469858169556e-02,-5.094177126884460449e-01
5.812301039695739746e-01,-4.599921032786369324e-02,-3.666254281997680664e-01,4.861030280590057373e-01,-6.954147815704345703e-01,1.265310645103454590e-01,-7.040237784385681152e-01,-1.246555298566818237e-01,5.136988759040832520e-01,-2.776453457772731781e-02,-4.565938711166381836e-01,-1.725432425737380981e-01,-3.629056811332702637e-01,-3.000302612781524658e-01
6.724660992622375488e-01,-2.638916969299316406e-01,-1.627361774444580078e-01,7.311212420463562012e-01,-8.069245219230651855e-01,1.873225867748260498e-01,-6.939591169357299805e-01,-1.550529003143310547e-01,4.394959509372711182e-01,-9.461957961320877075e-02,-4.339022934436798096e-01,-4.108117818832397461e-01,-2.782114744186401367e-01,-6.533443331718444824e-01
5.177174806594848633e-01,-2.631772458553314209e-01,-4.754042923450469971e-01,4.318613708019256592e-01,-6.847783327102661133e-01,1.564494520425796509e-01,-3.273508846759796143e-01,-5.113801360130310059e-02,4.298004806041717529e-01,3.273521549999713898e-03,-4.746978580951690674e-01,-2.377598136663436890e-01,-6.890290882438421249e-03,-5.297961235046386719e-01
6.485110521316528320e-01,-2.592998743057250977e-01,-3.762257695198059082e-01,6.375350356101989746e-01,-7.292491197586059570e-01,1.220094040036201477e-01,-4.785732626914978027e-01,-1.299856901168823242e-01,5.574478507041931152e-01,5.647530034184455872e-02,-5.731036067008972168e-01,-3.922281265258789062e-01,-2.296653091907501221e-01,-4.528876543045043945e-01
5.079975724220275879e-01,-3.745459020137786865e-01,-3.574243187904357910e-01,6.389515399932861328e-01,-9.705332517623901367e-01,1.137183457612991333e-01,-4.492632746696472168e-01,-3.269625306129455566e-01,5.319821834564208984e-01,-2.790329232811927795e-02,-7.315865755081176758e-01,-3.737992644309997559e-01,-3.364315256476402283e-02,-3.241245448589324951e-01
5.923810601234436035e-01,-3.387986719608306885e-01,-2.392985224723815918e-01,4.660592079162597656e-01,-7.954612374305725098e-01,2.143012881278991699e-01,-3.525483012199401855e-01,-2.284517735242843628e-01,2.065776586532592773e-01,2.751408703625202179e-02,-5.282050967216491699e-01,-3.109468221664428711e-01,1.460906118154525757e-01,-3.799028694629669189e-01
4.536055922508239746e-01,-3.511993885040283203e-01,-3.861011862754821777e-01,6.694095134735107422e-01,-6.790632009506225586e-01,4.579324275255203247e-02,-1.904296725988388062e-01,-2.187989801168441772e-01,3.988392353057861328e-01,-2.903926372528076172e-02,-5.120636820793151855e-01,-3.277249634265899658e-01,1.249790862202644348e-01,-3.712822198867797852e-01
3.935027420520782471e-01,-3.279922306537628174e-01,-4.519122540950775146e-01,5.065058469772338867e-01,-8.531547188758850098e-01,2.948498427867889404e-01,-2.632697820663452148e-01,-1.763848364353179932e-01,4.039961397647857666e-01,1.901403665542602539e-01,-7.980391383171081543e-01,-2.761633396148681641e-01,1.242294162511825562e-01,-4.978941679000854492e-01
6.219023466110229492e-01,-2.516465485095977783e-01,-2.143112421035766602e-01,5.670371651649475098e-01,-7.963035702705383301e-01,2.065974473953247070e-01,-2.403289079666137695e-01,-2.855338156223297119e-01,3.549748063087463379e-01,6.078214943408966064e-02,-8.389793038368225098e-01,-2.346575707197189331e-01,1.295456141233444214e-01,-4.836442172527313232e-01
5.157626271247863770e-01,-2.186038196086883545e-01,-3.664929568767547607e-01,5.766062736511230469e-01,-7.754617333412170410e-01,1.691980957984924316e-01,-2.517031133174896240e-02,-3.436500430107116699e-01,1.833216995000839233e-01,2.456762939691543579e-01,-7.285805940628051758e-01,-1.270087510347366333e-01,2.490644305944442749e-01,-3.178306519985198975e-01
2.118022888898849487e-01,-7.836062461137771606e-02,-2.448590695858001709e-01,5.551441311836242676e-01,-7.239101529121398926e-01,2.756071388721466064e-01,-5.937775596976280212e-02,-4.576964378356933594e-01,-4.368526861071586609e-02,2.613954842090606689e-01,-7.913769483566284180e-01,-2.470666021108627319e-01,3.435541987419128418e-01,-4.673138558864593506e-01
3.313139081001281738e-01,-3.230410516262054443e-01,-2.515111267566680908e-01,6.725272536277770996e-01,-7.875965833663940430e-01,4.875108897686004639e-01,-8.733180910348892212e-02,-4.653167724609375000e-01,5.612169951200485229e-02,1.066467985510826111e-01,-7.256394624710083008e-01,-3.850920498371124268e-01,2.784297466278076172e-01,-3.630076050758361816e-01
4.842867553234100342e-01,-1.139455363154411316e-01,-3.221264183521270752e-01,6.973139047622680664e-01,-7.002716660499572754e-01,3.502452075481414795e-01,-5.341251567006111145e-02,-4.139975905418395996e-01,-1.611635386943817139e-01,1.879836060106754303e-02,-6.291589736938476562e-01,-1.314631402492523193e-01,4.407420456409454346e-01,-2.363180071115493774e-01
2.340188920497894287e-01,-2.232636511325836182e-01,-3.240461945533752441e-01,4.716682732105255127e-01,-5.074081420898437500e-01,4.802110493183135986e-01,2.696111202239990234e-01,-6.993598937988281250e-01,-1.734225302934646606e-01,-8.449170738458633423e-02,-9.837939739227294922e-01,-3.548791706562042236e-01,5.690906047821044922e-01,-3.587527871131896973e-01
4.217813313007354736e-01,-1.974016427993774414e-01,-3.293846249580383301e-01,8.056963682174682617e-01,-3.140622973442077637e-01,4.082397818565368652e-01,1.625398993492126465e-01,-6.187254786491394043e-01,-1.627105623483657837e-01,-1.791126094758510590e-02,-6.107653975486755371e-01,-3.083273470401763916e-01,4.932906329631805420e-01,-7.179287821054458618e-02
4.025502502918243408e-01,-1.172073036432266235e-01,-2.719190418720245361e-01,5.360005497932434082e-01,-4.806656837463378906e-01,5.884008407592773438e-01,1.115950047969818115e-01,-6.679373979568481445e-01,-3.402321636676788330e-01,-8.177259587682783604e-04,-8.203957676887512207e-01,-2.930104136466979980e-01,5.710810422897338867e-01,-7.996825128793716431e-02
2.561751008033752441e-01,-2.910614311695098877e-01,-1.615260690450668335e-01,8.288764357566833496e-01,-4.417808949947357178e-01,6.049574613571166992e-01,1.568183153867721558e-01,-5.480224490165710449e-01,-4.301152229309082031e-01,2.851308584213256836e-01,-7.410345077514648438e-01,-3.548148870468139648e-01,6.536459922790527344e-01,-3.286208808422088623e-01
3.137471079826354980e-01,-1.363887786865234375e-01,-3.030695915222167969e-01,8.564111590385437012e-01,-1.699795275926589966e-01,7.362422943115234375e-01,2.598948776721954346e-01,-4.462956190109252930e-01,-3.219382464885711670e-01,1.742735356092453003e-01,-7.445577383041381836e-01,-3.021494150161743164e-01,6.916686892509460449e-01,-2.340438663959503174e-01
9.190572798252105713e-02,-1.551038175821304321e-01,-1.872336119413375854e-01,6.462162733078002930e-01,-4.178341925144195557e-01,5.391499400138854980e-01,1.391694843769073486e-01,-6.009234786033630371e-01,-2.325839102268218994e-01,2.227250635623931885e-01,-7.484909892082214355e-01,-3.978829681873321533e-01,7.442438006401062012e-01,-3.402229547500610352e-01
4.617435634136199951e-01,-1.201568096876144409e-01,-2.846645712852478027e-01,7.183933258056640625e-01,-4.437707364559173584e-01,6.189863681793212891e-01,5.145499482750892639e-03,-7.417220473289489746e-01,-3.439214229583740234e-01,-1.095529552549123764e-02,-8.319919705390930176e-01,-5.614389181137084961e-01,5.622188448905944824e-01,-1.636034697294235229e-01
2.352243810892105103e-01,-1.377323120832443237e-01,-2.475963830947875977e-01,6.452614068984985352e-01,-3.342374563217163086e-01,5.477324128150939941e-01,1.585844159126281738e-01,-4.965223968029022217e-01,-4.448650181293487549e-01,1.249507591128349304e-01,-8.241119384765625000e-01,-2.804649770259857178e-01,6.047922968864440918e-01,1.347023434937000275e-02
3.260464966297149658e-01,8.305605500936508179e-02,-1.278061866760253906e-01,7.229625582695007324e-01,-2.938030958175659180e-01,6.445176601409912109e-01,2.194001525640487671e-01,-3.097350895404815674e-01,-4.634182751178741455e-01,3.729948699474334717e-01,-8.380012512207031250e-01,-4.939914941787719727e-01,5.893110036849975586e-01,-8.755170553922653198e-02
2.854098677635192871e-01,-2.196879684925079346e-01,-2.985089719295501709e-01,6.950252652168273926e-01,-3.801869750022888184e-01,4.124777019023895264e-01,1.842690408229827881e-01,-2.886023521423339844e-01,-5.414458513259887695e-01,3.573648035526275635e-01,-9.391171336174011230e-01,-5.344644784927368164e-01,5.163770318031311035e-01,1.105143502354621887e-02
3.379140496253967285e-01,-1.992947757244110107e-01,1.247639656066894531e-01,7.787351608276367188e-01,-1.975077986717224121e-01,5.222349166870117188e-01,-1.307232864201068878e-02,-2.387843579053878784e-01,-6.016255021095275879e-01,3.616927862167358398e-01,-1.055153608322143555e+00,-4.205077290534973145e-01,3.839344084262847900e-01,-1.822696030139923096e-01
1.376109719276428223e-01,-1.951666027307510376e-01,-1.798519343137741089e-01,8.013374209403991699e-01,-7.029744237661361694e-02,3.872476816177368164e-01,1.455760449171066284e-01,-2.491979300975799561e-01,-5.947511792182922363e-01,4.819840192794799805e-01,-9.968107342720031738e-01,-4.801946282386779785e-01,1.858834475278854370e-01,4.883110523223876953e-02
1.817684024572372437e-01,-1.713742613792419434e-01,-4.343950748443603516e-02,7.751283049583435059e-01,-2.754895091056823730e-01,3.565606474876403809e-01,2.025389485061168671e-02,-2.912379801273345947e-01,-8.548831343650817871e-01,6.372610926628112793e-01,-8.716065883636474609e-01,-4.452206790447235107e-01,5.711876153945922852e-01,-9.261162579059600830e-02
2.001022994518280029e-01,-1.592599600553512573e-01,9.986357390880584717e-02,5.413905382156372070e-01,-1.216431260108947754e-01,3.272323608398437500e-01,1.087935194373130798e-01,-5.829747766256332397e-02,-7.256551384925842285e-01,4.964464306831359863e-01,-9.157629013061523438e-01,-2.087836712598800659e-01,2.317656725645065308e-01,-4.604218527674674988e-02
2.170535475015640259e-01,4.608181864023208618e-02,-7.839245349168777466e-02,5.364489555358886719e-01,-7.677300274372100830e-02,2.984655499458312988e-01,3.354161977767944336e-02,-1.454384475946426392e-01,-7.740377187728881836e-01,5.646705031394958496e-01,-8.804237246513366699e-01,-4.525910615921020508e-01,4.770301580429077148e-01,-6.917049735784530640e-02
2.337228506803512573e-01,9.299808740615844727e-02,-1.942035853862762451e-01,3.471835255622863770e-01,-1.140165850520133972e-01,2.178770303726196289e-01,-1.789162009954452515e-01,1.977360397577285767e-01,-7.699448466300964355e-01,6.083241105079650879e-01,-5.759196281433105469e-01,-4.196473360061645508e-01,3.276542127132415771e-01,-2.003112137317657471e-01
6.159120053052902222e-02,-8.299224823713302612e-02,2.374412305653095245e-02,3.918633162975311279e-01,-8.073012530803680420e-02,2.089088410139083862e-01,1.498730778694152832e-01,7.101026177406311035e-02,-8.264389038085937500e-01,8.499585986137390137e-01,-6.134265661239624023e-01,-3.362108170986175537e-01,1.487133353948593140e-01,-2.004643380641937256e-01
3.577815368771553040e-02,-8.860091120004653931e-02,1.727027632296085358e-02,5.246827006340026855e-01,-7.841366529464721680e-02,3.051142692565917969e-01,-1.386661920696496964e-02,-1.586515642702579498e-02,-7.206918597221374512e-01,4.115544259548187256e-01,-6.588352322578430176e-01,-1.992721855640411377e-01,1.904477924108505249e-01,2.762794494628906250e-03
