AF3,F7,F3,FC5,T7,P7,O1,O2,P8,T8,FC6,F4,F8,AF4
8.379808068275451660e-01,4.239532053470611572e-01,5.091378092765808105e-01,-5.497540831565856934e-01,1.735219061374664307e-01,4.550490379333496094e-01,7.279667258262634277e-01,-2.845541238784790039e-01,4.867399036884307861e-01,3.351953327655792236e-01,-5.886553525924682617e-01,-6.812620162963867188e-02,6.363385915756225586e-01,-5.006324648857116699e-01
7.109662890434265137e-01,3.719980716705322266e-01,5.483264923095703125e-01,-8.339486718177795410e-01,2.326277941465377808e-01,4.331975877285003662e-01,7.691311836242675781e-01,-1.040246263146400452e-01,5.338599681854248047e-01,2.659191489219665527e-01,-4.924326241016387939e-01,-3.851267322897911072e-02,4.854631125926971436e-01,-3.139379322528839111e-01
5.506952404975891113e-01,1.329594552516937256e-01,4.116280376911163330e-01,-7.541808485984802246e-01,8.639959618449211121e-03,3.460438847541809082e-01,7.557735443115234375e-01,-9.600906819105148315e-02,7.643629908561706543e-01,3.093683421611785889e-01,-6.196579933166503906e-01,1.401511281728744507e-01,9.025550484657287598e-01,-1.905732452869415283e-01
9.273664951324462891e-01,2.275902330875396729e-01,4.511644840240478516e-01,-4.290462434291839600e-01,5.370841547846794128e-02,4.642761051654815674e-01,7.230226993560791016e-01,7.940050959587097168e-02,4.970048964023590088e-01,3.914639949798583984e-01,-5.378909707069396973e-01,1.806439757347106934e-01,7.287618517875671387e-01,-2.421753555536270142e-01
8.456339240074157715e-01,1.750990152359008789e-01,5.010814070701599121e-01,-6.581185460090637207e-01,-3.264512866735458374e-02,2.799381911754608154e-01,5.670434236526489258e-01,-2.870992198586463928e-02,4.395774900913238525e-01,5.120100378990173340e-01,-4.421081542968750000e-01,1.484695971012115479e-01,8.393317461013793945e-01,-2.046401202678680420e-01
7.442893385887145996e-01,1.827623397111892700e-01,4.367512464523315430e-01,-7.181801199913024902e-01,-4.023250937461853027e-02,4.160085916519165039e-01,6.655644774436950684e-01,-7.343678176403045654e-02,2.251844257116317749e-01,4.752824008464813232e-01,-2.880133092403411865e-01,1.239381805062294006e-01,7.440016865730285645e-01,-1.293719857931137085e-01
5.972620844841003418e-01,1.978229582309722900e-01,5.638695359230041504e-01,-6.626521944999694824e-01,8.047372102737426758e-02,2.852964997291564941e-01,6.993298530578613281e-01,7.297042757272720337e-02,1.547410488128662109e-01,2.912294864654541016e-01,-2.973265051841735840e-01,2.366313934326171875e-01,7.071473002433776855e-01,-8.141454309225082397e-02
4.740750491619110107e-01,2.281952798366546631e-01,4.291175901889801025e-01,-6.205609440803527832e-01,2.953896522521972656e-01,1.965224593877792358e-01,4.436962604522705078e-01,9.873296320438385010e-02,8.457936346530914307e-02,5.904444456100463867e-01,-4.453474283218383789e-01,4.306738376617431641e-01,8.968881368637084961e-01,4.615886881947517395e-02
5.247247815132141113e-01,4.936959221959114075e-02,4.697570800781250000e-01,-4.356899261474609375e-01,-2.069910429418087006e-02,1.504065245389938354e-01,4.378828704357147217e-01,-1.402936689555644989e-02,5.758817121386528015e-02,3.855806887149810791e-01,-2.493426799774169922e-01,4.387286007404327393e-01,7.397117614746093750e-01,-4.448238760232925415e-02
6.109652519226074219e-01,1.772477775812149048e-01,2.957561016082763672e-01,-4.867275357246398926e-01,-1.199463829398155212e-01,-3.165452182292938232e-02,3.705261051654815674e-01,-4.053160548210144043e-02,-5.575302243232727051e-02,2.436594069004058838e-01,-5.779411792755126953e-01,4.732844233512878418e-01,5.857985615730285645e-01,6.493831425905227661e-02
4.704251885414123535e-01,4.986796155571937561e-02,3.990913629531860352e-01,-5.407419800758361816e-01,2.696439325809478760e-01,-4.589066375046968460e-03,3.353461921215057373e-01,-2.692819237709045410e-01,-1.620062142610549927e-01,1.984556019306182861e-01,-3.243098855018615723e-01,5.059364438056945801e-01,6.790871620178222656e-01,-5.983756110072135925e-02
4.087297618389129639e-01,2.360755950212478638e-02,3.798900917172431946e-02,-6.676832437515258789e-01,-4.905125498771667480e-02,-1.644908934831619263e-01,2.892317473888397217e-01,-3.331452906131744385e-01,-3.629105687141418457e-01,1.103565692901611328e-01,-1.150293052196502686e-01,3.925958573818206787e-01,6.461902260780334473e-01,-2.644527852535247803e-01
2.951034009456634521e-01,2.787694931030273438e-01,8.952402323484420776e-02,-5.409831404685974121e-01,1.394522041082382202e-01,-1.154374256730079651e-01,3.934868872165679932e-01,-3.951203525066375732e-01,-5.200771093368530273e-01,1.575307920575141907e-02,-5.593195557594299316e-01,4.437004327774047852e-01,4.820353686809539795e-01,-4.548567533493041992e-02
3.311652243137359619e-01,-9.244053065776824951e-02,1.469475924968719482e-01,-4.305219948291778564e-01,2.457455992698669434e-01,-1.438986063003540039e-01,4.517300128936767578e-01,-2.046499401330947876e-01,-2.653971314430236816e-01,8.993038535118103027e-02,-4.939360320568084717e-01,4.210598468780517578e-01,2.862001657485961914e-01,-5.716945976018905640e-02
2.662687599658966064e-01,1.932782121002674103e-02,-4.723488166928291321e-02,-4.162470400333404541e-01,4.167677760124206543e-01,-2.788186073303222656e-01,2.027528733015060425e-01,-3.889577388763427734e-01,-3.312513828277587891e-01,1.375773549079895020e-01,-5.775986909866333008e-01,2.375642508268356323e-01,4.995758533477783203e-01,4.419816657900810242e-02
3.967818617820739746e-01,7.297357171773910522e-02,-1.202210485935211182e-01,-2.573985755443572998e-01,5.401330590248107910e-01,-4.807966053485870361e-01,3.898600637912750244e-01,-2.957556247711181641e-01,-4.730489850044250488e-01,-2.149455547332763672e-01,-6.148841977119445801e-01,2.741879224777221680e-01,3.900824189186096191e-01,4.325302317738533020e-02
4.436375200748443604e-01,-3.037368878722190857e-02,-2.079439312219619751e-01,-3.492430746555328369e-01,4.614599049091339111e-01,-5.113663673400878906e-01,2.450825572013854980e-01,-4.518939852714538574e-01,-1.797034293413162231e-01,-2.604016661643981934e-01,-5.367673635482788086e-01,3.266294002532958984e-01,1.713297218084335327e-01,1.225374788045883179e-01
2.089460492134094238e-01,2.427905797958374023e-02,-2.826834283769130707e-02,-1.956078857183456421e-01,7.607473134994506836e-01,-5.192298889160156250e-01,3.627064824104309082e-01,-3.909175992012023926e-01,-4.729056656360626221e-01,-2.602285146713256836e-01,-5.890755057334899902e-01,3.106325566768646240e-01,1.821061521768569946e-01,4.366332292556762695e-02
1.392226517200469971e-01,-1.426764577627182007e-01,1.481359452009201050e-02,-3.736625313758850098e-01,6.219758391380310059e-01,-5.598075389862060547e-01,3.526144325733184814e-01,-4.516759514808654785e-01,-3.711852729320526123e-01,-4.103523790836334229e-01,-6.418709754943847656e-01,1.167809516191482544e-01,2.020440995693206787e-01,1.383842974901199341e-01
2.709414958953857422e-01,-2.061751335859298706e-01,-1.282078623771667480e-01,-2.195740193128585815e-01,5.754806995391845703e-01,-4.567164182662963867e-01,3.591104447841644287e-01,-3.706153035163879395e-01,-3.689237833023071289e-01,-2.267290800809860229e-01,-7.077519297599792480e-01,2.096081674098968506e-01,3.320712745189666748e-01,1.499644517898559570e-01
2.074904739856719971e-01,-1.167167425155639648e-01,-4.796982184052467346e-02,-3.288688510656356812e-02,7.520124912261962891e-01,-5.667412877082824707e-01,3.313740491867065430e-01,-4.627186655998229980e-01,-3.900620341300964355e-01,-2.544323503971099854e-01,-6.579396724700927734e-01,6.648045778274536133e-02,2.625602781772613525e-01,1.019356325268745422e-01
2.215461879968643188e-01,-1.542284898459911346e-02,7.180946320295333862e-02,1.729294061660766602e-01,7.654626965522766113e-01,-6.042543649673461914e-01,2.639420926570892334e-01,-2.673986852169036865e-01,-3.536711931228637695e-01,-2.407531887292861938e-01,-7.795016765594482422e-01,1.446352526545524597e-02,3.696286678314208984e-01,-7.326065003871917725e-02
-5.605808924883604050e-03,-4.300478845834732056e-02,-4.239103943109512329e-02,2.198556251823902130e-02,7.604470849037170410e-01,-5.815126299858093262e-01,2.724940478801727295e-01,-2.133958339691162109e-01,-3.496350944042205811e-01,-4.154036343097686768e-01,-6.338127255439758301e-01,2.733063697814941406e-01,2.495970577001571655e-01,1.274186074733734131e-01
2.163374274969100952e-01,4.772665724158287048e-02,-7.037258893251419067e-02,1.876034736633300781e-01,8.997690677642822266e-01,-5.851271152496337891e-01,4.251330792903900146e-01,-2.762753665447235107e-01,-3.507099151611328125e-01,-4.255732893943786621e-01,-5.974839925765991211e-01,2.486083842813968658e-02,4.363031983375549316e-01,5.727635324001312256e-02
1.078074574470520020e-01,-1.450004726648330688e-01,-2.145815640687942505e-01,3.022595643997192383e-01,6.290529370307922363e-01,-4.977139532566070557e-01,3.071190714836120605e-01,1.481038634665310383e-03,-2.192603945732116699e-01,-2.033394426107406616e-01,-6.613255739212036133e-01,-9.455139189958572388e-02,4.793308377265930176e-01,-7.142633199691772461e-02
1.501368284225463867e-01,-4.582200944423675537e-02,-2.293773740530014038e-01,3.200963139533996582e-01,8.039938807487487793e-01,-3.664937317371368408e-01,3.720865547657012939e-01,7.896143943071365356e-02,-1.910926550626754761e-01,-6.828773766756057739e-02,-5.273762941360473633e-01,-3.611414460465312004e-03,4.819859862327575684e-01,-2.823393344879150391e-01
-2.823121845722198486e-02,1.674397103488445282e-02,-1.730129867792129517e-01,3.450650572776794434e-01,7.026554346084594727e-01,-4.467416107654571533e-01,3.080641925334930420e-01,1.219596713781356812e-02,-3.455921411514282227e-01,-2.829768061637878418e-01,-4.376543462276458740e-01,-1.363621850032359362e-04,3.015044629573822021e-01,-1.173401027917861938e-01
1.137749105691909790e-01,-6.607939302921295166e-02,-2.281619757413864136e-01,2.673328816890716553e-01,5.270498394966125488e-01,-2.745055258274078369e-01,3.678342998027801514e-01,7.443411741405725479e-03,-3.401995599269866943e-01,9.278497658669948578e-03,-3.810819983482360840e-01,1.018165424466133118e-01,5.710065960884094238e-01,-2.399904429912567139e-01
-3.702759370207786560e-02,4.297741129994392395e-02,-1.906090527772903442e-01,4.727214872837066650e-01,5.909912586212158203e-01,-2.713429331779479980e-01,5.200142860412597656e-01,3.424821794033050537e-01,-2.604352235794067383e-01,-9.071812033653259277e-02,-3.397161066532135010e-01,-4.426224157214164734e-02,5.550584793090820312e-01,-2.713291645050048828e-01
1.388924121856689453e-01,-1.195520441979169846e-02,-5.062457919120788574e-01,1.920968890190124512e-01,6.639564633369445801e-01,-4.214515909552574158e-02,3.750570416450500488e-01,2.284725010395050049e-01,-2.812283337116241455e-01,-1.283579468727111816e-01,-2.902635335922241211e-01,7.565571460872888565e-03,8.416168093681335449e-01,-2.396212220191955566e-01
2.326966077089309692e-02,3.825410082936286926e-02,-2.996516525745391846e-01,1.860431581735610962e-01,5.128127932548522949e-01,-1.486183255910873413e-01,5.270452499389648438e-01,-9.042060934007167816e-03,-2.967678308486938477e-01,-2.637817524373531342e-02,-2.419711053371429443e-01,5.176587402820587158e-02,6.225305199623107910e-01,-8.548802882432937622e-02
-6.766592711210250854e-02,-2.306446805596351624e-02,-1.180807575583457947e-01,4.757488965988159180e-01,3.368581533432006836e-01,-1.215166077017784119e-01,5.688375234603881836e-01,2.062126547098159790e-01,-2.912058532238006592e-01,-1.565202027559280396e-01,-1.067539229989051819e-01,-1.380828619003295898e-01,4.964058995246887207e-01,-1.979575455188751221e-01
2.627327442169189453e-01,-2.939814627170562744e-01,-3.918176889419555664e-01,2.916038334369659424e-01,4.301959872245788574e-01,-2.280600517988204956e-01,7.644609808921813965e-01,1.995609998703002930e-01,-2.482070773839950562e-01,-2.737994194030761719e-01,-1.401027943938970566e-02,-7.497607916593551636e-02,6.354130506515502930e-01,-1.875519603490829468e-01
1.773544698953628540e-01,-3.238654881715774536e-02,-2.494217902421951294e-01,9.176860749721527100e-02,1.767424643039703369e-01,4.731381777673959732e-03,8.626059889793395996e-01,2.051089257001876831e-01,-1.939492821693420410e-01,1.080200523138046265e-01,1.697716563940048218e-01,-1.315765678882598877e-01,4.971187114715576172e-01,-1.756794005632400513e-01
3.951616287231445312e-01,-4.801792800426483154e-01,-1.556760370731353760e-01,3.009672649204730988e-02,3.223356008529663086e-01,-9.959227591753005981e-02,8.126510381698608398e-01,3.985405266284942627e-01,-3.531112670898437500e-01,-8.008749224245548248e-03,-1.183328777551651001e-01,-1.185408979654312134e-01,5.362422466278076172e-01,-5.283689498901367188e-02
1.956634968519210815e-01,-5.107184648513793945e-01,-2.660143077373504639e-01,-1.416632533073425293e-02,4.202921092510223389e-01,-2.939160354435443878e-02,9.140217304229736328e-01,3.260845839977264404e-01,-2.587420940399169922e-01,-6.255888193845748901e-02,1.630944162607192993e-01,-1.391960531473159790e-01,3.688085675239562988e-01,2.300650626420974731e-02
2.306704372167587280e-01,-4.610305726528167725e-01,2.614166960120201111e-02,3.030460476875305176e-01,1.154834255576133728e-01,-2.039298862218856812e-01,6.851050257682800293e-01,3.760662376880645752e-01,-3.383466601371765137e-01,-3.170286864042282104e-02,3.016980886459350586e-01,-1.336472630500793457e-01,5.821799635887145996e-01,1.700819879770278931e-01
4.055132865905761719e-01,-5.229847431182861328e-01,5.809942260384559631e-02,6.765311956405639648e-02,3.324956893920898438e-01,-2.067690938711166382e-01,5.103738307952880859e-01,3.105695843696594238e-01,-4.904437959194183350e-01,-3.128122165799140930e-02,-7.410605251789093018e-02,-1.655264645814895630e-01,3.477550745010375977e-01,1.465582102537155151e-01
4.712255001068115234e-01,-6.762867569923400879e-01,-1.324222087860107422e-01,1.315698400139808655e-02,1.245841830968856812e-01,-3.634978532791137695e-01,8.017993569374084473e-01,4.207026958465576172e-01,-3.910941481590270996e-01,3.378855064511299133e-02,3.282310068607330322e-01,-1.127474009990692139e-01,5.009423494338989258e-01,2.072668820619583130e-01
3.024022579193115234e-01,-7.896925210952758789e-01,7.206218689680099487e-02,2.318045049905776978e-01,2.230659872293472290e-01,-5.840969458222389221e-02,7.989049553871154785e-01,3.067071735858917236e-01,-1.413022726774215698e-01,8.183187246322631836e-02,3.261656463146209717e-01,-1.112081855535507202e-01,4.163016080856323242e-01,3.276010453701019287e-01
4.037355482578277588e-01,-8.190951943397521973e-01,1.067267358303070068e-01,1.138695999979972839e-01,7.224372774362564087e-02,-2.175143212080001831e-01,6.263076066970825195e-01,3.716608285903930664e-01,-2.469018846750259399e-01,1.848727464675903320e-01,1.936397850513458252e-01,1.884074956178665161e-01,4.189350903034210205e-01,4.376009702682495117e-01
3.212485313415527344e-01,-8.182318210601806641e-01,2.094293087720870972e-01,9.124887734651565552e-02,3.383605182170867920e-01,-7.481162995100021362e-02,5.338139533996582031e-01,3.948605954647064209e-01,-5.896068811416625977e-01,6.618556380271911621e-02,1.794546544551849365e-01,6.027529388666152954e-02,4.635380506515502930e-01,5.067604184150695801e-01
3.998118937015533447e-01,-1.028123736381530762e+00,2.135166823863983154e-01,2.792761325836181641e-01,1.051778644323348999e-01,-2.956231534481048584e-01,5.442265272140502930e-01,2.727517783641815186e-01,-5.071668028831481934e-01,4.375062882900238037e-02,1.547866016626358032e-01,4.640395939350128174e-02,2.662738263607025146e-01,5.567716360092163086e-01
5.543105602264404297e-01,-1.048743963241577148e+00,1.984347254037857056e-01,2.936196327209472656e-01,1.855026632547378540e-01,-2.089520394802093506e-01,5.627166628837585449e-01,1.034752726554870605e-01,-5.124900937080383301e-01,1.013967096805572510e-01,2.015769779682159424e-01,5.698155239224433899e-02,4.715614020824432373e-01,4.929885268211364746e-01
2.181385010480880737e-01,-1.029100418090820312e+00,1.816706210374832153e-01,3.627592921257019043e-01,3.297107219696044922e-01,-1.487081199884414673e-01,3.667133450508117676e-01,1.096324995160102844e-01,-5.548717379570007324e-01,3.968677520751953125e-01,2.254453748464584351e-01,2.275175303220748901e-01,2.835250496864318848e-01,6.035791635513305664e-01
1.216181293129920959e-01,-7.983496785163879395e-01,3.945909067988395691e-02,3.490158021450042725e-01,2.527310848236083984e-01,-2.049135863780975342e-01,3.419588804244995117e-01,4.629933536052703857e-01,-6.799101233482360840e-01,1.504644006490707397e-01,2.208894342184066772e-01,7.754560559988021851e-02,4.013186395168304443e-01,6.874028444290161133e-01
1.188676729798316956e-01,-8.656355738639831543e-01,9.715849161148071289e-02,3.603723645210266113e-01,2.850086092948913574e-01,-2.609138488769531250e-01,2.559326887130737305e-01,2.370179593563079834e-01,-6.087376475334167480e-01,1.477190405130386353e-01,2.079973816871643066e-01,4.750578477978706360e-02,1.024425476789474487e-01,7.419801354408264160e-01
2.242988646030426025e-01,-8.059523701667785645e-01,-7.832101732492446899e-02,4.195120632648468018e-01,2.957634031772613525e-01,-2.662984430789947510e-01,1.511808633804321289e-01,1.702905297279357910e-01,-5.931506752967834473e-01,4.468322545289993286e-02,4.733708798885345459e-01,4.167573153972625732e-02,1.560640633106231689e-01,7.001415491104125977e-01
-1.564203351736068726e-01,-6.554466485977172852e-01,-2.309940755367279053e-01,5.949707627296447754e-01,2.392276227474212646e-01,-2.474433332681655884e-01,1.580352187156677246e-01,1.618343293666839600e-01,-6.811552047729492188e-01,1.971474438905715942e-01,2.208068668842315674e-01,2.924554944038391113e-01,5.410859361290931702e-02,5.764561295509338379e-01
-1.071954071521759033e-01,-6.818372011184692383e-01,-1.455535292625427246e-01,6.403959393501281738e-01,4.055864810943603516e-01,5.700130760669708252e-02,-6.693580746650695801e-02,-1.798912733793258667e-01,-8.847899436950683594e-01,5.743119120597839355e-02,1.568682640790939331e-01,2.557061910629272461e-01,9.126647561788558960e-02,5.440270304679870605e-01
8.102324604988098145e-02,-6.890569329261779785e-01,-4.855598509311676025e-01,7.319597601890563965e-01,2.891511321067810059e-01,-2.728483080863952637e-01,-9.617774188518524170e-02,-2.295019775629043579e-01,-9.874368309974670410e-01,-1.874964535236358643e-01,1.866755932569503784e-01,9.980346262454986572e-02,1.972113363444805145e-02,6.602592468261718750e-01
-2.840287983417510986e-01,-4.940882921218872070e-01,-4.848043322563171387e-01,6.734692454338073730e-01,2.477813363075256348e-01,-4.125829637050628662e-01,-1.124613881111145020e-01,-3.556869626045227051e-01,-7.927635312080383301e-01,-1.211105361580848694e-01,2.364004403352737427e-01,-3.319544717669487000e-02,-9.727399051189422607e-02,5.015854239463806152e-01
-3.029029667377471924e-01,-6.957556009292602539e-01,-5.498059391975402832e-01,8.645767569541931152e-01,2.707217335700988770e-01,-2.145507782697677612e-01,-3.673385456204414368e-02,-9.194292873144149780e-02,-9.867657423019409180e-01,-2.234016209840774536e-01,-2.399457804858684540e-02,-1.036521866917610168e-01,-2.168677449226379395e-01,5.774968862533569336e-01
-1.852634847164154053e-01,-5.787984132766723633e-01,-5.824977755546569824e-01,6.138145327568054199e-01,3.123243153095245361e-01,-2.191291302442550659e-01,6.914517283439636230e-02,-5.000731945037841797e-01,-7.322831749916076660e-01,-1.817950010299682617e-01,6.572006642818450928e-02,7.730431854724884033e-02,-4.532724022865295410e-01,4.680170714855194092e-01
-1.162565052509307861e-01,-3.960313200950622559e-01,-7.308205962181091309e-01,7.887722849845886230e-01,3.862016797065734863e-01,-2.528854906558990479e-01,1.324933115392923355e-02,-3.344474136829376221e-01,-6.153382062911987305e-01,-1.482883542776107788e-01,-7.195742428302764893e-02,-2.165084630250930786e-01,-4.537956714630126953e-01,2.127030789852142334e-01
-1.147861927747726440e-01,-6.960323452949523926e-01,-7.827603816986083984e-01,6.493515968322753906e-01,5.343567132949829102e-01,-2.771144509315490723e-01,-2.988764047622680664e-01,-5.696846842765808105e-01,-6.459656953811645508e-01,-3.793344199657440186e-01,-2.095614671707153320e-01,-2.515089213848114014e-01,-3.913284838199615479e-01,5.012853741645812988e-01
-3.311823606491088867e-01,-5.260466933250427246e-01,-6.278999447822570801e-01,7.041550874710083008e-01,3.526233136653900146e-01,-2.273671030998229980e-01,2.677817642688751221e-01,-5.220262408256530762e-01,-7.364678978919982910e-01,-2.125106304883956909e-01,-1.718196421861648560e-01,-4.018010795116424561e-01,-6.145542263984680176e-01,5.129330158233642578e-01
-4.158176481723785400e-01,-3.405391573905944824e-01,-8.670615553855895996e-01,6.214022636413574219e-01,3.339508771896362305e-01,-3.060854375362396240e-01,2.297643013298511505e-02,-4.128092229366302490e-01,-6.525520086288452148e-01,-3.022161722183227539e-01,-1.276942789554595947e-01,-4.106320738792419434e-01,-5.945588350296020508e-01,3.624773621559143066e-01
-3.881996870040893555e-01,-3.837065398693084717e-01,-6.299117207527160645e-01,6.601853966712951660e-01,3.730685710906982422e-01,4.183677583932876587e-02,1.081064045429229736e-01,-5.039390325546264648e-01,-4.735757708549499512e-01,-3.526287898421287537e-02,-2.951375544071197510e-01,-4.307058155536651611e-01,-8.290252089500427246e-01,2.545273602008819580e-01
-4.395269453525543213e-01,-3.179042339324951172e-01,-7.527711391448974609e-01,5.729615092277526855e-01,4.764318764209747314e-01,-6.062182411551475525e-02,3.276246786117553711e-02,-5.238375663757324219e-01,-2.319062948226928711e-01,-1.980430446565151215e-02,-2.618274986743927002e-01,-3.216779828071594238e-01,-6.864858865737915039e-01,4.921275973320007324e-01
-3.274248540401458740e-01,-5.344282984733581543e-01,-7.069250941276550293e-01,5.629595518112182617e-01,5.727464556694030762e-01,-1.012792997062206268e-02,-1.479091942310333252e-01,-2.503913640975952148e-01,-3.324354290962219238e-01,-2.419619560241699219e-01,-3.219692409038543701e-01,-5.289270877838134766e-01,-5.771176815032958984e-01,2.890957295894622803e-01
-2.736458778381347656e-01,-3.979296982288360596e-01,-7.677665948867797852e-01,7.422343492507934570e-01,6.898846030235290527e-01,1.571814715862274170e-01,3.636628016829490662e-02,-6.192979812622070312e-01,-4.058605432510375977e-01,-7.279448956251144409e-02,1.289007836021482944e-03,-4.708101153373718262e-01,-4.973132014274597168e-01,2.269625812768936157e-01
-3.250767886638641357e-01,-2.170723974704742432e-01,-7.246134281158447266e-01,4.886050820350646973e-01,5.186704397201538086e-01,4.052807986736297607e-01,-1.428949534893035889e-01,-4.852164089679718018e-01,-2.654572427272796631e-01,-6.435862276703119278e-03,-2.803790569305419922e-01,-5.459451675415039062e-01,-4.108489155769348145e-01,2.585474252700805664e-01
-3.960705101490020752e-01,-3.377205431461334229e-01,-5.901244282722473145e-01,6.717125773429870605e-01,4.935405254364013672e-01,1.811491847038269043e-01,2.937174867838621140e-03,-3.770668804645538330e-01,-1.673555560410022736e-02,2.106932401657104492e-01,-3.506028279662132263e-02,-4.668066501617431641e-01,-6.190958619117736816e-01,4.357628524303436279e-01
-2.503533363342285156e-01,-1.289072632789611816e-01,-7.272738218307495117e-01,6.668375730514526367e-01,4.592175781726837158e-01,3.398053348064422607e-01,1.144748460501432419e-02,-2.012771368026733398e-01,-3.625960052013397217e-01,3.325522840023040771e-01,-7.411121577024459839e-02,-4.164645373821258545e-01,-1.282052099704742432e-01,1.573527604341506958e-01
-2.837283313274383545e-01,-1.464343070983886719e-01,-8.520401716232299805e-01,6.236224770545959473e-01,4.002828299999237061e-01,4.735201895236968994e-01,5.954804643988609314e-02,-3.233046233654022217e-01,-7.938813418149948120e-02,4.600143730640411377e-01,-1.455310732126235962e-01,-4.291667342185974121e-01,-3.242571353912353516e-01,7.462571561336517334e-02
-2.731889784336090088e-01,-2.581431269645690918e-01,-6.672772169113159180e-01,5.092429518699645996e-01,3.758592009544372559e-01,5.386099219322204590e-01,-7.815180718898773193e-02,-1.535662114620208740e-01,-2.584838271141052246e-01,4.246394932270050049e-01,-1.450017839670181274e-01,-3.387375175952911377e-01,-2.837964296340942383e-01,1.569803059101104736e-02
-2.167129814624786377e-01,-7.642494142055511475e-02,-7.444541454315185547e-01,3.552720248699188232e-01,1.110094711184501648e-01,6.240808367729187012e-01,-2.735707163810729980e-01,-4.116764366626739502e-01,-1.952600628137588501e-01,4.770803749561309814e-01,-3.373412787914276123e-02,-3.852448165416717529e-01,-3.261219561100006104e-01,1.331432759761810303e-01
-2.302329242229461670e-01,-1.268531940877437592e-02,-7.610352635383605957e-01,2.532918751239776611e-01,3.166251629590988159e-02,6.739739775657653809e-01,-4.450170323252677917e-02,-1.258878856897354126e-01,-1.743696779012680054e-01,5.765331387519836426e-01,9.331268817186355591e-02,-2.161507457494735718e-01,-3.426238000392913818e-01,-1.066924259066581726e-02
-2.295443862676620483e-01,-3.662388771772384644e-02,-7.306562066078186035e-01,2.242206633090972900e-01,-5.408062040805816650e-02,5.717175006866455078e-01,5.930617451667785645e-02,-1.642847061157226562e-01,-3.686230182647705078e-01,8.925134539604187012e-01,1.190279424190521240e-01,-2.145336568355560303e-01,-9.479627013206481934e-02,3.902033669874072075e-03
-2.864935696125030518e-01,-1.433543488383293152e-02,-4.425553977489471436e-01,1.515546143054962158e-01,7.086306810379028320e-02,7.436143755912780762e-01,1.626232452690601349e-02,-3.842252492904663086e-01,-2.034584432840347290e-01,4.428105354309082031e-01,1.095067709684371948e-02,-2.312036156654357910e-01,-1.468145549297332764e-01,-5.770514532923698425e-02
-1.353248804807662964e-01,-2.469870448112487793e-01,-6.643573045730590820e-01,2.175304591655731201e-01,-5.168947577476501465e-02,6.046071052551269531e-01,2.623853273689746857e-02,-3.113141357898712158e-01,-2.963966429233551025e-01,4.122277796268463135e-01,1.600500941276550293e-01,-1.456561237573623657e-01,-1.953672915697097778e-01,-2.624938823282718658e-02
-1.183737590909004211e-01,1.346641182899475098e-01,-6.774098873138427734e-01,-3.317827358841896057e-02,-1.638523042201995850e-01,6.171034574508666992e-01,8.695151656866073608e-03,-3.712769448757171631e-01,-2.292879521846771240e-01,5.435740351676940918e-01,4.831509664654731750e-02,3.754664584994316101e-02,-2.131660431623458862e-01,-8.618528395891189575e-02
2.005094587802886963e-01,1.649805307388305664e-01,-5.217000842094421387e-01,6.750901229679584503e-03,1.552782114595174789e-02,6.073762178421020508e-01,1.366886347532272339e-01,-3.383148014545440674e-01,-3.443479537963867188e-01,5.159247517585754395e-01,2.774236500263214111e-01,-6.305643171072006226e-02,-2.268436104059219360e-01,-8.430650457739830017e-03
2.531517148017883301e-01,-7.974555715918540955e-03,-5.243458747863769531e-01,-4.502122104167938232e-02,-2.551198303699493408e-01,4.183592200279235840e-01,2.120837718248367310e-01,-3.059992790222167969e-01,-2.065554857254028320e-01,5.005508661270141602e-01,-1.141686923801898956e-02,3.211561217904090881e-02,-2.362935245037078857e-01,-5.221579596400260925e-02
2.869452536106109619e-01,-1.776588559150695801e-01,-4.315057992935180664e-01,-1.475013643503189087e-01,-3.189153671264648438e-01,4.668537378311157227e-01,4.132932052016258240e-02,-5.266234874725341797e-01,-5.737674832344055176e-01,5.576710104942321777e-01,-5.563635379076004028e-02,7.661314308643341064e-02,-3.771109879016876221e-01,1.262010075151920319e-02
1.498115658760070801e-01,-2.692269682884216309e-01,-3.695577681064605713e-01,-2.005721926689147949e-01,-3.484404087066650391e-01,4.140165448188781738e-01,1.205003112554550171e-01,-4.531900882720947266e-01,-3.477645218372344971e-01,4.260572195053100586e-01,6.704571098089218140e-02,1.409812271595001221e-01,-2.861653566360473633e-01,1.607182323932647705e-01
2.122891992330551147e-01,-3.039796054363250732e-01,-2.374593317508697510e-01,-8.743909001350402832e-02,-1.418635398149490356e-01,8.969907462596893311e-02,1.087303161621093750e-01,-4.919100999832153320e-01,-3.980966508388519287e-01,4.682982861995697021e-01,-4.822063818573951721e-02,2.622154727578163147e-02,-3.784087896347045898e-01,8.653235435485839844e-02
1.798843145370483398e-01,-2.175801247358322144e-01,-5.291776657104492188e-01,-1.898245513439178467e-01,-2.985399961471557617e-01,3.485268354415893555e-01,-1.058145612478256226e-01,-5.244966149330139160e-01,-5.424709916114807129e-01,4.839037060737609863e-01,8.586366311646997929e-04,9.178828448057174683e-02,-5.206609368324279785e-01,2.079935818910598755e-01
1.281459331512451172e-01,-2.094200551509857178e-01,-3.358012735843658447e-01,-1.763617396354675293e-01,-8.118111640214920044e-02,6.129522994160652161e-02,-1.639114171266555786e-01,-4.065634310245513916e-01,-3.176761269569396973e-01,4.721022844314575195e-01,6.067421287298202515e-02,1.834166496992111206e-01,-3.489513397216796875e-01,1.853904128074645996e-01
3.200421333312988281e-01,-3.886878788471221924e-01,-4.926176369190216064e-01,-2.730095386505126953e-01,-1.532854437828063965e-01,1.131571158766746521e-01,-2.441619709134101868e-02,-5.467411279678344727e-01,-5.735067725181579590e-01,4.702313542366027832e-01,6.462813168764114380e-02,3.847982287406921387e-01,-5.181932449340820312e-01,1.231941133737564087e-01
1.376218646764755249e-01,-3.182948231697082520e-01,-4.383539557456970215e-01,-1.302388906478881836e-01,-1.717180460691452026e-01,1.907079815864562988e-01,-2.700696289539337158e-01,-6.920338869094848633e-01,-4.110946655273437500e-01,4.523242115974426270e-01,-2.880011200904846191e-01,4.170027077198028564e-01,-5.222260951995849609e-01,2.561554014682769775e-01
1.468616873025894165e-01,-1.669099181890487671e-01,-3.768346011638641357e-01,-1.372754275798797607e-01,-9.729879908263683319e-03,6.489338725805282593e-02,-2.851068377494812012e-01,-5.031796097755432129e-01,-5.441792607307434082e-01,3.656027615070343018e-01,-2.029570490121841431e-01,4.768809974193572998e-01,-3.105179369449615479e-01,2.922443449497222900e-01
9.104783087968826294e-02,-2.635726630687713623e-01,-4.441167116165161133e-01,-9.506371617317199707e-02,-1.462943106889724731e-01,7.454103976488113403e-02,-2.788204550743103027e-01,-4.235870242118835449e-01,-3.006417155265808105e-01,3.944187164306640625e-01,-1.206159591674804688e-01,5.037648677825927734e-01,-4.709351360797882080e-01,4.846281185746192932e-02
2.670674324035644531e-01,-1.884908825159072876e-01,-4.489665329456329346e-01,-9.716710448265075684e-02,-1.598608344793319702e-01,6.059309840202331543e-02,-4.608561992645263672e-01,-5.779957175254821777e-01,-4.900876283645629883e-01,3.861855268478393555e-01,-1.041192486882209778e-01,4.357620477676391602e-01,-4.959681630134582520e-01,1.917148083448410034e-01
3.208234906196594238e-02,3.468345385044813156e-03,-5.439578294754028320e-01,2.580778673291206360e-02,-9.521061927080154419e-02,-1.142700240015983582e-01,-4.236641824245452881e-01,-4.674880504608154297e-01,-5.091701149940490723e-01,4.419081807136535645e-01,-3.835605084896087646e-01,5.500321388244628906e-01,-4.403653442859649658e-01,-4.171724244952201843e-02
6.585031747817993164e-02,6.131902709603309631e-02,-6.634788513183593750e-01,2.708437442779541016e-01,-1.622610837221145630e-01,-1.791926622390747070e-01,-3.968597948551177979e-01,-6.578320264816284180e-01,-4.252899289131164551e-01,1.493202745914459229e-01,-2.921386957168579102e-01,6.602190136909484863e-01,-4.657249152660369873e-01,1.358192414045333862e-01
-9.322752058506011963e-02,9.863927215337753296e-02,-5.453012585639953613e-01,1.719343811273574829e-01,-3.835739567875862122e-02,-4.236743599176406860e-02,-6.254559159278869629e-01,-5.895544290542602539e-01,-5.959245562553405762e-01,2.444343715906143188e-01,-7.182485610246658325e-02,6.367948055267333984e-01,-1.412612348794937134e-01,-1.718080416321754456e-02
-1.526875197887420654e-01,-1.030752249062061310e-02,-7.882711887359619141e-01,3.243304789066314697e-01,7.279876153916120529e-03,-2.087347023189067841e-02,-4.158076047897338867e-01,-8.028327226638793945e-01,-5.426186919212341309e-01,1.976379752159118652e-01,-3.213931620121002197e-01,6.716228127479553223e-01,-3.787879645824432373e-01,-2.801474332809448242e-01
-5.788780003786087036e-02,6.510266661643981934e-02,-5.677365064620971680e-01,-5.670798011124134064e-03,8.132191747426986694e-02,8.618221618235111237e-03,-5.310226082801818848e-01,-7.215749025344848633e-01,-7.084016203880310059e-01,1.356339305639266968e-01,-2.126184254884719849e-01,4.836603403091430664e-01,-3.169879913330078125e-01,-1.347465962171554565e-01
7.757673505693674088e-03,1.631141752004623413e-01,-7.467842698097229004e-01,2.061617523431777954e-01,-2.080934792757034302e-01,-3.547265753149986267e-02,-3.909580707550048828e-01,-6.536770462989807129e-01,-5.408652424812316895e-01,7.607737928628921509e-02,-1.920537203550338745e-01,6.110016703605651855e-01,-2.654792368412017822e-01,-3.460397422313690186e-01
-1.304557770490646362e-01,2.387963831424713135e-01,-6.570744514465332031e-01,2.829053103923797607e-01,-2.404441833496093750e-01,-1.769144386053085327e-01,-2.951765954494476318e-01,-6.066462397575378418e-01,-4.894042015075683594e-01,-1.396999210119247437e-01,-2.431386262178421021e-01,3.664823472499847412e-01,-3.630231916904449463e-01,-4.364337027072906494e-01
2.020077593624591827e-02,3.528215885162353516e-01,-5.652543306350708008e-01,2.280817925930023193e-01,-3.263392150402069092e-01,-5.581792443990707397e-02,-4.120485186576843262e-01,-6.233826279640197754e-01,-6.243248581886291504e-01,-4.745871946215629578e-02,-3.976328074932098389e-01,4.010321795940399170e-01,-2.518247663974761963e-01,-3.115147054195404053e-01
-2.897883579134941101e-02,3.466683924198150635e-01,-7.216910719871520996e-01,2.179835885763168335e-01,-1.539441049098968506e-01,-3.707060217857360840e-01,-1.528638005256652832e-01,-5.203289389610290527e-01,-3.135752081871032715e-01,-9.886812418699264526e-02,-2.911733388900756836e-01,3.878836035728454590e-01,-2.843245863914489746e-01,-2.945221662521362305e-01
-1.164895668625831604e-01,3.487818241119384766e-01,-8.100799322128295898e-01,9.563706815242767334e-02,-7.263720780611038208e-02,-4.918825998902320862e-02,-1.693601608276367188e-01,-7.685903310775756836e-01,-1.351760029792785645e-01,-8.881594985723495483e-02,-4.730009436607360840e-01,2.559423446655273438e-01,-2.841534614562988281e-01,-3.868071734905242920e-01
3.516313806176185608e-02,3.330491483211517334e-01,-5.326809287071228027e-01,2.176380753517150879e-01,-3.330850899219512939e-01,-2.784829437732696533e-01,-7.827804237604141235e-02,-4.210205376148223877e-01,-9.160080552101135254e-02,-1.808942556381225586e-01,-6.599509119987487793e-01,3.210351169109344482e-01,-2.907851040363311768e-01,-4.794508814811706543e-01
1.755175888538360596e-01,2.516178190708160400e-01,-6.063244938850402832e-01,-1.043962538242340088e-01,-3.630595803260803223e-01,-2.891761958599090576e-01,1.512578725814819336e-01,-5.765938758850097656e-01,4.697003215551376343e-02,-2.246160358190536499e-01,-7.182839512825012207e-01,3.994001746177673340e-01,-1.516188383102416992e-01,-4.233368337154388428e-01
2.671467065811157227e-01,2.627555131912231445e-01,-6.177651286125183105e-01,1.858061004895716906e-04,5.628521740436553955e-02,4.829625785350799561e-02,3.372346758842468262e-01,-5.512816905975341797e-01,8.295723050832748413e-02,-6.299829483032226562e-02,-5.215733051300048828e-01,4.714189171791076660e-01,-4.122945666313171387e-01,-4.886616766452789307e-01
3.658494055271148682e-01,5.136123895645141602e-01,-3.128131031990051270e-01,-9.936135262250900269e-03,-3.867961466312408447e-01,-1.900239139795303345e-01,3.839702606201171875e-01,-2.359986454248428345e-01,1.093702092766761780e-01,-2.649173140525817871e-01,-4.395130276679992676e-01,2.989897131919860840e-01,-1.358846127986907959e-01,-4.323539435863494873e-01
5.092359185218811035e-01,2.964282631874084473e-01,-2.495816349983215332e-01,-1.119574904441833496e-01,-3.596881330013275146e-01,-2.088784426450729370e-01,2.995750010013580322e-01,-3.533875346183776855e-01,2.569504082202911377e-03,-2.505258023738861084e-01,-5.458613038063049316e-01,3.001829385757446289e-01,-7.061520218849182129e-02,-3.549767434597015381e-01
4.086700379848480225e-01,1.825338602066040039e-01,-1.960512548685073853e-01,-7.762790471315383911e-02,-5.590090751647949219e-01,-2.790957987308502197e-01,3.023554384708404541e-01,1.750733470544219017e-03,1.634427905082702637e-01,-2.005780041217803955e-01,-3.725956082344055176e-01,3.824653625488281250e-01,4.333428293466567993e-02,-5.174286365509033203e-01
3.047564029693603516e-01,-1.520419307053089142e-02,-2.005188465118408203e-01,-2.954919338226318359e-01,-6.604754328727722168e-01,-9.408888965845108032e-02,4.365119338035583496e-01,-2.546625733375549316e-01,3.119918406009674072e-01,-2.640047576278448105e-03,-4.873916804790496826e-01,4.102271795272827148e-01,2.481993436813354492e-01,-3.085565567016601562e-01
5.025439858436584473e-01,-7.680936250835657120e-03,9.312050044536590576e-02,-2.403287887573242188e-01,-4.723294675350189209e-01,-2.983149141073226929e-02,5.616993308067321777e-01,-1.278105657547712326e-02,2.815222144126892090e-01,-7.193071395158767700e-02,-2.503238916397094727e-01,3.897306323051452637e-01,2.148092836141586304e-01,-4.727696478366851807e-01
4.621072411537170410e-01,4.707957059144973755e-02,1.530070751905441284e-01,1.066274009644985199e-02,-3.938967585563659668e-01,-1.140810176730155945e-01,5.510532855987548828e-01,2.414477616548538208e-01,2.620722055435180664e-01,2.096228115260601044e-02,-1.319740116596221924e-01,6.073651313781738281e-01,2.285700738430023193e-01,-4.370640218257904053e-01
4.185067415237426758e-01,1.510662436485290527e-01,1.126355230808258057e-01,-9.313462674617767334e-02,-6.025357842445373535e-01,-2.657791972160339355e-01,4.185115396976470947e-01,2.997594475746154785e-01,6.258135437965393066e-01,1.925948709249496460e-01,-1.514727622270584106e-01,5.903469324111938477e-01,1.597827374935150146e-01,-2.215327620506286621e-01
5.431497097015380859e-01,5.374299827963113785e-03,3.318358957767486572e-01,-1.536490768194198608e-01,-8.924302458763122559e-01,1.340015530586242676e-01,4.861591756343841553e-01,3.264577314257621765e-02,4.855938255786895752e-01,-5.468329787254333496e-02,-2.531942427158355713e-01,6.208358407020568848e-01,4.399091303348541260e-01,-3.463250100612640381e-01
6.177240610122680664e-01,-2.595726214349269867e-02,3.126976490020751953e-01,-1.504055596888065338e-02,-7.652111649513244629e-01,-4.414788633584976196e-02,4.612962007522583008e-01,2.759127318859100342e-01,5.363436341285705566e-01,-1.133086755871772766e-01,-1.497440338134765625e-01,6.933202147483825684e-01,5.963214635848999023e-01,-3.321691751480102539e-01
6.183998584747314453e-01,3.483533859252929688e-02,1.787736713886260986e-01,2.793818898499011993e-02,-9.984131455421447754e-01,-4.475125670433044434e-02,2.704552710056304932e-01,1.987323164939880371e-01,2.337068021297454834e-01,1.172426044940948486e-01,-3.079051710665225983e-02,1.041827082633972168e+00,5.162476897239685059e-01,-2.281826436519622803e-01
4.795070588588714600e-01,-2.021349519491195679e-01,2.244854271411895752e-01,7.078491896390914917e-02,-9.961331486701965332e-01,-2.947584167122840881e-02,6.629096269607543945e-01,3.942958712577819824e-01,2.423028051853179932e-01,-8.808527141809463501e-02,7.223388552665710449e-02,9.309251904487609863e-01,5.578829050064086914e-01,-2.161659151315689087e-01
6.950023770332336426e-01,5.122109316289424896e-03,3.234152495861053467e-01,-3.004566431045532227e-01,-9.302073717117309570e-01,-1.339191794395446777e-01,6.182423830032348633e-01,3.792947232723236084e-01,1.762181222438812256e-01,-1.758646517992019653e-01,5.435051769018173218e-02,8.545876741409301758e-01,5.175592303276062012e-01,-8.398517221212387085e-02
6.416170001029968262e-01,-2.071224451065063477e-01,2.827921211719512939e-01,2.297004312276840210e-02,-9.841549992561340332e-01,3.124016523361206055e-02,7.226647734642028809e-01,3.292246460914611816e-01,-7.265880238264799118e-03,-1.364171653985977173e-01,-7.319220900535583496e-02,6.673747897148132324e-01,5.635202527046203613e-01,-3.091173432767391205e-02
7.563034892082214355e-01,-8.968865871429443359e-02,3.309220671653747559e-01,-2.360531836748123169e-01,-9.557766914367675781e-01,-8.048204332590103149e-02,7.167352437973022461e-01,3.124865591526031494e-01,2.004198729991912842e-01,-2.215727865695953369e-01,1.696352362632751465e-01,7.504629492759704590e-01,4.855510592460632324e-01,-7.960781455039978027e-02
8.061017990112304688e-01,-7.861043512821197510e-02,2.130295187234878540e-01,-9.396827220916748047e-02,-8.658363223075866699e-01,-1.734290868043899536e-01,6.026804447174072266e-01,1.752640902996063232e-01,9.365671128034591675e-02,-3.722814917564392090e-01,1.881707906723022461e-01,9.276709556579589844e-01,3.953728675842285156e-01,-7.735954970121383667e-02
6.612061858177185059e-01,-3.791075050830841064e-01,2.518403828144073486e-01,-6.467417627573013306e-02,-9.473665356636047363e-01,-6.913376599550247192e-02,6.889843940734863281e-01,1.712802350521087646e-01,8.045894652605056763e-02,-3.146916329860687256e-01,2.690169960260391235e-02,8.780032992362976074e-01,1.896666139364242554e-01,1.537084579467773438e-01
7.146646380424499512e-01,-3.322733044624328613e-01,3.349920809268951416e-01,3.823176398873329163e-02,-9.742689132690429688e-01,-4.531994760036468506e-01,5.565805435180664062e-01,3.113708198070526123e-01,5.469876527786254883e-02,-5.327764749526977539e-01,-6.133021786808967590e-02,7.719104290008544922e-01,1.875984519720077515e-01,3.670149445533752441e-01
6.328562498092651367e-01,-2.962673902511596680e-01,3.597528338432312012e-01,-6.541278958320617676e-02,-7.791711091995239258e-01,-3.397489786148071289e-01,6.021110415458679199e-01,1.197996139526367188e-01,1.349400430917739868e-01,-6.164512038230895996e-01,-2.573453783988952637e-01,8.482872247695922852e-01,2.169875055551528931e-01,3.327282071113586426e-01
4.013432264328002930e-01,-4.431670606136322021e-01,3.611194193363189697e-01,-6.488381326198577881e-02,-9.311496019363403320e-01,-7.701162099838256836e-01,4.958188831806182861e-01,8.232541382312774658e-02,2.346225827932357788e-01,-7.920219302177429199e-01,-4.418287277221679688e-01,7.579666972160339355e-01,2.557393610477447510e-01,3.826040625572204590e-01
2.836975157260894775e-01,-4.733109176158905029e-01,2.149137556552886963e-01,-1.462023258209228516e-01,-6.771153807640075684e-01,-5.557233095169067383e-01,5.201458334922790527e-01,2.325330972671508789e-01,8.356824517250061035e-02,-9.128125905990600586e-01,-2.637878656387329102e-01,7.378346920013427734e-01,8.402524888515472412e-02,6.604468822479248047e-01
4.121196866035461426e-01,-5.110594630241394043e-01,3.583620488643646240e-01,-1.892224103212356567e-01,-4.693307876586914062e-01,-4.550411999225616455e-01,5.394631624221801758e-01,-1.109941489994525909e-02,1.667266637086868286e-01,-6.948403120040893555e-01,-3.036321103572845459e-01,7.541685700416564941e-01,5.433857813477516174e-02,6.212762594223022461e-01
4.438473880290985107e-01,-6.695217490196228027e-01,4.354120790958404541e-01,-5.338352546095848083e-02,-5.852310657501220703e-01,-8.321511149406433105e-01,4.992503821849822998e-01,2.520187199115753174e-01,1.993698775768280029e-01,-8.908404111862182617e-01,-2.490205019712448120e-01,6.402953863143920898e-01,-4.524065181612968445e-02,4.175603389739990234e-01
1.779171675443649292e-01,-3.766185641288757324e-01,2.809169292449951172e-01,2.375173866748809814e-01,-4.982372820377349854e-01,-5.927554965019226074e-01,1.532976031303405762e-01,2.658679783344268799e-01,2.339359968900680542e-01,-8.041106462478637695e-01,-3.820686936378479004e-01,5.747281908988952637e-01,-2.314884401857852936e-02,5.904301404953002930e-01
2.401802539825439453e-01,-5.679531097412109375e-01,2.288123369216918945e-01,1.722890138626098633e-01,-1.819782108068466187e-01,-9.083991646766662598e-01,4.155086874961853027e-01,1.965947262942790985e-02,1.835553646087646484e-01,-6.172910928726196289e-01,-3.399342596530914307e-01,5.496813058853149414e-01,-1.367751974612474442e-02,6.513673067092895508e-01
2.292596101760864258e-01,-6.662952899932861328e-01,2.230795770883560181e-01,4.126117527484893799e-01,-2.847991883754730225e-01,-5.587412714958190918e-01,1.569299399852752686e-01,2.295937389135360718e-01,3.368319571018218994e-01,-7.776145339012145996e-01,-4.737225770950317383e-01,6.157399415969848633e-01,1.991171576082706451e-02,5.159570574760437012e-01
-1.061863154172897339e-01,-2.899529635906219482e-01,1.939313262701034546e-01,2.538961172103881836e-01,-2.487687319517135620e-01,-7.940592765808105469e-01,1.765926778316497803e-01,-5.999114364385604858e-02,2.961656153202056885e-01,-8.302866220474243164e-01,-4.269835948944091797e-01,4.668703675270080566e-01,-2.269820272922515869e-01,5.713831186294555664e-01
5.456125736236572266e-02,-2.924938499927520752e-01,2.958134412765502930e-01,4.809263944625854492e-01,-1.948412805795669556e-01,-7.909768223762512207e-01,1.290585380047559738e-02,1.854321956634521484e-01,2.766498327255249023e-01,-7.963768243789672852e-01,-6.679672598838806152e-01,8.092803955078125000e-01,-1.549690812826156616e-01,5.675126910209655762e-01
-1.086323186755180359e-01,-4.112747311592102051e-01,-3.182440763339400291e-03,4.893314838409423828e-01,-2.894813716411590576e-01,-7.299969792366027832e-01,9.393256157636642456e-02,9.218660742044448853e-02,3.517315089702606201e-01,-6.270645856857299805e-01,-4.856008589267730713e-01,6.432599425315856934e-01,-4.978692531585693359e-02,4.978463649749755859e-01
-2.174312621355056763e-01,-1.053131371736526489e-01,-3.382212668657302856e-02,6.617090702056884766e-01,-6.425799429416656494e-02,-6.268829107284545898e-01,2.808802723884582520e-01,2.590190470218658447e-01,3.056352436542510986e-01,-1.034817218780517578e+00,-5.686532258987426758e-01,5.749000906944274902e-01,4.302178975194692612e-03,3.481288552284240723e-01
-4.115759432315826416e-01,-8.208728581666946411e-02,-2.000285685062408447e-01,5.555390715599060059e-01,-1.405281666666269302e-02,-5.965668559074401855e-01,1.765951514244079590e-01,2.526780366897583008e-01,2.438280880451202393e-01,-8.629574775695800781e-01,-5.103296041488647461e-01,3.601296842098236084e-01,-1.741944402456283569e-01,5.635394454002380371e-01
-2.698727846145629883e-01,-8.791313320398330688e-02,7.393375784158706665e-02,5.943010449409484863e-01,-1.932995468378067017e-01,-5.388789772987365723e-01,1.645374000072479248e-01,2.037886232137680054e-01,3.662121295928955078e-01,-7.045884728431701660e-01,-4.377611875534057617e-01,3.023478090763092041e-01,-2.434848695993423462e-01,3.937970697879791260e-01
-3.589150011539459229e-01,-7.105297595262527466e-02,-5.977895483374595642e-02,7.399241924285888672e-01,-1.213488802313804626e-01,-4.581081271171569824e-01,3.697708845138549805e-01,1.309383958578109741e-01,3.676889538764953613e-01,-8.225121498107910156e-01,-5.270138978958129883e-01,1.778343319892883301e-01,2.382384054362773895e-02,2.384980171918869019e-01
-6.053906679153442383e-01,-8.683522231876850128e-03,-2.499624192714691162e-01,4.020664095878601074e-01,-6.306849420070648193e-02,-4.277380108833312988e-01,1.423653215169906616e-01,3.407631218433380127e-01,1.830326914787292480e-01,-7.312652468681335449e-01,-6.110286116600036621e-01,4.310911893844604492e-01,-8.966315537691116333e-02,3.796115815639495850e-01
-3.726990520954132080e-01,4.864666610956192017e-02,-1.708631068468093872e-01,5.720829963684082031e-01,-5.385478213429450989e-02,-4.202203154563903809e-01,2.825341224670410156e-01,2.565133571624755859e-01,5.045325756072998047e-01,-9.080145359039306641e-01,-4.688912630081176758e-01,3.074575066566467285e-01,-1.002765744924545288e-01,2.642372846603393555e-01
-4.765017330646514893e-01,-4.325916618108749390e-02,-1.122755855321884155e-01,3.802539706230163574e-01,-3.286077454686164856e-02,-4.417815506458282471e-01,4.281970858573913574e-01,2.032331079244613647e-01,3.136870861053466797e-01,-9.576457738876342773e-01,-5.305956602096557617e-01,1.674207448959350586e-01,-1.301368772983551025e-01,3.660039007663726807e-01
-4.248133003711700439e-01,1.376527994871139526e-01,-9.116479754447937012e-02,4.910122454166412354e-01,-2.846518456935882568e-01,-3.385886847972869873e-01,4.514832496643066406e-01,2.424246072769165039e-01,4.752030372619628906e-01,-6.202642917633056641e-01,-3.247942924499511719e-01,1.985165849328041077e-02,-2.778435349464416504e-01,2.653111517429351807e-01
-3.098623752593994141e-01,5.496396124362945557e-02,-2.749976329505443573e-02,3.909237682819366455e-01,-5.544550716876983643e-02,-3.337890207767486572e-01,4.725381731986999512e-01,3.107291162014007568e-01,4.733919799327850342e-01,-7.729766368865966797e-01,-2.986672222614288330e-01,-6.683322787284851074e-02,-2.812230214476585388e-02,1.506142318248748779e-01
-2.350796163082122803e-01,-5.542802065610885620e-02,-2.562644183635711670e-01,4.278166592121124268e-01,4.571179673075675964e-02,-3.329475522041320801e-01,5.592826008796691895e-01,3.443131744861602783e-01,5.663394331932067871e-01,-6.565814614295959473e-01,-3.176174461841583252e-01,-2.580170147120952606e-02,-3.996979910880327225e-03,2.257312983274459839e-01
-1.340760737657546997e-01,7.895845919847488403e-02,5.665402114391326904e-02,3.487830758094787598e-01,-3.239632397890090942e-02,-3.631905317306518555e-01,5.642751455307006836e-01,4.264839887619018555e-01,5.291517972946166992e-01,-5.987136363983154297e-01,-2.138209342956542969e-01,4.936438798904418945e-02,-4.322890192270278931e-02,4.898982346057891846e-01
-2.891997694969177246e-01,-1.875324249267578125e-01,-1.673913151025772095e-01,2.121981233358383179e-01,7.817249745130538940e-02,-4.304716289043426514e-01,5.521242022514343262e-01,5.386334061622619629e-01,6.317700743675231934e-01,-4.986655414104461670e-01,-2.877619266510009766e-01,-6.381189823150634766e-02,-2.278794348239898682e-01,5.283817648887634277e-01
-1.709078252315521240e-01,-6.915105134248733521e-02,1.536125540733337402e-01,9.075970202684402466e-02,-6.469596177339553833e-02,-3.514418900012969971e-01,3.638071715831756592e-01,5.998116135597229004e-01,7.443708181381225586e-01,-5.288280248641967773e-01,-2.727424800395965576e-01,-2.397947460412979126e-01,-1.316798776388168335e-01,3.441036939620971680e-01
-3.401163220405578613e-01,-2.621817588806152344e-01,1.947524398565292358e-01,1.512806862592697144e-01,-1.830581203103065491e-02,-3.827400803565979004e-01,4.716302752494812012e-01,5.262888073921203613e-01,5.598565340042114258e-01,-4.514603316783905029e-01,-1.595310270786285400e-01,-1.884767115116119385e-01,-2.552904486656188965e-01,6.676193475723266602e-01
-1.063074171543121338e-01,-2.799457013607025146e-01,3.946551382541656494e-01,2.426129579544067383e-01,-5.805958062410354614e-02,-5.558698773384094238e-01,5.357561707496643066e-01,6.439940333366394043e-01,5.503339767456054688e-01,-3.612003028392791748e-01,-1.272033900022506714e-01,-3.267257660627365112e-02,5.802912637591362000e-02,6.786158084869384766e-01
-1.885031461715698242e-01,-4.503037035465240479e-01,1.521788835525512695e-01,-4.344225861132144928e-03,-5.024232901632785797e-03,-2.420225590467453003e-01,3.090094327926635742e-01,6.291984915733337402e-01,4.813058972358703613e-01,-4.032850265502929688e-01,-1.877764463424682617e-01,-1.202354580163955688e-01,1.783226877450942993e-01,5.544834733009338379e-01
-1.109860390424728394e-01,-6.495803594589233398e-01,1.419929563999176025e-01,-6.240516155958175659e-02,1.090326532721519470e-02,-3.081179857254028320e-01,2.455994635820388794e-01,8.100982904434204102e-01,5.275464057922363281e-01,-1.686607152223587036e-01,4.533446580171585083e-02,-2.552882768213748932e-02,-5.934594199061393738e-02,6.445770263671875000e-01
-2.077218294143676758e-01,-4.532529413700103760e-01,2.542307376861572266e-01,-9.066477417945861816e-02,-2.015025317668914795e-01,-3.292935788631439209e-01,2.483251392841339111e-01,7.035172581672668457e-01,3.982431888580322266e-01,-2.755094170570373535e-01,-2.093931436538696289e-01,2.337933331727981567e-01,1.876874864101409912e-01,4.584967494010925293e-01
-2.768003642559051514e-01,-6.474871039390563965e-01,2.343881577253341675e-01,-4.447228461503982544e-02,-9.306659549474716187e-02,-2.709566056728363037e-01,2.712996304035186768e-01,7.427805662155151367e-01,3.509565591812133789e-01,-6.561773270368576050e-02,2.499897480010986328e-01,1.138105168938636780e-01,7.056367397308349609e-02,6.271356940269470215e-01
-2.890679836273193359e-01,-6.067567467689514160e-01,4.164327979087829590e-01,1.308392286300659180e-01,-1.155124083161354065e-01,-4.002335369586944580e-01,2.531020436435937881e-03,7.262055277824401855e-01,1.265940368175506592e-01,-7.025419920682907104e-02,2.597530782222747803e-01,4.694534838199615479e-02,-2.553165517747402191e-02,6.874099969863891602e-01
-5.253683924674987793e-01,-5.451440811157226562e-01,1.638886518776416779e-02,1.825556159019470215e-02,-1.880014389753341675e-01,-1.973198056221008301e-01,-6.600321829319000244e-02,7.564684152603149414e-01,1.477232575416564941e-01,-3.608152866363525391e-01,1.126433238387107849e-01,5.449966788291931152e-01,-1.203863918781280518e-01,7.451469302177429199e-01
-2.758291363716125488e-01,-6.163881421089172363e-01,3.558184951543807983e-02,1.506926268339157104e-01,-1.114805042743682861e-01,-2.300061732530593872e-01,-2.528409957885742188e-01,7.390178442001342773e-01,-1.399422883987426758e-01,-6.700538098812103271e-02,3.567421138286590576e-01,4.061927199363708496e-01,-1.346374005079269409e-01,7.043640017509460449e-01
-3.103992640972137451e-01,-5.493075847625732422e-01,-5.740399286150932312e-02,2.637393772602081299e-01,-2.329322099685668945e-01,-4.942922294139862061e-01,-2.145062088966369629e-01,7.654217481613159180e-01,-1.040577795356512070e-02,-1.478849649429321289e-01,4.055618047714233398e-01,3.184935450553894043e-01,-9.306485205888748169e-02,7.294241786003112793e-01
-3.460421562194824219e-01,-5.168516635894775391e-01,2.680054306983947754e-02,3.247727081179618835e-02,-2.247670292854309082e-01,-4.789942502975463867e-01,-1.153188198804855347e-01,6.873159408569335938e-01,-2.195830345153808594e-01,-7.533569633960723877e-02,4.155837595462799072e-01,3.364012539386749268e-01,-1.637549102306365967e-01,6.178634166717529297e-01
-4.734897017478942871e-01,-6.738062500953674316e-01,-1.304651945829391479e-01,3.691935241222381592e-01,-1.794819235801696777e-01,-3.955550789833068848e-01,-3.246969580650329590e-01,5.015105605125427246e-01,-2.751897573471069336e-01,-8.369044959545135498e-02,3.993789851665496826e-01,1.211349144577980042e-01,-3.407072424888610840e-01,7.469612360000610352e-01
-3.772390484809875488e-01,-4.892193973064422607e-01,-1.069603040814399719e-01,4.356329143047332764e-01,-2.053616195917129517e-01,-4.937309622764587402e-01,-3.920495510101318359e-01,4.198088645935058594e-01,-2.896432578563690186e-01,-3.010143339633941650e-01,2.339065819978713989e-01,2.762458920478820801e-01,-1.725758463144302368e-01,8.841992020606994629e-01
-5.862567424774169922e-01,-5.708784461021423340e-01,-1.483288556337356567e-01,4.993976056575775146e-01,-1.059397906064987183e-01,-5.810168385505676270e-01,-3.577674329280853271e-01,3.289059102535247803e-01,-4.588609337806701660e-01,-3.341151177883148193e-01,4.625313282012939453e-01,2.096896320581436157e-01,-2.530438899993896484e-01,7.625167369842529297e-01
-6.347990036010742188e-01,-6.100584864616394043e-01,-2.131910771131515503e-01,4.791263043880462646e-01,2.046385407447814941e-01,-5.983780026435852051e-01,-3.892857432365417480e-01,3.842786848545074463e-01,-4.897935092449188232e-01,-5.540688633918762207e-01,1.796554177999496460e-01,2.518017888069152832e-01,-5.963569283485412598e-01,7.252873182296752930e-01
-4.828463792800903320e-01,-7.000501155853271484e-01,-3.216671049594879150e-01,5.919591188430786133e-01,-2.225961908698081970e-02,-8.910652995109558105e-01,-2.966244518756866455e-01,2.488133758306503296e-01,-1.648286432027816772e-01,-4.925722479820251465e-01,2.197719961404800415e-01,3.552000522613525391e-01,-4.817427396774291992e-01,6.504088640213012695e-01
-6.275660991668701172e-01,-6.533023715019226074e-01,-2.839564085006713867e-01,3.944731056690216064e-01,6.992694735527038574e-02,-8.519750237464904785e-01,-5.232993364334106445e-01,4.233554601669311523e-01,-4.082580208778381348e-01,-3.506247699260711670e-01,6.821077316999435425e-02,1.827174872159957886e-01,-5.478554368019104004e-01,6.887360811233520508e-01
-4.266765415668487549e-01,-4.933196902275085449e-01,-3.661105036735534668e-01,4.761977195739746094e-01,2.456786483526229858e-01,-8.663142323493957520e-01,-5.818116664886474609e-01,1.381944119930267334e-01,-3.031494319438934326e-01,-5.443989038467407227e-01,2.074693888425827026e-01,2.872289419174194336e-01,-5.251185894012451172e-01,5.882578492164611816e-01
-4.951188564300537109e-01,-4.874985218048095703e-01,-4.520129859447479248e-01,3.991683423519134521e-01,1.968965083360671997e-01,-7.629861235618591309e-01,-3.343103826045989990e-01,2.798053026199340820e-01,-4.412034451961517334e-01,-4.659399986267089844e-01,1.157178953289985657e-01,-1.076910495758056641e-01,-8.754795789718627930e-01,5.629200935363769531e-01
-6.335167884826660156e-01,-4.323074221611022949e-01,-4.726537168025970459e-01,5.244747400283813477e-01,2.735281884670257568e-01,-1.071778893470764160e+00,-4.210774898529052734e-01,2.796495258808135986e-01,-3.660676181316375732e-01,-5.605175495147705078e-01,-8.806011639535427094e-03,-1.698865145444869995e-01,-7.926236391067504883e-01,6.794269680976867676e-01
-7.856094241142272949e-01,-2.997176349163055420e-01,-4.608439803123474121e-01,5.110313892364501953e-01,2.926069796085357666e-01,-8.374505639076232910e-01,-6.149750947952270508e-01,2.908336818218231201e-01,-3.909665346145629883e-01,-5.555546283721923828e-01,3.212017416954040527e-01,6.732022762298583984e-02,-8.626697659492492676e-01,7.102616429328918457e-01
-7.674236297607421875e-01,-3.163570463657379150e-01,-2.946738004684448242e-01,3.744182288646697998e-01,4.506164193153381348e-01,-8.736696839332580566e-01,-4.039705097675323486e-01,1.342617571353912354e-01,-1.482474505901336670e-01,-4.593045115470886230e-01,-3.037866950035095215e-02,-8.046927303075790405e-02,-7.261741161346435547e-01,5.263029932975769043e-01
-7.496379613876342773e-01,-3.260136842727661133e-01,-4.471564590930938721e-01,4.364539682865142822e-01,4.435903429985046387e-01,-7.330160737037658691e-01,-7.387434840202331543e-01,1.956642717123031616e-01,-2.316853851079940796e-01,-7.705190777778625488e-01,1.190103143453598022e-01,-7.088577747344970703e-02,-7.253673672676086426e-01,6.772698163986206055e-01
-4.987151622772216797e-01,-2.737021744251251221e-01,-4.475513100624084473e-01,8.143642544746398926e-01,5.108561515808105469e-01,-6.627771854400634766e-01,-4.662586152553558350e-01,2.316339761018753052e-01,-2.683632373809814453e-01,-3.971513509750366211e-01,1.428220123052597046e-01,-1.405457556247711182e-01,-7.426182031631469727e-01,4.372996687889099121e-01
-7.689377069473266602e-01,-3.351733088493347168e-01,-4.741053581237792969e-01,6.931468844413757324e-01,4.668180048465728760e-01,-5.052298307418823242e-01,-4.576860964298248291e-01,4.423602521419525146e-01,-1.585014760494232178e-01,-6.098992228507995605e-01,1.167642027139663696e-01,-1.334027498960494995e-01,-2.670429944992065430e-01,4.119992256164550781e-01
-7.459801435470581055e-01,-2.938870191574096680e-01,-5.758765935897827148e-01,8.582975864410400391e-01,5.245512127876281738e-01,-7.134094834327697754e-01,-4.217328727245330811e-01,2.971997857093811035e-01,-2.621830105781555176e-01,-3.425505459308624268e-01,2.594384551048278809e-01,-9.572323411703109741e-02,-6.781892180442810059e-01,4.379844665527343750e-01
-9.150012731552124023e-01,-1.118735000491142273e-01,-6.476029753684997559e-01,6.895619034767150879e-01,3.019429147243499756e-01,-5.928459763526916504e-01,-6.866456270217895508e-01,3.286885023117065430e-01,-3.148746788501739502e-01,-3.686373829841613770e-01,3.290012776851654053e-01,-1.491870731115341187e-01,-5.771658420562744141e-01,2.330055683851242065e-01
-8.258827924728393555e-01,-2.009840458631515503e-01,-4.551959633827209473e-01,6.754831075668334961e-01,1.722638159990310669e-01,-4.185186028480529785e-01,-5.531156063079833984e-01,4.949426352977752686e-01,-6.040694192051887512e-02,-3.551548421382904053e-01,3.733158111572265625e-01,-2.415929585695266724e-01,-3.611781597137451172e-01,2.503895461559295654e-01
-9.018971920013427734e-01,-1.607692241668701172e-01,-5.840116143226623535e-01,7.609061598777770996e-01,1.288747638463973999e-01,-1.973977237939834595e-01,-6.693396568298339844e-01,3.249818086624145508e-01,-1.907022595405578613e-01,-5.160553753376007080e-02,3.135077357292175293e-01,3.720377758145332336e-02,-4.393877685070037842e-01,1.747719347476959229e-01
-8.583593964576721191e-01,-3.805511072278022766e-02,-4.459202587604522705e-01,8.376145362854003906e-01,3.145534396171569824e-01,-2.158779054880142212e-01,-3.397464156150817871e-01,5.591868162155151367e-01,-1.215115264058113098e-01,-5.318426340818405151e-02,4.856001436710357666e-01,-1.998587846755981445e-01,-3.959912955760955811e-01,-9.568059816956520081e-03
-9.391562342643737793e-01,-1.634361445903778076e-01,-4.827328324317932129e-01,8.723502755165100098e-01,-1.472412943840026855e-01,-1.795957684516906738e-01,-3.659523129463195801e-01,3.853586614131927490e-01,-1.760388016700744629e-01,-1.723941415548324585e-01,6.675435304641723633e-01,-2.449192106723785400e-01,-3.212611377239227295e-01,-5.277559533715248108e-02
-6.752246618270874023e-01,-1.437532156705856323e-01,-3.593348860740661621e-01,7.109348773956298828e-01,8.496786653995513916e-02,-9.835467673838138580e-03,-3.688272833824157715e-01,4.687206745147705078e-01,-9.518319368362426758e-02,1.242765262722969055e-01,6.183860898017883301e-01,-2.767735123634338379e-01,-2.190435528755187988e-01,1.045659780502319336e-01
-5.678781867027282715e-01,-2.757039368152618408e-01,-3.536863923072814941e-01,7.037612795829772949e-01,1.101141702383756638e-02,-1.269448250532150269e-01,-3.962245583534240723e-01,6.304771304130554199e-01,-3.121890723705291748e-01,5.271711386740207672e-03,6.747558116912841797e-01,-2.256653755903244019e-01,-2.837418913841247559e-01,1.024743318557739258e-01
-7.121149301528930664e-01,-2.101878821849822998e-01,-3.280875682830810547e-01,5.598146915435791016e-01,-1.383591145277023315e-01,6.187492236495018005e-02,-2.811126410961151123e-01,4.606937468051910400e-01,-1.755172312259674072e-01,-9.265350550413131714e-02,7.320066690444946289e-01,-2.999830842018127441e-01,-4.418685436248779297e-01,3.920989483594894409e-02
-6.010684967041015625e-01,-2.355458438396453857e-01,-4.297741949558258057e-01,6.488427519798278809e-01,-3.122217953205108643e-01,1.385068744421005249e-01,-2.015215903520584106e-01,5.462580323219299316e-01,-2.529226243495941162e-01,-2.487920969724655151e-01,8.092526197433471680e-01,-4.908857047557830811e-01,-3.780447244644165039e-01,-8.685992658138275146e-02
-5.447392463684082031e-01,-2.808897495269775391e-01,-4.876710176467895508e-01,5.768799781799316406e-01,-2.153662443161010742e-01,-4.054769128561019897e-02,-3.790189325809478760e-02,6.353214383125305176e-01,1.226193308830261230e-01,-5.201492831110954285e-02,9.461786746978759766e-01,-3.196465671062469482e-01,-2.459216415882110596e-01,1.250023692846298218e-01
-3.184089362621307373e-01,-2.328834533691406250e-01,-8.279480040073394775e-02,2.795688509941101074e-01,-3.879130482673645020e-01,-1.783918440341949463e-01,-5.189850181341171265e-02,4.000419676303863525e-01,-1.839048578403890133e-03,-8.520925045013427734e-02,8.736521601676940918e-01,-4.007481336593627930e-01,-3.722863793373107910e-01,6.048719212412834167e-02
-2.529946863651275635e-01,-4.807761013507843018e-01,-1.263650655746459961e-01,3.307637870311737061e-01,-3.837523460388183594e-01,-1.229072362184524536e-02,-1.368290334939956665e-01,5.318263769149780273e-01,-2.481517195701599121e-02,-4.548126086592674255e-02,9.170467853546142578e-01,-2.541731297969818115e-01,-2.607548236846923828e-01,1.963826268911361694e-02
-9.897255152463912964e-02,-2.982426583766937256e-01,-7.091841101646423340e-02,1.371000856161117554e-01,-3.357899487018585205e-01,1.317200660705566406e-01,-1.787159144878387451e-01,5.807563066482543945e-01,-5.611952021718025208e-02,6.751346588134765625e-02,9.687552452087402344e-01,-2.617723643779754639e-01,-2.690410912036895752e-01,1.448488384485244751e-01
-2.532560527324676514e-01,-7.171651721000671387e-01,-1.221296004951000214e-02,2.753660380840301514e-01,-4.275904595851898193e-01,1.095053553581237793e-02,-6.866908818483352661e-02,3.757318258285522461e-01,1.546578556299209595e-01,-9.591403417289257050e-03,9.216833114624023438e-01,-2.922348976135253906e-01,-4.245667457580566406e-01,2.475915402173995972e-01
-1.444367021322250366e-01,-5.076517462730407715e-01,1.294995844364166260e-01,1.263179033994674683e-01,-5.034627914428710938e-01,-1.794081330299377441e-01,-6.029618903994560242e-02,4.141922891139984131e-01,2.239173054695129395e-01,2.125028669834136963e-01,8.083106279373168945e-01,-8.893705159425735474e-02,-2.828305661678314209e-01,4.353619217872619629e-01
-1.708359420299530029e-01,-5.305121541023254395e-01,2.475074231624603271e-01,7.388972491025924683e-02,-4.287413656711578369e-01,8.556234836578369141e-02,-8.435665071010589600e-02,6.764094829559326172e-01,7.408278435468673706e-02,5.258205905556678772e-02,8.411188125610351562e-01,-1.391939818859100342e-01,-3.461536169052124023e-01,2.949023544788360596e-01
-3.372191637754440308e-02,-5.728835463523864746e-01,1.119204834103584290e-01,-4.694703966379165649e-02,-3.752877116203308105e-01,4.293955862522125244e-02,-3.373492956161499023e-01,3.914796710014343262e-01,4.940684884786605835e-02,2.412420883774757385e-02,8.623338341712951660e-01,-1.135070100426673889e-01,-4.543542563915252686e-01,3.159376680850982666e-01
-1.214758232235908508e-01,-5.454289913177490234e-01,2.710213325917720795e-02,2.829433977603912354e-01,-3.277579247951507568e-01,7.270473986864089966e-02,-3.534049689769744873e-01,4.545338749885559082e-01,2.784583158791065216e-02,2.051371186971664429e-01,1.016166090965270996e+00,-5.367053300142288208e-02,-4.015032947063446045e-01,3.886818885803222656e-01
-2.106641680002212524e-01,-6.709971427917480469e-01,3.723024129867553711e-01,2.232475280761718750e-01,-3.935424089431762695e-01,9.912709891796112061e-02,-3.245987594127655029e-01,2.614882588386535645e-01,-8.453330397605895996e-02,1.420214921236038208e-01,7.231771945953369141e-01,6.656809709966182709e-04,-3.163863122463226318e-01,4.355323910713195801e-01
-2.789105772972106934e-01,-5.014466643333435059e-01,2.203230112791061401e-01,2.669379115104675293e-01,-3.228726387023925781e-01,-5.287787690758705139e-02,-5.294098854064941406e-01,3.468052744865417480e-01,-8.700983226299285889e-02,2.239526808261871338e-01,8.493986725807189941e-01,1.406197547912597656e-01,-3.846387565135955811e-01,5.123826861381530762e-01
-2.146768122911453247e-01,-6.560577154159545898e-01,1.969782710075378418e-01,3.677344024181365967e-01,-4.692427814006805420e-01,1.235803365707397461e-01,-5.114933252334594727e-01,4.533641636371612549e-01,-2.943780422210693359e-01,1.370712220668792725e-01,8.429034352302551270e-01,5.327984318137168884e-02,-3.150490522384643555e-01,4.872871637344360352e-01
-1.958498805761337280e-01,-5.934450030326843262e-01,-1.516292542219161987e-01,2.521007061004638672e-01,-5.257253050804138184e-01,-3.143338114023208618e-02,-5.907019972801208496e-01,4.102313816547393799e-01,-2.537629008293151855e-01,-4.972548782825469971e-02,7.298959493637084961e-01,1.667267084121704102e-01,-4.505780339241027832e-01,1.802170723676681519e-01
-3.258384764194488525e-01,-2.601596713066101074e-01,8.249592036008834839e-02,2.775006294250488281e-01,-3.377398848533630371e-01,-7.221873104572296143e-02,-7.205178141593933105e-01,3.218545019626617432e-01,-1.482206284999847412e-01,7.740835100412368774e-02,7.642996311187744141e-01,1.224709749221801758e-01,-2.282780259847640991e-01,3.367611765861511230e-01
-4.436217248439788818e-01,-3.756701350212097168e-01,-2.032179385423660278e-01,4.593411386013031006e-01,-5.547125935554504395e-01,-2.792978845536708832e-02,-5.590190887451171875e-01,1.587497293949127197e-01,-2.349037528038024902e-01,-9.557189792394638062e-02,6.964343190193176270e-01,1.049855202436447144e-01,-5.429865121841430664e-01,3.468233644962310791e-01
-5.906044244766235352e-01,-2.200727462768554688e-01,-9.828203171491622925e-02,5.467945933341979980e-01,-4.220386147499084473e-01,1.287857592105865479e-01,-7.271204590797424316e-01,-3.081798739731311798e-02,-1.023410186171531677e-01,-4.876353219151496887e-02,8.139739632606506348e-01,1.959007978439331055e-01,-4.515916407108306885e-01,2.070376724004745483e-01
-3.571608662605285645e-01,-1.866047084331512451e-01,-5.959828570485115051e-02,5.005363821983337402e-01,-3.671388924121856689e-01,1.871410198509693146e-02,-8.078408241271972656e-01,3.089316003024578094e-02,-3.386248350143432617e-01,-1.851140409708023071e-01,6.289668083190917969e-01,1.832460053265094757e-02,-6.559651494026184082e-01,1.755390763282775879e-01
-5.098564624786376953e-01,-8.697275072336196899e-02,-1.521746516227722168e-01,6.129320859909057617e-01,-7.015586495399475098e-01,2.036859095096588135e-01,-6.410520076751708984e-01,-1.392524838447570801e-01,-9.083187580108642578e-02,-2.070711851119995117e-01,4.657118618488311768e-01,1.130007207393646240e-01,-6.015322208404541016e-01,2.771814763545989990e-01
-4.504200816154479980e-01,-2.874268889427185059e-01,-1.591743081808090210e-01,5.035492777824401855e-01,-4.265211820602416992e-01,1.619761288166046143e-01,-5.593990087509155273e-01,-3.338631093502044678e-01,-2.197898328304290771e-01,-2.384978234767913818e-01,3.115961551666259766e-01,2.993924915790557861e-02,-7.810563445091247559e-01,2.469059228897094727e-01
-4.547851383686065674e-01,1.702935062348842621e-02,-3.175893723964691162e-01,4.826304912567138672e-01,-4.981757998466491699e-01,1.123576760292053223e-01,-6.933856010437011719e-01,-2.374646961688995361e-01,-1.682035624980926514e-01,-2.167263031005859375e-01,3.593271374702453613e-01,6.254176050424575806e-02,-5.140374898910522461e-01,1.278082430362701416e-01
-4.244285225868225098e-01,4.043606668710708618e-02,-3.750050365924835205e-01,4.900776147842407227e-01,-4.563613533973693848e-01,1.799652874469757080e-01,-7.549111843109130859e-01,-1.666482537984848022e-01,-9.886004030704498291e-02,-3.799701035022735596e-01,4.191533923149108887e-01,-3.181755244731903076e-01,-9.206503629684448242e-01,1.553736776113510132e-01
-3.633587062358856201e-01,1.889038085937500000e-01,-3.242154717445373535e-01,3.545491099357604980e-01,-3.746345341205596924e-01,-7.329207658767700195e-02,-7.772671580314636230e-01,-2.193854600191116333e-01,-3.012671507894992828e-02,-6.231093406677246094e-01,1.470686197280883789e-01,-1.109727770090103149e-01,-8.803719282150268555e-01,1.328871250152587891e-01
-7.361270785331726074e-01,5.877976119518280029e-02,-2.848889529705047607e-01,2.192064076662063599e-01,-4.238034188747406006e-01,1.499417126178741455e-01,-6.166816353797912598e-01,-2.314260005950927734e-01,1.962955743074417114e-01,-4.419186711311340332e-01,1.738122105598449707e-02,-3.080292642116546631e-01,-7.948878407478332520e-01,-5.139149352908134460e-02
-4.753316044807434082e-01,2.998540699481964111e-01,-3.207857012748718262e-01,3.089234232902526855e-01,-1.187215596437454224e-01,1.317553669214248657e-01,-3.327026665210723877e-01,-3.193687200546264648e-01,1.716671586036682129e-01,-3.171314001083374023e-01,1.272364109754562378e-01,-5.120636224746704102e-01,-9.654776453971862793e-01,-7.960364967584609985e-02
-3.595960438251495361e-01,9.909848123788833618e-02,-2.443696558475494385e-01,3.415039181709289551e-01,-1.938069313764572144e-01,-2.151285484433174133e-02,-4.984069764614105225e-01,-4.257189631462097168e-01,1.346388459205627441e-01,-1.792708635330200195e-01,-5.020523094572126865e-04,-4.424555003643035889e-01,-7.379093766212463379e-01,-4.296770691871643066e-02
-4.595868289470672607e-01,2.124859094619750977e-01,-1.967555135488510132e-01,1.479287147521972656e-01,-3.670788183808326721e-02,7.735907286405563354e-02,-5.955446362495422363e-01,-2.418553978204727173e-01,4.392562806606292725e-01,-2.188958227634429932e-01,-1.685368712060153484e-03,-3.544395565986633301e-01,-5.363010168075561523e-01,-1.094167381525039673e-01
-4.251792728900909424e-01,1.379105746746063232e-01,-1.318355500698089600e-01,5.815991759300231934e-02,-1.087985262274742126e-01,1.886509507894515991e-01,-5.260064005851745605e-01,-2.409967929124832153e-01,5.237911939620971680e-01,-8.795074373483657837e-02,1.938882917165756226e-01,-4.282782673835754395e-01,-8.352581262588500977e-01,-1.410985589027404785e-01
-4.377617835998535156e-01,2.269581258296966553e-01,9.922723472118377686e-02,9.196874499320983887e-02,-1.504800468683242798e-01,2.510778009891510010e-01,-5.717099905014038086e-01,-2.288294881582260132e-01,5.455968976020812988e-01,-1.012456044554710388e-01,5.809707567095756531e-02,-2.841777205467224121e-01,-6.470872759819030762e-01,-1.371644586324691772e-01
-4.497440755367279053e-01,3.766001164913177490e-01,-1.725699305534362793e-01,2.639513015747070312e-01,-2.557432353496551514e-01,3.386308252811431885e-01,-4.449933469295501709e-01,-7.907605171203613281e-02,6.171668767929077148e-01,-1.963425055146217346e-02,-1.153372079133987427e-01,-4.384884238243103027e-01,-5.690652132034301758e-01,-1.872452050447463989e-01
-5.316493511199951172e-01,5.549918413162231445e-01,3.273031115531921387e-02,1.444997042417526245e-01,-2.457505762577056885e-01,3.580003082752227783e-01,-6.164677143096923828e-01,-4.254661872982978821e-02,6.487241387367248535e-01,1.069343835115432739e-02,-1.148541420698165894e-01,-3.821319937705993652e-01,-6.255185008049011230e-01,-4.872841238975524902e-01
-4.580535888671875000e-01,4.642882347106933594e-01,1.065579181158682331e-05,4.383211955428123474e-02,-2.202545851469039917e-01,6.453409194946289062e-01,-4.077908694744110107e-01,-9.648105502128601074e-02,7.477062344551086426e-01,2.127981483936309814e-01,-1.508939117193222046e-01,-3.624145686626434326e-01,-5.111072659492492676e-01,-2.754090428352355957e-01
-5.032879710197448730e-01,3.738507628440856934e-01,2.099927961826324463e-01,-8.363348245620727539e-02,-3.517690002918243408e-01,4.474241733551025391e-01,-4.258843958377838135e-01,-5.460279434919357300e-02,8.351976871490478516e-01,3.383565545082092285e-01,5.004047974944114685e-02,-4.050587415695190430e-01,-5.745459794998168945e-01,-3.617763519287109375e-01
-3.031307756900787354e-01,3.293803334236145020e-01,-3.207355365157127380e-02,-8.998987264931201935e-03,-4.510847330093383789e-01,5.154131054878234863e-01,-2.466543018817901611e-01,-6.647530198097229004e-02,5.737146735191345215e-01,1.331603527069091797e-01,2.026034593582153320e-01,-2.614451348781585693e-01,-2.825757861137390137e-01,-3.605331778526306152e-01
-2.746071815490722656e-01,6.405318379402160645e-01,5.615486949682235718e-02,-7.519144564867019653e-02,-4.613900780677795410e-01,5.943164229393005371e-01,-3.264091312885284424e-01,9.987306594848632812e-02,8.701594471931457520e-01,2.958898246288299561e-01,6.783076561987400055e-03,-2.353895902633666992e-01,-1.878617107868194580e-01,-4.855996072292327881e-01
-2.867488265037536621e-01,5.323337316513061523e-01,6.593794375658035278e-02,-1.132618188858032227e-01,-4.106323421001434326e-01,6.619368195533752441e-01,-2.485560625791549683e-01,1.784309446811676025e-01,8.048892021179199219e-01,1.849112361669540405e-01,2.875261306762695312e-01,-1.608794927597045898e-01,-1.313568502664566040e-01,-5.126306414604187012e-01
-4.655516147613525391e-01,5.608010292053222656e-01,-7.884220778942108154e-02,1.866894587874412537e-02,-5.718636512756347656e-01,6.728646159172058105e-01,-2.386475652456283569e-01,3.066337108612060547e-02,6.176345348358154297e-01,4.888063967227935791e-01,3.049500882625579834e-01,-1.225229054689407349e-01,-4.714878648519515991e-02,-5.027303099632263184e-01
-2.051821798086166382e-01,7.246720194816589355e-01,1.531267613172531128e-01,-2.616909444332122803e-01,-5.309598445892333984e-01,9.114021062850952148e-01,-2.548112869262695312e-01,-2.474414557218551636e-02,6.551954150199890137e-01,3.440872132778167725e-01,3.018403351306915283e-01,-9.037543833255767822e-02,1.255218032747507095e-02,-3.570480644702911377e-01
-2.191004008054733276e-01,5.953768491744995117e-01,1.949909776449203491e-01,-4.642040431499481201e-01,-8.919853568077087402e-01,6.571906805038452148e-01,-1.808991283178329468e-01,1.163649559020996094e-01,7.355419993400573730e-01,3.197747468948364258e-01,2.216832637786865234e-01,-4.615717008709907532e-02,-9.837264567613601685e-02,-4.910741150379180908e-01
-1.407135576009750366e-01,5.590690970420837402e-01,1.538813710212707520e-01,-6.185561418533325195e-01,-6.840845346450805664e-01,6.719872355461120605e-01,-1.832897663116455078e-01,2.027569115161895752e-01,6.535437703132629395e-01,1.943097561597824097e-01,2.910761833190917969e-01,8.646994829177856445e-02,-1.168115809559822083e-01,-3.097606897354125977e-01
5.727306753396987915e-02,5.745134353637695312e-01,4.700994491577148438e-02,-6.193475723266601562e-01,-7.140638232231140137e-01,5.027109980583190918e-01,-2.941783666610717773e-01,2.201941609382629395e-01,6.286303400993347168e-01,2.661162018775939941e-01,3.337556421756744385e-01,-9.013112634420394897e-02,-3.249002620577812195e-02,-2.823229432106018066e-01
1.880274564027786255e-01,6.674180030822753906e-01,3.874931633472442627e-01,-6.867579817771911621e-01,-7.837299704551696777e-01,5.136346817016601562e-01,-1.014030501246452332e-01,1.491433978080749512e-01,6.677433252334594727e-01,2.580854296684265137e-01,2.929443120956420898e-01,-3.334204480051994324e-02,1.017091423273086548e-01,-3.635644614696502686e-01
2.904822528362274170e-01,4.998286962509155273e-01,5.146444439888000488e-01,-6.263941526412963867e-01,-6.496535539627075195e-01,5.429024100303649902e-01,-1.672749221324920654e-01,-2.845938503742218018e-02,3.944505155086517334e-01,1.338713616132736206e-01,2.214227318763732910e-01,2.139023393392562866e-01,-2.722896039485931396e-01,-3.245896100997924805e-01
2.368230223655700684e-01,2.115501314401626587e-01,5.132450461387634277e-01,-8.263206481933593750e-01,-5.499942898750305176e-01,4.677369892597198486e-01,1.630459539592266083e-02,-1.305446028709411621e-01,4.444650113582611084e-01,2.322870641946792603e-01,1.878981441259384155e-01,2.354713976383209229e-01,-2.553206086158752441e-01,-2.630221247673034668e-01
3.813758790493011475e-01,3.004366159439086914e-01,4.343327879905700684e-01,-9.030483365058898926e-01,-5.776152610778808594e-01,4.138672351837158203e-01,-2.436545491218566895e-01,8.561840280890464783e-03,5.075511336326599121e-01,1.085183545947074890e-01,2.361830621957778931e-01,1.742794960737228394e-01,-2.404602915048599243e-01,-1.742003709077835083e-01
1.252629756927490234e-01,3.141112923622131348e-01,4.547755420207977295e-01,-7.714943885803222656e-01,-6.605122089385986328e-01,1.341015845537185669e-01,-3.270326256752014160e-01,-6.551863253116607666e-02,6.119050979614257812e-01,2.166109383106231689e-01,2.158313058316707611e-02,3.946962058544158936e-01,-2.488683909177780151e-01,-1.667288690805435181e-01
1.704499423503875732e-01,3.983938694000244141e-01,6.216692924499511719e-01,-8.897299766540527344e-01,-4.372994601726531982e-01,9.082060307264328003e-02,-1.478100568056106567e-01,-7.959524542093276978e-02,6.663225293159484863e-01,5.443413928151130676e-02,1.032536923885345459e-01,2.883834540843963623e-01,-3.126134574413299561e-01,1.284678932279348373e-03
2.337844371795654297e-01,1.694049239158630371e-01,6.398478746414184570e-01,-7.540242671966552734e-01,-3.159009218215942383e-01,1.725147366523742676e-01,-5.144475698471069336e-01,1.331183612346649170e-01,5.332655310630798340e-01,1.487876325845718384e-01,1.750455349683761597e-01,4.760758280754089355e-01,-1.310429573059082031e-01,-1.116660237312316895e-01
2.772679030895233154e-01,3.043854236602783203e-01,5.445721149444580078e-01,-8.628113865852355957e-01,-3.679568171501159668e-01,3.072099946439266205e-02,-2.342513501644134521e-01,8.679197728633880615e-02,3.855617642402648926e-01,9.244184941053390503e-02,-8.293043076992034912e-02,4.837383329868316650e-01,-2.648700475692749023e-01,4.905271902680397034e-02
2.190407663583755493e-01,2.923989892005920410e-01,5.271129608154296875e-01,-7.771123647689819336e-01,-3.458371460437774658e-01,-2.021033130586147308e-02,-2.854157090187072754e-01,1.786704361438751221e-02,3.973261117935180664e-01,1.177468150854110718e-01,-8.060176670551300049e-02,5.468943119049072266e-01,-2.455415017902851105e-02,-1.368392556905746460e-01
1.934508532285690308e-01,4.284034371376037598e-01,5.657685995101928711e-01,-7.284182310104370117e-01,-3.704615533351898193e-01,7.457644212990999222e-03,-4.665371477603912354e-01,-5.044632405042648315e-02,2.954550683498382568e-01,7.545593380928039551e-02,-2.390404790639877319e-01,3.100420236587524414e-01,6.463649123907089233e-02,-2.324872612953186035e-01
7.835144549608230591e-02,2.669715285301208496e-01,4.885767698287963867e-01,-5.620666146278381348e-01,-2.336029261350631714e-01,1.946141198277473450e-02,-5.037920475006103516e-01,-3.729322925209999084e-02,2.745601236820220947e-01,3.385349363088607788e-02,-7.944557070732116699e-02,5.238733291625976562e-01,-1.523140221834182739e-01,-2.819227874279022217e-01
8.661633357405662537e-03,4.346196949481964111e-01,5.623418688774108887e-01,-5.476671457290649414e-01,-2.829962074756622314e-01,-1.717149466276168823e-01,-6.166892647743225098e-01,-1.928232908248901367e-01,2.216858565807342529e-01,-9.064457565546035767e-02,1.136094238609075546e-02,4.695481956005096436e-01,-6.777610629796981812e-02,-2.044781148433685303e-01
1.122165247797966003e-01,6.304075121879577637e-01,4.362643063068389893e-01,-5.870510935783386230e-01,1.455705910921096802e-01,-1.289263963699340820e-01,-6.043589115142822266e-01,6.253531575202941895e-02,3.183627724647521973e-01,-8.935631252825260162e-03,-3.562254458665847778e-02,3.513239920139312744e-01,-1.382212340831756592e-02,-2.879014909267425537e-01
-5.300338938832283020e-02,6.301968693733215332e-01,3.987593352794647217e-01,-5.326548218727111816e-01,-9.535174071788787842e-02,-1.444000005722045898e-01,-5.104631781578063965e-01,8.129966259002685547e-02,2.811685800552368164e-01,-8.911247551441192627e-02,-2.041262090206146240e-01,6.110404133796691895e-01,1.215859577059745789e-01,-3.537774384021759033e-01
-1.208498477935791016e-01,6.631386876106262207e-01,3.431906700134277344e-01,-3.800409734249114990e-01,-1.663582324981689453e-01,-2.421799451112747192e-01,-4.578811228275299072e-01,-1.326108872890472412e-01,3.303017020225524902e-01,-1.119440943002700806e-01,-1.813423186540603638e-01,5.736687779426574707e-01,-2.509096078574657440e-02,-2.322370857000350952e-01
-1.521859169006347656e-01,6.304844617843627930e-01,2.213856726884841919e-01,-4.479732811450958252e-01,-1.279834508895874023e-01,-1.286996603012084961e-01,-5.193145871162414551e-01,-1.260735988616943359e-01,2.455271184444427490e-01,-2.380148023366928101e-01,-1.984518021345138550e-01,4.016236364841461182e-01,-7.575371861457824707e-02,-4.625692367553710938e-01
-2.432990074157714844e-01,7.264963984489440918e-01,3.735094368457794189e-01,-3.190073072910308838e-01,-1.712495535612106323e-01,-2.272469401359558105e-01,-4.783883690834045410e-01,3.025069274008274078e-02,1.951022893190383911e-01,-3.123999536037445068e-01,-4.869883880019187927e-02,3.030676245689392090e-01,7.330893725156784058e-02,-6.383174061775207520e-01
-8.672375231981277466e-02,7.381074428558349609e-01,1.600840687751770020e-01,-2.366714328527450562e-01,-9.006608277559280396e-02,-1.899682283401489258e-01,-3.483882546424865723e-01,-9.782692790031433105e-02,3.099803030490875244e-01,-4.508441686630249023e-01,-3.723228573799133301e-01,3.087714612483978271e-01,-8.688645809888839722e-02,-4.283986389636993408e-01
-2.523281574249267578e-01,8.588922023773193359e-01,1.414086222648620605e-01,-3.781463503837585449e-01,-5.410606041550636292e-02,-1.415042132139205933e-01,-2.161675095558166504e-01,5.865962058305740356e-02,4.216993749141693115e-01,-4.629771709442138672e-01,-2.825782001018524170e-01,5.257233232259750366e-02,-5.918675661087036133e-02,-3.833384215831756592e-01
-2.871843278408050537e-01,8.341929316520690918e-01,1.415154337882995605e-01,-1.838395595550537109e-01,-1.677206009626388550e-01,-1.963199377059936523e-01,-1.988824456930160522e-01,-1.115772202610969543e-01,4.166036844253540039e-01,-4.813828170299530029e-01,-1.904569417238235474e-01,2.733434736728668213e-02,6.824386119842529297e-02,-4.921244382858276367e-01
1.112009286880493164e-01,7.113155126571655273e-01,3.707733750343322754e-01,-1.478581726551055908e-01,-8.796997368335723877e-02,-3.267079889774322510e-01,-7.767435163259506226e-02,-3.017175570130348206e-02,5.510804057121276855e-01,-3.621461391448974609e-01,-2.194457501173019409e-01,6.142745912075042725e-02,8.002400398254394531e-02,-6.124634742736816406e-01
1.320668011903762817e-01,9.261438846588134766e-01,6.556841731071472168e-02,-2.012160867452621460e-01,-6.901469081640243530e-03,-2.286961078643798828e-01,-5.321985483169555664e-02,1.011598706245422363e-01,5.124220252037048340e-01,-5.923111438751220703e-01,-3.952109813690185547e-01,8.779273927211761475e-02,-1.980839297175407410e-02,-5.257344245910644531e-01
8.172210305929183960e-02,8.363112211227416992e-01,2.280183285474777222e-01,-2.686927616596221924e-01,2.326526120305061340e-02,-2.406468838453292847e-01,-1.356533765792846680e-01,7.912968099117279053e-02,4.146087467670440674e-01,-5.959550738334655762e-01,-9.945524483919143677e-02,-4.809940233826637268e-02,1.618058234453201294e-01,-6.113737225532531738e-01
1.249264553189277649e-01,5.826871395111083984e-01,4.285877048969268799e-01,-3.190101087093353271e-01,-2.946186251938343048e-02,-3.088939487934112549e-01,2.119694948196411133e-01,1.483953446149826050e-01,7.117682695388793945e-01,-4.481626451015472412e-01,-3.169928491115570068e-01,-1.284968554973602295e-01,7.538763433694839478e-02,-6.090955138206481934e-01
1.136306673288345337e-01,5.805311799049377441e-01,4.684860110282897949e-01,-3.597530722618103027e-01,-3.739882260560989380e-02,-3.290515542030334473e-01,-4.119336977601051331e-02,2.319089323282241821e-01,7.705731987953186035e-01,-4.832099676132202148e-01,-3.013428449630737305e-01,-1.844741404056549072e-01,1.512619554996490479e-01,-5.075522065162658691e-01
1.371971219778060913e-01,5.398344993591308594e-01,5.381080508232116699e-01,-3.641391992568969727e-01,5.786762759089469910e-02,-2.086355537176132202e-01,1.454682052135467529e-01,4.351844787597656250e-01,9.129464626312255859e-01,-3.992000222206115723e-01,-2.348652184009552002e-01,1.289731860160827637e-01,2.382413446903228760e-01,-4.664342105388641357e-01
3.507215157151222229e-02,5.761954784393310547e-01,6.375644207000732422e-01,-4.725319147109985352e-01,4.081815108656883240e-02,-3.368176817893981934e-01,3.026584386825561523e-01,5.590999722480773926e-01,7.036530375480651855e-01,-3.515758514404296875e-01,-1.452451199293136597e-01,-2.200755774974822998e-01,3.872876763343811035e-01,-4.528433978557586670e-01
1.393058300018310547e-01,3.532538414001464844e-01,7.848053574562072754e-01,-4.184410274028778076e-01,-8.474548161029815674e-02,-2.700170874595642090e-01,2.487384080886840820e-01,6.085894107818603516e-01,8.284389376640319824e-01,-3.136432468891143799e-01,3.173387423157691956e-02,-2.792423069477081299e-01,5.135486721992492676e-01,-2.373759001493453979e-01
1.721743494272232056e-01,3.095306456089019775e-01,7.618004679679870605e-01,-3.982529342174530029e-01,-2.848216295242309570e-01,-2.528441548347473145e-01,3.405585587024688721e-01,5.809020996093750000e-01,8.291205167770385742e-01,-2.703861594200134277e-01,1.109558492898941040e-01,-1.261450201272964478e-01,5.320872068405151367e-01,-3.730027973651885986e-01
2.851079702377319336e-01,4.105151295661926270e-01,8.163244724273681641e-01,-3.404538929462432861e-01,-6.308667361736297607e-02,-2.049415260553359985e-01,4.801005125045776367e-01,8.692523241043090820e-01,7.750091552734375000e-01,-2.356552332639694214e-01,2.099416255950927734e-01,1.953741349279880524e-02,7.272958159446716309e-01,-2.547296583652496338e-01
4.602727591991424561e-01,3.292060196399688721e-01,9.777112007141113281e-01,-5.507780313491821289e-01,-8.583398163318634033e-02,-9.204085171222686768e-02,1.882604807615280151e-01,8.263918161392211914e-01,6.273094415664672852e-01,-1.366091817617416382e-01,1.922285743057727814e-02,1.961782015860080719e-02,7.362998723983764648e-01,-1.008856594562530518e-01
1.354034394025802612e-01,3.333582729101181030e-02,9.019827842712402344e-01,-3.554374873638153076e-01,-1.672354638576507568e-01,9.703396260738372803e-02,3.679429888725280762e-01,9.578123092651367188e-01,6.925140619277954102e-01,-2.150838524103164673e-01,2.473660111427307129e-01,-2.446298114955425262e-02,7.876763939857482910e-01,-3.434847295284271240e-01
3.501813113689422607e-01,2.521118223667144775e-01,9.738265872001647949e-01,-2.544996440410614014e-01,-1.057172641158103943e-01,7.974094152450561523e-02,1.771890372037887573e-01,7.571059465408325195e-01,6.484875679016113281e-01,8.225446566939353943e-03,2.827866375446319580e-01,1.086519286036491394e-01,8.527041673660278320e-01,-2.504136264324188232e-01
3.579897582530975342e-01,-8.652902906760573387e-04,6.520403623580932617e-01,-4.061064720153808594e-01,-2.480093836784362793e-01,1.465033292770385742e-01,3.107876479625701904e-01,1.016796588897705078e+00,5.694020986557006836e-01,-1.397667080163955688e-01,4.337692558765411377e-01,2.326677739620208740e-01,9.368119835853576660e-01,-1.480981111526489258e-01
1.198082417249679565e-01,4.387187212705612183e-02,8.683993816375732422e-01,-3.441435992717742920e-01,-3.418481647968292236e-01,-2.358340844511985779e-02,2.620112895965576172e-01,8.576526045799255371e-01,5.868461728096008301e-01,-2.050789445638656616e-02,5.463848114013671875e-01,1.653492748737335205e-01,8.711302280426025391e-01,-1.759472191333770752e-01
1.433272510766983032e-01,3.076668828725814819e-02,8.354203104972839355e-01,-5.096426606178283691e-01,-4.851980805397033691e-01,-1.745115071535110474e-01,1.802892684936523438e-01,8.278880715370178223e-01,6.391141414642333984e-01,-1.606205254793167114e-01,4.386876225471496582e-01,1.724866032600402832e-01,9.174016118049621582e-01,-1.669170409440994263e-01
3.134161233901977539e-01,-2.173242717981338501e-02,8.196042776107788086e-01,-3.093711137771606445e-01,-4.107785522937774658e-01,-5.841675028204917908e-02,4.560484886169433594e-01,8.748173713684082031e-01,4.939968585968017578e-01,-3.198335319757461548e-02,5.319557189941406250e-01,1.730585992336273193e-01,8.381195068359375000e-01,1.519145220518112183e-01
3.193976581096649170e-01,-8.436977863311767578e-02,8.421220183372497559e-01,-4.593548476696014404e-01,-4.164422452449798584e-01,7.544162124395370483e-02,3.489323258399963379e-01,5.796087980270385742e-01,2.813349962234497070e-01,-1.819011867046356201e-01,4.817428886890411377e-01,7.115062326192855835e-02,6.950940489768981934e-01,1.017163321375846863e-01
4.126697778701782227e-01,-1.703587770462036133e-01,8.220243453979492188e-01,-3.605647385120391846e-01,-3.459458947181701660e-01,-1.265869736671447754e-01,4.491023719310760498e-01,7.620087862014770508e-01,4.189232885837554932e-01,-3.493968248367309570e-01,3.758296072483062744e-01,1.681729108095169067e-01,6.007217168807983398e-01,-1.575495898723602295e-01
3.311126232147216797e-01,-6.420779973268508911e-02,9.307104945182800293e-01,-3.031139969825744629e-01,-4.494652748107910156e-01,-1.475079953670501709e-01,2.193570435047149658e-01,6.376199722290039062e-01,3.925776481628417969e-01,-4.953309148550033569e-02,3.435997962951660156e-01,1.956838071346282959e-01,6.807674765586853027e-01,2.635160982608795166e-01
1.544883400201797485e-01,-3.258252739906311035e-01,7.492448687553405762e-01,-3.478892445564270020e-01,-2.070592939853668213e-01,-2.292465716600418091e-01,3.892351686954498291e-01,7.446869015693664551e-01,3.104858696460723877e-01,-3.967741727828979492e-01,5.650795102119445801e-01,1.879031956195831299e-01,5.497692823410034180e-01,3.646482825279235840e-01
2.569056153297424316e-01,-2.648012638092041016e-01,9.018633961677551270e-01,-2.862603068351745605e-01,-2.470753639936447144e-01,-2.005724161863327026e-01,3.033732473850250244e-01,5.714266300201416016e-01,3.956303298473358154e-01,-4.610100090503692627e-01,5.813231468200683594e-01,5.211943387985229492e-02,3.457391262054443359e-01,3.993167281150817871e-01
1.558016538619995117e-01,-1.750833094120025635e-01,8.653054237365722656e-01,-2.068033069372177124e-01,-6.824815273284912109e-02,-2.454708814620971680e-01,8.991535007953643799e-02,3.916760087013244629e-01,2.039527148008346558e-01,-4.965123236179351807e-01,2.288270741701126099e-01,-3.530052304267883301e-02,2.519986033439636230e-01,4.246822297573089600e-01
-1.819223910570144653e-02,-2.496272921562194824e-01,6.619389653205871582e-01,-2.123431861400604248e-01,-5.798584222793579102e-02,-5.330960154533386230e-01,7.210461050271987915e-02,3.650219142436981201e-01,4.323674142360687256e-01,-4.402552545070648193e-01,3.126641213893890381e-01,1.046092808246612549e-01,2.540864348411560059e-01,5.655105113983154297e-01
2.082228213548660278e-01,-4.528734087944030762e-01,5.980603098869323730e-01,-1.480690687894821167e-01,7.210256904363632202e-02,-6.587132215499877930e-01,1.776483468711376190e-02,1.616163998842239380e-01,2.387109249830245972e-01,-6.467266082763671875e-01,1.855072528123855591e-01,-1.161852553486824036e-01,2.973291277885437012e-01,5.470193028450012207e-01
1.304307281970977783e-01,-5.198608040809631348e-01,6.827644109725952148e-01,-2.923035323619842529e-01,8.644694834947586060e-02,-3.727349936962127686e-01,9.505312144756317139e-02,6.210585236549377441e-01,-2.209913916885852814e-02,-4.981971383094787598e-01,-4.478504881262779236e-03,-2.197811603546142578e-01,4.512045904994010925e-02,5.496736764907836914e-01
-1.982869394123554230e-02,-4.339680969715118408e-01,7.902158498764038086e-01,-5.481502786278724670e-02,1.783168166875839233e-01,-4.652500152587890625e-01,2.864954806864261627e-02,1.056630313396453857e-01,4.284351468086242676e-01,-6.802968978881835938e-01,1.811031103134155273e-01,-2.812643945217132568e-01,3.897457569837570190e-02,5.209746360778808594e-01
8.164762705564498901e-02,-5.256992578506469727e-01,6.595826148986816406e-01,-1.874767690896987915e-01,3.898070156574249268e-01,-3.667918443679809570e-01,8.995292335748672485e-02,2.856907844543457031e-01,8.542437106370925903e-02,-5.101910233497619629e-01,5.969931185245513916e-02,-3.320674002170562744e-01,6.064052879810333252e-02,3.979291915893554688e-01
-3.033159375190734863e-01,-2.663278281688690186e-01,7.561519742012023926e-01,7.289113104343414307e-02,4.980260431766510010e-01,-4.318854510784149170e-01,-2.188375145196914673e-01,4.013738632202148438e-01,1.833049952983856201e-01,-3.740916848182678223e-01,-1.511647403240203857e-01,-3.408024907112121582e-01,9.572254121303558350e-02,3.473385274410247803e-01
-1.696203052997589111e-01,-2.749396264553070068e-01,3.696784377098083496e-01,3.751971423625946045e-01,4.526737928390502930e-01,-3.079784214496612549e-01,-1.351706981658935547e-01,4.632422029972076416e-01,1.394696980714797974e-01,-5.210648179054260254e-01,7.146276533603668213e-02,-1.375221312046051025e-01,-2.072474360466003418e-01,5.248185992240905762e-01
-4.347512423992156982e-01,-2.088058143854141235e-01,3.145891726016998291e-01,3.599106371402740479e-01,6.226784586906433105e-01,-3.170842528343200684e-01,-2.119263112545013428e-01,4.859662055969238281e-01,1.421878486871719360e-01,-3.525565266609191895e-01,1.756896078586578369e-01,-4.480997622013092041e-01,-3.551391512155532837e-02,4.718217551708221436e-01
-3.966137468814849854e-01,-5.226058140397071838e-02,2.535015344619750977e-01,1.910866498947143555e-01,6.268182396888732910e-01,-3.094600439071655273e-01,-3.504686355590820312e-01,2.828800976276397705e-01,1.556132435798645020e-01,-5.824942588806152344e-01,-1.155745238065719604e-01,-2.661158740520477295e-01,-2.881851233541965485e-02,3.301267325878143311e-01
-4.223943650722503662e-01,5.630053207278251648e-02,3.594620525836944580e-01,3.355613946914672852e-01,5.663611292839050293e-01,-2.051387429237365723e-01,-2.234165221452713013e-01,3.275949954986572266e-01,2.398287206888198853e-01,-4.515806138515472412e-01,-8.786836266517639160e-02,-4.909956455230712891e-01,-7.531822472810745239e-02,1.801657974720001221e-01
-6.633319258689880371e-01,6.571026146411895752e-02,2.800477445125579834e-01,4.133566617965698242e-01,4.523414373397827148e-01,-1.079463362693786621e-01,-3.421931862831115723e-01,2.282309383153915405e-01,1.785252392292022705e-01,-4.858361482620239258e-01,7.530086487531661987e-02,-4.238644242286682129e-01,3.885366022586822510e-02,8.202465623617172241e-02
-6.831358671188354492e-01,8.884585648775100708e-02,1.896824240684509277e-01,5.051673650741577148e-01,5.789696574211120605e-01,4.337092861533164978e-02,-2.907658815383911133e-01,8.185003697872161865e-02,1.257933080196380615e-01,-1.464532464742660522e-01,1.715493947267532349e-01,-6.993501782417297363e-01,-1.456166952848434448e-01,9.016936272382736206e-02
-6.098359823226928711e-01,1.022771671414375305e-01,1.038910821080207825e-01,5.441298484802246094e-01,5.886718630790710449e-01,3.452375903725624084e-02,-2.732419669628143311e-01,1.098614260554313660e-01,8.124491572380065918e-02,-3.509807884693145752e-01,1.977542787790298462e-02,-6.615811586380004883e-01,-7.515611127018928528e-03,1.341734230518341064e-01
-7.573887109756469727e-01,1.873146146535873413e-01,1.703627705574035645e-01,6.072358489036560059e-01,6.053808927536010742e-01,7.859635166823863983e-03,-3.165880143642425537e-01,1.952784135937690735e-02,1.153603792190551758e-01,-3.458295166492462158e-01,1.291452050209045410e-01,-8.928198218345642090e-01,-2.085348069667816162e-01,2.350779324769973755e-01
-5.787978768348693848e-01,2.787187695503234863e-01,-2.040138468146324158e-02,3.156633377075195312e-01,5.152625441551208496e-01,3.374726176261901855e-01,-1.741915941238403320e-01,2.012918889522552490e-01,2.585316300392150879e-01,-2.730552554130554199e-01,1.486193537712097168e-01,-8.009658455848693848e-01,-1.177170723676681519e-01,-3.178431093692779541e-02
-6.056489944458007812e-01,3.700813651084899902e-01,7.299517095088958740e-02,3.833751082420349121e-01,4.808173477649688721e-01,2.502164840698242188e-01,-1.096943095326423645e-01,1.176393255591392517e-01,1.923685073852539062e-01,-2.071607559919357300e-01,2.633180618286132812e-01,-7.938946485519409180e-01,-1.834603697061538696e-01,-2.749562449753284454e-02
-5.365098714828491211e-01,1.415209919214248657e-01,1.783572584390640259e-01,1.224371045827865601e-01,3.908087909221649170e-01,3.957309126853942871e-01,-8.592464961111545563e-03,1.207709610462188721e-01,1.177142858505249023e-01,-1.978410780429840088e-01,1.635100692510604858e-02,-8.392361998558044434e-01,-1.398645639419555664e-01,4.333783313632011414e-02
-5.951190590858459473e-01,1.546434909105300903e-01,-1.074506267905235291e-01,2.674305737018585205e-01,5.718972682952880859e-01,1.844187527894973755e-01,-1.066457405686378479e-01,2.012466788291931152e-01,2.746593952178955078e-01,-2.238259166479110718e-01,1.786890476942062378e-01,-9.900727272033691406e-01,-9.525389969348907471e-02,-7.546237111091613770e-02
-5.430938601493835449e-01,2.395772635936737061e-01,-6.604537367820739746e-02,1.981707960367202759e-01,5.571311712265014648e-01,2.973348796367645264e-01,-5.484334006905555725e-02,1.608651876449584961e-01,4.167202413082122803e-01,9.584198147058486938e-02,2.947703897953033447e-01,-1.066236019134521484e+00,-7.464825361967086792e-02,-2.064684778451919556e-02
-5.446630120277404785e-01,-9.632721543312072754e-03,-1.781456768512725830e-01,7.247381657361984253e-02,6.937393546104431152e-01,3.675166368484497070e-01,-1.241809055209159851e-01,2.119737565517425537e-01,1.834053546190261841e-01,1.447842866182327271e-01,2.188771367073059082e-01,-1.046769261360168457e+00,-1.332488656044006348e-01,4.505568742752075195e-02
-3.207601606845855713e-01,1.832740902900695801e-01,1.228989958763122559e-01,6.062333658337593079e-02,4.778593182563781738e-01,4.383631944656372070e-01,-4.398002102971076965e-02,3.431128263473510742e-01,9.796429425477981567e-02,1.527367085218429565e-01,3.724566102027893066e-01,-1.120141744613647461e+00,-3.550651296973228455e-02,9.917922317981719971e-02
-4.184968173503875732e-01,2.094998061656951904e-01,6.596950441598892212e-02,-1.592339873313903809e-01,5.729284882545471191e-01,2.077938318252563477e-01,-6.866503506898880005e-02,1.035830527544021606e-01,2.890540361404418945e-01,2.372884452342987061e-01,2.063469886779785156e-01,-1.109179735183715820e+00,3.901888057589530945e-02,2.295238152146339417e-02
-2.882015109062194824e-01,2.886234819889068604e-01,1.340611726045608521e-01,-2.638281881809234619e-01,4.623653590679168701e-01,2.355030179023742676e-01,1.753275282680988312e-02,1.897471398115158081e-02,3.356586992740631104e-01,3.243768215179443359e-01,2.375447452068328857e-01,-1.063225507736206055e+00,-1.760662645101547241e-01,-2.724356949329376221e-03
-1.478099077939987183e-01,1.345352362841367722e-02,3.822737038135528564e-01,-2.742283344268798828e-01,7.231101989746093750e-01,3.809628486633300781e-01,3.566389158368110657e-02,1.707927286624908447e-01,4.075026512145996094e-01,3.509381711483001709e-01,1.824128925800323486e-01,-9.532604217529296875e-01,5.671645980328321457e-03,8.993724733591079712e-02
-1.785320229828357697e-02,5.037880688905715942e-02,2.733070254325866699e-01,-1.771517992019653320e-01,5.056372880935668945e-01,5.283108353614807129e-01,1.954848878085613251e-02,2.264257520437240601e-01,1.317089349031448364e-01,4.302406013011932373e-01,4.116472005844116211e-01,-7.716463804244995117e-01,-9.555924683809280396e-02,-8.185037970542907715e-02
-1.614022552967071533e-01,-6.498458236455917358e-02,1.445644050836563110e-01,-1.060145944356918335e-01,3.792552947998046875e-01,4.325294494628906250e-01,-2.223680540919303894e-02,3.012559413909912109e-01,1.308831721544265747e-01,7.287840247154235840e-01,5.644990205764770508e-01,-7.135969400405883789e-01,9.036249667406082153e-02,1.282941997051239014e-01
-1.863441318273544312e-01,7.386720925569534302e-02,1.952103525400161743e-01,-3.348608016967773438e-01,4.924844205379486084e-01,5.113295912742614746e-01,-1.413803845643997192e-01,3.298977017402648926e-01,3.697469457983970642e-02,7.032505273818969727e-01,2.033222317695617676e-01,-7.967242598533630371e-01,-1.320700347423553467e-01,1.887148618698120117e-01
-3.377204239368438721e-01,-1.400801539421081543e-01,1.507824510335922241e-01,-3.201643824577331543e-01,4.724553227424621582e-01,5.494237542152404785e-01,-2.736360728740692139e-01,1.374709010124206543e-01,6.567287445068359375e-02,5.646624565124511719e-01,3.704181909561157227e-01,-7.653891444206237793e-01,-4.329356923699378967e-02,2.672076225280761719e-01
-2.645289599895477295e-01,-6.363699585199356079e-02,2.361682802438735962e-01,-2.362965792417526245e-01,3.567772507667541504e-01,4.754237532615661621e-01,-4.899898171424865723e-01,9.407923370599746704e-02,-2.088998854160308838e-01,6.925400495529174805e-01,6.202537417411804199e-01,-6.782899498939514160e-01,1.135890409350395203e-01,1.783845424652099609e-01
-2.762971520423889160e-01,-2.539277635514736176e-02,1.770645231008529663e-01,1.050926148891448975e-01,3.867786526679992676e-01,7.103999257087707520e-01,-3.588030338287353516e-01,3.075086772441864014e-01,-5.812050774693489075e-02,8.083392381668090820e-01,7.383643388748168945e-01,-6.804674863815307617e-01,6.568480283021926880e-02,-1.874911636114120483e-01
-2.093226313591003418e-01,-2.833083085715770721e-02,2.396796494722366333e-01,-2.741462588310241699e-01,2.606421709060668945e-01,4.801658391952514648e-01,-5.574399232864379883e-01,1.434693783521652222e-01,-2.430659681558609009e-01,7.998465299606323242e-01,7.644205689430236816e-01,-3.972924053668975830e-01,1.809536665678024292e-01,1.879489719867706299e-01
-2.956365644931793213e-01,-1.202697977423667908e-01,8.476759493350982666e-02,-1.230809986591339111e-01,2.881671488285064697e-01,3.376969993114471436e-01,-5.419844388961791992e-01,7.395764440298080444e-02,-5.196742415428161621e-01,8.019445538520812988e-01,6.362885236740112305e-01,-5.596570372581481934e-01,1.290020644664764404e-01,1.734719723463058472e-01
-6.553640216588973999e-02,-1.532642394304275513e-01,-3.842034935951232910e-02,-2.292618900537490845e-01,2.799045741558074951e-01,4.190329909324645996e-01,-5.727244019508361816e-01,-1.871858164668083191e-02,-5.112599134445190430e-01,5.714117884635925293e-01,7.359085679054260254e-01,-6.106371879577636719e-01,1.536960527300834656e-02,-8.722908794879913330e-02
-2.270865738391876221e-01,1.143690347671508789e-01,-5.021185427904129028e-02,-2.600723206996917725e-01,6.087023019790649414e-01,3.961032330989837646e-01,-6.844976544380187988e-01,-1.213524937629699707e-01,-5.428402423858642578e-01,7.107843756675720215e-01,6.206550002098083496e-01,-2.913503050804138184e-01,-1.563292369246482849e-02,-5.582207441329956055e-02
-2.031261473894119263e-01,6.458633393049240112e-02,-2.471857368946075439e-01,-3.364728093147277832e-01,4.682219624519348145e-01,4.497232735157012939e-01,-6.978282332420349121e-01,-2.526032626628875732e-01,-6.919611692428588867e-01,7.408204674720764160e-01,3.796094059944152832e-01,-2.892815172672271729e-01,-3.291114866733551025e-01,1.096137762069702148e-01
-2.211259007453918457e-01,7.204150408506393433e-02,-2.421708852052688599e-01,-2.337554246187210083e-01,3.859795033931732178e-01,4.009551107883453369e-01,-6.282837986946105957e-01,-3.935752809047698975e-01,-7.347359657287597656e-01,4.253012239933013916e-01,5.431578159332275391e-01,-4.720409810543060303e-01,-1.878681480884552002e-01,-4.518399760127067566e-02
-3.613674044609069824e-01,1.760087609291076660e-01,-2.402975112199783325e-01,-1.194668114185333252e-01,4.098008275032043457e-01,3.796698749065399170e-01,-6.615849137306213379e-01,-4.632430076599121094e-01,-7.561717033386230469e-01,6.967697143554687500e-01,3.726021051406860352e-01,-3.498553931713104248e-01,-3.861756622791290283e-01,-1.245418414473533630e-01
-3.072498440742492676e-01,1.910470128059387207e-01,-1.359464675188064575e-01,-2.921024560928344727e-01,5.977360010147094727e-01,4.517065882682800293e-01,-6.700937747955322266e-01,-2.693564891815185547e-01,-7.671275138854980469e-01,5.073748826980590820e-01,3.986323177814483643e-01,-5.351247787475585938e-01,-2.703502774238586426e-01,-1.559187918901443481e-01
-2.871385514736175537e-01,1.602876633405685425e-01,-2.359463274478912354e-01,-1.942086368799209595e-01,6.464378833770751953e-01,2.136412709951400757e-01,-7.219394445419311523e-01,-3.689120709896087646e-01,-9.033268690109252930e-01,4.450438320636749268e-01,4.058913290500640869e-01,-4.398210048675537109e-01,-4.850649833679199219e-01,1.659229397773742676e-01
-1.089233011007308960e-01,2.055092602968215942e-01,-3.207614719867706299e-01,-2.843433618545532227e-01,5.520878434181213379e-01,2.505315542221069336e-01,-5.506985783576965332e-01,-5.043319463729858398e-01,-5.789723992347717285e-01,3.095148503780364990e-01,1.764538884162902832e-01,-4.213874042034149170e-01,-3.676334321498870850e-01,-3.946816176176071167e-02
-1.194418594241142273e-01,1.081392541527748108e-01,-3.097196519374847412e-01,-2.309824675321578979e-01,8.733865618705749512e-01,8.865812420845031738e-02,-8.032914996147155762e-01,-6.344596743583679199e-01,-5.105921626091003418e-01,3.242271542549133301e-01,2.185928449034690857e-02,-4.125368595123291016e-01,-3.943620920181274414e-01,-1.728526800870895386e-01
-1.832621991634368896e-01,2.357014417648315430e-01,-2.505448460578918457e-01,-3.253166973590850830e-01,6.514825224876403809e-01,1.438568085432052612e-01,-4.425840079784393311e-01,-5.847650766372680664e-01,-7.738146185874938965e-01,3.466660380363464355e-01,1.535726487636566162e-01,-4.619435667991638184e-01,-4.583064317703247070e-01,-3.695331141352653503e-02
-1.911116540431976318e-01,5.158581584692001343e-02,-3.752804100513458252e-01,7.891266047954559326e-02,6.936326026916503906e-01,7.835505157709121704e-02,-6.451109051704406738e-01,-7.811047434806823730e-01,-5.453542470932006836e-01,2.511549293994903564e-01,2.140347212553024292e-01,-7.040672898292541504e-01,-5.615008473396301270e-01,-2.331635355949401855e-01
-1.492584347724914551e-01,2.424023300409317017e-01,-2.739119827747344971e-01,-9.645979106426239014e-02,7.978670001029968262e-01,1.139616966247558594e-01,-7.087115645408630371e-01,-5.222173333168029785e-01,-5.486192703247070312e-01,3.829330205917358398e-01,-5.337769538164138794e-02,-4.901389479637145996e-01,-5.358471870422363281e-01,-1.575588583946228027e-01
-3.707427084445953369e-01,3.532798886299133301e-01,-4.047562777996063232e-01,-1.306495517492294312e-01,7.590100169181823730e-01,1.781387329101562500e-01,-7.917642593383789062e-01,-6.176397800445556641e-01,-5.095665454864501953e-01,3.549723327159881592e-01,1.633921521715819836e-03,-3.006656765937805176e-01,-2.550676465034484863e-01,-2.852179110050201416e-01
-2.116758376359939575e-01,2.507995963096618652e-01,-3.291564285755157471e-01,6.120534241199493408e-02,6.788793802261352539e-01,3.078331947326660156e-01,-7.438904047012329102e-01,-5.556290745735168457e-01,-5.266387462615966797e-01,5.485225319862365723e-01,1.112503111362457275e-01,-4.713579118251800537e-01,-2.256318777799606323e-01,-4.508045613765716553e-01
-3.764573037624359131e-01,3.859719038009643555e-01,-2.490679025650024414e-01,-4.852402955293655396e-02,6.693563461303710938e-01,2.646549344062805176e-01,-5.904526710510253906e-01,-5.061878561973571777e-01,-4.418863058090209961e-01,2.148350626230239868e-01,-3.616050630807876587e-02,-6.359097957611083984e-01,-3.445062935352325439e-01,-4.475802481174468994e-01
-2.479892969131469727e-01,4.539429247379302979e-01,-2.539407610893249512e-01,3.002985194325447083e-02,5.863431692123413086e-01,3.341017067432403564e-01,-6.281428933143615723e-01,-4.913446605205535889e-01,-1.506573259830474854e-01,5.341050028800964355e-01,1.682178825139999390e-01,-5.518240332603454590e-01,-3.013842701911926270e-01,-5.279300808906555176e-01
-1.210564970970153809e-01,3.872841000556945801e-01,-5.270600914955139160e-01,1.560887545347213745e-01,5.907847881317138672e-01,4.458602666854858398e-01,-6.826136112213134766e-01,-3.521158993244171143e-01,-2.758177220821380615e-01,4.987800717353820801e-01,-7.903198897838592529e-02,-5.139274597167968750e-01,-1.767774075269699097e-01,-5.864129066467285156e-01
-2.844904959201812744e-01,6.391666531562805176e-01,-3.224614858627319336e-01,1.522871255874633789e-01,4.898320436477661133e-01,5.777956247329711914e-01,-6.296209692955017090e-01,-2.360142320394515991e-01,-3.380820155143737793e-01,6.277467608451843262e-01,1.753319948911666870e-01,-6.781783103942871094e-01,1.713310033082962036e-01,-5.846142172813415527e-01
-2.129553072154521942e-02,6.022132635116577148e-01,-2.640966176986694336e-01,-1.172055825591087341e-01,4.666531383991241455e-01,4.209793210029602051e-01,-5.073136091232299805e-01,-2.783572375774383545e-01,-4.501042366027832031e-01,8.884989619255065918e-01,3.398731052875518799e-01,-4.188779592514038086e-01,1.408771723508834839e-01,-5.993651747703552246e-01
-3.038704022765159607e-02,4.372211694717407227e-01,-3.690200746059417725e-01,-2.355609647929668427e-02,3.584396243095397949e-01,6.506083607673645020e-01,-4.169112145900726318e-01,-3.323299288749694824e-01,-3.380000293254852295e-01,8.391954302787780762e-01,1.619226336479187012e-01,-4.503986537456512451e-01,1.458399295806884766e-01,-8.407545685768127441e-01
-3.532055392861366272e-02,6.362867951393127441e-01,-2.038895636796951294e-01,6.632716953754425049e-02,1.553662717342376709e-01,5.469966530799865723e-01,-2.170276492834091187e-01,-4.266355931758880615e-01,-2.699076533317565918e-01,6.340883374214172363e-01,2.636527717113494873e-01,-4.347691237926483154e-01,8.591251820325851440e-02,-1.118863105773925781e+00
3.577223047614097595e-02,7.804521918296813965e-01,-3.718889951705932617e-01,-2.199168950319290161e-01,1.084748581051826477e-01,8.521569371223449707e-01,-2.602641582489013672e-01,-3.026547133922576904e-01,-3.272402286529541016e-01,6.708124279975891113e-01,-1.005332916975021362e-03,-4.079832136631011963e-01,3.283285200595855713e-01,-8.689430356025695801e-01
2.757593430578708649e-02,6.265727877616882324e-01,-3.143444359302520752e-01,-1.999811828136444092e-01,1.873185932636260986e-01,7.823145389556884766e-01,1.377532184123992920e-01,-3.050628304481506348e-01,-1.916408687829971313e-01,6.066811084747314453e-01,2.371671944856643677e-01,-4.596827328205108643e-01,2.403697520494461060e-01,-9.921206235885620117e-01
1.067903265357017517e-01,5.374746918678283691e-01,-4.539555609226226807e-01,-2.752411663532257080e-01,-4.264333751052618027e-03,8.842859268188476562e-01,-3.236346179619431496e-03,-2.081491500139236450e-01,-1.940890252590179443e-01,6.735110282897949219e-01,3.180427253246307373e-01,-2.929607331752777100e-01,7.938372343778610229e-02,-1.125216364860534668e+00
2.346010655164718628e-01,5.081112980842590332e-01,-1.459698081016540527e-01,-2.728766500949859619e-01,-1.550542861223220825e-01,5.952358245849609375e-01,1.291610747575759888e-01,-3.491604328155517578e-01,-6.371288746595382690e-02,7.591406702995300293e-01,4.380496144294738770e-01,-3.479852080345153809e-01,5.764757096767425537e-02,-8.586322665214538574e-01
3.683456480503082275e-01,4.929853379726409912e-01,-2.505410611629486084e-01,-3.212937414646148682e-01,-1.312431097030639648e-01,7.336083650588989258e-01,2.561531662940979004e-01,-3.669864535331726074e-01,-1.855473667383193970e-01,5.514729022979736328e-01,4.600303471088409424e-01,-4.023960232734680176e-01,4.537863135337829590e-01,-8.390281200408935547e-01
5.591490864753723145e-01,3.235169649124145508e-01,1.646342128515243530e-01,-3.620937764644622803e-01,-1.449893712997436523e-01,8.174086809158325195e-01,6.517928838729858398e-02,-2.401196062564849854e-01,-2.211788296699523926e-02,8.383961319923400879e-01,3.817127048969268799e-01,-2.798448204994201660e-01,2.298918664455413818e-01,-9.055407643318176270e-01
5.194069743156433105e-01,5.138624906539916992e-01,3.249224722385406494e-01,-5.371109843254089355e-01,4.101958125829696655e-02,8.445409536361694336e-01,1.956214159727096558e-01,-1.675320267677307129e-01,2.110252343118190765e-02,7.742171883583068848e-01,1.354696005582809448e-01,-2.552179396152496338e-01,1.749056726694107056e-01,-8.761881589889526367e-01
6.502828598022460938e-01,3.923112452030181885e-01,1.223700344562530518e-01,-7.066335678100585938e-01,-2.366255223751068115e-01,7.096540331840515137e-01,2.635280191898345947e-01,-2.319314181804656982e-01,1.976410672068595886e-02,7.729721069335937500e-01,2.620814442634582520e-01,-3.428789079189300537e-01,5.155191421508789062e-01,-5.454953908920288086e-01
8.311327099800109863e-01,3.358783721923828125e-01,2.776587009429931641e-01,-6.810443997383117676e-01,-2.504842877388000488e-01,6.016973257064819336e-01,4.209423363208770752e-01,-1.371990740299224854e-01,-1.110324263572692871e-02,7.284653782844543457e-01,2.350097596645355225e-01,-2.114161103963851929e-01,5.467351675033569336e-01,-5.612048506736755371e-01
6.580654382705688477e-01,1.241249497979879379e-02,3.807591795921325684e-01,-7.781620025634765625e-01,-2.105863392353057861e-01,5.888721942901611328e-01,3.006280362606048584e-01,-3.485346138477325439e-01,9.083370864391326904e-02,6.039146184921264648e-01,2.922725677490234375e-01,-1.493211686611175537e-01,4.596714973449707031e-01,-6.210792660713195801e-01
6.869179606437683105e-01,1.205613762140274048e-01,3.469594419002532959e-01,-7.502421140670776367e-01,-1.793011128902435303e-01,4.861545562744140625e-01,2.974171936511993408e-01,-1.632225513458251953e-01,-3.420213609933853149e-02,7.972245812416076660e-01,2.753846049308776855e-01,-1.210205256938934326e-01,2.132540792226791382e-01,-4.129215776920318604e-01
8.059126138687133789e-01,1.739753782749176025e-01,5.200662016868591309e-01,-6.038939356803894043e-01,-5.902668088674545288e-02,7.150504589080810547e-01,3.451399505138397217e-01,-3.332020342350006104e-01,-1.715265661478042603e-01,6.611009836196899414e-01,1.765727400779724121e-01,-1.243597939610481262e-01,3.489521443843841553e-01,-4.682497382164001465e-01
8.217551112174987793e-01,-5.434589087963104248e-02,4.921552538871765137e-01,-7.955757379531860352e-01,-2.945342957973480225e-01,6.162371039390563965e-01,3.027318418025970459e-01,6.017566844820976257e-02,-4.372794181108474731e-02,5.141682028770446777e-01,2.155312895774841309e-01,2.452172525227069855e-02,4.260293543338775635e-01,-3.305139243602752686e-01
7.866800427436828613e-01,2.409415319561958313e-02,3.850667178630828857e-01,-6.715720295906066895e-01,-3.023163676261901855e-01,5.187739729881286621e-01,3.252417147159576416e-01,-8.315069228410720825e-02,-3.173499926924705505e-02,6.715907454490661621e-01,7.441929727792739868e-02,2.847944796085357666e-01,6.494749188423156738e-01,-3.248580694198608398e-01
8.707305192947387695e-01,-7.095707207918167114e-02,5.547484159469604492e-01,-4.815709888935089111e-01,-4.121437966823577881e-01,5.787250995635986328e-01,-2.528641745448112488e-02,-2.000274658203125000e-01,-1.530388593673706055e-01,5.172678828239440918e-01,2.379285097122192383e-01,1.584609597921371460e-01,5.446419119834899902e-01,-5.962612628936767578e-01
6.134166121482849121e-01,1.455133110284805298e-01,5.421489477157592773e-01,-4.503738880157470703e-01,-4.294526875019073486e-01,5.013649463653564453e-01,1.799372769892215729e-02,-4.315957129001617432e-01,-1.193317323923110962e-01,5.301091670989990234e-01,9.333756752312183380e-03,3.678508102893829346e-01,3.906436562538146973e-01,-3.236396908760070801e-01
5.236001014709472656e-01,7.705014944076538086e-02,2.460457235574722290e-01,-5.449168682098388672e-01,-3.047485053539276123e-01,4.691108465194702148e-01,-1.556630944833159447e-03,-4.526016116142272949e-01,-3.317517340183258057e-01,6.065326929092407227e-01,3.820125386118888855e-02,3.151058852672576904e-01,5.570034980773925781e-01,-3.549601435661315918e-01
4.036931693553924561e-01,1.359628289937973022e-01,3.993636667728424072e-01,-5.019147992134094238e-01,-3.949635624885559082e-01,4.077435135841369629e-01,-7.326030731201171875e-02,-1.795076131820678711e-01,-1.207775995135307312e-01,4.578315615653991699e-01,1.431558281183242798e-01,3.596849441528320312e-01,3.982592821121215820e-01,-4.229370057582855225e-01
5.223742723464965820e-01,8.592338114976882935e-02,3.001445233821868896e-01,-2.062961906194686890e-01,-4.527767300605773926e-01,3.895669579505920410e-01,3.201067447662353516e-02,-5.467160940170288086e-01,-1.490602195262908936e-01,3.905757665634155273e-01,1.864238083362579346e-02,2.269038707017898560e-01,2.562002837657928467e-01,-4.900271594524383545e-01
5.419492125511169434e-01,4.104554653167724609e-01,3.089486956596374512e-01,-2.855135202407836914e-01,-3.537825942039489746e-01,4.769394099712371826e-01,5.433018505573272705e-02,-4.478140771389007568e-01,-2.250076979398727417e-01,4.291118383407592773e-01,-1.625340580940246582e-01,4.539385735988616943e-01,3.963763415813446045e-01,-4.016375243663787842e-01
5.114142894744873047e-01,3.174822032451629639e-01,3.539386093616485596e-01,-3.724165856838226318e-01,-3.742967545986175537e-01,5.146870017051696777e-01,-1.838054955005645752e-01,-3.836950361728668213e-01,-9.544730186462402344e-02,1.617806730791926384e-03,-1.517891585826873779e-01,5.145011544227600098e-01,4.387129247188568115e-01,-4.307064414024353027e-01
4.255020618438720703e-01,4.451344311237335205e-01,2.817450761795043945e-01,-2.731586694717407227e-01,-2.192110270261764526e-01,3.437736630439758301e-01,8.084734529256820679e-02,-6.209220290184020996e-01,-2.981418669223785400e-01,2.557599842548370361e-01,-2.328047752380371094e-01,1.943901926279067993e-01,1.524727046489715576e-01,-3.434073925018310547e-01
3.879888057708740234e-01,4.524936676025390625e-01,2.208445668220520020e-01,-1.480028778314590454e-01,-2.908278107643127441e-01,2.636204957962036133e-01,-2.072564698755741119e-02,-8.096606731414794922e-01,-9.500444680452346802e-02,7.941272854804992676e-02,-1.635828465223312378e-01,3.381330072879791260e-01,1.202004626393318176e-01,-4.327138960361480713e-01
4.326176047325134277e-01,3.642500638961791992e-01,9.615042060613632202e-02,-3.424097299575805664e-01,-1.463689953088760376e-01,4.038420915603637695e-01,8.991353958845138550e-02,-9.156229496002197266e-01,-8.660446107387542725e-02,-1.138433068990707397e-02,-3.487383723258972168e-01,1.611047610640525818e-02,5.995724722743034363e-02,-4.152305424213409424e-01
4.317178428173065186e-01,3.243802785873413086e-01,3.119909577071666718e-02,-3.480404913425445557e-01,1.319372793659567833e-03,2.849934697151184082e-01,4.083740338683128357e-02,-7.337085604667663574e-01,-1.073700860142707825e-01,-6.425505876541137695e-02,-4.619327187538146973e-01,6.888961791992187500e-02,5.062974989414215088e-02,-3.939305245876312256e-01
