AF3,F7,F3,FC5,T7,P7,O1,O2,P8,T8,FC6,F4,F8,AF4
1.870495378971099854e-01,-3.064628541469573975e-01,-4.911913871765136719e-01,1.958024054765701294e-01,2.117118835449218750e-01,-2.898968458175659180e-01,-1.757271289825439453e-01,-6.730977445840835571e-02,-5.723902210593223572e-02,1.987466663122177124e-01,-9.469874948263168335e-02,3.433671593666076660e-01,-2.826457619667053223e-01,-9.432000666856765747e-02
-4.362185671925544739e-02,-1.371452808380126953e-01,-3.433903455734252930e-01,2.298098802566528320e-01,3.543770909309387207e-01,-4.554132521152496338e-01,-3.622651994228363037e-01,-1.492806077003479004e-01,-5.040699243545532227e-02,1.772922649979591370e-02,-6.286181509494781494e-02,2.444520443677902222e-01,-3.251509368419647217e-02,-2.404188513755798340e-01
4.379424825310707092e-02,-2.217865549027919769e-02,-5.498909354209899902e-01,-2.252401970326900482e-02,3.026327192783355713e-01,-5.904288887977600098e-01,-5.035684704780578613e-01,-3.003789186477661133e-01,3.767009824514389038e-02,4.300112649798393250e-02,4.598750919103622437e-02,5.261638164520263672e-01,-2.446825057268142700e-01,-1.193712949752807617e-01
-5.692516639828681946e-02,-4.577703028917312622e-02,-4.201500117778778076e-01,-1.471213400363922119e-01,3.191209137439727783e-01,-3.469874858856201172e-01,-3.004458844661712646e-01,1.262381821870803833e-01,5.091701447963714600e-02,-2.198515236377716064e-01,-7.149241119623184204e-02,2.691608667373657227e-01,-2.958779633045196533e-01,-2.442128211259841919e-01
4.161671176552772522e-02,-1.726429462432861328e-01,-7.300847172737121582e-01,-7.489585131406784058e-02,3.611634373664855957e-01,-4.405827522277832031e-01,-4.579945504665374756e-01,1.908444464206695557e-01,-1.546688526868820190e-01,-2.134116441011428833e-01,-1.459752768278121948e-01,4.427260160446166992e-01,-1.357347816228866577e-01,-1.670361459255218506e-01
5.998883396387100220e-02,-1.296620666980743408e-01,-4.226691126823425293e-01,-3.232164680957794189e-01,4.145746827125549316e-01,-5.471847057342529297e-01,-5.425372719764709473e-01,1.405429393053054810e-01,-5.428120866417884827e-02,-8.054882287979125977e-02,-3.368734717369079590e-01,2.266741842031478882e-01,-1.979405581951141357e-01,-8.235111087560653687e-02
1.454279422760009766e-01,-1.135604381561279297e-01,-5.286323428153991699e-01,-2.171573638916015625e-01,5.534919500350952148e-01,-7.273334264755249023e-01,-6.069874167442321777e-01,1.531561166048049927e-01,-7.976085692644119263e-02,-1.221730783581733704e-01,-1.250416785478591919e-01,2.343848049640655518e-01,-1.560224145650863647e-01,-2.824663221836090088e-01
-1.419176459312438965e-01,9.353513270616531372e-02,-7.410300970077514648e-01,-3.420962095260620117e-01,5.158610939979553223e-01,-9.383845329284667969e-01,-4.714150130748748779e-01,6.071365997195243835e-02,-1.737561225891113281e-01,-1.475137323141098022e-01,-2.504307217895984650e-02,3.587557673454284668e-01,-1.893614679574966431e-01,-3.382673561573028564e-01
1.469015926122665405e-01,1.667599380016326904e-02,-5.177000761032104492e-01,-3.062629699707031250e-01,6.870552897453308105e-01,-6.204035878181457520e-01,-5.027403235435485840e-01,1.455952376127243042e-01,-3.341200053691864014e-01,-3.530685305595397949e-01,1.450388226658105850e-02,3.589217364788055420e-01,7.876267284154891968e-02,-2.098540514707565308e-01
2.939365617930889130e-02,1.828531771898269653e-01,-5.340238809585571289e-01,-5.284777283668518066e-01,6.765469908714294434e-01,-6.528593301773071289e-01,-5.762604475021362305e-01,1.501407921314239502e-01,-3.357557654380798340e-01,-1.090756207704544067e-01,7.330586016178131104e-02,5.567079782485961914e-01,-2.131918370723724365e-01,-1.718263030052185059e-01
5.131854861974716187e-02,2.581405639648437500e-01,-4.845272004604339600e-01,-2.815901935100555420e-01,6.973894834518432617e-01,-7.025864720344543457e-01,-6.142156124114990234e-01,3.405346348881721497e-02,-2.876909971237182617e-01,-1.417597681283950806e-01,-1.017683222889900208e-01,3.850019276142120361e-01,-2.573800981044769287e-01,-3.880950212478637695e-01
1.956120431423187256e-01,5.478155612945556641e-01,-4.490295946598052979e-01,-4.390265047550201416e-01,6.827403306961059570e-01,-5.128158330917358398e-01,-4.893777072429656982e-01,2.389617264270782471e-01,-4.243135154247283936e-01,6.671651452779769897e-02,-5.270574241876602173e-02,4.967302381992340088e-01,-4.584806859493255615e-01,-3.261580169200897217e-01
2.551717460155487061e-01,4.229618608951568604e-01,-7.630228996276855469e-01,-3.434425294399261475e-01,6.936029791831970215e-01,-4.879686832427978516e-01,-8.331919908523559570e-01,-2.040244191884994507e-01,-3.196403086185455322e-01,3.759844601154327393e-02,-4.927751142531633377e-03,3.089659810066223145e-01,-2.703758776187896729e-01,-1.890740543603897095e-01
8.689063787460327148e-02,3.886297643184661865e-01,-5.603660941123962402e-01,-3.148125112056732178e-01,7.476482987403869629e-01,-4.934932887554168701e-01,-5.394584536552429199e-01,-6.508398801088333130e-02,-5.275053381919860840e-01,2.862393669784069061e-02,9.495990723371505737e-02,3.889502584934234619e-01,-5.423617959022521973e-01,-2.427919209003448486e-01
1.269756406545639038e-01,3.951954245567321777e-01,-5.129682421684265137e-01,-5.118182301521301270e-01,7.920160889625549316e-01,-4.409359395503997803e-01,-5.704893469810485840e-01,-2.268468886613845825e-01,-4.132626354694366455e-01,3.844249546527862549e-01,1.253104209899902344e-02,2.393526285886764526e-01,-6.554213166236877441e-01,-2.982871234416961670e-01
2.061383575201034546e-01,5.745524168014526367e-01,-5.220801830291748047e-01,-2.896098792552947998e-01,7.002977132797241211e-01,-3.720803856849670410e-01,-7.492616176605224609e-01,-4.266100749373435974e-02,-3.985845148563385010e-01,2.459848821163177490e-01,1.052488088607788086e-01,2.177930325269699097e-01,-6.629903316497802734e-01,-1.256770342588424683e-01
2.286460995674133301e-01,6.372343301773071289e-01,-5.120578408241271973e-01,-5.004542469978332520e-01,5.242964029312133789e-01,-2.456143051385879517e-01,-8.213859200477600098e-01,-3.029880821704864502e-01,-5.117482542991638184e-01,2.633759975433349609e-01,2.888167090713977814e-02,1.008803844451904297e-01,-6.770014762878417969e-01,-9.641486406326293945e-02
2.079222351312637329e-01,4.585767686367034912e-01,-3.499411344528198242e-01,-4.747368395328521729e-01,3.718239367008209229e-01,-3.433614373207092285e-01,-5.612473487854003906e-01,-2.859309911727905273e-01,-6.749515533447265625e-01,3.881560564041137695e-01,1.367758028209209442e-02,3.013936579227447510e-01,-8.443326354026794434e-01,-1.906962990760803223e-01
4.031890630722045898e-01,6.207146048545837402e-01,-5.991133451461791992e-01,-1.214090287685394287e-01,5.356326103210449219e-01,-1.697682887315750122e-01,-7.183623313903808594e-01,-2.182338386774063110e-01,-7.862535715103149414e-01,2.542741298675537109e-01,2.162748575210571289e-01,2.761058211326599121e-01,-9.568822383880615234e-01,-1.570090651512145996e-01
3.902201652526855469e-01,7.158614397048950195e-01,-4.163852334022521973e-01,-1.869644224643707275e-01,6.579432487487792969e-01,-2.721760869026184082e-01,-4.122094810009002686e-01,-1.269810199737548828e-01,-7.816888093948364258e-01,1.007824689149856567e-01,1.630765646696090698e-01,3.051399886608123779e-01,-1.020087957382202148e+00,-2.403156012296676636e-01
5.071285963058471680e-01,6.093307137489318848e-01,-3.594130277633666992e-01,-7.067159563302993774e-02,2.920527160167694092e-01,-2.840642258524894714e-02,-3.138065040111541748e-01,-2.097992449998855591e-01,-6.679161190986633301e-01,9.236139804124832153e-02,2.394094914197921753e-01,2.203169614076614380e-01,-9.571980834007263184e-01,-3.257071077823638916e-01
6.972050070762634277e-01,7.202842831611633301e-01,-2.895977795124053955e-01,-2.932651937007904053e-01,2.087872922420501709e-01,-1.050976365804672241e-01,-4.272640049457550049e-01,-2.052017897367477417e-01,-7.779335379600524902e-01,2.818814814090728760e-01,1.835469156503677368e-01,3.657481074333190918e-01,-9.526662230491638184e-01,-3.126705586910247803e-01
5.299391746520996094e-01,4.158656299114227295e-01,-3.070786893367767334e-01,-2.209662646055221558e-01,2.810444533824920654e-01,-2.367688864469528198e-01,-4.144209325313568115e-01,-1.622220873832702637e-01,-8.499068617820739746e-01,-1.426877733319997787e-02,3.298956453800201416e-01,1.376072615385055542e-01,-9.568802714347839355e-01,-3.137286901473999023e-01
4.625126421451568604e-01,5.788697004318237305e-01,8.227630704641342163e-02,-1.485507637262344360e-01,6.701038032770156860e-02,-1.811172664165496826e-01,-3.532063961029052734e-01,-1.677323132753372192e-01,-7.713711261749267578e-01,1.926588267087936401e-01,1.929190009832382202e-01,1.691529899835586548e-01,-1.169720530509948730e+00,-5.352768301963806152e-01
4.911878108978271484e-01,5.374978184700012207e-01,4.903989657759666443e-02,-1.662125736474990845e-01,2.680339515209197998e-01,-3.049365878105163574e-01,-4.250392615795135498e-01,3.783630440011620522e-03,-1.017133474349975586e+00,-5.646260920912027359e-03,2.607064247131347656e-01,-1.799201965332031250e-02,-1.071220159530639648e+00,-5.016073584556579590e-01
4.948800206184387207e-01,4.765151441097259521e-01,2.578018307685852051e-01,-1.958723962306976318e-01,1.361240148544311523e-01,-1.058502569794654846e-01,-2.062338143587112427e-01,-7.937636971473693848e-02,-8.362475633621215820e-01,2.337069660425186157e-01,4.964483976364135742e-01,-1.352744996547698975e-01,-8.515478968620300293e-01,-5.224271416664123535e-01
4.140351712703704834e-01,1.630443781614303589e-01,1.847782135009765625e-01,-1.592410504817962646e-01,7.892639935016632080e-02,-1.340800970792770386e-01,-1.510083228349685669e-01,-1.837924867868423462e-01,-8.952067494392395020e-01,3.213671147823333740e-01,4.425200819969177246e-01,-3.188308700919151306e-02,-9.287226200103759766e-01,-4.798824787139892578e-01
3.105901181697845459e-01,2.975202798843383789e-01,2.757373452186584473e-01,1.095554325729608536e-02,-5.958311958238482475e-04,-2.675245106220245361e-01,-1.045910939574241638e-01,5.637973919510841370e-02,-8.770576119422912598e-01,2.738202214241027832e-01,4.650147557258605957e-01,-1.687747389078140259e-01,-7.963017225265502930e-01,-6.905886530876159668e-01
1.288114637136459351e-01,1.561822891235351562e-01,2.685933113098144531e-01,-5.149201303720474243e-02,1.665976345539093018e-01,-2.206405699253082275e-01,5.035322904586791992e-02,-1.026580184698104858e-01,-7.349966764450073242e-01,3.451563119888305664e-01,4.275756478309631348e-01,-1.262418776750564575e-01,-4.769488871097564697e-01,-8.319258093833923340e-01
2.809551358222961426e-01,5.192198604345321655e-02,4.821460247039794922e-01,1.578404195606708527e-02,3.946926444768905640e-02,-3.969967365264892578e-01,6.149685755372047424e-02,-2.415145486593246460e-01,-3.641179203987121582e-01,4.466359019279479980e-01,6.169964075088500977e-01,-2.136157751083374023e-01,-8.852042555809020996e-01,-7.612830996513366699e-01
5.127310007810592651e-02,1.339899450540542603e-01,4.237094521522521973e-01,2.364742904901504517e-01,1.618474274873733521e-01,-3.674696087837219238e-01,1.472589820623397827e-01,-1.039741411805152893e-01,-4.653548002243041992e-01,2.260381728410720825e-01,7.254770994186401367e-01,-3.544649183750152588e-01,-5.943267941474914551e-01,-8.128761053085327148e-01
2.140713334083557129e-01,8.090915530920028687e-02,3.721063435077667236e-01,2.580144107341766357e-01,1.373223662376403809e-01,-3.485880494117736816e-01,2.682067081332206726e-02,-5.162824690341949463e-02,-5.522403717041015625e-01,5.014673471450805664e-01,5.866472721099853516e-01,-1.783952116966247559e-01,-4.377183914184570312e-01,-6.989042758941650391e-01
-3.374000266194343567e-02,2.715787887573242188e-01,5.818446874618530273e-01,4.267575442790985107e-01,2.309138476848602295e-01,-4.949843883514404297e-01,1.166351139545440674e-01,-1.390265375375747681e-01,-2.264959216117858887e-01,2.117519527673721313e-01,4.527841210365295410e-01,-3.665904998779296875e-01,-5.425200462341308594e-01,-7.680747509002685547e-01
-1.019049137830734253e-01,2.490780800580978394e-01,2.554293572902679443e-01,3.476969897747039795e-01,1.189715564250946045e-01,-5.078275203704833984e-01,2.660600654780864716e-02,-1.299466490745544434e-01,-3.890270888805389404e-01,2.449610680341720581e-01,5.944988131523132324e-01,-1.932334452867507935e-01,-4.047673940658569336e-01,-9.691409468650817871e-01
-1.373252719640731812e-01,1.085397601127624512e-01,2.852106690406799316e-01,3.777417540550231934e-01,4.127481281757354736e-01,-4.406987130641937256e-01,4.177277907729148865e-02,3.941434621810913086e-02,-2.414122596383094788e-02,3.954167291522026062e-02,4.387086927890777588e-01,-8.740734308958053589e-02,-4.706697165966033936e-01,-2.787078022956848145e-01
-1.004568263888359070e-01,1.824381351470947266e-01,5.991143584251403809e-01,5.099372267723083496e-01,1.518783718347549438e-01,-4.886710345745086670e-01,-7.894743233919143677e-02,5.839007720351219177e-02,-1.921219676733016968e-01,2.064220905303955078e-01,2.986741364002227783e-01,-1.993462741374969482e-01,-2.649044990539550781e-01,-5.724943280220031738e-01
-2.127718776464462280e-01,2.502807676792144775e-01,3.352406322956085205e-01,4.025078117847442627e-01,1.045906320214271545e-01,-6.496432423591613770e-01,4.773245379328727722e-02,3.115475475788116455e-01,-3.473266959190368652e-02,8.874222636222839355e-02,4.050857126712799072e-01,2.084536664187908173e-02,-3.737194538116455078e-01,-5.092915296554565430e-01
-1.906927824020385742e-01,3.146615922451019287e-01,-5.041596665978431702e-02,4.178679585456848145e-01,4.446307942271232605e-02,-8.160880208015441895e-01,-4.344442784786224365e-01,3.092299401760101318e-01,2.055382132530212402e-01,7.162694633007049561e-02,1.958033889532089233e-01,1.874987781047821045e-02,-3.438216745853424072e-01,-6.001412868499755859e-01
-4.631403461098670959e-02,4.543150961399078369e-01,2.584782242774963379e-01,4.062161147594451904e-01,1.659623533487319946e-01,-6.412357687950134277e-01,-1.850682199001312256e-01,2.409712672233581543e-01,-1.186260115355253220e-02,-1.264149546623229980e-01,1.114078145474195480e-02,1.411707103252410889e-01,-2.130900621414184570e-01,-5.200820565223693848e-01
-1.866580694913864136e-01,4.515824913978576660e-01,1.150089199654757977e-03,4.175839722156524658e-01,3.973074629902839661e-02,-8.623567819595336914e-01,-2.127446681261062622e-01,4.120444357395172119e-01,2.170350402593612671e-01,-3.060955107212066650e-01,7.457558065652847290e-02,4.798000305891036987e-02,-2.542909681797027588e-01,-3.133626282215118408e-01
-3.960711183026432991e-04,4.130861759185791016e-01,-1.234580558957532048e-04,5.751304626464843750e-01,1.571260858327150345e-03,-7.824333310127258301e-01,-4.662080109119415283e-01,5.511843562126159668e-01,2.148905955255031586e-02,-1.719497740268707275e-01,1.233168616890907288e-01,2.230566591024398804e-01,-2.219772785902023315e-01,-2.064286023378372192e-01
6.005553901195526123e-02,4.042228758335113525e-01,2.762740552425384521e-01,2.119379937648773193e-01,4.002892225980758667e-02,-8.013696074485778809e-01,-1.864420771598815918e-01,3.273454010486602783e-01,3.214699216187000275e-03,-4.109135270118713379e-01,-2.246991731226444244e-02,1.211686283349990845e-01,-1.525791883468627930e-01,-1.126542016863822937e-01
7.650237530469894409e-02,2.730914354324340820e-01,1.627352088689804077e-01,4.274101555347442627e-01,8.099131286144256592e-02,-7.990178465843200684e-01,-3.832917213439941406e-01,3.913054168224334717e-01,-1.025390997529029846e-01,-2.817727923393249512e-01,-1.418504267930984497e-01,4.806960225105285645e-01,-3.273371160030364990e-01,-1.096206530928611755e-01
6.291712075471878052e-02,5.989106893539428711e-01,1.861636489629745483e-01,3.207432031631469727e-01,3.431939780712127686e-01,-6.831822991371154785e-01,-4.017340838909149170e-01,5.022862553596496582e-01,9.593626856803894043e-02,-2.187306880950927734e-01,2.056564986705780029e-01,1.408438533544540405e-01,-1.251593381166458130e-01,-2.100360542535781860e-01
-1.155276000499725342e-01,4.450003206729888916e-01,-7.211226224899291992e-02,3.578712940216064453e-01,1.686530858278274536e-01,-6.764954924583435059e-01,-3.439752757549285889e-01,4.992486834526062012e-01,-1.280913054943084717e-01,2.724814042448997498e-02,3.877002596855163574e-01,3.235017359256744385e-01,-3.144621849060058594e-01,-3.067234456539154053e-01
-3.642459958791732788e-02,6.674512624740600586e-01,-2.623632177710533142e-02,4.779513180255889893e-01,9.542145580053329468e-02,-7.336297035217285156e-01,-2.740683853626251221e-01,4.659247398376464844e-01,8.036290109157562256e-02,-1.356044709682464600e-01,8.482659608125686646e-02,2.667098045349121094e-01,-1.938613951206207275e-01,-3.653588891029357910e-02
-3.699799999594688416e-02,5.573602318763732910e-01,4.900569468736648560e-02,2.824931144714355469e-01,2.906122803688049316e-01,-7.123564481735229492e-01,-3.235511183738708496e-01,4.005571305751800537e-01,-1.999848932027816772e-01,-9.732797741889953613e-02,1.251069754362106323e-01,4.136191010475158691e-01,-3.157358467578887939e-01,-5.389477312564849854e-02
6.920266151428222656e-02,7.703534364700317383e-01,1.456180661916732788e-01,2.210178673267364502e-01,2.157139927148818970e-01,-6.863082051277160645e-01,-2.955892682075500488e-01,3.474344611167907715e-01,-2.029711157083511353e-01,-5.162982642650604248e-02,1.173753067851066589e-01,5.122908353805541992e-01,-2.127207368612289429e-01,-1.027875021100044250e-01
1.143758594989776611e-01,6.629287600517272949e-01,6.058691442012786865e-02,1.306504826061427593e-03,3.331504762172698975e-01,-9.623715877532958984e-01,-1.884144246578216553e-01,3.584577441215515137e-01,-6.905944645404815674e-02,-1.078179478645324707e-01,2.385733127593994141e-01,3.494152724742889404e-01,-3.216467797756195068e-01,1.296808123588562012e-01
-6.398516707122325897e-03,4.973010420799255371e-01,3.199156522750854492e-01,3.283576667308807373e-02,3.903448879718780518e-01,-6.571754813194274902e-01,-1.419984847307205200e-01,3.691705167293548584e-01,-1.836044192314147949e-01,1.081280037760734558e-01,2.374863773584365845e-01,5.375660657882690430e-01,-1.273009330034255981e-01,-8.678039908409118652e-02
9.587787091732025146e-02,6.195662617683410645e-01,2.169084846973419189e-01,2.198547720909118652e-01,3.171460330486297607e-02,-7.694552540779113770e-01,-1.740673780441284180e-01,1.435098350048065186e-01,-1.388799250125885010e-01,1.801284849643707275e-01,3.269959986209869385e-01,5.794993788003921509e-02,-1.302094757556915283e-01,1.573398858308792114e-01
1.826517283916473389e-01,7.047612071037292480e-01,3.486128747463226318e-01,5.759064480662345886e-02,-9.032547473907470703e-02,-4.590237438678741455e-01,-3.348519206047058105e-01,3.755132257938385010e-01,-2.863735258579254150e-01,1.364816725254058838e-01,5.198372602462768555e-01,1.983247511088848114e-02,-2.538729310035705566e-01,-1.975673250854015350e-02
1.746244169771671295e-02,6.724473834037780762e-01,1.475283056497573853e-01,3.406533002853393555e-01,2.965454161167144775e-01,-6.311916112899780273e-01,-2.584617137908935547e-01,2.757081389427185059e-01,-1.266606301069259644e-01,1.681028604507446289e-01,4.167315661907196045e-01,1.739602535963058472e-02,-2.080210298299789429e-01,1.601260900497436523e-01
4.147012531757354736e-02,7.547612786293029785e-01,2.029584944248199463e-01,1.219781935214996338e-01,-3.672560304403305054e-02,-3.476495742797851562e-01,-2.868547849357128143e-02,1.713192909955978394e-01,-7.921995967626571655e-02,2.796023488044738770e-01,4.745824038982391357e-01,8.012586832046508789e-02,-3.132581710815429688e-01,2.639108896255493164e-01
2.504744529724121094e-01,6.798708438873291016e-01,2.818807363510131836e-01,5.080552101135253906e-01,-2.172227799892425537e-01,-1.826767027378082275e-01,-1.487401723861694336e-01,7.211394608020782471e-02,7.899179309606552124e-02,3.614336550235748291e-01,6.804206967353820801e-01,-6.765696406364440918e-02,-1.244653537869453430e-01,1.568912565708160400e-01
5.127474665641784668e-02,8.299080729484558105e-01,2.175954729318618774e-01,4.155356585979461670e-01,-1.905320435762405396e-01,-2.615843415260314941e-01,-1.665057390928268433e-01,1.957110017538070679e-01,-1.186730414628982544e-01,3.223066926002502441e-01,6.282943487167358398e-01,-6.697625666856765747e-02,-1.341232657432556152e-01,3.740284442901611328e-01
1.911985874176025391e-01,8.522800207138061523e-01,3.693827390670776367e-01,5.097076296806335449e-01,-3.331846892833709717e-01,2.541555836796760559e-02,-4.867105185985565186e-02,-3.570094704627990723e-02,-1.613651961088180542e-02,2.628243863582611084e-01,7.492210268974304199e-01,4.912573844194412231e-02,-3.422701656818389893e-01,4.031878411769866943e-01
2.933759391307830811e-01,7.123104333877563477e-01,3.689726293087005615e-01,4.636494815349578857e-01,-4.155160784721374512e-01,4.689848423004150391e-02,-4.573481157422065735e-02,-7.941696792840957642e-02,8.963537216186523438e-02,3.851141035556793213e-01,6.976356506347656250e-01,-1.532442420721054077e-01,-3.861428704112768173e-04,2.316145747900009155e-01
6.104080751538276672e-02,9.754347205162048340e-01,2.341388761997222900e-01,3.806220591068267822e-01,-3.534137010574340820e-01,8.667127043008804321e-02,-8.096724003553390503e-02,-2.812705747783184052e-02,-1.115694642066955566e-02,3.891692161560058594e-01,7.280820012092590332e-01,-1.558057218790054321e-01,-1.714107394218444824e-01,2.473408132791519165e-01
7.308098673820495605e-02,7.415632009506225586e-01,3.195703029632568359e-01,7.158240675926208496e-01,-5.699575543403625488e-01,1.546058207750320435e-01,3.727121278643608093e-02,-4.773003980517387390e-02,1.072454452514648438e-01,3.201584219932556152e-01,8.376277089118957520e-01,-9.391490370035171509e-02,-2.206162363290786743e-01,2.728168666362762451e-01
1.576205193996429443e-01,5.941589474678039551e-01,4.548931717872619629e-01,7.379029989242553711e-01,-7.809108495712280273e-01,6.865832954645156860e-02,-1.374850869178771973e-01,9.737356007099151611e-02,2.618209421634674072e-01,2.211001217365264893e-01,7.172341346740722656e-01,-9.609996527433395386e-02,-5.418239906430244446e-02,1.833053380250930786e-01
1.750121414661407471e-01,4.430302679538726807e-01,3.540896177291870117e-01,5.722201466560363770e-01,-6.874818205833435059e-01,1.239806637167930603e-01,-1.534930318593978882e-01,1.493959873914718628e-01,2.934200130403041840e-02,3.057040870189666748e-01,8.558726310729980469e-01,2.242863550782203674e-02,-1.918563544750213623e-01,1.245757862925529480e-01
8.066325634717941284e-02,5.351994633674621582e-01,3.158487379550933838e-01,6.691841483116149902e-01,-8.313186168670654297e-01,1.004169657826423645e-01,2.034049332141876221e-01,1.726277619600296021e-01,1.761244088411331177e-01,1.978659033775329590e-01,7.561869621276855469e-01,-1.836740225553512573e-01,3.717220947146415710e-02,-2.746242284774780273e-02
3.070667684078216553e-01,4.235584139823913574e-01,3.826743066310882568e-01,5.539745092391967773e-01,-8.089058995246887207e-01,7.807194441556930542e-02,-2.457025460898876190e-02,1.811656206846237183e-01,1.175785511732101440e-01,7.241133600473403931e-02,7.292962074279785156e-01,-1.829427182674407959e-01,-1.536260098218917847e-01,-2.045520842075347900e-01
1.178841069340705872e-01,4.498650729656219482e-01,4.238697588443756104e-01,6.083754897117614746e-01,-8.228730559349060059e-01,-1.514632906764745712e-02,-2.650027535855770111e-02,2.208193093538284302e-01,1.808330863714218140e-01,2.741357088088989258e-01,7.158977985382080078e-01,-7.175173610448837280e-02,9.346932172775268555e-03,-2.367969006299972534e-01
-7.191129773855209351e-02,2.850191593170166016e-01,4.084602892398834229e-01,6.400544643402099609e-01,-7.215149998664855957e-01,-1.027945578098297119e-01,1.177907660603523254e-01,4.007219970226287842e-01,2.024429142475128174e-01,1.901625245809555054e-01,6.665549874305725098e-01,-6.921730190515518188e-02,9.796535223722457886e-02,8.124203979969024658e-02
-1.907402724027633667e-01,1.174926757812500000e-01,2.462686598300933838e-01,6.037691831588745117e-01,-8.435432910919189453e-01,-4.229088872671127319e-02,1.699130237102508545e-01,3.032003641128540039e-01,2.837893962860107422e-01,1.318808048963546753e-01,7.120115756988525391e-01,-2.449687197804450989e-02,1.318399310111999512e-01,-1.772045046091079712e-01
-1.269881874322891235e-01,3.543068766593933105e-01,3.339286148548126221e-01,6.667620539665222168e-01,-6.973855495452880859e-01,-7.377898693084716797e-02,1.378832757472991943e-01,3.427878320217132568e-01,3.303461074829101562e-01,-2.061406336724758148e-02,6.552529335021972656e-01,-1.347693055868148804e-01,1.925652027130126953e-01,-2.760483622550964355e-01
-1.433510482311248779e-01,1.962123066186904907e-01,1.951971799135208130e-01,5.693439245223999023e-01,-8.913105726242065430e-01,-1.271920651197433472e-01,1.638290286064147949e-01,2.754410505294799805e-01,2.831771969795227051e-01,5.694307014346122742e-02,7.203839421272277832e-01,-1.768009364604949951e-01,2.937278747558593750e-01,-1.537013500928878784e-01
-6.550845503807067871e-02,1.087511777877807617e-01,1.899596899747848511e-01,5.048518180847167969e-01,-6.005662083625793457e-01,2.195186913013458252e-02,3.202988579869270325e-02,9.867636114358901978e-02,2.990634143352508545e-01,3.288764357566833496e-01,8.782439231872558594e-01,-1.319671571254730225e-01,3.572209477424621582e-01,-3.678991496562957764e-01
-2.958270311355590820e-01,1.480941921472549438e-01,2.015059590339660645e-01,4.090737700462341309e-01,-5.166948437690734863e-01,-1.797877103090286255e-01,2.189386934041976929e-01,8.240403980016708374e-02,4.633429944515228271e-01,-2.909887582063674927e-02,7.597445845603942871e-01,-2.053221166133880615e-01,4.194421172142028809e-01,-2.308525294065475464e-01
-3.691778481006622314e-01,1.911587566137313843e-01,-4.577303677797317505e-02,4.174356162548065186e-01,-6.264157295227050781e-01,-6.836341321468353271e-02,-4.570070654153823853e-02,4.767690002918243408e-01,3.399093449115753174e-01,8.923095464706420898e-02,6.742290258407592773e-01,-1.832606345415115356e-01,6.501322984695434570e-01,-2.610601186752319336e-01
-4.683867990970611572e-01,2.532362192869186401e-02,6.926154345273971558e-02,5.213097333908081055e-01,-6.452879905700683594e-01,8.677203208208084106e-02,5.700923502445220947e-02,2.221833765506744385e-01,6.060800552368164062e-01,1.025930717587471008e-01,5.851573944091796875e-01,-2.979311943054199219e-01,5.723850131034851074e-01,-1.871082484722137451e-01
-3.415391743183135986e-01,2.176307290792465210e-01,-1.140296012163162231e-01,2.581262290477752686e-01,-6.362680792808532715e-01,9.094598144292831421e-02,1.595804281532764435e-02,2.231986820697784424e-01,6.687508225440979004e-01,1.233514919877052307e-01,5.780315995216369629e-01,1.615557633340358734e-02,5.231598615646362305e-01,-2.182075679302215576e-01
-2.655188441276550293e-01,1.960383504629135132e-01,-2.488518059253692627e-01,4.781733751296997070e-01,-5.021286606788635254e-01,1.580789387226104736e-01,-1.104268059134483337e-02,3.213179707527160645e-01,6.138921976089477539e-01,-7.339271903038024902e-02,5.142909884452819824e-01,5.965731106698513031e-03,5.917769670486450195e-01,-2.229330539703369141e-01
-5.152660012245178223e-01,3.326385021209716797e-01,-1.408074647188186646e-01,2.888444066047668457e-01,-3.551250100135803223e-01,1.796929538249969482e-02,-1.239915192127227783e-01,3.650352358818054199e-01,6.588675975799560547e-01,7.815763354301452637e-02,3.214645981788635254e-01,1.288484781980514526e-01,4.704770445823669434e-01,-1.450511217117309570e-01
-2.803163826465606689e-01,2.466634958982467651e-01,-3.371625244617462158e-01,1.740720421075820923e-01,-5.018502473831176758e-01,1.978704780340194702e-01,-3.243021965026855469e-01,3.905961215496063232e-01,7.516644001007080078e-01,-1.219856590032577515e-01,4.014154672622680664e-01,-1.589589416980743408e-01,3.489115834236145020e-01,-7.614507526159286499e-02
-3.252738416194915771e-01,2.935649752616882324e-01,-3.763067722320556641e-01,7.503874599933624268e-02,-3.347457945346832275e-01,5.516904219985008240e-02,-3.189564645290374756e-01,5.106918215751647949e-01,7.239732742309570312e-01,4.623894393444061279e-02,2.489399462938308716e-01,1.907859891653060913e-01,2.027337849140167236e-01,6.398613005876541138e-02
-2.819363772869110107e-01,5.455909371376037598e-01,-5.013250112533569336e-01,1.726665794849395752e-01,-5.500138401985168457e-01,1.738115251064300537e-01,-4.002172946929931641e-01,4.884974658489227295e-01,7.140432000160217285e-01,-3.216671943664550781e-02,2.457855641841888428e-01,1.801175624132156372e-01,3.876149654388427734e-01,-3.618598356842994690e-02
1.089522168040275574e-01,5.177636146545410156e-01,-6.069698333740234375e-01,1.767401583492755890e-02,-4.595280885696411133e-01,2.199542075395584106e-01,-5.254045724868774414e-01,2.546612024307250977e-01,6.562398672103881836e-01,-4.758693650364875793e-02,1.589818298816680908e-01,4.793448150157928467e-01,-1.381522323936223984e-02,3.964975476264953613e-02
1.184286400675773621e-01,6.971195340156555176e-02,-5.861436724662780762e-01,8.855979144573211670e-02,-4.170042276382446289e-01,2.136659175157546997e-01,-3.467207551002502441e-01,4.196385145187377930e-01,5.342156887054443359e-01,1.400390416383743286e-01,-1.954946666955947876e-02,4.437348842620849609e-01,-2.330729924142360687e-02,2.103248685598373413e-01
5.937340110540390015e-02,5.088366270065307617e-01,-7.693696618080139160e-01,-2.857984006404876709e-01,-3.766610324382781982e-01,2.648764550685882568e-01,-4.707214534282684326e-01,2.590518891811370850e-01,4.586696922779083252e-01,6.383216381072998047e-02,2.280647456645965576e-01,4.454120993614196777e-01,9.949813783168792725e-02,2.024223208427429199e-01
1.903497874736785889e-01,3.699057102203369141e-01,-6.594513058662414551e-01,-3.022270798683166504e-01,-4.137747287750244141e-01,2.791427671909332275e-01,-3.674719929695129395e-01,2.448313385248184204e-01,4.347208142280578613e-01,1.796695142984390259e-01,8.851180970668792725e-02,4.029302597045898438e-01,-2.519857324659824371e-02,2.383756637573242188e-01
2.541292607784271240e-01,2.823861539363861084e-01,-4.498788714408874512e-01,-3.303067982196807861e-01,-2.344010323286056519e-01,2.566787302494049072e-01,-3.643618524074554443e-01,9.639850258827209473e-02,4.704137444496154785e-01,2.417406588792800903e-01,5.976674705743789673e-02,4.934323430061340332e-01,5.847993865609169006e-02,2.055072784423828125e-01
2.429953813552856445e-01,2.223037034273147583e-01,-7.486793398857116699e-01,-4.610146582126617432e-01,-2.083049565553665161e-01,4.676741361618041992e-01,-4.235507249832153320e-01,-2.948732301592826843e-02,2.887077033519744873e-01,3.893764317035675049e-01,1.749422699213027954e-01,3.521241545677185059e-01,-2.056796699762344360e-01,4.407241046428680420e-01
3.599663376808166504e-01,1.940638422966003418e-01,-4.518653154373168945e-01,-4.349673986434936523e-01,-3.256121575832366943e-01,3.932535946369171143e-01,-3.758309483528137207e-01,5.927568674087524414e-02,3.386190235614776611e-01,2.231083810329437256e-01,3.145005553960800171e-02,4.112231731414794922e-01,-1.073995307087898254e-01,1.708424985408782959e-01
5.391846895217895508e-01,1.852540224790573120e-01,-3.397420942783355713e-01,-4.362079203128814697e-01,-3.336439728736877441e-01,4.648890197277069092e-01,-2.272481173276901245e-01,-1.191877052187919617e-01,-3.749425336718559265e-02,5.243682265281677246e-01,2.691062912344932556e-02,3.270919322967529297e-01,-2.346519678831100464e-01,8.292518556118011475e-02
4.396360814571380615e-01,1.049832999706268311e-01,-5.729628205299377441e-01,-4.340241849422454834e-01,-3.170843720436096191e-01,4.990985691547393799e-01,-2.598577439785003662e-01,-2.185620181262493134e-02,1.697743088006973267e-01,5.256705284118652344e-01,2.796656489372253418e-01,5.661265850067138672e-01,-1.854867786169052124e-01,8.988721668720245361e-02
5.680075883865356445e-01,4.820214211940765381e-02,-4.038687646389007568e-01,-3.280081450939178467e-01,-1.332598477602005005e-01,5.311715006828308105e-01,3.503309562802314758e-02,-2.346303015947341919e-01,1.330760866403579712e-01,5.764190554618835449e-01,3.765639066696166992e-01,4.357825517654418945e-01,-2.393090426921844482e-01,1.397985368967056274e-01
4.830459356307983398e-01,4.779474809765815735e-02,-5.092107057571411133e-01,-5.882682800292968750e-01,-2.891333997249603271e-01,5.824348926544189453e-01,1.310914605855941772e-01,-2.639168500900268555e-01,-3.912744298577308655e-02,5.836918354034423828e-01,3.226161301136016846e-01,3.433942794799804688e-01,-2.164077460765838623e-01,-7.629291620105504990e-03
4.318127036094665527e-01,1.545345634222030640e-01,-4.709974825382232666e-01,-3.890045881271362305e-01,-3.626326322555541992e-01,5.931807756423950195e-01,1.280727833509445190e-01,-2.382350414991378784e-01,-6.985506974160671234e-03,8.336148858070373535e-01,3.972512185573577881e-01,3.953021019697189331e-02,-2.526382207870483398e-01,2.864993363618850708e-02
6.775572896003723145e-01,9.907810389995574951e-02,-2.635835409164428711e-01,-4.412458240985870361e-01,-3.505046665668487549e-01,8.170852065086364746e-01,1.283427625894546509e-01,-5.916740894317626953e-01,2.202501595020294189e-01,7.413739562034606934e-01,2.006447911262512207e-01,2.334181517362594604e-01,-2.509541213512420654e-01,-3.298195824027061462e-02
3.516616523265838623e-01,1.218091472983360291e-01,-2.034047544002532959e-01,-2.802462577819824219e-01,-1.645022034645080566e-01,8.009839653968811035e-01,1.324104070663452148e-01,-5.684026479721069336e-01,2.242636382579803467e-01,9.295222163200378418e-01,2.880601584911346436e-01,1.343138217926025391e-01,-3.957849740982055664e-01,-1.296958178281784058e-01
7.502533197402954102e-01,3.042477369308471680e-02,-2.762121260166168213e-01,-2.240991443395614624e-01,-3.880250453948974609e-01,7.712945342063903809e-01,4.316647350788116455e-02,-5.129434466361999512e-01,3.387868106365203857e-01,1.096443295478820801e+00,2.403791248798370361e-01,2.187909334897994995e-01,-2.874736487865447998e-01,-1.133692562580108643e-01
6.802653670310974121e-01,-1.258126199245452881e-01,-3.193764686584472656e-01,-3.115691542625427246e-01,-3.183834254741668701e-01,7.607494592666625977e-01,2.417359501123428345e-01,-5.159554481506347656e-01,4.977323487401008606e-02,1.008807897567749023e+00,3.770316243171691895e-01,1.231649741530418396e-01,-2.447079271078109741e-01,1.485665049403905869e-02
6.095982193946838379e-01,1.744547672569751740e-02,-2.824125289916992188e-01,-2.543399333953857422e-01,-2.994811832904815674e-01,8.177228569984436035e-01,2.977210581302642822e-01,-4.341250360012054443e-01,4.665558338165283203e-01,1.039003849029541016e+00,2.790778875350952148e-01,9.848681092262268066e-02,-3.215300738811492920e-01,-1.395444720983505249e-01
5.594930648803710938e-01,-1.751923561096191406e-01,-1.222532987594604492e-01,-7.352247834205627441e-02,-5.101357102394104004e-01,8.808078765869140625e-01,1.207861006259918213e-01,-4.373149275779724121e-01,5.152434706687927246e-01,8.007115721702575684e-01,2.777331769466400146e-01,1.436884999275207520e-01,-3.383885622024536133e-01,-2.811569571495056152e-01
5.810390114784240723e-01,-5.927972123026847839e-02,-1.365243792533874512e-01,-9.446423500776290894e-02,-3.533409833908081055e-01,9.816333055496215820e-01,1.397015601396560669e-01,-4.784498810768127441e-01,3.129451274871826172e-01,9.080998897552490234e-01,5.013514310121536255e-02,-2.787779085338115692e-02,-5.273365974426269531e-01,-2.346745729446411133e-01
6.514114141464233398e-01,-2.960987985134124756e-01,-1.822979599237442017e-01,-1.040529385209083557e-01,-4.273464083671569824e-01,6.688969135284423828e-01,4.775524884462356567e-02,-4.096041917800903320e-01,6.302614212036132812e-01,6.665540337562561035e-01,-6.845927238464355469e-02,1.172055378556251526e-01,-1.936627924442291260e-01,-4.370511174201965332e-01
6.608248949050903320e-01,-3.091660737991333008e-01,-3.082185685634613037e-01,-1.516612805426120758e-02,-5.990763306617736816e-01,8.286347389221191406e-01,7.905682921409606934e-02,-3.500435650348663330e-01,7.007066011428833008e-01,7.005899548530578613e-01,1.089216917753219604e-01,2.787048220634460449e-01,-4.872658550739288330e-01,-2.382707893848419189e-01
5.536618232727050781e-01,-3.409540355205535889e-01,-4.010012447834014893e-01,-1.961680501699447632e-02,-3.893817961215972900e-01,8.147743344306945801e-01,-3.012349456548690796e-02,-4.687182307243347168e-01,4.148069322109222412e-01,8.388003110885620117e-01,-8.867605775594711304e-02,4.060856103897094727e-01,-4.095635712146759033e-01,-1.507467180490493774e-01
6.580237150192260742e-01,-3.026237189769744873e-01,-1.848672181367874146e-01,-1.689558178186416626e-01,-3.547465205192565918e-01,4.780938923358917236e-01,5.072496086359024048e-02,-2.752912342548370361e-01,5.806680917739868164e-01,5.461103916168212891e-01,-4.842954874038696289e-02,2.885908186435699463e-01,-4.165232181549072266e-01,-4.489262998104095459e-01
6.720277667045593262e-01,-4.153375029563903809e-01,-1.724752336740493774e-01,-2.334865182638168335e-01,-3.449216187000274658e-01,5.217624306678771973e-01,1.075769439339637756e-01,-1.755707114934921265e-01,6.080495715141296387e-01,6.649197340011596680e-01,-2.197630554437637329e-01,3.895639777183532715e-01,-2.901860475540161133e-01,-3.341362178325653076e-01
6.036835908889770508e-01,-4.878514111042022705e-01,-4.068232178688049316e-01,-3.130839169025421143e-01,-2.655921578407287598e-01,3.389906883239746094e-01,8.150990307331085205e-02,-1.010908707976341248e-01,4.249658882617950439e-01,6.093258261680603027e-01,-4.512066394090652466e-02,2.804642319679260254e-01,-2.604002952575683594e-01,-2.843479514122009277e-01
8.381367325782775879e-01,-3.485973477363586426e-01,-3.855089247226715088e-01,-2.255428582429885864e-01,-2.275441288948059082e-01,3.910039663314819336e-01,5.758503824472427368e-02,-1.937424093484878540e-01,5.879300236701965332e-01,5.778082013130187988e-01,-1.937716454267501831e-01,6.294484734535217285e-01,-1.971362531185150146e-01,-3.045263290405273438e-01
5.751777887344360352e-01,-7.551849484443664551e-01,-5.300498008728027344e-01,-4.137648940086364746e-01,-1.046358272433280945e-01,2.162100076675415039e-01,-2.308636158704757690e-01,-1.914987862110137939e-01,7.784972786903381348e-01,3.153420686721801758e-01,-3.681028783321380615e-01,6.337420940399169922e-01,-1.568863242864608765e-01,-3.106665015220642090e-01
3.822773993015289307e-01,-6.938290596008300781e-01,-3.434993624687194824e-01,-3.021890819072723389e-01,-1.867392063140869141e-01,1.491573154926300049e-01,-5.761056672781705856e-03,-6.049365177750587463e-02,5.709383487701416016e-01,4.750121533870697021e-01,-3.861949145793914795e-01,6.228641271591186523e-01,-1.750626973807811737e-02,-6.420824527740478516e-01
4.257546067237854004e-01,-6.988006830215454102e-01,-2.043484896421432495e-01,-2.274010926485061646e-01,-1.405287235975265503e-01,4.114562273025512695e-02,2.060700580477714539e-02,1.789004057645797729e-01,8.604484796524047852e-01,3.948205709457397461e-01,-4.191038608551025391e-01,6.311314105987548828e-01,-1.845163106918334961e-01,-4.106691479682922363e-01
5.663609504699707031e-01,-7.496646642684936523e-01,-3.357813656330108643e-01,-4.165272414684295654e-01,-2.428455650806427002e-02,8.741601556539535522e-02,-7.947546988725662231e-02,-8.746479451656341553e-02,7.362653017044067383e-01,5.130408406257629395e-01,-5.670166015625000000e-01,7.774237394332885742e-01,-2.061196118593215942e-01,-6.052234172821044922e-01
3.971654474735260010e-01,-6.078979372978210449e-01,-2.318221181631088257e-01,-4.616951644420623779e-01,1.001896709203720093e-01,-1.338357478380203247e-02,-1.156529784202575684e-02,1.192184612154960632e-01,6.419616937637329102e-01,2.359418421983718872e-01,-5.335324406623840332e-01,5.738109946250915527e-01,-1.236741319298744202e-01,-5.347470641136169434e-01
3.506425619125366211e-01,-4.133326113224029541e-01,-5.206170082092285156e-01,-2.303782254457473755e-01,4.657429158687591553e-01,-4.875876754522323608e-02,-1.903369724750518799e-01,1.649624109268188477e-01,7.452323436737060547e-01,4.367343187332153320e-01,-5.740371942520141602e-01,5.969097018241882324e-01,-1.989811360836029053e-01,-3.199268579483032227e-01
5.800361633300781250e-01,-4.727542400360107422e-01,-6.469443440437316895e-01,-2.974998354911804199e-01,2.542203366756439209e-01,-7.543672621250152588e-02,-2.039549499750137329e-01,1.519950293004512787e-02,6.095659136772155762e-01,4.202654659748077393e-01,-5.292274951934814453e-01,8.310113549232482910e-01,-1.245308220386505127e-01,-3.414355218410491943e-01
4.598087966442108154e-01,-3.671267628669738770e-01,-4.059954285621643066e-01,-5.409233570098876953e-01,3.393422067165374756e-01,-3.926987200975418091e-02,-4.136955142021179199e-01,-5.174158886075019836e-02,8.069379329681396484e-01,1.937521398067474365e-01,-6.692306399345397949e-01,8.640021681785583496e-01,-2.612486481666564941e-01,-2.301156818866729736e-01
3.979833722114562988e-01,-4.192062020301818848e-01,-5.838982462882995605e-01,-4.659192860126495361e-01,4.091297686100006104e-01,-1.153159737586975098e-01,-3.286001086235046387e-01,7.597126811742782593e-02,7.436143159866333008e-01,2.957149446010589600e-01,-6.378891468048095703e-01,6.876470446586608887e-01,-2.206728160381317139e-01,-3.346207439899444580e-01
2.094958722591400146e-01,-2.371244281530380249e-01,-7.374383211135864258e-01,-4.633070528507232666e-01,4.212166368961334229e-01,9.789475798606872559e-02,-3.833152055740356445e-01,5.627528578042984009e-02,7.073342800140380859e-01,1.886821836233139038e-01,-6.928451657295227051e-01,7.978640198707580566e-01,-3.507206141948699951e-01,-3.060273639857769012e-02
5.885953903198242188e-01,-1.161069869995117188e-01,-5.077012181282043457e-01,-4.945041835308074951e-01,6.463498473167419434e-01,-1.724623590707778931e-01,-6.055803298950195312e-01,-3.333713114261627197e-02,5.793280005455017090e-01,2.827587127685546875e-01,-6.778914928436279297e-01,1.063616991043090820e+00,-1.178881153464317322e-01,-4.694215208292007446e-02
5.780757069587707520e-01,7.565198838710784912e-02,-7.989932894706726074e-01,-3.552795052528381348e-01,2.851344048976898193e-01,-1.954607963562011719e-01,-7.431835532188415527e-01,5.567973013967275620e-03,6.760056018829345703e-01,3.912349641323089600e-01,-5.612042546272277832e-01,9.767987132072448730e-01,-2.932801544666290283e-01,2.942285686731338501e-02
7.632457613945007324e-01,-8.453882485628128052e-02,-8.872005343437194824e-01,-5.532623529434204102e-01,6.561707854270935059e-01,-1.778348684310913086e-01,-7.015992999076843262e-01,1.375235617160797119e-01,6.512300968170166016e-01,3.354731202125549316e-01,-6.116350293159484863e-01,1.049585223197937012e+00,-1.871094107627868652e-01,-1.212892830371856689e-01
5.832033157348632812e-01,9.643783420324325562e-02,-7.421293854713439941e-01,-5.663016438484191895e-01,4.218344688415527344e-01,-1.818731725215911865e-01,-7.998143434524536133e-01,2.064002007246017456e-01,4.280763864517211914e-01,3.129993975162506104e-01,-8.535640239715576172e-01,8.814504742622375488e-01,-3.356679975986480713e-01,1.365240812301635742e-01
7.134035229682922363e-01,2.953576743602752686e-01,-9.470425248146057129e-01,-5.507023334503173828e-01,4.660485386848449707e-01,1.116583347320556641e-01,-6.684744358062744141e-01,9.996226429939270020e-02,5.977009534835815430e-01,1.745716035366058350e-01,-7.152526378631591797e-01,1.077819824218750000e+00,-3.937894105911254883e-01,4.157701041549444199e-03
8.328334689140319824e-01,1.720986813306808472e-01,-7.146929502487182617e-01,-5.296784639358520508e-01,3.302808403968811035e-01,1.118045523762702942e-01,-7.891530990600585938e-01,1.409727931022644043e-01,4.351201951503753662e-01,3.771186172962188721e-01,-7.129234075546264648e-01,8.708049654960632324e-01,-5.888226032257080078e-01,-2.684643492102622986e-02
9.708254337310791016e-01,2.073872275650501251e-02,-9.166010618209838867e-01,-5.812175273895263672e-01,3.666468560695648193e-01,1.835594475269317627e-01,-6.636282205581665039e-01,2.253193706274032593e-01,2.373275011777877808e-01,2.550015747547149658e-01,-7.046065926551818848e-01,7.993686199188232422e-01,-5.744295120239257812e-01,7.700903713703155518e-02
8.997455239295959473e-01,3.632273972034454346e-01,-7.450154423713684082e-01,-6.418011784553527832e-01,1.483004987239837646e-01,-4.246870055794715881e-02,-8.712952136993408203e-01,1.456952542066574097e-01,2.287336140871047974e-01,2.579521834850311279e-01,-3.674706220626831055e-01,1.037711858749389648e+00,-7.471602559089660645e-01,3.544370457530021667e-02
8.154625892639160156e-01,3.015234768390655518e-01,-6.927452683448791504e-01,-8.640031814575195312e-01,6.712472438812255859e-02,1.336245834827423096e-01,-7.634919285774230957e-01,1.311221569776535034e-01,2.436165213584899902e-01,3.520357012748718262e-01,-5.656271576881408691e-01,1.059399247169494629e+00,-7.284439206123352051e-01,-1.604962795972824097e-01
1.010213851928710938e+00,3.003403246402740479e-01,-6.398145556449890137e-01,-7.589599490165710449e-01,4.248536825180053711e-01,5.774305760860443115e-02,-7.121369838714599609e-01,7.777410000562667847e-02,2.280182689428329468e-01,1.669795960187911987e-01,-4.790407419204711914e-01,8.260237574577331543e-01,-6.743324398994445801e-01,6.418189406394958496e-02
8.248172998428344727e-01,2.022087760269641876e-02,-7.277535796165466309e-01,-6.179571151733398438e-01,3.228479325771331787e-01,6.064431741833686829e-02,-5.564116239547729492e-01,6.379465013742446899e-02,1.937068402767181396e-01,2.999702692031860352e-01,-1.720015406608581543e-01,7.190665006637573242e-01,-8.334240317344665527e-01,-3.472256287932395935e-02
8.316850066184997559e-01,3.260136842727661133e-01,-5.457659363746643066e-01,-6.514134407043457031e-01,-5.543014034628868103e-03,9.921600669622421265e-02,-7.372025251388549805e-01,3.933390676975250244e-01,1.742823570966720581e-01,3.308310508728027344e-01,-1.626649796962738037e-01,8.572815656661987305e-01,-6.786909103393554688e-01,-2.353993207216262817e-01
8.301812410354614258e-01,7.938303798437118530e-02,-3.152336478233337402e-01,-5.572269558906555176e-01,1.410259753465652466e-01,-4.405324533581733704e-02,-5.043539404869079590e-01,9.260120987892150879e-02,-1.628589928150177002e-01,2.426535487174987793e-01,-2.184522897005081177e-01,5.733445286750793457e-01,-5.044857859611511230e-01,-3.335144817829132080e-01
8.393759131431579590e-01,9.171425551176071167e-02,-4.024268984794616699e-01,-4.024191796779632568e-01,1.544351130723953247e-01,2.884867489337921143e-01,-4.665071666240692139e-01,2.380237132310867310e-01,-1.080353185534477234e-01,3.652800023555755615e-01,-1.939898915588855743e-02,4.914382398128509521e-01,-5.788908600807189941e-01,-4.212419986724853516e-01
6.378129720687866211e-01,6.382442265748977661e-02,-4.344581067562103271e-01,-6.501402854919433594e-01,7.217694073915481567e-02,1.647712141275405884e-01,-3.565251231193542480e-01,2.659969031810760498e-01,-1.685055345296859741e-01,3.415042459964752197e-01,-5.145987868309020996e-02,5.756718516349792480e-01,-5.434936881065368652e-01,-6.805349588394165039e-01
7.712680697441101074e-01,2.264038920402526855e-01,-3.121249973773956299e-01,-3.529860973358154297e-01,-5.022623762488365173e-02,-1.647582277655601501e-02,-3.624570369720458984e-01,8.516822010278701782e-02,1.030969545245170593e-01,2.655183672904968262e-01,9.214861318469047546e-03,2.864939868450164795e-01,-4.458625912666320801e-01,-5.766136050224304199e-01
4.128526151180267334e-01,1.173514053225517273e-01,-3.555437326431274414e-01,-4.308909475803375244e-01,1.335801929235458374e-01,-6.501828134059906006e-02,-4.516983926296234131e-01,1.587193310260772705e-01,9.802225045859813690e-03,2.301942557096481323e-01,-1.619495637714862823e-02,1.830069273710250854e-01,-2.711465358734130859e-01,-6.296530961990356445e-01
3.617596328258514404e-01,1.922615915536880493e-01,-4.255274832248687744e-01,-2.362935096025466919e-01,-4.375578835606575012e-02,4.323716834187507629e-02,-5.854116082191467285e-01,1.647014617919921875e-01,1.934550106525421143e-01,2.481988966464996338e-01,-1.583755612373352051e-01,2.703062593936920166e-01,-2.523159980773925781e-01,-7.375609278678894043e-01
1.856301724910736084e-01,1.641305685043334961e-01,-2.187144756317138672e-01,-2.710851132869720459e-01,-2.526742815971374512e-01,7.677666842937469482e-02,-4.538964033126831055e-01,4.086826741695404053e-02,-3.149655088782310486e-02,2.115873992443084717e-01,-5.411320552229881287e-02,7.344982028007507324e-02,-2.595783174037933350e-01,-7.401165962219238281e-01
2.017854303121566772e-01,1.614084541797637939e-01,-2.002156823873519897e-01,-5.951523780822753906e-04,-2.484351843595504761e-01,1.679357588291168213e-01,-5.332227945327758789e-01,1.092954427003860474e-01,8.322032541036605835e-02,6.133587285876274109e-02,-3.448365256190299988e-02,1.021601632237434387e-01,-1.915041059255599976e-01,-9.664568901062011719e-01
1.297916173934936523e-01,9.066126495599746704e-02,-1.631674617528915405e-01,-1.593014001846313477e-01,-3.672189414501190186e-01,-5.855160206556320190e-02,-5.670663714408874512e-01,3.451263904571533203e-01,1.093449965119361877e-01,7.685761153697967529e-02,9.199170768260955811e-02,-2.782328426837921143e-02,-7.188798487186431885e-02,-8.488106727600097656e-01
1.443830728530883789e-01,3.793396353721618652e-01,-2.201992273330688477e-01,-2.107038944959640503e-01,-3.196235597133636475e-01,7.610519230365753174e-02,-5.662608742713928223e-01,3.843242824077606201e-01,3.420073986053466797e-01,-6.893852353096008301e-02,2.925169281661510468e-02,1.238738745450973511e-01,1.031118677929043770e-03,-6.513384580612182617e-01
3.298373520374298096e-02,6.163435429334640503e-02,-2.470737695693969727e-01,-9.592655301094055176e-02,-3.669629693031311035e-01,-1.250602155923843384e-01,-4.610373973846435547e-01,7.099274396896362305e-01,3.068629503250122070e-01,-4.187945127487182617e-01,7.979603111743927002e-02,1.245151683688163757e-01,-1.560711413621902466e-01,-5.707091093063354492e-01
-1.074334904551506042e-01,2.553932666778564453e-01,-3.582869768142700195e-01,-1.141081154346466064e-01,-3.141930103302001953e-01,4.236062243580818176e-02,-7.197691798210144043e-01,5.943128466606140137e-01,4.078058153390884399e-02,-4.867011308670043945e-01,-1.944670975208282471e-01,2.346998304128646851e-01,-1.009528562426567078e-01,-8.363811969757080078e-01
-6.576414406299591064e-02,2.543499767780303955e-01,-1.873779743909835815e-01,-5.780225247144699097e-02,-3.424610495567321777e-01,-5.007442831993103027e-02,-8.252519369125366211e-01,9.089949131011962891e-01,1.919153630733489990e-01,-3.307389020919799805e-01,6.055259332060813904e-02,2.479620724916458130e-01,4.424748197197914124e-02,-7.215271592140197754e-01
-1.905845552682876587e-01,3.316574394702911377e-01,-5.270620584487915039e-01,-1.664905995130538940e-01,-3.924683332443237305e-01,1.087913587689399719e-01,-7.388202548027038574e-01,7.563657164573669434e-01,3.179259896278381348e-01,-5.684081315994262695e-01,1.210519764572381973e-02,2.421552389860153198e-01,-1.705971546471118927e-02,-6.283744573593139648e-01
-9.742699563503265381e-02,3.529547154903411865e-01,-5.113056302070617676e-01,-1.512657944113016129e-02,-3.965921103954315186e-01,-2.901967465877532959e-01,-7.421227693557739258e-01,1.075239658355712891e+00,3.069122731685638428e-01,-6.101123094558715820e-01,-1.853953599929809570e-01,2.481783330440521240e-01,-1.987370252609252930e-01,-7.896637320518493652e-01
-2.360315024852752686e-01,1.986121684312820435e-01,-3.421160876750946045e-01,-3.331145346164703369e-01,-3.160967826843261719e-01,-5.132200568914413452e-02,-7.734156250953674316e-01,1.000950217247009277e+00,2.027859985828399658e-01,-5.802199840545654297e-01,-2.796348333358764648e-01,2.172611802816390991e-01,-1.357042193412780762e-01,-6.701672673225402832e-01
-3.475565314292907715e-01,2.660967707633972168e-01,-5.657328367233276367e-01,-3.952058255672454834e-01,-4.176087677478790283e-01,-4.099774658679962158e-01,-8.204153776168823242e-01,1.056446313858032227e+00,1.401994228363037109e-01,-7.450210452079772949e-01,-2.860170304775238037e-01,2.933250963687896729e-01,-1.188438236713409424e-01,-7.410867214202880859e-01
-3.489102125167846680e-01,3.950441181659698486e-01,-5.464848875999450684e-01,-5.086600780487060547e-01,-5.975436568260192871e-01,-4.180547893047332764e-01,-7.859892845153808594e-01,9.805954098701477051e-01,-1.272016018629074097e-02,-7.724281549453735352e-01,-2.037982642650604248e-01,1.196284592151641846e-01,-5.890464410185813904e-02,-6.168864369392395020e-01
-3.819658160209655762e-01,2.244223505258560181e-01,-4.941638410091400146e-01,-4.985524713993072510e-01,-1.016334593296051025e-01,-4.894778430461883545e-01,-7.397108078002929688e-01,1.102459907531738281e+00,1.456010490655899048e-01,-8.764609694480895996e-01,-2.678396925330162048e-02,-1.513572782278060913e-02,3.565350919961929321e-02,-8.589249253273010254e-01
-3.455021977424621582e-01,1.451858580112457275e-01,-4.085114598274230957e-01,-5.352739095687866211e-01,-3.530394136905670166e-01,-3.204215168952941895e-01,-8.424902558326721191e-01,1.209042310714721680e+00,-1.207496002316474915e-01,-7.489157319068908691e-01,-2.079851478338241577e-01,3.158439099788665771e-01,2.024759650230407715e-01,-8.305922150611877441e-01
-4.039610028266906738e-01,2.436982095241546631e-01,-4.949653744697570801e-01,-5.712931156158447266e-01,-1.403988301753997803e-01,-4.710219204425811768e-01,-6.451800465583801270e-01,1.004028677940368652e+00,-1.982004493474960327e-01,-7.086904048919677734e-01,-3.343023955821990967e-01,2.392891496419906616e-01,1.835217326879501343e-02,-6.746983528137207031e-01
-3.444869220256805420e-01,1.914694011211395264e-01,-5.766304135322570801e-01,-6.217941641807556152e-01,-1.949674338102340698e-01,-4.793857038021087646e-01,-7.516121268272399902e-01,9.496583342552185059e-01,-4.787639528512954712e-02,-7.946004867553710938e-01,3.929419070482254028e-02,1.256121844053268433e-01,1.006339937448501587e-01,-6.674135923385620117e-01
-3.990092277526855469e-01,4.074564278125762939e-01,-5.054956674575805664e-01,-7.059476971626281738e-01,2.082714438438415527e-02,-2.972004413604736328e-01,-6.224857568740844727e-01,9.135828018188476562e-01,-1.400492787361145020e-01,-7.899297475814819336e-01,-1.633103936910629272e-01,2.086087316274642944e-01,1.494060158729553223e-01,-6.483592391014099121e-01
-3.182367980480194092e-01,5.317212343215942383e-01,-3.855791389942169189e-01,-7.372015118598937988e-01,-1.840198338031768799e-01,-2.277699559926986694e-01,-6.813024282455444336e-01,1.048054218292236328e+00,-4.657115042209625244e-02,-3.910039067268371582e-01,4.813442379236221313e-02,-1.053041126579046249e-02,1.776464283466339111e-01,-5.423816442489624023e-01
-3.324430286884307861e-01,4.720625877380371094e-01,-4.443053901195526123e-01,-6.793606281280517578e-01,-1.415617913007736206e-01,-2.086839824914932251e-01,-8.212698698043823242e-01,9.160401225090026855e-01,-9.095500409603118896e-02,-6.172009706497192383e-01,-1.114020682871341705e-02,-4.584520310163497925e-02,1.258365958929061890e-01,-6.429002285003662109e-01
-3.936389088630676270e-01,3.813845515251159668e-01,-4.375171065330505371e-01,-5.110277533531188965e-01,-1.186227276921272278e-01,-1.556338220834732056e-01,-8.782386183738708496e-01,9.196761846542358398e-01,1.210760138928890228e-02,-6.318719387054443359e-01,-6.843636184930801392e-02,-9.546158462762832642e-02,-8.888369798660278320e-02,-6.311938166618347168e-01
-2.168201804161071777e-01,7.014712691307067871e-01,-4.607278108596801758e-01,-4.655864834785461426e-01,-2.834044210612773895e-02,1.260877847671508789e-01,-5.625348091125488281e-01,7.533326148986816406e-01,-1.378737241029739380e-01,-4.520372450351715088e-01,5.953797325491905212e-02,1.305909454822540283e-02,-1.952174603939056396e-01,-4.858452081680297852e-01
-4.032403230667114258e-01,4.699655473232269287e-01,-2.249621003866195679e-01,-5.801647901535034180e-01,-9.257734566926956177e-02,4.553770273923873901e-02,-7.436861991882324219e-01,6.776070594787597656e-01,-9.386373311281204224e-02,-4.920541644096374512e-01,-9.706173837184906006e-02,-2.313238978385925293e-01,-1.569212824106216431e-01,-4.165573716163635254e-01
-1.706332713365554810e-01,5.298975706100463867e-01,-3.320008814334869385e-01,-6.351978778839111328e-01,-1.041172593832015991e-01,1.999751478433609009e-01,-6.406393647193908691e-01,6.735612750053405762e-01,-3.094334900379180908e-01,-5.655459761619567871e-01,-4.116280749440193176e-02,-1.761875301599502563e-01,-1.267039179801940918e-01,-3.517116904258728027e-01
-2.097561806440353394e-01,6.888272762298583984e-01,-3.039399683475494385e-01,-5.169888138771057129e-01,-2.057938426733016968e-01,2.184827327728271484e-01,-6.625761985778808594e-01,7.017510533332824707e-01,-1.810068339109420776e-01,-3.841847181320190430e-01,-5.402006208896636963e-02,-9.521076083183288574e-02,-2.697946131229400635e-01,-1.491159945726394653e-01
-2.153418511152267456e-01,7.367467880249023438e-01,-1.921357363462448120e-01,-2.681375145912170410e-01,-1.917919069528579712e-01,1.715780943632125854e-01,-4.303020834922790527e-01,5.391760468482971191e-01,-3.108668923377990723e-01,-4.979596734046936035e-01,-8.539415895938873291e-03,-2.690688371658325195e-01,-4.086985886096954346e-01,-1.617562621831893921e-01
-1.348496042191982269e-02,7.399401068687438965e-01,-3.573616445064544678e-01,-3.471105992794036865e-01,-2.614300549030303955e-01,4.026838243007659912e-01,-5.234810113906860352e-01,6.743704676628112793e-01,-3.657848536968231201e-01,-2.383949458599090576e-01,8.183924853801727295e-02,-2.407376766204833984e-01,-4.132152497768402100e-01,-1.607260257005691528e-01
-2.504643984138965607e-02,6.581642627716064453e-01,-1.697033941745758057e-01,-3.628717660903930664e-01,-2.768638134002685547e-01,3.352845907211303711e-01,-5.937656760215759277e-01,5.506228208541870117e-01,-4.401628673076629639e-01,-3.315425515174865723e-01,1.010913774371147156e-01,-4.252948462963104248e-01,-2.739007025957107544e-02,-1.810765415430068970e-01
-1.502290964126586914e-01,7.896568179130554199e-01,3.302694112062454224e-02,-2.931608557701110840e-01,-4.626498818397521973e-01,4.305141568183898926e-01,-4.099600613117218018e-01,2.511615455150604248e-01,-2.271016091108322144e-01,-3.934977352619171143e-01,-8.313240110874176025e-02,-1.779005080461502075e-01,-3.736791014671325684e-01,-2.503417432308197021e-01
2.086424641311168671e-02,5.529130101203918457e-01,-5.813168361783027649e-02,-2.061841785907745361e-01,-5.250322222709655762e-01,4.943079352378845215e-01,-1.878910660743713379e-01,5.574803948402404785e-01,-4.084656536579132080e-01,-3.380940854549407959e-01,4.968772456049919128e-02,-3.475473225116729736e-01,-1.798999011516571045e-01,-3.096902072429656982e-01
3.422770649194717407e-02,5.695427060127258301e-01,4.462056979537010193e-02,-4.441193044185638428e-01,-4.344985485076904297e-01,2.800405025482177734e-01,-2.948853969573974609e-01,3.175421953201293945e-01,-5.049771070480346680e-01,-2.393095046281814575e-01,1.026628762483596802e-01,-4.352414906024932861e-01,-3.740747869014739990e-01,-3.732921183109283447e-01
9.667118638753890991e-02,4.552239775657653809e-01,1.238390803337097168e-01,-3.327676951885223389e-01,-5.321470499038696289e-01,3.116355538368225098e-01,-2.650384604930877686e-01,5.038629174232482910e-01,-3.656043708324432373e-01,-2.886403799057006836e-01,2.366817891597747803e-01,-5.071312189102172852e-01,-2.437281608581542969e-01,-3.613849878311157227e-01
3.632426634430885315e-02,1.527746617794036865e-01,2.962482869625091553e-01,-3.058273792266845703e-01,-6.281758546829223633e-01,5.523068308830261230e-01,6.621271371841430664e-02,4.786864817142486572e-01,-4.709945619106292725e-01,-6.990662962198257446e-02,7.833696156740188599e-02,-4.761586785316467285e-01,-2.917786538600921631e-01,-3.400223255157470703e-01
9.682156145572662354e-03,1.701479703187942505e-01,2.975415289402008057e-01,-1.472249180078506470e-01,-8.351774811744689941e-01,3.768999576568603516e-01,-3.589972387999296188e-03,3.901175558567047119e-01,-4.848023056983947754e-01,-1.416868120431900024e-01,3.276915252208709717e-01,-6.512545943260192871e-01,-2.148521095514297485e-01,-4.962904155254364014e-01
-1.479313224554061890e-01,3.082800805568695068e-01,6.091639399528503418e-01,-1.360415965318679810e-01,-8.682488799095153809e-01,3.595544993877410889e-01,2.023080736398696899e-02,3.793512880802154541e-01,-7.603383064270019531e-02,-1.795503944158554077e-01,1.782424747943878174e-01,-3.572057783603668213e-01,-6.217707321047782898e-02,-4.057887494564056396e-01
-1.838212013244628906e-01,-3.816458582878112793e-02,4.639439284801483154e-01,-1.598247326910495758e-02,-6.329193115234375000e-01,4.144119024276733398e-01,1.823121011257171631e-01,4.037938117980957031e-01,-4.317800104618072510e-01,-2.969900369644165039e-01,3.415393829345703125e-01,-8.440585136413574219e-01,-9.454179555177688599e-02,-4.767785966396331787e-01
-2.548323273658752441e-01,-1.284208744764328003e-01,4.655115306377410889e-01,-7.645051926374435425e-02,-6.154620647430419922e-01,3.366870880126953125e-01,3.726432919502258301e-01,2.165054529905319214e-01,-5.355655774474143982e-02,-1.971980929374694824e-01,4.428083300590515137e-01,-6.971504092216491699e-01,-8.198286592960357666e-02,-5.205342173576354980e-01
-4.598372280597686768e-01,-1.046880483627319336e-01,7.148610353469848633e-01,1.807405948638916016e-01,-7.345904707908630371e-01,3.970181345939636230e-01,4.466968178749084473e-01,3.231015503406524658e-01,-2.370392829179763794e-01,-1.203460544347763062e-01,2.096663564443588257e-01,-6.767994165420532227e-01,5.022793263196945190e-02,-3.739916384220123291e-01
-2.408605366945266724e-01,-2.159991711378097534e-01,5.807475447654724121e-01,1.067098975181579590e-01,-6.055736541748046875e-01,3.335532248020172119e-01,4.820082783699035645e-01,3.454253673553466797e-01,6.649011629633605480e-04,-2.447226941585540771e-01,3.420937061309814453e-01,-7.862781882286071777e-01,1.402261555194854736e-01,-7.294058203697204590e-01
-5.459419488906860352e-01,-2.826393842697143555e-01,5.617941617965698242e-01,2.508028149604797363e-01,-7.102323770523071289e-01,3.454603850841522217e-01,3.605291843414306641e-01,3.999025523662567139e-01,2.797324955463409424e-02,-3.719710558652877808e-02,2.687420248985290527e-01,-6.922864317893981934e-01,3.134515285491943359e-01,-4.978944063186645508e-01
-4.627591371536254883e-01,-2.734955847263336182e-01,5.039821863174438477e-01,3.627510666847229004e-01,-5.405609607696533203e-01,2.453129291534423828e-01,5.553610324859619141e-01,1.185770183801651001e-01,2.133747935295104980e-01,-2.786196768283843994e-01,1.430705934762954712e-01,-7.803367972373962402e-01,1.892226189374923706e-01,-6.542163491249084473e-01
-5.663395524024963379e-01,-9.346981346607208252e-02,6.534498929977416992e-01,4.073198139667510986e-01,-5.186777114868164062e-01,3.266048431396484375e-01,5.244253873825073242e-01,2.860063910484313965e-01,1.000445783138275146e-01,-2.699083685874938965e-01,5.748906359076499939e-02,-5.160818099975585938e-01,4.706718325614929199e-01,-3.392536342144012451e-01
-5.864994525909423828e-01,-2.538018822669982910e-01,5.259789228439331055e-01,3.721347749233245850e-01,-5.021436214447021484e-01,4.098833799362182617e-01,4.704265594482421875e-01,1.750531494617462158e-01,1.788305938243865967e-01,-2.965089976787567139e-01,3.661243245005607605e-02,-7.324343323707580566e-01,6.143500208854675293e-01,-2.180938720703125000e-01
-5.090661048889160156e-01,-3.709974586963653564e-01,4.463189244270324707e-01,4.434184134006500244e-01,-5.122218728065490723e-01,2.335371822118759155e-01,2.769846320152282715e-01,2.052531242370605469e-01,4.855156838893890381e-01,-2.069654762744903564e-01,-5.461743474006652832e-02,-7.919226288795471191e-01,4.704802930355072021e-01,-3.508056998252868652e-01
-6.537887454032897949e-01,-3.845795691013336182e-01,4.095970690250396729e-01,5.446825027465820312e-01,-5.602347850799560547e-01,3.701598048210144043e-01,2.758387625217437744e-01,3.818503022193908691e-01,2.958985567092895508e-01,-4.069463014602661133e-01,-7.923489063978195190e-02,-6.107863783836364746e-01,4.761689901351928711e-01,-2.531341910362243652e-01
-5.148997306823730469e-01,-7.393137551844120026e-03,3.659372031688690186e-01,4.139761626720428467e-01,-5.361610054969787598e-01,2.581175267696380615e-01,3.200808167457580566e-01,3.965952992439270020e-01,4.056122899055480957e-01,-5.520561933517456055e-01,-1.861247867345809937e-01,-3.582001626491546631e-01,7.471734285354614258e-01,-2.132531851530075073e-01
-4.866115152835845947e-01,-2.463041394948959351e-01,4.199982285499572754e-01,2.654267549514770508e-01,-3.807126581668853760e-01,3.172239661216735840e-01,2.991521060466766357e-01,5.451113581657409668e-01,5.446445345878601074e-01,-3.055057227611541748e-01,-1.810556203126907349e-01,-3.207508623600006104e-01,6.972602605819702148e-01,4.934161528944969177e-02
-5.740005373954772949e-01,-1.787481755018234253e-01,3.221877515316009521e-01,3.578919172286987305e-01,-4.326238036155700684e-01,2.332459241151809692e-01,9.796417504549026489e-02,4.326868355274200439e-01,4.382354319095611572e-01,-4.937825500965118408e-01,-2.135076820850372314e-01,-1.466603577136993408e-01,5.860093832015991211e-01,9.119769930839538574e-02
-3.621885478496551514e-01,-3.002929389476776123e-01,2.029755413532257080e-01,2.452477663755416870e-01,-3.973731994628906250e-01,1.907037794589996338e-01,3.406711518764495850e-01,4.817345440387725830e-01,4.493409693241119385e-01,-5.804714560508728027e-01,-5.056434273719787598e-01,-8.987753838300704956e-02,4.581238031387329102e-01,1.731802523136138916e-01
-2.702767252922058105e-01,-1.943785697221755981e-01,2.267054617404937744e-01,-4.463666304945945740e-02,-4.034219682216644287e-01,2.014924734830856323e-01,1.288726776838302612e-01,5.319381356239318848e-01,5.099812746047973633e-01,-5.597157478332519531e-01,-4.210070967674255371e-01,-1.310928165912628174e-01,5.800129771232604980e-01,2.318739295005798340e-01
-1.581332683563232422e-01,-8.528155833482742310e-02,1.249402835965156555e-01,1.735139042139053345e-01,-3.065912127494812012e-01,2.614702880382537842e-01,2.260731309652328491e-01,4.254900813102722168e-01,3.075381815433502197e-01,-3.074788153171539307e-01,-5.174022316932678223e-01,-5.621977895498275757e-02,4.109150469303131104e-01,2.300517857074737549e-01
-3.428420424461364746e-01,-3.011917471885681152e-01,1.340369582176208496e-01,7.649459689855575562e-02,-2.300431728363037109e-01,1.411525458097457886e-01,7.214280311018228531e-03,4.239004850387573242e-01,3.541668951511383057e-01,-5.231687426567077637e-01,-5.402948856353759766e-01,-3.356276429258286953e-04,3.726383745670318604e-01,4.905547201633453369e-01
-2.579362988471984863e-01,-1.932480782270431519e-01,3.733552619814872742e-02,1.226459145545959473e-01,-3.390423655509948730e-01,1.495491117238998413e-01,1.629689037799835205e-01,5.755544900894165039e-01,5.935382843017578125e-01,-4.317485690116882324e-01,-5.817250013351440430e-01,2.564021646976470947e-01,5.472416281700134277e-01,4.465961456298828125e-01
-2.177745997905731201e-01,-3.796191811561584473e-01,4.070704430341720581e-02,-1.173199713230133057e-01,-1.657033562660217285e-01,5.847165733575820923e-02,3.566397354006767273e-02,3.607419729232788086e-01,5.209215283393859863e-01,-4.111297428607940674e-01,-5.677312016487121582e-01,1.511355042457580566e-01,4.553259313106536865e-01,3.362916111946105957e-01
-1.482447087764739990e-01,-3.217697516083717346e-02,1.339357346296310425e-01,-2.305739820003509521e-01,-1.976332068443298340e-01,2.578352093696594238e-01,2.038792669773101807e-01,4.714429974555969238e-01,6.208342909812927246e-01,-4.243366718292236328e-01,-4.222549796104431152e-01,2.707559168338775635e-01,3.053888380527496338e-01,4.151653051376342773e-01
-1.726785488426685333e-02,-1.976954340934753418e-01,1.537863463163375854e-01,-8.706494420766830444e-02,-9.823749214410781860e-02,1.836574971675872803e-01,2.654403448104858398e-01,3.402732908725738525e-01,4.285046458244323730e-01,-3.010033667087554932e-01,-2.895030975341796875e-01,1.527001857757568359e-01,5.731889009475708008e-01,4.252518713474273682e-01
-1.251690387725830078e-01,-2.504347264766693115e-01,2.635288834571838379e-01,-7.506093382835388184e-02,-8.549724705517292023e-03,1.604755669832229614e-01,3.026713728904724121e-01,4.363505169749259949e-02,4.809140861034393311e-01,-2.775812149047851562e-01,-2.434838265180587769e-01,3.954027593135833740e-02,6.679707765579223633e-01,6.785712838172912598e-01
-1.071294844150543213e-01,-2.186903506517410278e-01,2.376630604267120361e-01,-9.820179641246795654e-02,-2.106076627969741821e-01,1.874429881572723389e-01,2.075867950916290283e-01,1.669760197401046753e-01,2.978155910968780518e-01,2.794357389211654663e-02,-3.400636017322540283e-01,-8.537449687719345093e-02,5.942552685737609863e-01,6.339796185493469238e-01
-2.539673149585723877e-01,-2.161943167448043823e-01,1.623853296041488647e-01,-8.664207905530929565e-02,-1.606197357177734375e-01,3.570618927478790283e-01,1.267504245042800903e-01,8.280595391988754272e-02,3.175878822803497314e-01,1.850943453609943390e-02,-3.045668303966522217e-01,4.008957184851169586e-03,4.820028543472290039e-01,5.749368667602539062e-01
7.473195344209671021e-02,-1.860099732875823975e-01,1.036116704344749451e-01,-1.655652523040771484e-01,-1.201340928673744202e-01,2.683748304843902588e-01,3.636842966079711914e-01,-5.273418501019477844e-03,3.799140155315399170e-01,3.250372409820556641e-01,-1.243483200669288635e-01,-5.525350570678710938e-02,3.173864483833312988e-01,7.826960086822509766e-01
-1.616543680429458618e-01,-3.610856533050537109e-01,3.344256579875946045e-01,-3.439049050211906433e-02,-1.450604200363159180e-01,2.273051887750625610e-01,3.092539012432098389e-01,-1.309359073638916016e-01,1.558900922536849976e-01,6.321097165346145630e-02,-1.571644544601440430e-01,-8.928348869085311890e-02,5.407876968383789062e-01,7.803532481193542480e-01
-3.616218268871307373e-01,-1.066019535064697266e-01,2.874828279018402100e-01,-1.240953151136636734e-02,-1.215606927871704102e-01,4.923523068428039551e-01,3.219393789768218994e-01,-2.680781483650207520e-01,4.088437855243682861e-01,9.212873131036758423e-02,1.561523647978901863e-03,-1.273792237043380737e-01,4.503108859062194824e-01,6.325618624687194824e-01
-3.021689355373382568e-01,-9.852467477321624756e-02,3.528829514980316162e-01,1.737798154354095459e-01,1.669620163738727570e-02,6.822329163551330566e-01,2.782704830169677734e-01,-8.296468108892440796e-02,3.012116253376007080e-01,3.605195879936218262e-01,-1.798073649406433105e-01,-3.329183161258697510e-01,4.115209877490997314e-01,6.304433345794677734e-01
-1.900180988013744354e-02,-3.342413529753684998e-02,2.976134717464447021e-01,1.462406069040298462e-01,-9.320598840713500977e-02,7.947226166725158691e-01,3.709951937198638916e-01,-2.565739154815673828e-01,3.258340954780578613e-01,3.270156979560852051e-01,-2.431532591581344604e-01,-1.711686328053474426e-02,2.898215949535369873e-01,6.443568468093872070e-01
-1.549749821424484253e-01,-1.446035951375961304e-01,4.233797490596771240e-01,1.170456409454345703e-01,-3.353868722915649414e-01,6.874011158943176270e-01,3.807013630867004395e-01,-3.491098582744598389e-01,4.761903285980224609e-01,2.594925463199615479e-01,9.117044508457183838e-03,-1.585426181554794312e-01,6.542832255363464355e-01,5.855090022087097168e-01
4.420531913638114929e-04,-1.930740326642990112e-01,2.094005495309829712e-01,3.461976647377014160e-01,-2.603113353252410889e-01,7.517691850662231445e-01,4.921032488346099854e-01,-2.161046415567398071e-01,2.226721197366714478e-01,9.685979783535003662e-02,-2.403500080108642578e-01,-3.010625839233398438e-01,3.406484127044677734e-01,8.436354994773864746e-01
-1.351008266210556030e-01,-1.545737683773040771e-01,2.221409678459167480e-01,1.668211072683334351e-01,-4.204749763011932373e-01,8.328372836112976074e-01,1.925521939992904663e-01,-3.259732425212860107e-01,3.811531066894531250e-01,3.597496151924133301e-01,-1.978026628494262695e-01,-1.149570420384407043e-01,2.563524842262268066e-01,5.470328330993652344e-01
5.828688666224479675e-02,-3.663859963417053223e-01,2.845169901847839355e-01,2.597334086894989014e-01,-4.453012347221374512e-01,7.706565856933593750e-01,2.728113830089569092e-01,-3.278307020664215088e-01,4.151516258716583252e-01,1.476996243000030518e-01,-1.229726299643516541e-01,-2.512777745723724365e-01,6.030542254447937012e-01,6.994006633758544922e-01
8.931830525398254395e-02,-2.539781033992767334e-01,2.811139822006225586e-01,1.881098747253417969e-01,-6.316909193992614746e-01,8.474027514457702637e-01,4.657341539859771729e-01,-2.460102587938308716e-01,3.103040158748626709e-01,7.711880654096603394e-02,-8.694681525230407715e-02,-1.127549558877944946e-01,4.409154653549194336e-01,6.343649625778198242e-01
4.524697363376617432e-02,-5.267791152000427246e-01,2.195647507905960083e-01,3.603844344615936279e-01,-7.065022587776184082e-01,7.692790627479553223e-01,2.177633494138717651e-01,-2.478046417236328125e-01,3.600259125232696533e-01,1.982111781835556030e-01,5.870034219697117805e-04,-8.613822609186172485e-02,4.403378665447235107e-01,4.767591953277587891e-01
-5.894436314702033997e-02,-3.063600361347198486e-01,2.264218591153621674e-02,1.916256844997406006e-01,-5.263400077819824219e-01,8.464184403419494629e-01,3.863376677036285400e-01,-2.452364861965179443e-01,3.597721457481384277e-01,4.630444571375846863e-02,-1.606086194515228271e-01,-8.057278394699096680e-02,5.100528001785278320e-01,6.216657161712646484e-01
6.924644112586975098e-02,-4.293219745159149170e-01,2.125873696058988571e-03,1.753721684217453003e-01,-6.042494177818298340e-01,7.733734250068664551e-01,7.175588011741638184e-01,-4.825012385845184326e-02,4.398950636386871338e-01,-1.006875634193420410e-01,7.394880801439285278e-02,-2.099440693855285645e-01,5.602225661277770996e-01,2.127437889575958252e-01
-9.977407753467559814e-02,-6.667755842208862305e-01,1.384878903627395630e-01,1.276471018791198730e-01,-5.457355976104736328e-01,7.297951579093933105e-01,4.722596108913421631e-01,-1.188011020421981812e-01,3.365673124790191650e-01,-8.909198455512523651e-03,-2.082351446151733398e-01,-2.490965276956558228e-01,5.853707194328308105e-01,2.869537174701690674e-01
-1.304098218679428101e-01,-5.772750377655029297e-01,1.765360236167907715e-01,1.381112486124038696e-01,-4.124275743961334229e-01,5.717493891716003418e-01,5.856484174728393555e-01,3.487956896424293518e-02,2.412131875753402710e-01,-1.157191768288612366e-01,-9.448814392089843750e-02,-2.854564189910888672e-01,4.682959318161010742e-01,1.745965629816055298e-01
-2.223858684301376343e-01,-6.904373764991760254e-01,-1.834633201360702515e-02,2.155649214982986450e-01,-5.547232031822204590e-01,7.281106114387512207e-01,3.561163842678070068e-01,-1.631223112344741821e-01,3.277953565120697021e-01,-3.593761920928955078e-01,2.113685756921768188e-02,-3.098295629024505615e-01,5.198016762733459473e-01,2.544926702976226807e-01
-2.629069983959197998e-01,-8.465283513069152832e-01,1.539454013109207153e-01,1.584950834512710571e-01,-5.008133053779602051e-01,5.304795503616333008e-01,5.931209325790405273e-01,-2.414489984512329102e-01,3.770454227924346924e-01,-1.646709591150283813e-01,1.577165722846984863e-02,-2.512072622776031494e-01,6.650724411010742188e-01,1.388118267059326172e-01
-1.146734952926635742e-01,-9.756326675415039062e-01,2.025575935840606689e-01,5.631139129400253296e-02,-2.392659783363342285e-01,4.597395062446594238e-01,4.722285568714141846e-01,-4.731403291225433350e-02,3.641383647918701172e-01,-1.459276229143142700e-01,-3.867769539356231689e-01,-2.771356999874114990e-01,7.429714798927307129e-01,-1.110534220933914185e-01
-3.647478520870208740e-01,-7.520711421966552734e-01,1.021233424544334412e-01,2.039736807346343994e-01,-3.475741147994995117e-01,3.204039633274078369e-01,5.122548937797546387e-01,1.289683729410171509e-01,4.993787407875061035e-01,-2.255394160747528076e-01,1.511233299970626831e-01,-3.379096686840057373e-01,8.060089349746704102e-01,1.592639833688735962e-01
-5.462151765823364258e-01,-8.563350439071655273e-01,9.695341438055038452e-02,1.010473147034645081e-01,-3.611438572406768799e-01,3.581274747848510742e-01,4.983093738555908203e-01,2.695009578019380569e-03,5.318620204925537109e-01,-7.092981040477752686e-02,-1.908791065216064453e-01,-3.594119548797607422e-01,9.009656310081481934e-01,7.405698299407958984e-02
-5.588203072547912598e-01,-6.447569131851196289e-01,7.396717369556427002e-02,-5.224308744072914124e-02,-1.403867155313491821e-01,3.607667088508605957e-01,3.368967175483703613e-01,2.794445157051086426e-01,5.616528391838073730e-01,-2.275081723928451538e-01,-1.804818063974380493e-01,-2.346702516078948975e-01,8.709885478019714355e-01,-7.134248316287994385e-02
-5.195375680923461914e-01,-7.167129516601562500e-01,-2.083100974559783936e-01,-1.726329624652862549e-01,-1.750817745923995972e-01,2.616042792797088623e-01,3.706914186477661133e-01,2.515096915885806084e-03,4.919601082801818848e-01,-1.267024129629135132e-01,-3.012075126171112061e-01,-2.345330268144607544e-01,8.340170979499816895e-01,1.918751932680606842e-02
-5.834358930587768555e-01,-7.416237592697143555e-01,-5.583902820944786072e-02,-1.082047745585441589e-01,-1.770038753747940063e-01,3.103459179401397705e-01,1.341547966003417969e-01,7.766975089907646179e-03,6.142354607582092285e-01,-3.261010944843292236e-01,-1.219080388545989990e-01,-2.615293860435485840e-01,9.256674647331237793e-01,-4.097839072346687317e-02
-4.028397798538208008e-01,-4.388183057308197021e-01,-2.743650078773498535e-01,-6.508614122867584229e-02,-3.625129535794258118e-02,3.284082710742950439e-01,1.697901636362075806e-01,-2.132244855165481567e-01,7.369170188903808594e-01,-1.427403092384338379e-01,-2.794797718524932861e-01,-1.097813993692398071e-02,9.225252270698547363e-01,1.164302974939346313e-01
-6.150766611099243164e-01,-5.051941275596618652e-01,-3.083616793155670166e-01,-9.520497173070907593e-02,7.979389280080795288e-02,3.599220216274261475e-01,1.326311677694320679e-01,6.535542011260986328e-02,6.291095018386840820e-01,-3.933722078800201416e-01,-2.727149724960327148e-01,1.438152343034744263e-01,7.171298265457153320e-01,1.987777501344680786e-01
-4.437832236289978027e-01,-8.736830949783325195e-01,-4.338466823101043701e-01,-7.675627619028091431e-02,-8.296076953411102295e-02,1.890140473842620850e-01,-5.465060099959373474e-02,6.008475646376609802e-02,6.815564632415771484e-01,-5.309823751449584961e-01,-5.094493627548217773e-01,1.276269257068634033e-01,5.922060012817382812e-01,2.020716518163681030e-01
-2.745135128498077393e-01,-5.066316723823547363e-01,-3.388930857181549072e-01,-3.886971771717071533e-01,-5.468375980854034424e-02,3.622262775897979736e-01,-1.714835017919540405e-01,2.124623395502567291e-02,5.424465537071228027e-01,-2.006823271512985229e-01,-5.331566333770751953e-01,2.448260039091110229e-02,6.652802824974060059e-01,2.395624071359634399e-01
-3.707085549831390381e-01,-5.534176826477050781e-01,-6.331542730331420898e-01,-3.972094058990478516e-01,8.261200785636901855e-02,3.463466763496398926e-01,-1.844543218612670898e-01,6.255181133747100830e-02,4.082625806331634521e-01,-4.312769472599029541e-01,-7.869247198104858398e-01,1.529318839311599731e-01,5.145494937896728516e-01,1.658391356468200684e-01
-1.882123798131942749e-01,-4.610711038112640381e-01,-4.345780909061431885e-01,-5.503286719322204590e-01,5.962685216218233109e-03,3.871370851993560791e-01,-7.918444275856018066e-02,7.640255987644195557e-02,4.834690988063812256e-01,-1.822731345891952515e-01,-7.541939020156860352e-01,3.657424747943878174e-01,5.448611974716186523e-01,3.935459852218627930e-01
-1.570900529623031616e-01,-3.716407716274261475e-01,-3.742529749870300293e-01,-6.478804349899291992e-01,1.371972542256116867e-02,4.943718314170837402e-01,-1.271799951791763306e-01,6.241294741630554199e-02,1.700364500284194946e-01,-3.024466037750244141e-01,-6.663509011268615723e-01,1.366907209157943726e-01,2.668821513652801514e-01,1.879384517669677734e-01
-7.790394127368927002e-02,-3.078195452690124512e-01,-7.908799052238464355e-01,-6.567370295524597168e-01,1.686861068010330200e-01,5.945420265197753906e-01,-1.593966484069824219e-01,2.747308611869812012e-01,1.598657220602035522e-01,-2.677737474441528320e-01,-7.388370633125305176e-01,3.602866530418395996e-01,1.524288654327392578e-01,3.905835151672363281e-01
5.007891729474067688e-02,-3.122619092464447021e-01,-6.971221566200256348e-01,-6.317940354347229004e-01,3.076477646827697754e-01,4.534307718276977539e-01,-7.812565565109252930e-02,8.698722231201827526e-04,1.024042218923568726e-01,-2.162495255470275879e-01,-7.558202147483825684e-01,1.487026363611221313e-01,1.240995377302169800e-01,2.009405493736267090e-01
-1.213423088192939758e-01,-2.333572357892990112e-01,-5.604630112648010254e-01,-6.563735008239746094e-01,3.071941733360290527e-01,2.577396929264068604e-01,-2.075915187597274780e-01,1.353796385228633881e-02,8.310481905937194824e-02,-2.697831094264984131e-01,-8.232090473175048828e-01,4.559356570243835449e-01,1.632251292467117310e-01,3.663769662380218506e-01
2.400660365819931030e-01,-2.858031392097473145e-01,-6.859228610992431641e-01,-8.802871108055114746e-01,2.508931457996368408e-01,3.432542085647583008e-01,-1.549752950668334961e-01,-9.802486002445220947e-02,5.149867013096809387e-02,-2.163857370615005493e-01,-5.938245654106140137e-01,2.212781012058258057e-01,1.091504562646150589e-02,3.299842774868011475e-01
-2.676505036652088165e-02,-3.036867976188659668e-01,-5.626577138900756836e-01,-9.021455645561218262e-01,4.236727654933929443e-01,4.367657005786895752e-01,-3.242757916450500488e-01,-4.470263794064521790e-02,-7.614535838365554810e-02,-3.815469145774841309e-02,-5.484043359756469727e-01,4.481593966484069824e-01,-1.629783026874065399e-02,3.314089179039001465e-01
3.072524964809417725e-01,-3.539737164974212646e-01,-4.540494382381439209e-01,-1.016630649566650391e+00,5.016200542449951172e-01,4.291259348392486572e-01,-1.601296663284301758e-01,-1.792330592870712280e-01,-1.587490588426589966e-01,-8.559504151344299316e-02,-5.046203732490539551e-01,3.456678390502929688e-01,-9.913111478090286255e-02,3.318356871604919434e-01
2.557909190654754639e-01,-2.578717172145843506e-01,-4.702527523040771484e-01,-8.152326345443725586e-01,4.067309498786926270e-01,4.884180724620819092e-01,4.216378927230834961e-02,-3.036710917949676514e-01,-2.048416137695312500e-01,-9.682659059762954712e-02,-5.212782025337219238e-01,9.986114501953125000e-02,1.998701505362987518e-02,3.019452095031738281e-01
2.677505910396575928e-01,-4.287995696067810059e-01,-3.134874105453491211e-01,-8.886129260063171387e-01,3.450374603271484375e-01,3.944325149059295654e-01,1.383202821016311646e-01,-5.478255152702331543e-01,-2.329390496015548706e-01,1.061404347419738770e-01,-4.917597770690917969e-01,-2.977231331169605255e-02,-5.673235654830932617e-02,-1.234238967299461365e-02
3.812061250209808350e-01,-4.343902766704559326e-01,-1.491113603115081787e-01,-6.098692417144775391e-01,5.544737577438354492e-01,3.874251246452331543e-01,-2.058360539376735687e-02,-4.068173766136169434e-01,-4.730944633483886719e-01,-9.778287261724472046e-02,-3.273988664150238037e-01,-8.394676260650157928e-03,-2.743963599205017090e-01,9.666178375482559204e-02
3.309988379478454590e-01,-6.017510890960693359e-01,-1.775664389133453369e-01,-6.804540753364562988e-01,5.574949383735656738e-01,6.224402189254760742e-01,1.502653509378433228e-01,-5.300469398498535156e-01,-1.497454941272735596e-01,3.018356263637542725e-01,-3.015066385269165039e-01,-1.134085729718208313e-01,-4.493330419063568115e-02,2.615860104560852051e-01
2.829881608486175537e-01,-3.098019659519195557e-01,-2.060488164424896240e-01,-6.717097163200378418e-01,4.282958209514617920e-01,4.781979024410247803e-01,4.178666770458221436e-01,-5.611734986305236816e-01,-2.569286525249481201e-01,3.469136953353881836e-01,-4.509506523609161377e-01,-1.967022418975830078e-01,-8.675967156887054443e-02,3.570982068777084351e-02
1.592954546213150024e-01,-4.270218610763549805e-01,7.274617999792098999e-02,-6.437216401100158691e-01,5.122862458229064941e-01,3.947431743144989014e-01,2.256776094436645508e-01,-7.141786813735961914e-01,-3.730493783950805664e-01,3.596325516700744629e-01,-3.094592392444610596e-01,-3.739573955535888672e-01,-4.751225188374519348e-02,-9.039915353059768677e-02
1.399499773979187012e-01,-1.312267780303955078e-01,1.430479735136032104e-01,-6.504380106925964355e-01,2.894119620323181152e-01,6.637405157089233398e-01,4.012854695320129395e-01,-4.759759902954101562e-01,-2.972844541072845459e-01,3.650249540805816650e-01,-2.683409750461578369e-01,-2.993475198745727539e-01,-2.195175588130950928e-01,-4.107787832617759705e-02
2.487775832414627075e-01,-4.735379517078399658e-01,7.790062576532363892e-02,-5.598450899124145508e-01,1.305436640977859497e-01,3.787852823734283447e-01,3.042538762092590332e-01,-5.383882522583007812e-01,-4.408182799816131592e-01,2.316651493310928345e-01,-4.077771604061126709e-01,-3.855475783348083496e-01,-2.720078229904174805e-01,-9.311808645725250244e-02
2.003988623619079590e-01,-4.373292028903961182e-01,-3.070891648530960083e-02,-4.121701121330261230e-01,2.046064734458923340e-01,1.801516711711883545e-01,3.300361931324005127e-01,-4.672002792358398438e-01,-3.091349899768829346e-01,2.029797583818435669e-01,-2.683489024639129639e-01,-2.325777411460876465e-01,-1.982826441526412964e-01,-1.912861317396163940e-01
1.774094849824905396e-01,-4.108291864395141602e-01,-3.014980582520365715e-03,-3.550125658512115479e-01,2.847870886325836182e-01,5.941292047500610352e-01,1.807835698127746582e-01,-4.644853770732879639e-01,-2.922726869583129883e-01,4.863791540265083313e-02,-3.148791790008544922e-01,-1.892899274826049805e-01,-1.850730031728744507e-01,-4.497847985476255417e-03
1.346301287412643433e-01,-6.017355918884277344e-01,-1.420073658227920532e-01,-3.310627639293670654e-01,2.207097262144088745e-01,5.799672007560729980e-01,1.042050048708915710e-01,-4.738917946815490723e-01,-2.786269485950469971e-01,2.915652096271514893e-01,-4.632004499435424805e-01,-2.040300667285919189e-01,-9.218475222587585449e-02,-5.118990316987037659e-02
9.207578748464584351e-02,-4.884445667266845703e-01,4.076682776212692261e-02,-1.518787145614624023e-01,2.936818301677703857e-01,4.850274622440338135e-01,3.283274471759796143e-01,-5.895040035247802734e-01,-1.373180299997329712e-01,4.149009939283132553e-03,-5.961049199104309082e-01,-2.248878180980682373e-01,-1.526349037885665894e-01,-2.630029022693634033e-01
-1.578008197247982025e-02,-5.593310594558715820e-01,2.090862542390823364e-01,-1.094956994056701660e-01,2.725490182638168335e-02,2.510876655578613281e-01,2.772307395935058594e-01,-2.250694036483764648e-01,-1.957864612340927124e-01,1.719066686928272247e-02,-4.415528476238250732e-01,-3.194265365600585938e-01,-2.013848721981048584e-01,-1.612597703933715820e-01
1.740331053733825684e-01,-6.356033086776733398e-01,3.622315078973770142e-02,-1.904272735118865967e-01,1.956950500607490540e-02,2.972551584243774414e-01,2.438209056854248047e-01,-4.323180019855499268e-01,-3.176578879356384277e-01,-6.217229738831520081e-02,-3.416098058223724365e-01,-1.853423863649368286e-01,-2.219281345605850220e-01,-2.334887385368347168e-01
7.250917702913284302e-02,-5.317737460136413574e-01,1.236483827233314514e-02,5.451475456357002258e-02,2.470933049917221069e-01,1.834907531738281250e-01,9.785187244415283203e-02,-2.965248525142669678e-01,-3.113706111907958984e-01,-2.899660766124725342e-01,-5.463361144065856934e-01,-9.765773266553878784e-02,-1.923097074031829834e-01,-3.637770414352416992e-01
4.042641445994377136e-02,-7.813946604728698730e-01,2.159280627965927124e-01,-3.166666924953460693e-01,4.754770547151565552e-02,5.535109713673591614e-02,1.892910301685333252e-01,-1.326988041400909424e-01,-3.880988061428070068e-01,-3.930808007717132568e-01,-5.359094738960266113e-01,-2.080576568841934204e-01,-2.092698216438293457e-01,-3.723474740982055664e-01
-1.488272249698638916e-01,-7.001696825027465820e-01,2.371868640184402466e-01,-1.450256407260894775e-01,2.000589072704315186e-01,1.416895240545272827e-01,1.586818844079971313e-01,-6.796430796384811401e-02,-1.020309701561927795e-01,-2.726234197616577148e-01,-7.383517622947692871e-01,-1.130162030458450317e-01,-6.965085119009017944e-02,-3.831583857536315918e-01
2.208965830504894257e-03,-6.098936200141906738e-01,7.928358018398284912e-02,-1.845277845859527588e-01,2.802273631095886230e-01,-2.146461158990859985e-01,1.636155843734741211e-01,-3.525770828127861023e-02,-2.098834812641143799e-01,-3.634576797485351562e-01,-6.419745683670043945e-01,-1.187374666333198547e-01,-2.433827370405197144e-01,-2.840741574764251709e-01
-1.886384040117263794e-01,-8.414400219917297363e-01,1.961390227079391479e-01,-2.297887802124023438e-01,2.757932841777801514e-01,-1.860426217317581177e-01,2.316036671400070190e-01,-9.116557240486145020e-02,-1.071421727538108826e-01,-3.616802394390106201e-01,-6.580252647399902344e-01,7.889889925718307495e-02,-5.284689366817474365e-02,-3.389736711978912354e-01
-1.448984891176223755e-01,-8.008182048797607422e-01,7.072755694389343262e-02,-2.543771564960479736e-01,4.709463715553283691e-01,-1.986790150403976440e-01,2.689346373081207275e-01,-8.046859502792358398e-02,1.392053365707397461e-01,-2.709631323814392090e-01,-7.407412528991699219e-01,1.140349730849266052e-02,9.750715643167495728e-02,-3.946893215179443359e-01
-7.267887890338897705e-02,-5.199295282363891602e-01,1.338308006525039673e-01,-1.912545561790466309e-01,2.846122682094573975e-01,-3.692011237144470215e-01,2.109893709421157837e-01,2.557572424411773682e-01,-2.537661790847778320e-01,-3.710635304450988770e-01,-6.104258894920349121e-01,-1.376806059852242470e-03,-7.449343800544738770e-02,-3.319097459316253662e-01
-1.945357918739318848e-01,-6.724096536636352539e-01,-6.806018296629190445e-03,-2.140542417764663696e-01,7.525883316993713379e-01,-3.582104146480560303e-01,1.789513379335403442e-01,1.260689832270145416e-02,-1.177556291222572327e-01,-3.268317878246307373e-01,-6.152695417404174805e-01,-2.231582254171371460e-01,2.752950489521026611e-01,-1.986085921525955200e-01
-2.555327415466308594e-01,-7.181529998779296875e-01,2.133043110370635986e-01,-2.263468950986862183e-01,6.114738583564758301e-01,-4.845491647720336914e-01,1.401220411062240601e-01,8.701215498149394989e-03,8.488076739013195038e-03,-3.625071644783020020e-01,-6.859599351882934570e-01,-2.248938381671905518e-02,7.293171249330043793e-03,-2.041949927806854248e-01
-3.539087474346160889e-01,-5.186716914176940918e-01,1.629867553710937500e-01,-3.078682720661163330e-01,6.948280930519104004e-01,-5.392544865608215332e-01,7.252110540866851807e-02,-4.182742536067962646e-02,-1.708406507968902588e-01,-4.405140578746795654e-01,-6.601091027259826660e-01,-4.124023392796516418e-02,8.825083076953887939e-02,-9.221043437719345093e-02
-3.616665005683898926e-01,-5.733899474143981934e-01,9.553251415491104126e-02,-3.269157111644744873e-01,1.037196874618530273e+00,-5.696595311164855957e-01,-3.920797258615493774e-02,5.713899806141853333e-02,-1.450654715299606323e-01,-5.104715824127197266e-01,-4.574128091335296631e-01,-2.474234066903591156e-02,2.522505819797515869e-01,-1.550244390964508057e-01
-1.614124625921249390e-01,-5.804312229156494141e-01,1.367784887552261353e-01,-1.788697242736816406e-01,6.736116409301757812e-01,-5.533394813537597656e-01,-3.420326858758926392e-03,5.601902306079864502e-02,-5.296853184700012207e-02,-3.864799141883850098e-01,-7.299475669860839844e-01,-1.436104476451873779e-01,2.916792035102844238e-01,9.873358160257339478e-02
-2.412355542182922363e-01,-1.879285424947738647e-01,1.027105152606964111e-01,-1.746907085180282593e-01,7.308055162429809570e-01,-6.479890942573547363e-01,1.119290478527545929e-02,3.995584696531295776e-02,1.452819257974624634e-01,-4.095666110515594482e-01,-7.865002155303955078e-01,-7.149933278560638428e-02,1.646360754966735840e-01,5.124010145664215088e-02
-3.508059084415435791e-01,-3.350921571254730225e-01,1.665070652961730957e-02,-1.398978829383850098e-01,9.847071170806884766e-01,-7.236882448196411133e-01,-1.309391260147094727e-01,8.770430833101272583e-02,-5.867201462388038635e-02,-3.341894745826721191e-01,-7.929948568344116211e-01,5.738072842359542847e-02,1.308596134185791016e-01,4.889103025197982788e-02
-2.876808345317840576e-01,1.178037747740745544e-01,1.139117628335952759e-01,-1.194295734167098999e-01,6.811610460281372070e-01,-4.747712314128875732e-01,-2.643054723739624023e-01,2.364920526742935181e-01,-2.317181229591369629e-01,-4.509750008583068848e-01,-6.530286073684692383e-01,2.030620723962783813e-01,2.338015288114547729e-01,1.875148564577102661e-01
-2.141717076301574707e-01,-8.609707653522491455e-02,2.150252647697925568e-02,-1.527567356824874878e-01,8.638666272163391113e-01,-4.266606271266937256e-01,-3.380599915981292725e-01,1.325726602226495743e-02,-2.572925090789794922e-01,-4.772621393203735352e-01,-9.267292618751525879e-01,5.812163278460502625e-02,-1.331663727760314941e-01,1.285266876220703125e-01
-1.491723209619522095e-01,2.555185854434967041e-01,2.088470011949539185e-02,-1.174975112080574036e-01,7.184578180313110352e-01,-4.894354939460754395e-01,-3.500004708766937256e-01,9.047667682170867920e-02,-2.838864028453826904e-01,-4.821036458015441895e-01,-7.088769674301147461e-01,9.797764569520950317e-02,-2.251250445842742920e-01,2.883423566818237305e-01
-1.455742865800857544e-01,-2.892019785940647125e-02,-1.198681294918060303e-01,-1.806742101907730103e-01,5.721856355667114258e-01,-5.430784821510314941e-01,-3.920190334320068359e-01,3.390468284487724304e-02,-4.779285490512847900e-01,-5.608447790145874023e-01,-7.291154861450195312e-01,3.291118443012237549e-01,-3.020684719085693359e-01,4.145009219646453857e-01
-2.706657946109771729e-01,2.609528005123138428e-01,1.706589199602603912e-02,5.592957511544227600e-02,7.342447638511657715e-01,-6.214108467102050781e-01,3.814064431935548782e-03,1.379237771034240723e-01,-3.815275132656097412e-01,-3.304363191127777100e-01,-5.993149876594543457e-01,1.236959025263786316e-01,-2.480871081352233887e-01,4.693859219551086426e-01
-5.193994566798210144e-02,2.429771274328231812e-01,2.864546887576580048e-02,-1.777776479721069336e-01,6.810559034347534180e-01,-4.394173920154571533e-01,-3.640913367271423340e-01,5.678959563374519348e-02,-4.400228857994079590e-01,-3.619925975799560547e-01,-5.460233092308044434e-01,1.297512799501419067e-01,-2.800540924072265625e-01,3.864140808582305908e-01
-2.201396785676479340e-02,2.960909903049468994e-01,-4.455693066120147705e-03,-1.340714544057846069e-01,5.683291554450988770e-01,-5.705360174179077148e-01,-2.543522715568542480e-01,6.017103418707847595e-02,-5.130963921546936035e-01,-5.915324687957763672e-01,-4.389225840568542480e-01,1.054589748382568359e-01,-2.043623775243759155e-01,7.020406126976013184e-01
2.166067361831665039e-01,3.147186040878295898e-01,1.773488670587539673e-01,-1.637410074472427368e-01,7.190139293670654297e-01,-5.769974589347839355e-01,-2.175567746162414551e-01,-4.125094413757324219e-02,-7.372178435325622559e-01,-3.769682049751281738e-01,-3.309076726436614990e-01,-5.897615477442741394e-02,-1.612468361854553223e-01,3.953921794891357422e-01
2.885681688785552979e-01,1.624220609664916992e-01,-2.707843668758869171e-02,-1.524399966001510620e-01,3.816061615943908691e-01,-4.263187050819396973e-01,-1.222272869199514389e-02,9.909747540950775146e-02,-6.256192922592163086e-01,-6.220514774322509766e-01,-1.856010854244232178e-01,7.577693462371826172e-02,-1.745458543300628662e-01,2.133445590734481812e-01
7.530654966831207275e-02,6.722015142440795898e-02,2.061813622713088989e-01,-5.329029634594917297e-02,4.956177175045013428e-01,-4.988768398761749268e-01,-4.469802603125572205e-02,1.100851744413375854e-01,-8.159440159797668457e-01,-3.133013844490051270e-01,-2.335836142301559448e-01,-1.179286465048789978e-01,-1.639351695775985718e-01,4.585298299789428711e-01
-8.226788789033889771e-02,1.737542748451232910e-01,3.641106486320495605e-01,-3.200573474168777466e-02,3.955083489418029785e-01,-3.865362107753753662e-01,2.747448906302452087e-02,2.255051136016845703e-01,-7.850212454795837402e-01,-4.516864418983459473e-01,-1.580705195665359497e-01,-1.387693881988525391e-01,-3.176964819431304932e-01,3.449421226978302002e-01
1.102725043892860413e-02,1.798826754093170166e-01,6.257970333099365234e-01,-2.152168564498424530e-02,4.167329668998718262e-01,-4.341280162334442139e-01,7.756159454584121704e-02,5.547663941979408264e-02,-8.627285957336425781e-01,-3.147712647914886475e-01,1.016007885336875916e-01,-1.830197721719741821e-01,-1.385528594255447388e-01,2.494085580110549927e-01
-2.839348018169403076e-01,8.994759619235992432e-02,3.619970679283142090e-01,5.443972349166870117e-02,2.278449982404708862e-01,-4.731001853942871094e-01,1.607462167739868164e-01,-6.787089258432388306e-02,-6.827732920646667480e-01,-5.139578580856323242e-01,-4.526112228631973267e-02,-1.294523626565933228e-01,-1.931833773851394653e-01,1.208073124289512634e-01
-2.367310374975204468e-01,1.475163549184799194e-01,5.854048132896423340e-01,8.020397275686264038e-02,9.890681505203247070e-02,-5.733157396316528320e-01,2.323976606130599976e-01,-1.876186132431030273e-01,-8.588154911994934082e-01,-4.159460961818695068e-01,2.928068935871124268e-01,-5.518587231636047363e-01,6.678421515971422195e-03,1.505723297595977783e-01
-4.242209792137145996e-01,1.399497985839843750e-01,7.004877328872680664e-01,2.706466615200042725e-01,1.272758394479751587e-01,-4.743371903896331787e-01,1.945440471172332764e-01,-1.965514868497848511e-01,-6.311390399932861328e-01,-2.323281764984130859e-01,3.159819245338439941e-01,-4.255615472793579102e-01,2.280307933688163757e-02,2.232570648193359375e-01
-2.895639240741729736e-01,8.508140221238136292e-03,7.087550163269042969e-01,5.201215147972106934e-01,1.449271887540817261e-01,-4.531245827674865723e-01,2.100187242031097412e-01,-2.176745682954788208e-01,-7.129899263381958008e-01,-3.433319628238677979e-01,4.161345660686492920e-01,-5.085113644599914551e-01,1.808281391859054565e-01,4.035643488168716431e-02
-5.497342944145202637e-01,1.367128044366836548e-01,6.207146644592285156e-01,3.133305609226226807e-01,1.721209436655044556e-01,-4.738423824310302734e-01,3.376487493515014648e-01,9.770212322473526001e-02,-6.341691613197326660e-01,-3.644119799137115479e-01,4.599656462669372559e-01,-7.302009463310241699e-01,4.021210968494415283e-01,-1.576258540153503418e-01
-5.387522578239440918e-01,7.254072278738021851e-02,7.202083468437194824e-01,5.243229269981384277e-01,5.516632646322250366e-02,-3.630522489547729492e-01,2.930164039134979248e-01,-4.976032674312591553e-02,-6.097338795661926270e-01,-1.624525189399719238e-01,4.709276258945465088e-01,-6.622840166091918945e-01,2.287381440401077271e-01,-3.757759332656860352e-01
-5.900289416313171387e-01,3.425338491797447205e-02,5.315940976142883301e-01,5.671391487121582031e-01,2.152809500694274902e-02,-4.248652756214141846e-01,3.654386699199676514e-01,-1.108494624495506287e-01,-6.416811943054199219e-01,-1.172655820846557617e-01,4.905005693435668945e-01,-5.968576073646545410e-01,1.822830587625503540e-01,-1.097806263715028763e-03
-6.558129787445068359e-01,1.891872286796569824e-01,7.665256857872009277e-01,6.967669725418090820e-01,1.175716817378997803e-01,-3.099745810031890869e-01,2.262641489505767822e-01,-1.083539947867393494e-01,-4.548625349998474121e-01,-2.947882115840911865e-01,3.602005541324615479e-01,-8.592084050178527832e-01,1.817044913768768311e-01,-1.376700550317764282e-01
-7.576881647109985352e-01,3.833837062120437622e-02,5.998620390892028809e-01,7.528780698776245117e-01,-1.120866537094116211e-01,-2.587260901927947998e-01,1.632995903491973877e-01,-4.497567564249038696e-02,-4.819059371948242188e-01,-5.595888495445251465e-01,3.899325132369995117e-01,-7.632406353950500488e-01,2.983915507793426514e-01,-4.073352739214897156e-02
-7.237364649772644043e-01,7.369955629110336304e-02,7.499153614044189453e-01,7.404043078422546387e-01,-2.148117572069168091e-01,-3.621524274349212646e-01,1.515515595674514771e-01,4.306416213512420654e-02,-3.582592010498046875e-01,-3.447103798389434814e-01,6.051003932952880859e-01,-7.364770770072937012e-01,5.293108820915222168e-01,-9.764435142278671265e-02
-9.195873141288757324e-01,1.263940632343292236e-01,5.928133130073547363e-01,7.343071103096008301e-01,-1.639183312654495239e-01,-2.426666915416717529e-01,2.365914881229400635e-01,3.059454262256622314e-01,-2.907870113849639893e-01,-7.527813911437988281e-01,4.592275619506835938e-01,-7.006543874740600586e-01,4.979208111763000488e-01,-8.733937889337539673e-02
-6.477078199386596680e-01,2.522718608379364014e-01,5.318113565444946289e-01,6.946115493774414062e-01,-4.175552427768707275e-01,-4.364307522773742676e-01,4.599400609731674194e-02,2.445437312126159668e-01,-1.330967396497726440e-01,-7.032175660133361816e-01,4.588205218315124512e-01,-6.451279520988464355e-01,4.931337535381317139e-01,-5.691908672451972961e-02
-9.447491168975830078e-01,1.256292462348937988e-01,5.699701905250549316e-01,6.434655785560607910e-01,-4.448472559452056885e-01,-4.356077909469604492e-01,3.682842254638671875e-01,1.744456738233566284e-01,-2.612058222293853760e-01,-7.394188642501831055e-01,2.791805863380432129e-01,-6.679756045341491699e-01,5.244469642639160156e-01,-2.935725450515747070e-02
-8.511397242546081543e-01,1.473017781972885132e-01,5.279239416122436523e-01,6.762605905532836914e-01,-3.005060851573944092e-01,-3.674464225769042969e-01,3.390994668006896973e-01,6.158295273780822754e-01,-2.083803117275238037e-01,-6.162125468254089355e-01,2.862386107444763184e-01,-5.941159725189208984e-01,5.717999339103698730e-01,1.328100264072418213e-01
-8.023102283477783203e-01,5.086427554488182068e-02,5.423970818519592285e-01,5.104671120643615723e-01,-3.800809085369110107e-01,-3.245181441307067871e-01,2.096528112888336182e-01,3.260987997055053711e-01,-2.435519695281982422e-01,-7.687394618988037109e-01,3.020052611827850342e-01,-6.992370486259460449e-01,3.566447496414184570e-01,1.276921629905700684e-01
-8.038225173950195312e-01,5.892096459865570068e-02,3.895080387592315674e-01,5.231689214706420898e-01,-3.325529396533966064e-01,-3.459010124206542969e-01,6.911109387874603271e-02,4.225271344184875488e-01,-3.453784883022308350e-01,-9.422946572303771973e-01,3.493498861789703369e-01,-5.590230226516723633e-01,6.235021948814392090e-01,-3.698565065860748291e-02
-8.006678223609924316e-01,5.028752237558364868e-02,3.737979531288146973e-01,6.315959692001342773e-01,-1.490891575813293457e-01,-3.095583915710449219e-01,5.056557431817054749e-02,6.375970840454101562e-01,-2.734634578227996826e-01,-1.008710503578186035e+00,2.023664861917495728e-01,-5.972625017166137695e-01,5.768952369689941406e-01,-1.062353700399398804e-02
-1.043053746223449707e+00,7.752660661935806274e-02,2.232779413461685181e-01,4.680244624614715576e-01,-1.483854353427886963e-01,-5.415100455284118652e-01,1.288010627031326294e-01,5.549342632293701172e-01,-3.749068975448608398e-01,-8.136734366416931152e-01,2.636186778545379639e-01,-6.549628376960754395e-01,4.073408544063568115e-01,1.478675156831741333e-01
-9.805182814598083496e-01,1.838621497154235840e-02,4.926804006099700928e-01,4.875579476356506348e-01,-1.574354767799377441e-01,-5.407747626304626465e-01,1.651670783758163452e-01,4.546894133090972900e-01,-4.250399768352508545e-01,-9.484695196151733398e-01,2.938238382339477539e-01,-5.737329721450805664e-01,5.979406833648681641e-01,2.310061305761337280e-01
-8.789116144180297852e-01,1.902188807725906372e-01,2.475987672805786133e-01,4.916524589061737061e-01,-8.392889052629470825e-02,-6.431977748870849609e-01,1.459844112396240234e-01,3.489630222320556641e-01,-5.121254324913024902e-01,-8.375669717788696289e-01,3.300474584102630615e-01,-4.946547150611877441e-01,4.452137351036071777e-01,2.494587004184722900e-01
-8.455075025558471680e-01,3.656886518001556396e-02,4.123618900775909424e-01,2.823171317577362061e-01,-7.494249194860458374e-02,-6.622495651245117188e-01,-1.160193001851439476e-03,3.298005461692810059e-01,-3.539347946643829346e-01,-9.454652070999145508e-01,2.350513637065887451e-01,-4.834519326686859131e-01,6.337305307388305664e-01,7.123184204101562500e-02
-7.647016644477844238e-01,-6.963369995355606079e-02,4.156572520732879639e-01,2.867511510848999023e-01,1.101454421877861023e-01,-4.942441284656524658e-01,1.253544390201568604e-01,2.768149077892303467e-01,-4.880206584930419922e-01,-6.889597177505493164e-01,4.045561552047729492e-01,-6.641178131103515625e-01,5.960753560066223145e-01,3.031862080097198486e-01
-9.323064684867858887e-01,4.112531244754791260e-01,3.867972493171691895e-01,2.132344990968704224e-01,1.559822112321853638e-01,-5.575694441795349121e-01,2.116310298442840576e-01,2.990806996822357178e-01,-3.762809038162231445e-01,-6.260326504707336426e-01,1.555096954107284546e-01,-6.439502835273742676e-01,4.766139090061187744e-01,6.683687120676040649e-02
-9.536649584770202637e-01,1.469670087099075317e-01,3.275725841522216797e-01,1.507261842489242554e-01,2.174333930015563965e-01,-3.028453290462493896e-01,-6.530322134494781494e-02,2.419272363185882568e-01,-4.431713223457336426e-01,-7.233110666275024414e-01,2.043642848730087280e-01,-4.911293387413024902e-01,6.026978492736816406e-01,2.715976834297180176e-01
-8.902502655982971191e-01,3.578893542289733887e-01,3.184641599655151367e-01,1.353339701890945435e-01,2.415577471256256104e-01,-5.033918023109436035e-01,7.118737697601318359e-02,1.295478343963623047e-01,-4.743783771991729736e-01,-4.189116656780242920e-01,3.816119134426116943e-01,-5.247539281845092773e-01,6.152827143669128418e-01,3.941131532192230225e-01
-5.710808634757995605e-01,4.146504998207092285e-01,3.500733971595764160e-01,3.219091594219207764e-01,1.663035899400711060e-01,-2.273683398962020874e-01,2.439334243535995483e-01,6.255870312452316284e-02,-5.339979529380798340e-01,-3.912101089954376221e-01,3.910257220268249512e-01,-4.959040880203247070e-01,4.389014542102813721e-01,1.952220797538757324e-01
-5.971511602401733398e-01,4.131707549095153809e-01,1.662352830171585083e-01,2.715598642826080322e-01,8.915460854768753052e-02,-2.868737876415252686e-01,1.696322709321975708e-01,-1.132720336318016052e-01,-3.202638030052185059e-01,-3.013276457786560059e-01,3.298357427120208740e-01,-4.530732035636901855e-01,5.257132649421691895e-01,6.716051697731018066e-01
-7.035607695579528809e-01,3.362134993076324463e-01,3.533186912536621094e-01,4.522697627544403076e-01,1.249019578099250793e-01,-1.743256449699401855e-01,1.807767003774642944e-01,-4.826870560646057129e-02,-4.948398768901824951e-01,-3.474252820014953613e-01,3.130876719951629639e-01,-5.373312234878540039e-01,3.617091476917266846e-01,6.525740027427673340e-01
-4.882557392120361328e-01,4.111424982547760010e-01,5.043178200721740723e-01,3.833264112472534180e-01,1.220323443412780762e-01,5.547785386443138123e-02,3.373639285564422607e-01,-1.241285726428031921e-02,-3.058002293109893799e-01,-2.321617901325225830e-01,3.158308267593383789e-01,-6.304156184196472168e-01,4.122898876667022705e-01,6.371450424194335938e-01
-5.971571803092956543e-01,2.672897875308990479e-01,3.352498710155487061e-01,2.312647849321365356e-01,3.143117064610123634e-04,2.326228283345699310e-02,2.415364384651184082e-01,-2.127795517444610596e-01,-5.593373775482177734e-01,-1.903619170188903809e-01,2.692587375640869141e-01,-5.729676485061645508e-01,2.469404637813568115e-01,5.200651288032531738e-01
-3.637666702270507812e-01,5.893543362617492676e-01,3.608967065811157227e-01,4.051457643508911133e-01,1.799960136413574219e-01,1.200228184461593628e-01,2.277814745903015137e-01,-2.643548250198364258e-01,-3.437754213809967041e-01,-1.634694337844848633e-01,3.559449017047882080e-01,-4.132999181747436523e-01,3.056133687496185303e-01,6.424416899681091309e-01
-5.161814093589782715e-01,2.826434969902038574e-01,2.742424905300140381e-01,3.051697015762329102e-01,1.255887299776077271e-01,1.593428999185562134e-01,2.819304168224334717e-01,-2.821107804775238037e-01,-5.061466097831726074e-01,-8.751919865608215332e-02,2.087097018957138062e-01,-2.988664209842681885e-01,3.277485072612762451e-02,7.471570968627929688e-01
-2.653556168079376221e-01,3.015311956405639648e-01,4.154340326786041260e-01,4.698564112186431885e-01,-1.049557179212570190e-01,4.738908410072326660e-01,3.333275318145751953e-01,-2.190229594707489014e-01,-4.496753811836242676e-01,6.281637400388717651e-02,4.854530990123748779e-01,-5.280706286430358887e-01,-2.047310397028923035e-02,5.593932867050170898e-01
-1.292461305856704712e-01,2.784744501113891602e-01,3.480196893215179443e-01,3.107022345066070557e-01,-4.113840684294700623e-02,2.730615139007568359e-01,3.361397385597229004e-01,-4.585565030574798584e-01,-6.858103871345520020e-01,8.571114391088485718e-02,4.233711659908294678e-01,-5.245401859283447266e-01,-5.535573884844779968e-02,6.413982510566711426e-01
-2.049726098775863647e-01,1.841489076614379883e-01,5.487452149391174316e-01,2.652022838592529297e-01,-1.322525888681411743e-01,3.637937605381011963e-01,4.658396542072296143e-01,-2.616222798824310303e-01,-7.022323012351989746e-01,-9.821023792028427124e-02,5.327159166336059570e-01,-5.149810910224914551e-01,6.062062922865152359e-03,7.232149243354797363e-01
-6.579118221998214722e-02,4.329641163349151611e-02,6.241927146911621094e-01,3.035277724266052246e-01,-2.719245851039886475e-01,3.475238680839538574e-01,4.506175816059112549e-01,-4.028376638889312744e-01,-5.547028779983520508e-01,1.619573384523391724e-01,4.422448277473449707e-01,-6.007642149925231934e-01,-3.540522977709770203e-02,4.422238767147064209e-01
-1.536744982004165649e-01,1.541617065668106079e-01,6.991184353828430176e-01,3.245442211627960205e-01,-2.031681239604949951e-01,3.859033584594726562e-01,6.131114959716796875e-01,-4.817018210887908936e-01,-6.805832386016845703e-01,2.280127257108688354e-01,4.484676718711853027e-01,-5.080512166023254395e-01,1.224420126527547836e-02,5.740556120872497559e-01
-5.386780947446823120e-02,1.150086428970098495e-02,4.762712419033050537e-01,3.356807827949523926e-01,-3.311099410057067871e-01,2.876827120780944824e-01,6.785405874252319336e-01,-4.042894840240478516e-01,-4.322847723960876465e-01,1.409667581319808960e-01,4.918619096279144287e-01,-5.493204593658447266e-01,-1.120578050613403320e-01,3.077478706836700439e-01
-1.349676102399826050e-01,-1.490941941738128662e-01,7.515720129013061523e-01,3.890601694583892822e-01,-3.383125960826873779e-01,3.065835833549499512e-01,8.348895907402038574e-01,-6.856721639633178711e-01,-5.001413226127624512e-01,2.547904253005981445e-01,4.348323047161102295e-01,-6.426382660865783691e-01,-3.115418367087841034e-02,3.287286460399627686e-01
-2.177925966680049896e-02,-3.142659962177276611e-01,8.002181053161621094e-01,5.650416612625122070e-01,-1.875743716955184937e-01,3.385460376739501953e-01,1.038514852523803711e+00,-5.566334128379821777e-01,-5.566623210906982422e-01,3.002406060695648193e-01,4.011237025260925293e-01,-7.372675538063049316e-01,2.167641967535018921e-01,3.144247829914093018e-01
-2.586466073989868164e-01,-2.523756325244903564e-01,7.438822388648986816e-01,6.982182264328002930e-01,-1.614111363887786865e-01,1.829890161752700806e-01,9.779376983642578125e-01,-6.048611998558044434e-01,-5.243272781372070312e-01,2.096790075302124023e-01,4.397077560424804688e-01,-8.810617923736572266e-01,1.853425949811935425e-01,3.641636371612548828e-01
-2.703863680362701416e-01,-4.782418608665466309e-01,9.443799853324890137e-01,4.299468696117401123e-01,9.175577014684677124e-02,3.482590317726135254e-01,1.013163685798645020e+00,-7.759779691696166992e-01,-3.867890536785125732e-01,2.949323952198028564e-01,4.972307085990905762e-01,-6.719079613685607910e-01,2.743154168128967285e-01,2.006089836359024048e-01
-7.901863008737564087e-02,-3.342267572879791260e-01,8.927467465400695801e-01,7.368863224983215332e-01,-1.553948968648910522e-01,3.294368088245391846e-01,1.060122489929199219e+00,-6.640805006027221680e-01,-3.281216621398925781e-01,4.389841258525848389e-01,4.397627711296081543e-01,-7.292481064796447754e-01,2.511182129383087158e-01,2.541185319423675537e-01
-4.960209131240844727e-01,-5.251287817955017090e-01,9.985961318016052246e-01,6.109505295753479004e-01,-1.522377729415893555e-01,2.455230206251144409e-01,9.654225707054138184e-01,-7.005319595336914062e-01,-1.262333244085311890e-01,3.354242742061614990e-01,6.360432505607604980e-01,-8.159371614456176758e-01,3.674359023571014404e-01,1.587638407945632935e-01
-3.502067029476165771e-01,-4.438575804233551025e-01,7.265785336494445801e-01,7.391922473907470703e-01,3.397017344832420349e-02,1.684162616729736328e-01,1.117141246795654297e+00,-7.547109723091125488e-01,-8.286924660205841064e-02,4.925478398799896240e-01,3.878360986709594727e-01,-8.307426571846008301e-01,3.444668650627136230e-01,1.763165146112442017e-01
-3.281160593032836914e-01,-5.954428315162658691e-01,7.554706335067749023e-01,5.787836313247680664e-01,-2.091213129460811615e-02,-1.590489000082015991e-01,1.063525795936584473e+00,-6.466906070709228516e-01,1.427373737096786499e-01,5.236984491348266602e-01,4.394683837890625000e-01,-6.098300218582153320e-01,2.503998577594757080e-01,3.720535635948181152e-01
-2.951215505599975586e-01,-5.825886130332946777e-01,7.918705344200134277e-01,8.271485567092895508e-01,-4.542335122823715210e-02,1.619603335857391357e-01,9.766399264335632324e-01,-7.741839885711669922e-01,1.861355155706405640e-01,4.942148923873901367e-01,3.863522410392761230e-01,-7.767304182052612305e-01,5.695918202400207520e-01,1.639258116483688354e-01
-3.813143968582153320e-01,-4.636881053447723389e-01,8.392481803894042969e-01,5.924889445304870605e-01,-3.951039165258407593e-03,5.941884964704513550e-02,9.598816037178039551e-01,-6.625985503196716309e-01,1.247401684522628784e-01,5.541155338287353516e-01,3.681672513484954834e-01,-5.106464028358459473e-01,5.007630586624145508e-01,3.988478183746337891e-01
-4.347817301750183105e-01,-3.567420840263366699e-01,6.936628818511962891e-01,8.280193209648132324e-01,6.991098076105117798e-02,5.090352520346641541e-02,8.889127373695373535e-01,-6.656545996665954590e-01,2.450421601533889771e-01,3.151209950447082520e-01,2.213215529918670654e-01,-3.657416999340057373e-01,4.115313291549682617e-01,3.757679462432861328e-01
-1.738900989294052124e-01,-4.060001373291015625e-01,4.699176549911499023e-01,8.097627162933349609e-01,2.254739254713058472e-01,-1.406645327806472778e-01,8.134687542915344238e-01,-6.695854663848876953e-01,2.618841528892517090e-01,3.046832978725433350e-01,4.095518589019775391e-02,-2.932128012180328369e-01,4.735977053642272949e-01,3.767034411430358887e-01
-1.522825509309768677e-01,-4.585129618644714355e-01,6.535548567771911621e-01,7.738811969757080078e-01,1.956943422555923462e-01,6.752608716487884521e-02,8.012611865997314453e-01,-5.094908475875854492e-01,3.052693903446197510e-01,2.800449728965759277e-01,1.350023001432418823e-01,-2.779453098773956299e-01,4.038827419281005859e-01,3.726783990859985352e-01
-2.454489320516586304e-01,-4.715539813041687012e-01,3.566709160804748535e-01,6.360329389572143555e-01,1.036346107721328735e-01,-1.624776571989059448e-01,5.484951734542846680e-01,-5.319996476173400879e-01,2.371030449867248535e-01,2.050621211528778076e-01,-2.483772039413452148e-01,-2.515079975128173828e-01,5.680806636810302734e-01,4.382807910442352295e-01
-3.280457854270935059e-01,-5.666170120239257812e-01,2.081136405467987061e-01,7.050223946571350098e-01,4.083690643310546875e-01,-4.616780951619148254e-02,6.828600168228149414e-01,-6.136951446533203125e-01,5.178026556968688965e-01,2.344216406345367432e-01,-2.966231703758239746e-01,4.274601489305496216e-02,4.466559886932373047e-01,5.327782034873962402e-01
-5.449948087334632874e-02,-4.734097719192504883e-01,1.431120932102203369e-01,6.183556318283081055e-01,1.767954081296920776e-01,-1.150142401456832886e-02,3.269565999507904053e-01,-6.091955900192260742e-01,5.434705018997192383e-01,-1.228326465934514999e-02,-2.459412813186645508e-01,2.085256874561309814e-01,2.224479019641876221e-01,6.382727622985839844e-01
-9.959919843822717667e-04,-5.824924707412719727e-01,1.869471929967403412e-02,4.797213375568389893e-01,2.418468147516250610e-01,-1.946599632501602173e-01,4.991331398487091064e-01,-3.237506747245788574e-01,2.919865846633911133e-01,1.704182177782058716e-01,-3.086702227592468262e-01,1.254329085350036621e-01,1.658513993024826050e-01,7.516103982925415039e-01
-2.089962363243103027e-02,-4.421689510345458984e-01,-1.288865506649017334e-01,4.858793616294860840e-01,4.857312738895416260e-01,-7.131724804639816284e-02,4.068382382392883301e-01,-5.117538571357727051e-01,2.475138753652572632e-01,1.776706054806709290e-02,-2.672959268093109131e-01,3.141972422599792480e-01,2.777512967586517334e-01,6.898851990699768066e-01
-8.829396218061447144e-02,-4.232259690761566162e-01,4.186861589550971985e-02,3.280724287033081055e-01,5.768271088600158691e-01,-3.094751834869384766e-01,2.623936831951141357e-01,-3.638752102851867676e-01,3.706979155540466309e-01,8.027791976928710938e-02,-3.467288017272949219e-01,4.867806732654571533e-01,2.279031276702880859e-01,7.160607576370239258e-01
1.359378993511199951e-01,-6.481251716613769531e-01,-1.304628551006317139e-01,3.147525787353515625e-01,5.234392285346984863e-01,-2.103114575147628784e-01,4.408531486988067627e-01,-4.039951562881469727e-01,1.872902065515518188e-01,2.860766053199768066e-01,-3.224479258060455322e-01,4.108346998691558838e-01,2.322541028261184692e-01,7.421982884407043457e-01
2.889255881309509277e-01,-4.287359118461608887e-01,4.060744121670722961e-02,1.827299594879150391e-01,4.206446409225463867e-01,-4.273311793804168701e-01,1.447980254888534546e-01,-4.788549542427062988e-01,3.510949313640594482e-01,2.429289072751998901e-01,-2.409193664789199829e-01,3.688070476055145264e-01,1.365183144807815552e-01,8.026314973831176758e-01
3.460931479930877686e-01,-3.661666214466094971e-01,1.027926802635192871e-01,1.627873480319976807e-01,6.186923384666442871e-01,-2.087679505348205566e-01,4.835482239723205566e-01,-2.918058931827545166e-01,1.093056723475456238e-01,3.939642310142517090e-01,-2.949481308460235596e-01,5.284580588340759277e-01,6.037255004048347473e-02,8.186732530593872070e-01
2.853917777538299561e-01,-3.847638070583343506e-01,4.548465833067893982e-02,1.589259654283523560e-01,5.259886384010314941e-01,-2.261337041854858398e-01,5.456546545028686523e-01,-5.250490903854370117e-01,-7.044611871242523193e-02,3.714088201522827148e-01,-2.001479566097259521e-01,3.528586030006408691e-01,1.530546545982360840e-01,6.113960742950439453e-01
2.572551369667053223e-01,-3.029124736785888672e-01,2.109201811254024506e-02,3.759644180536270142e-02,9.559174776077270508e-01,-2.547591328620910645e-01,3.040387034416198730e-01,-5.293989777565002441e-01,9.934896230697631836e-02,5.773200988769531250e-01,-2.969294488430023193e-01,2.881242334842681885e-01,1.396821290254592896e-01,7.160167098045349121e-01
4.186684787273406982e-01,-4.294601678848266602e-01,-1.261098980903625488e-01,-5.457413941621780396e-02,7.688660621643066406e-01,-3.150159120559692383e-01,2.170193046331405640e-01,-6.406669020652770996e-01,2.922623790800571442e-02,5.155560374259948730e-01,-2.413310855627059937e-01,4.827220141887664795e-01,1.837167590856552124e-01,8.604736924171447754e-01
2.546369135379791260e-01,-3.251322507858276367e-01,1.234851032495498657e-01,1.020989045500755310e-01,8.384075164794921875e-01,-3.775121569633483887e-01,2.585813999176025391e-01,-7.544084787368774414e-01,8.604761958122253418e-02,4.120664298534393311e-01,-3.624850884079933167e-02,3.398724794387817383e-01,1.070400327444076538e-01,5.995642542839050293e-01
2.550846636295318604e-01,-9.414388984441757202e-02,2.417366206645965576e-01,2.111705243587493896e-01,7.229908108711242676e-01,-2.278676033020019531e-01,4.062950015068054199e-01,-7.890508770942687988e-01,2.500369027256965637e-02,6.895875930786132812e-01,-6.790549308061599731e-02,3.263289630413055420e-01,-7.778093218803405762e-02,7.318618893623352051e-01
4.043676257133483887e-01,-1.482004970312118530e-01,1.917320489883422852e-01,1.489973217248916626e-01,9.252522587776184082e-01,-2.235611900687217712e-02,2.643137574195861816e-01,-6.873206496238708496e-01,1.102289929986000061e-01,4.977981746196746826e-01,-2.432775124907493591e-02,2.738591730594635010e-01,-1.647652679821476340e-04,6.996047496795654297e-01
5.917437076568603516e-01,-6.843279302120208740e-02,-8.359901607036590576e-02,1.834437102079391479e-01,6.623931527137756348e-01,-6.195310130715370178e-02,-1.366682816296815872e-02,-7.576788067817687988e-01,8.975584805011749268e-02,6.028383970260620117e-01,-7.852245122194290161e-02,2.708530426025390625e-01,-9.014023840427398682e-02,6.498714685440063477e-01
6.207757592201232910e-01,-1.178409457206726074e-01,3.482918813824653625e-02,1.820876151323318481e-01,5.795341134071350098e-01,-1.730525791645050049e-01,2.980145812034606934e-01,-6.899912953376770020e-01,7.511625438928604126e-02,6.777198314666748047e-01,-2.482695691287517548e-02,4.441781044006347656e-01,-1.951171010732650757e-01,8.511963486671447754e-01
3.567239940166473389e-01,-3.142707049846649170e-02,2.782027702778577805e-03,2.936112880706787109e-01,6.361061930656433105e-01,-7.855577766895294189e-02,3.267166018486022949e-01,-8.662931919097900391e-01,5.520826205611228943e-02,6.674078106880187988e-01,6.363418698310852051e-02,4.603553414344787598e-01,-3.204107880592346191e-01,6.750164031982421875e-01
