AF3,F7,F3,FC5,T7,P7,O1,O2,P8,T8,FC6,F4,F8,AF4
3.595354855060577393e-01,4.025994241237640381e-01,-4.437944591045379639e-01,-5.545902848243713379e-01,4.146696329116821289e-01,5.823664069175720215e-01,1.071049690246582031e+00,7.113202810287475586e-01,-3.463646024465560913e-02,3.373896777629852295e-01,-6.908746957778930664e-01,6.878597140312194824e-01,-3.729553222656250000e-01,3.589917421340942383e-01
3.853124976158142090e-01,5.130410194396972656e-01,-3.998225033283233643e-01,-2.914660274982452393e-01,4.740863740444183350e-01,6.026430130004882812e-01,8.506797552108764648e-01,6.076378822326660156e-01,-1.459971666336059570e-01,3.936252892017364502e-01,-5.972551107406616211e-01,6.385007500648498535e-01,-2.020080685615539551e-01,3.212015330791473389e-01
5.847116708755493164e-01,3.027803003787994385e-01,-1.331569254398345947e-01,-4.379139840602874756e-01,6.212039589881896973e-01,6.266873478889465332e-01,9.620317220687866211e-01,5.468877553939819336e-01,-2.064449787139892578e-01,1.706090271472930908e-01,-6.448036432266235352e-01,5.173668265342712402e-01,-1.496801674365997314e-01,4.302116930484771729e-01
4.365442097187042236e-01,2.815815508365631104e-01,-3.460844457149505615e-01,-5.468617677688598633e-01,9.734510183334350586e-01,3.272081613540649414e-01,1.222327470779418945e+00,8.857385516166687012e-01,1.844228245317935944e-02,3.206595182418823242e-01,-5.874378085136413574e-01,5.411081910133361816e-01,-1.860889643430709839e-01,3.339061439037322998e-01
5.457675457000732422e-01,2.563492357730865479e-01,-4.178216457366943359e-01,-5.215678215026855469e-01,8.392837643623352051e-01,4.408032894134521484e-01,1.016272068023681641e+00,3.829383254051208496e-01,-1.792331188917160034e-01,1.120971143245697021e-01,-5.232576131820678711e-01,2.864494323730468750e-01,-2.147039175033569336e-01,1.282207667827606201e-01
4.643939137458801270e-01,4.412966966629028320e-01,-2.725729644298553467e-01,-5.063047409057617188e-01,9.239255785942077637e-01,2.507529258728027344e-01,8.932543992996215820e-01,5.194573998451232910e-01,-1.928711235523223877e-01,9.447665512561798096e-02,-5.015507936477661133e-01,6.599764823913574219e-01,-1.917157620191574097e-01,1.844232976436614990e-01
5.935029983520507812e-01,3.069191575050354004e-01,-3.260453045368194580e-01,-4.398421347141265869e-01,1.032244920730590820e+00,3.769745528697967529e-01,1.074654579162597656e+00,3.700348436832427979e-01,-3.648120462894439697e-01,-8.318011462688446045e-02,-3.505583405494689941e-01,3.820061981678009033e-01,-2.861357629299163818e-01,7.253751903772354126e-02
5.849208235740661621e-01,3.206267356872558594e-01,-2.732398211956024170e-01,-6.042060852050781250e-01,1.082650542259216309e+00,3.463720381259918213e-01,9.652226567268371582e-01,3.407001197338104248e-01,-2.757660150527954102e-01,-9.264573454856872559e-03,-5.939800292253494263e-02,3.932241499423980713e-01,-3.030017018318176270e-01,1.976445913314819336e-01
5.211525559425354004e-01,2.349979579448699951e-01,-1.836468726396560669e-01,-5.618196725845336914e-01,1.080819010734558105e+00,2.439863681793212891e-01,9.544211030006408691e-01,2.919102311134338379e-01,-5.119208097457885742e-01,-3.202837407588958740e-01,-2.814504802227020264e-01,2.828609049320220947e-01,-2.661408670246601105e-02,6.479738652706146240e-02
4.724662005901336670e-01,2.791344821453094482e-01,-1.886758208274841309e-01,-4.734632372856140137e-01,1.030718326568603516e+00,2.880018055438995361e-01,8.450741767883300781e-01,5.452131628990173340e-01,-3.942997157573699951e-01,-3.809872567653656006e-01,-2.164564430713653564e-01,1.095231473445892334e-01,-1.049938946962356567e-01,1.117447391152381897e-02
3.889908492565155029e-01,2.208383232355117798e-01,-2.051837295293807983e-01,-4.112587571144104004e-01,1.088825702667236328e+00,2.615740597248077393e-01,6.493738889694213867e-01,5.677163004875183105e-01,-6.022724509239196777e-01,-4.147325754165649414e-01,-3.205541372299194336e-01,-2.116514444351196289e-01,-2.993985451757907867e-02,-1.869506575167179108e-02
3.764835298061370850e-01,5.690463259816169739e-02,-2.564854919910430908e-01,-2.977302968502044678e-01,1.097344517707824707e+00,1.981148123741149902e-01,7.019826173782348633e-01,4.066514968872070312e-01,-4.247982501983642578e-01,-2.476676255464553833e-01,-2.119375169277191162e-01,-1.088504195213317871e-01,-4.431482031941413879e-02,3.963876962661743164e-01
3.287968337535858154e-01,1.319195181131362915e-01,-3.589015603065490723e-01,-3.005037903785705566e-01,9.427033662796020508e-01,1.543331742286682129e-01,7.243674993515014648e-01,5.849369168281555176e-01,-4.728911221027374268e-01,-4.215616583824157715e-01,-3.222799003124237061e-01,-8.798367530107498169e-02,1.032065674662590027e-01,8.504264801740646362e-02
7.420563697814941406e-02,2.513307332992553711e-01,2.822349965572357178e-02,-3.246738016605377197e-01,1.012001991271972656e+00,6.633084267377853394e-03,4.728274643421173096e-01,4.159706234931945801e-01,-6.456313729286193848e-01,-5.091337561607360840e-01,-2.814935445785522461e-01,-1.769305616617202759e-01,3.146719038486480713e-01,2.261660397052764893e-01
1.004940494894981384e-01,2.762010395526885986e-01,4.351183027029037476e-02,-2.243521511554718018e-01,9.886567592620849609e-01,3.745635505765676498e-03,3.691157102584838867e-01,5.034903287887573242e-01,-3.603629171848297119e-01,-4.340321719646453857e-01,-3.223915696144104004e-01,-1.275870352983474731e-01,3.334820866584777832e-01,3.113389313220977783e-01
3.313870355486869812e-02,1.022901460528373718e-01,-1.130676120519638062e-01,-2.014336585998535156e-01,8.411352634429931641e-01,2.468971908092498779e-02,3.875120878219604492e-01,6.317121982574462891e-01,-5.432747006416320801e-01,-3.818883597850799561e-01,-3.420665562152862549e-01,-2.700608670711517334e-01,1.225242093205451965e-01,3.744328916072845459e-01
8.767051994800567627e-02,9.811469167470932007e-02,1.844129525125026703e-03,-2.242872267961502075e-01,9.385203123092651367e-01,-3.569246456027030945e-02,3.454283475875854492e-01,4.787172973155975342e-01,-3.433528244495391846e-01,-4.781368970870971680e-01,-2.611927390098571777e-01,-1.148668155074119568e-01,1.584238409996032715e-01,4.882918298244476318e-01
1.077704280614852905e-01,1.177020147442817688e-01,-4.387415945529937744e-02,-1.825870871543884277e-01,7.608792185783386230e-01,-5.225802306085824966e-03,3.107838630676269531e-01,5.141471624374389648e-01,-5.764601826667785645e-01,-3.154855966567993164e-01,-2.307580709457397461e-01,-4.271482825279235840e-01,6.049444898962974548e-02,4.876481592655181885e-01
9.103935211896896362e-03,2.938553094863891602e-01,-7.022502273321151733e-02,-4.203734695911407471e-01,5.788000822067260742e-01,4.098755866289138794e-02,4.577054679393768311e-01,5.941644906997680664e-01,-3.369285762310028076e-01,-2.995031177997589111e-01,-2.613939642906188965e-01,-2.866624295711517334e-01,2.489956170320510864e-01,5.126833915710449219e-01
-2.603305317461490631e-02,1.973777450621128082e-02,6.736356019973754883e-02,-1.396508216857910156e-01,5.417426228523254395e-01,6.458222866058349609e-02,3.629249632358551025e-01,5.943350195884704590e-01,-3.076724410057067871e-01,-2.886131107807159424e-01,-4.478017389774322510e-01,-4.559649229049682617e-01,1.924654096364974976e-01,6.397898197174072266e-01
-1.111322715878486633e-01,3.163655474781990051e-02,1.302793771028518677e-01,-2.224379479885101318e-01,6.434021592140197754e-01,1.300019472837448120e-01,5.198591947555541992e-01,4.782997369766235352e-01,-3.273669779300689697e-01,-3.188576400279998779e-01,-4.501310884952545166e-01,-2.757177650928497314e-01,1.551717370748519897e-01,6.889278888702392578e-01
1.687829196453094482e-01,2.020438611507415771e-01,3.217368125915527344e-01,-1.866124421358108521e-01,4.075987935066223145e-01,1.178679987788200378e-01,4.001931846141815186e-01,8.032683730125427246e-01,-1.361976712942123413e-01,-6.379976123571395874e-02,-4.554490745067596436e-01,-4.574600160121917725e-01,3.471949324011802673e-02,7.100593447685241699e-01
-8.443775773048400879e-02,3.053982853889465332e-01,2.360093742609024048e-01,-4.890173971652984619e-01,3.496609926223754883e-01,1.510926783084869385e-01,4.415661096572875977e-01,4.894744753837585449e-01,-5.077558755874633789e-02,-1.698347926139831543e-01,-3.744749724864959717e-01,-5.747323036193847656e-01,9.719117730855941772e-02,7.901608347892761230e-01
-8.697229623794555664e-02,3.272042572498321533e-01,4.442856311798095703e-01,-4.310947060585021973e-01,3.177369832992553711e-01,2.360315173864364624e-01,6.527408957481384277e-01,6.646000146865844727e-01,-8.223345875740051270e-02,-3.994144797325134277e-01,-4.973257482051849365e-01,-5.667558312416076660e-01,-3.981463611125946045e-02,6.669402122497558594e-01
1.439706385135650635e-01,2.602526843547821045e-01,2.952443063259124756e-01,-7.637021541595458984e-01,3.927563130855560303e-01,1.368881762027740479e-01,4.965748190879821777e-01,6.270561814308166504e-01,-5.762395262718200684e-02,-6.780978292226791382e-02,-4.994664192199707031e-01,-4.860247969627380371e-01,5.173821747303009033e-02,6.946889758110046387e-01
5.459405481815338135e-02,5.485363006591796875e-01,2.792915105819702148e-01,-8.348565697669982910e-01,3.990041017532348633e-01,1.907412856817245483e-01,4.598791301250457764e-01,4.882579743862152100e-01,-3.726466372609138489e-02,-7.790264487266540527e-02,-5.619344115257263184e-01,-3.041928410530090332e-01,-1.749509721994400024e-01,5.499249100685119629e-01
2.141705304384231567e-01,5.024663805961608887e-01,4.944154620170593262e-01,-7.627128958702087402e-01,4.429574906826019287e-01,2.776582539081573486e-01,4.082064330577850342e-01,6.193952560424804688e-01,1.698998734354972839e-02,-4.986514896154403687e-02,-2.326840311288833618e-01,-4.061426818370819092e-01,1.388953253626823425e-02,6.100632548332214355e-01
3.098120987415313721e-01,6.169596314430236816e-01,4.778353273868560791e-01,-8.690977096557617188e-01,3.039727807044982910e-01,2.778474390506744385e-01,4.266801476478576660e-01,4.952601194381713867e-01,6.970268487930297852e-02,-1.419456154108047485e-01,-2.584065198898315430e-01,-4.530065655708312988e-01,-2.290103584527969360e-02,5.099326968193054199e-01
1.650620847940444946e-01,7.479452490806579590e-01,3.220212161540985107e-01,-7.667035460472106934e-01,5.312613844871520996e-01,1.932240724563598633e-01,4.727989137172698975e-01,5.929611921310424805e-01,8.814184367656707764e-02,-2.199280112981796265e-01,-3.220049440860748291e-01,-5.170124173164367676e-01,2.105156891047954559e-02,6.092084050178527832e-01
2.590714395046234131e-01,4.612437188625335693e-01,3.084157407283782959e-01,-7.992024421691894531e-01,4.322099983692169189e-01,4.329095184803009033e-01,4.851651489734649658e-01,6.729320287704467773e-01,9.713064879179000854e-02,-3.401077687740325928e-01,-3.937904164195060730e-02,-6.298183798789978027e-01,-4.306970536708831787e-02,2.821435034275054932e-01
1.877985298633575439e-01,4.333847761154174805e-01,2.484132796525955200e-01,-8.181180357933044434e-01,3.384543955326080322e-01,2.664948999881744385e-01,2.939819097518920898e-01,5.348906517028808594e-01,1.644912548363208771e-02,-4.009926021099090576e-01,-2.273361533880233765e-01,-6.099874973297119141e-01,2.102449834346771240e-01,3.045667707920074463e-01
2.573165595531463623e-01,6.423143744468688965e-01,1.755277365446090698e-01,-8.995518088340759277e-01,4.580189883708953857e-01,5.222921371459960938e-01,4.850712716579437256e-01,6.249493360519409180e-01,1.878664642572402954e-01,-3.460102379322052002e-01,2.760267071425914764e-02,-5.638909935951232910e-01,1.718256063759326935e-02,2.263487577438354492e-01
2.547170817852020264e-01,3.469982743263244629e-01,4.429480433464050293e-02,-8.921689987182617188e-01,5.569474697113037109e-01,3.170091211795806885e-01,1.983430385589599609e-01,5.097625851631164551e-01,1.721753031015396118e-01,-4.866496920585632324e-01,-1.721621006727218628e-01,-5.578955411911010742e-01,3.760719001293182373e-01,2.789875268936157227e-01
3.827809691429138184e-01,4.615284204483032227e-01,2.449186146259307861e-01,-1.067049026489257812e+00,4.029935300350189209e-01,9.607768803834915161e-02,5.831469893455505371e-01,5.570214390754699707e-01,1.819975525140762329e-01,-6.655167341232299805e-01,-2.677422761917114258e-02,-5.384899377822875977e-01,2.544362545013427734e-01,2.660603262484073639e-02
2.545057237148284912e-01,3.848146200180053711e-01,-1.095646694302558899e-01,-7.695611119270324707e-01,5.157475471496582031e-01,2.480744272470474243e-01,2.523695230484008789e-01,5.094854831695556641e-01,1.492843478918075562e-01,-5.982632637023925781e-01,4.266109317541122437e-02,-5.433638691902160645e-01,3.858774006366729736e-01,1.079507023096084595e-01
2.677668929100036621e-01,4.111556410789489746e-01,-8.334451913833618164e-02,-7.458885908126831055e-01,2.235288619995117188e-01,1.128979399800300598e-01,4.477055072784423828e-01,4.086543917655944824e-01,2.958289682865142822e-01,-6.012271046638488770e-01,-5.658365786075592041e-03,-4.219558238983154297e-01,4.758832156658172607e-01,8.056399971246719360e-02
3.456164598464965820e-01,2.381793409585952759e-01,-1.800149530172348022e-01,-9.645604491233825684e-01,1.171366497874259949e-01,6.411839276552200317e-02,4.344902932643890381e-01,1.964053809642791748e-01,1.372149866074323654e-02,-8.163074254989624023e-01,-2.616844698786735535e-02,-4.740507304668426514e-01,4.633651971817016602e-01,1.417565643787384033e-01
4.654356539249420166e-01,2.834433019161224365e-01,-4.986788034439086914e-01,-7.321422696113586426e-01,3.514209687709808350e-01,-8.765702694654464722e-02,5.470853447914123535e-01,3.814069926738739014e-01,2.255409657955169678e-01,-5.539312362670898438e-01,1.689826250076293945e-01,-2.673713266849517822e-01,6.232563853263854980e-01,-4.895511269569396973e-02
3.553311526775360107e-01,5.985349044203758240e-02,-2.687033116817474365e-01,-7.854759097099304199e-01,4.039072096347808838e-01,-1.981252282857894897e-01,4.206096827983856201e-01,4.184595942497253418e-01,1.960171908140182495e-01,-6.310189962387084961e-01,1.587488651275634766e-01,-2.583054304122924805e-01,5.756452083587646484e-01,-9.843581914901733398e-02
3.533889949321746826e-01,-2.014122344553470612e-02,-3.271247744560241699e-01,-4.991836845874786377e-01,1.547385305166244507e-01,-3.087156713008880615e-01,3.905722498893737793e-01,1.453283578157424927e-01,1.794352084398269653e-01,-7.626659274101257324e-01,1.555610150098800659e-01,-3.112166821956634521e-01,5.953025817871093750e-01,8.189718425273895264e-02
6.234583258628845215e-01,5.027654767036437988e-02,-3.583250641822814941e-01,-7.377560138702392578e-01,4.139043688774108887e-01,-3.359449803829193115e-01,4.229973852634429932e-01,-1.802935078740119934e-02,1.800706237554550171e-01,-6.462771892547607422e-01,2.152982205152511597e-01,-3.364231586456298828e-01,6.068019270896911621e-01,-9.919063001871109009e-02
3.129035234451293945e-01,1.062303222715854645e-02,-3.968502879142761230e-01,-5.903822183609008789e-01,2.527581751346588135e-01,-3.753330409526824951e-01,3.249534368515014648e-01,-1.972884312272071838e-02,6.908784806728363037e-02,-6.137981414794921875e-01,5.012156367301940918e-01,-5.676026940345764160e-01,6.341139078140258789e-01,-4.702792968600988388e-03
4.262395799160003662e-01,-1.130583044141530991e-02,-9.189449995756149292e-02,-5.434700846672058105e-01,3.674322068691253662e-01,-2.898012399673461914e-01,3.057558834552764893e-01,-1.239140750840306282e-03,9.120554476976394653e-02,-4.947253167629241943e-01,3.381490111351013184e-01,-2.242885231971740723e-01,7.435296773910522461e-01,3.027699515223503113e-02
7.836248278617858887e-01,7.269191741943359375e-02,-3.546207547187805176e-01,-5.319964289665222168e-01,3.441828489303588867e-01,-2.597555816173553467e-01,3.490746319293975830e-01,-5.088833719491958618e-02,-4.948047548532485962e-02,-4.834457337856292725e-01,6.207824349403381348e-01,-5.348266959190368652e-01,5.847198963165283203e-01,1.200161203742027283e-01
3.895608484745025635e-01,2.345644868910312653e-02,-2.289620339870452881e-01,-2.772664725780487061e-01,3.741972446441650391e-01,-3.960828781127929688e-01,2.593066692352294922e-01,-1.353171467781066895e-01,4.363128542900085449e-02,-4.540648758411407471e-01,8.000651001930236816e-01,-4.905481040477752686e-01,6.920073628425598145e-01,-9.456943720579147339e-02
5.043870210647583008e-01,-8.536174148321151733e-02,-2.274354696273803711e-01,-2.877437770366668701e-01,3.902424275875091553e-01,-1.262296438217163086e-01,3.037614226341247559e-01,-2.121830880641937256e-01,2.550210617482662201e-02,-5.119535326957702637e-01,6.361840367317199707e-01,-5.565568208694458008e-01,7.990160584449768066e-01,2.788326516747474670e-02
4.518764913082122803e-01,-7.380570471286773682e-02,-2.484234273433685303e-01,-5.831531286239624023e-01,3.237474560737609863e-01,-1.685027927160263062e-01,9.311610460281372070e-02,-2.010381519794464111e-01,-3.541971370577812195e-02,-6.029157638549804688e-01,7.009091377258300781e-01,-8.166313171386718750e-01,7.182152867317199707e-01,5.527712404727935791e-02
2.417276799678802490e-01,-1.525681316852569580e-01,-3.837836533784866333e-02,-3.297908604145050049e-01,2.785101830959320068e-01,9.979528188705444336e-02,2.103287130594253540e-01,-2.505565583705902100e-01,-1.542489379644393921e-01,-6.154695749282836914e-01,8.992119431495666504e-01,-8.463276624679565430e-01,9.305265545845031738e-01,-3.980375081300735474e-02
3.125819861888885498e-01,-8.576743304729461670e-02,-5.016577243804931641e-02,-3.345783948898315430e-01,3.337953686714172363e-01,-1.408178359270095825e-01,9.077528119087219238e-02,-3.352383077144622803e-01,-3.262587487697601318e-01,-5.794996023178100586e-01,6.153602004051208496e-01,-8.087616562843322754e-01,8.547464609146118164e-01,4.181004595011472702e-03
3.712634146213531494e-01,-1.936530917882919312e-01,-1.323022544384002686e-01,-2.006981521844863892e-01,2.366093993186950684e-01,1.656439006328582764e-01,-2.707056328654289246e-02,-2.407082915306091309e-01,-4.304296076297760010e-01,-4.963210523128509521e-01,8.680231571197509766e-01,-1.058042168617248535e+00,7.861758470535278320e-01,1.242571473121643066e-01
3.455768525600433350e-01,-3.127822875976562500e-01,-1.711450517177581787e-01,-2.099141776561737061e-01,1.467793583869934082e-01,5.732836201786994934e-02,-2.552897334098815918e-01,-1.877045482397079468e-01,-4.202327132225036621e-01,-4.663289189338684082e-01,8.017961382865905762e-01,-9.536354541778564453e-01,8.849188685417175293e-01,-1.650399528443813324e-02
3.033333718776702881e-01,-3.606278002262115479e-01,-3.162202239036560059e-02,-2.573155462741851807e-01,1.875532716512680054e-01,-1.767393499612808228e-01,-8.343446999788284302e-02,-7.198023796081542969e-02,-4.054310917854309082e-01,-3.272155821323394775e-01,9.547708630561828613e-01,-1.209242939949035645e+00,1.063559651374816895e+00,1.455385005101561546e-03
8.036094158887863159e-02,-1.969132125377655029e-01,-5.253093317151069641e-02,-2.244579643011093140e-01,2.531563304364681244e-02,-6.820151954889297485e-02,-2.733207866549491882e-02,-2.208753526210784912e-01,-4.377095103263854980e-01,-4.130392372608184814e-01,9.168701171875000000e-01,-9.759917259216308594e-01,8.730722069740295410e-01,1.356668621301651001e-01
-1.364147812128067017e-01,-3.537994325160980225e-01,-1.282897144556045532e-01,-1.078636050224304199e-01,-1.254936121404170990e-02,1.094410866498947144e-01,-3.133854269981384277e-01,6.191955134272575378e-02,-1.151892766356468201e-01,-5.383800268173217773e-01,7.268120646476745605e-01,-8.286372423171997070e-01,8.767192959785461426e-01,4.027052968740463257e-02
-5.575980525463819504e-03,-1.619433760643005371e-01,8.626770228147506714e-03,-3.176015242934226990e-02,-1.281117647886276245e-01,-7.461317628622055054e-02,-2.088064551353454590e-01,-1.402895301580429077e-01,-2.548271417617797852e-01,-3.951581716537475586e-01,5.551515817642211914e-01,-9.382485151290893555e-01,1.004558563232421875e+00,2.159331738948822021e-01
8.039401471614837646e-02,-4.746732711791992188e-01,-9.984420612454414368e-04,3.984417766332626343e-02,-5.346678080968558788e-04,2.990335971117019653e-02,-3.165320754051208496e-01,1.442731618881225586e-01,-2.209356725215911865e-01,-3.063387572765350342e-01,5.642098188400268555e-01,-1.040778279304504395e+00,7.844954133033752441e-01,-5.814936757087707520e-02
6.435953080654144287e-02,-2.402759343385696411e-01,-2.319617867469787598e-01,-6.682271137833595276e-03,-2.228461205959320068e-01,-2.193106710910797119e-02,-4.071569740772247314e-01,2.521133422851562500e-01,-1.909239143133163452e-01,-2.346403002738952637e-01,5.782798528671264648e-01,-8.935647010803222656e-01,9.207104444503784180e-01,1.033404991030693054e-01
-5.017553921788930893e-03,-3.984995484352111816e-01,5.798342637717723846e-03,2.387932240962982178e-01,-4.596917331218719482e-01,3.689442873001098633e-01,-3.492502272129058838e-01,2.453466653823852539e-01,-2.089446336030960083e-01,-3.441855907440185547e-01,5.026518106460571289e-01,-7.113912701606750488e-01,5.919039845466613770e-01,2.319890707731246948e-01
-2.386571019887924194e-01,-2.942101657390594482e-01,-2.507255375385284424e-01,1.263915747404098511e-01,-2.317938953638076782e-01,2.841550111770629883e-01,-2.427865266799926758e-01,7.564531266689300537e-02,-7.927104830741882324e-02,1.646463721990585327e-01,1.494362652301788330e-01,-6.853960752487182617e-01,7.678324580192565918e-01,1.017903462052345276e-01
-1.062983348965644836e-01,-4.331712722778320312e-01,-2.679344415664672852e-01,1.516891568899154663e-01,-5.771391987800598145e-01,1.621261835098266602e-01,-1.336294114589691162e-01,2.263271063566207886e-01,4.043551906943321228e-02,-1.451409757137298584e-01,2.031805217266082764e-01,-5.843629240989685059e-01,6.256586313247680664e-01,1.623092591762542725e-01
-3.615043684840202332e-02,-4.451761245727539062e-01,-1.880226284265518188e-01,2.955458313226699829e-02,-2.037265747785568237e-01,3.719996809959411621e-01,-2.628987729549407959e-01,2.240695506334304810e-01,1.254234164953231812e-01,7.147442549467086792e-02,4.047603309154510498e-01,-5.760374665260314941e-01,7.093876004219055176e-01,3.140142858028411865e-01
1.673549227416515350e-02,-6.415715813636779785e-02,-2.426710128784179688e-01,-9.151165187358856201e-02,-4.169677495956420898e-01,3.740814328193664551e-01,-1.205206885933876038e-01,3.068292737007141113e-01,1.082623898983001709e-01,2.373563349246978760e-01,1.936697810888290405e-01,-5.693261623382568359e-01,2.627587020397186279e-01,9.989089518785476685e-02
-1.584640592336654663e-01,-2.024086117744445801e-01,-2.946425378322601318e-01,6.194880604743957520e-02,-4.685376286506652832e-01,4.087092280387878418e-01,2.047918364405632019e-02,1.506765633821487427e-01,1.935019493103027344e-01,2.573905289173126221e-01,3.608579039573669434e-01,-4.209846854209899902e-01,3.100577890872955322e-01,2.016801089048385620e-01
2.681072950363159180e-01,-5.613401997834444046e-03,-5.142043828964233398e-01,-1.682088971138000488e-01,-4.111511409282684326e-01,2.513474524021148682e-01,-4.561375454068183899e-02,1.920690089464187622e-01,9.584010392427444458e-02,6.084674596786499023e-02,4.245237410068511963e-01,-3.756295442581176758e-01,3.526479005813598633e-01,1.901791691780090332e-01
2.348669618368148804e-01,-1.186452582478523254e-01,-5.133925676345825195e-01,-3.134472370147705078e-01,-4.887597262859344482e-01,3.040251731872558594e-01,1.750713288784027100e-01,2.057840488851070404e-02,1.031712163239717484e-03,3.197295963764190674e-01,4.258840978145599365e-01,-2.371102273464202881e-01,2.348413020372390747e-01,7.205493748188018799e-02
1.369372755289077759e-01,8.953984826803207397e-02,-5.212383270263671875e-01,-9.259127080440521240e-02,-2.840006351470947266e-01,2.483645826578140259e-01,3.527408838272094727e-01,-4.510640352964401245e-02,2.923639416694641113e-01,2.788163721561431885e-01,4.423679411411285400e-01,-3.522799313068389893e-01,1.435526460409164429e-01,5.911779124289751053e-03
1.753532290458679199e-01,-1.915002800524234772e-02,-4.399039149284362793e-01,-2.544652819633483887e-01,-2.556203007698059082e-01,3.625840544700622559e-01,2.016594558954238892e-01,1.041657477617263794e-01,9.412113577127456665e-02,1.123695150017738342e-01,3.748504519462585449e-01,-2.728139162063598633e-01,-1.322768814861774445e-02,-1.715505719184875488e-01
1.271111667156219482e-01,-7.863726466894149780e-02,-5.502622723579406738e-01,-2.304668575525283813e-01,-1.520054191350936890e-01,2.989757061004638672e-01,3.026061058044433594e-01,8.517764508724212646e-02,7.859782129526138306e-02,7.800104469060897827e-02,3.139047026634216309e-01,-2.699272036552429199e-01,1.922561675310134888e-01,-7.171907275915145874e-02
3.033404350280761719e-01,1.093709245324134827e-01,-6.024394631385803223e-01,-1.316176652908325195e-01,8.299101144075393677e-03,2.674202024936676025e-01,1.046072989702224731e-01,-8.511070162057876587e-02,3.019983880221843719e-02,-8.070891350507736206e-02,6.557883024215698242e-01,-9.211309254169464111e-03,3.785820901393890381e-01,-3.465591371059417725e-01
5.482881888747215271e-02,1.239533796906471252e-01,-6.677762866020202637e-01,-2.823672890663146973e-01,8.096607401967048645e-03,4.696122705936431885e-01,1.590124666690826416e-01,-1.613363325595855713e-01,1.254578530788421631e-01,-3.384926170110702515e-02,3.006047904491424561e-01,-2.947916090488433838e-01,9.354420006275177002e-02,-2.543449997901916504e-01
1.617780923843383789e-01,6.080636009573936462e-02,-6.186589002609252930e-01,-3.218713104724884033e-01,-8.585090190172195435e-02,3.918493390083312988e-01,3.000586032867431641e-01,-4.760781303048133850e-02,1.671933382749557495e-02,-1.068831086158752441e-01,5.182527303695678711e-01,-2.409972101449966431e-01,2.001856565475463867e-01,-4.092939198017120361e-01
3.719183057546615601e-02,-6.669831275939941406e-02,-7.188317775726318359e-01,3.087523626163601875e-03,-2.653481997549533844e-02,1.919228732585906982e-01,3.379786014556884766e-02,-7.823184132575988770e-02,1.964871585369110107e-01,-2.448463588953018188e-01,4.548363983631134033e-01,-2.804407477378845215e-01,2.597500979900360107e-01,-4.485949277877807617e-01
8.242667466402053833e-02,-2.899918854236602783e-01,-9.154120683670043945e-01,-6.877820938825607300e-02,1.301147341728210449e-01,3.191035687923431396e-01,6.274442374706268311e-02,-8.643873035907745361e-02,1.732997447252273560e-01,-1.906014084815979004e-01,6.425860524177551270e-01,-3.518505394458770752e-02,2.193439602851867676e-01,-4.653792083263397217e-01
1.594475656747817993e-01,-2.954924404621124268e-01,-9.755872488021850586e-01,1.288375407457351685e-01,1.762944906949996948e-01,1.914140582084655762e-01,2.082797884941101074e-01,-5.431847274303436279e-02,4.821369051933288574e-02,-2.700516283512115479e-01,5.067111253738403320e-01,-7.630482781678438187e-03,2.887071967124938965e-01,-4.136662781238555908e-01
-6.600940972566604614e-02,-3.389423489570617676e-01,-1.092493057250976562e+00,1.382240802049636841e-01,1.329504698514938354e-01,6.003531813621520996e-02,-7.362527307122945786e-03,-7.972060889005661011e-02,-7.564549148082733154e-02,-1.668505743145942688e-02,4.060008823871612549e-01,-1.469064205884933472e-01,2.185864299535751343e-01,-3.069278299808502197e-01
-2.843360044062137604e-02,-3.770534694194793701e-01,-1.086922049522399902e+00,2.160408049821853638e-01,2.007416039705276489e-01,1.808193027973175049e-01,-1.851626187562942505e-01,-2.282080799341201782e-01,1.666263937950134277e-01,-4.485383927822113037e-01,4.347364604473114014e-01,1.210825145244598389e-02,2.054184526205062866e-01,-4.327516853809356689e-01
-1.032291650772094727e-01,-3.186533451080322266e-01,-9.535899162292480469e-01,2.398604750633239746e-01,1.586151570081710815e-01,-1.406840048730373383e-02,-7.726886123418807983e-02,-3.808208107948303223e-01,8.279241621494293213e-02,-2.308757007122039795e-01,5.590216517448425293e-01,-5.821686610579490662e-02,5.070375800132751465e-01,-4.791875779628753662e-01
-2.060147523880004883e-01,-5.179939270019531250e-01,-1.002958536148071289e+00,3.070592582225799561e-01,1.567639261484146118e-01,7.456631958484649658e-02,1.216311678290367126e-01,-4.104607105255126953e-01,-1.139914467930793762e-01,-4.415794014930725098e-01,5.671600699424743652e-01,-1.079547498375177383e-02,3.467517793178558350e-01,-4.992836415767669678e-01
-2.344714999198913574e-01,-7.820805311203002930e-01,-1.048072457313537598e+00,4.623827338218688965e-01,2.171788364648818970e-01,-9.350354224443435669e-02,6.327763199806213379e-02,-4.560973346233367920e-01,-2.298535592854022980e-02,-2.840306460857391357e-01,5.177046060562133789e-01,-1.777959764003753662e-01,4.058665037155151367e-01,-1.754384189844131470e-01
-2.720299065113067627e-01,-8.837826251983642578e-01,-1.165707945823669434e+00,4.767597317695617676e-01,3.188856244087219238e-01,-1.169463917613029480e-01,-1.132628172636032104e-01,-4.659468829631805420e-01,-5.914860963821411133e-02,-5.679337382316589355e-01,4.588966667652130127e-01,-6.840768456459045410e-02,3.772133886814117432e-01,-2.016075402498245239e-01
-4.301748275756835938e-01,-7.340352535247802734e-01,-1.017772912979125977e+00,3.693826198577880859e-01,1.510771661996841431e-01,-3.046493828296661377e-01,-1.512558311223983765e-01,-5.585092902183532715e-01,-5.721318721771240234e-02,-3.241815865039825439e-01,3.486463129520416260e-01,8.656230568885803223e-02,2.122887521982192993e-01,-1.654854863882064819e-01
-3.046556413173675537e-01,-7.419180274009704590e-01,-9.896258115768432617e-01,4.965103864669799805e-01,4.255563318729400635e-01,-2.494890987873077393e-01,8.606404066085815430e-02,-5.768384337425231934e-01,-1.356013268232345581e-01,-1.874986737966537476e-01,3.714045882225036621e-01,2.086655423045158386e-02,1.455400288105010986e-01,-5.887345224618911743e-02
-3.232524394989013672e-01,-6.677976846694946289e-01,-8.933350443840026855e-01,3.905085921287536621e-01,1.291323453187942505e-01,-2.663926780223846436e-02,-2.662757337093353271e-01,-5.792633295059204102e-01,-1.879909634590148926e-01,-1.721619963645935059e-01,4.885554909706115723e-01,-8.190160989761352539e-02,1.789869517087936401e-01,8.696521818637847900e-02
-5.289144515991210938e-01,-8.496428728103637695e-01,-7.179634571075439453e-01,4.139544963836669922e-01,1.254450827836990356e-01,-1.799488626420497894e-02,-2.619948983192443848e-01,-6.715059876441955566e-01,5.921528860926628113e-02,-3.602507710456848145e-01,5.391841530799865723e-01,-1.105691716074943542e-01,2.260993272066116333e-01,3.903090208768844604e-02
-4.744154512882232666e-01,-8.341516256332397461e-01,-6.049037575721740723e-01,4.842846691608428955e-01,3.050171732902526855e-01,-1.173999235033988953e-01,-1.202779039740562439e-01,-5.799140334129333496e-01,-2.217463850975036621e-01,-1.684593260288238525e-01,2.794964909553527832e-01,-1.078565977513790131e-02,8.488262444734573364e-02,7.599660009145736694e-02
-5.095654129981994629e-01,-6.351277232170104980e-01,-3.847182691097259521e-01,3.380542695522308350e-01,8.761821687221527100e-02,-1.530608981847763062e-01,-3.448615372180938721e-01,-4.177044928073883057e-01,-3.931591808795928955e-01,4.786521941423416138e-02,2.397337108850479126e-01,-2.258534133434295654e-01,8.662937581539154053e-02,6.598877161741256714e-02
-4.700853526592254639e-01,-5.275887846946716309e-01,-6.408401727676391602e-01,3.846599161624908447e-01,-8.695384860038757324e-02,2.193482667207717896e-01,-2.568244934082031250e-01,-5.891361832618713379e-01,-4.107355773448944092e-01,2.528851293027400970e-02,3.633022010326385498e-01,-4.191613793373107910e-01,-9.885072708129882812e-02,1.351637095212936401e-01
-4.473932981491088867e-01,-8.364853262901306152e-01,-3.580358624458312988e-01,3.730790913105010986e-01,-3.135757893323898315e-02,2.344003170728683472e-01,-4.545479416847229004e-01,-5.976113677024841309e-01,-2.199309468269348145e-01,3.585927560925483704e-02,3.701495230197906494e-01,-2.745719552040100098e-01,6.993746012449264526e-02,2.471201568841934204e-01
-6.529014110565185547e-01,-6.970399618148803711e-01,-4.354695379734039307e-01,2.651411890983581543e-01,1.452058404684066772e-01,8.683468401432037354e-02,-2.196158617734909058e-01,-4.431722760200500488e-01,-4.661329388618469238e-01,1.887622773647308350e-01,3.155331909656524658e-01,-4.367284178733825684e-01,5.562981963157653809e-02,4.212903678417205811e-01
-9.030905961990356445e-01,-4.916316270828247070e-01,-4.460626542568206787e-01,3.354004919528961182e-01,7.217390835285186768e-02,1.558644771575927734e-01,-4.474932551383972168e-01,-4.885014593601226807e-01,-5.420329570770263672e-01,-2.094051986932754517e-01,2.940506339073181152e-01,-4.010686278343200684e-01,2.325945533812046051e-02,2.906223535537719727e-01
-9.286331534385681152e-01,-4.956350624561309814e-01,-1.226461678743362427e-01,1.850377172231674194e-01,-1.086571589112281799e-01,5.151892900466918945e-01,-4.999478161334991455e-01,-3.536453843116760254e-01,-4.458244442939758301e-01,-6.332006305456161499e-02,1.196698620915412903e-01,-4.433921575546264648e-01,-1.018378287553787231e-01,3.924382030963897705e-01
-8.937786817550659180e-01,-6.714925169944763184e-01,-1.408658176660537720e-01,2.901237308979034424e-01,-2.574733793735504150e-01,3.328801095485687256e-01,-5.422204136848449707e-01,-3.358247280120849609e-01,-4.585394263267517090e-01,-8.643738925457000732e-03,2.230651974678039551e-01,-5.144658684730529785e-01,-1.262887865304946899e-01,5.027143955230712891e-01
-1.001913785934448242e+00,-4.562013745307922363e-01,-3.322587907314300537e-01,1.765923649072647095e-01,-1.505018174648284912e-01,3.755438327789306641e-01,-5.852732062339782715e-01,-3.075725138187408447e-01,-2.745526432991027832e-01,-7.037545740604400635e-02,1.741732507944107056e-01,-3.836744427680969238e-01,-1.672314852476119995e-01,4.526507854461669922e-01
-1.003441452980041504e+00,-5.631385445594787598e-01,-3.714174628257751465e-01,1.481742262840270996e-01,-4.564003646373748779e-02,3.862096369266510010e-01,-5.047770738601684570e-01,-2.286735475063323975e-01,-2.175237536430358887e-01,3.283893316984176636e-02,-3.066853969357907772e-04,-2.721078991889953613e-01,-1.360829323530197144e-01,6.371913552284240723e-01
-9.438172578811645508e-01,-4.977142512798309326e-01,-4.753487110137939453e-01,6.653317250311374664e-03,-2.287975698709487915e-01,5.090803503990173340e-01,-6.908197402954101562e-01,-1.581881046295166016e-01,-3.574163913726806641e-01,1.712523549795150757e-01,-1.760970950126647949e-01,-2.344285249710083008e-01,-2.064589262008666992e-01,4.732197821140289307e-01
-1.053427577018737793e+00,-6.291597485542297363e-01,-1.765792071819305420e-01,3.542944788932800293e-02,-3.004670143127441406e-01,3.437617719173431396e-01,-5.340867638587951660e-01,-1.611838340759277344e-01,-1.893559247255325317e-01,7.552503049373626709e-02,-4.663791656494140625e-01,-1.879873722791671753e-01,-4.191180318593978882e-02,4.780921041965484619e-01
-7.826606631278991699e-01,-5.218699574470520020e-01,-5.091776847839355469e-01,3.605410829186439514e-02,-4.140758812427520752e-01,5.107793211936950684e-01,-3.788120150566101074e-01,9.087605774402618408e-02,-2.264947295188903809e-01,-1.314023584127426147e-01,-3.040528893470764160e-01,-1.756196916103363037e-01,-5.585366114974021912e-02,4.824859201908111572e-01
-1.157778978347778320e+00,-6.560572385787963867e-01,-3.191791176795959473e-01,7.097384333610534668e-02,-3.643184602260589600e-01,3.448204100131988525e-01,-3.139303624629974365e-01,1.073741260915994644e-02,-2.364198565483093262e-01,1.803704053163528442e-01,-2.580569088459014893e-01,-2.371667027473449707e-01,-2.032464295625686646e-01,7.445507645606994629e-01
-9.016979336738586426e-01,-5.778065323829650879e-01,-3.902104794979095459e-01,-1.178215444087982178e-01,-2.922304272651672363e-01,3.415159285068511963e-01,-2.613807022571563721e-01,5.182060599327087402e-02,7.546421885490417480e-02,1.316365897655487061e-01,-2.244223505258560181e-01,7.717051077634096146e-03,-3.429979085922241211e-01,6.876885294914245605e-01
-1.063377618789672852e+00,-5.314882993698120117e-01,-1.530043780803680420e-01,-4.360891878604888916e-02,-3.620530664920806885e-01,3.404494822025299072e-01,-2.544792592525482178e-01,-2.008477896451950073e-01,1.337321847677230835e-01,-7.016311585903167725e-02,-3.215548396110534668e-01,1.467994153499603271e-01,-4.425515532493591309e-01,4.338806867599487305e-01
-9.115279316902160645e-01,-4.623081088066101074e-01,-9.468624740839004517e-02,-2.859914004802703857e-01,-3.403521478176116943e-01,3.408967554569244385e-01,5.182862281799316406e-02,-1.270440965890884399e-01,2.870422089472413063e-03,9.249831736087799072e-02,-2.764221727848052979e-01,-5.417342483997344971e-02,-5.483786463737487793e-01,7.966249585151672363e-01
-6.646353602409362793e-01,-2.073844969272613525e-01,-4.322493672370910645e-01,-2.445690333843231201e-01,-1.751893609762191772e-01,5.444325208663940430e-01,6.540542840957641602e-02,-9.505839645862579346e-02,-8.159288018941879272e-02,-2.372909151017665863e-02,-5.937278643250465393e-02,2.137689739465713501e-01,-5.031594634056091309e-01,6.314584016799926758e-01
-8.747093677520751953e-01,-1.630176603794097900e-01,-2.335601747035980225e-01,-3.964169323444366455e-01,-3.138959109783172607e-01,5.452215671539306641e-01,4.073902964591979980e-02,-1.416055206209421158e-02,-1.207831501960754395e-01,1.048353835940361023e-01,-2.864866256713867188e-01,2.561433911323547363e-01,-5.604444742202758789e-01,5.800424814224243164e-01
-5.604854822158813477e-01,-4.305358231067657471e-01,-1.933932900428771973e-01,-2.561579048633575439e-01,-1.250636577606201172e-01,4.591018259525299072e-01,1.029447168111801147e-01,-2.967645525932312012e-01,2.187679149210453033e-02,5.430136248469352722e-02,-2.805707156658172607e-01,2.047616243362426758e-01,-6.680235266685485840e-01,5.938915610313415527e-01
-6.421707272529602051e-01,-2.210637629032135010e-01,-2.284363210201263428e-01,-3.327495753765106201e-01,-1.146772205829620361e-01,4.151735007762908936e-01,1.176815703511238098e-01,-3.886091411113739014e-01,5.076438933610916138e-02,-8.915245532989501953e-02,-2.840440273284912109e-01,3.884735703468322754e-01,-6.483202576637268066e-01,4.114860594272613525e-01
-4.619852602481842041e-01,-4.644725620746612549e-01,-2.452389448881149292e-01,-4.894534349441528320e-01,1.431587040424346924e-01,6.184299588203430176e-01,1.363523304462432861e-01,-2.732306420803070068e-01,-1.202006191015243530e-01,3.604580834507942200e-02,1.234059855341911316e-01,4.098279774188995361e-01,-7.514838576316833496e-01,4.845606088638305664e-01
-4.675009548664093018e-01,-3.078049719333648682e-01,-9.715898893773555756e-03,-6.077987551689147949e-01,1.444726139307022095e-01,5.488126277923583984e-01,2.041372656822204590e-01,-3.839885592460632324e-01,-8.950196206569671631e-02,-1.585260927677154541e-01,-3.550578653812408447e-02,4.885982871055603027e-01,-6.295030713081359863e-01,3.863502740859985352e-01
-3.666107654571533203e-01,-4.218966960906982422e-01,-2.078240811824798584e-01,-7.272397279739379883e-01,2.666113674640655518e-01,3.559126257896423340e-01,3.169557452201843262e-01,-1.614060401916503906e-01,-2.934327721595764160e-01,1.532427500933408737e-02,1.278470456600189209e-01,2.875803112983703613e-01,-4.435787796974182129e-01,3.316375315189361572e-01
-3.062765598297119141e-01,-4.163986742496490479e-01,4.899346828460693359e-02,-5.424432158470153809e-01,2.614203989505767822e-01,4.971565306186676025e-01,1.649207025766372681e-01,-2.841386795043945312e-01,-4.054817557334899902e-01,-1.689169108867645264e-01,3.010634183883666992e-01,3.971841633319854736e-01,-3.226538896560668945e-01,4.157439172267913818e-01
-2.320571690797805786e-01,-1.355255097150802612e-01,-2.128763496875762939e-01,-5.472735166549682617e-01,2.066154479980468750e-01,4.731861352920532227e-01,3.115020096302032471e-01,-3.649637997150421143e-01,-4.019060432910919189e-01,-2.781810462474822998e-01,4.184069931507110596e-01,1.611720770597457886e-01,-3.060546815395355225e-01,2.510305047035217285e-01
-3.281735181808471680e-01,-4.818178713321685791e-01,-6.914612650871276855e-02,-4.536771774291992188e-01,4.393426179885864258e-01,4.888789057731628418e-01,8.190516382455825806e-02,-3.557956516742706299e-01,-7.036718130111694336e-01,-1.866132616996765137e-01,3.008847236633300781e-01,1.812421679496765137e-01,-3.363729417324066162e-01,2.539476752281188965e-01
-2.944481074810028076e-01,-5.586887598037719727e-01,-6.266044080257415771e-02,-6.431243419647216797e-01,3.605170249938964844e-01,6.587351560592651367e-01,2.529873847961425781e-01,-3.261544704437255859e-01,-6.203516125679016113e-01,-3.356451392173767090e-01,2.144388258457183838e-01,2.640478014945983887e-01,-3.785589635372161865e-01,2.550427317619323730e-01
-3.833978772163391113e-01,-6.503133177757263184e-01,-2.100281566381454468e-01,-4.277039468288421631e-01,3.584015965461730957e-01,2.631725668907165527e-01,2.819110639393329620e-02,-4.787443280220031738e-01,-5.506978631019592285e-01,-3.631915748119354248e-01,3.565550148487091064e-01,1.123115792870521545e-01,-2.613167464733123779e-01,3.087561726570129395e-01
-5.349886417388916016e-01,-6.859847903251647949e-01,-3.141124844551086426e-01,-3.363698124885559082e-01,2.534426152706146240e-01,3.581177592277526855e-01,8.111601322889328003e-02,-2.735375761985778809e-01,-9.267248511314392090e-01,-4.247764945030212402e-01,2.117719352245330811e-01,1.484160572290420532e-01,-3.478323668241500854e-02,3.481948673725128174e-01
-5.388275980949401855e-01,-8.079827427864074707e-01,-2.071623504161834717e-01,-4.031505882740020752e-01,3.905620872974395752e-01,4.091366827487945557e-01,2.004190236330032349e-01,-3.081028759479522705e-01,-8.535422086715698242e-01,-4.531096816062927246e-01,2.981497943401336670e-01,2.402473092079162598e-01,1.318844035267829895e-02,2.446163445711135864e-01
-2.970751821994781494e-01,-6.938911676406860352e-01,-2.143008410930633545e-01,-2.357198596000671387e-01,2.476135790348052979e-01,3.905429542064666748e-01,1.819292753934860229e-01,-1.790223419666290283e-01,-7.699319720268249512e-01,-3.678368926048278809e-01,1.466141492128372192e-01,1.516022235155105591e-01,-5.529069155454635620e-02,2.404921799898147583e-01
-5.844300389289855957e-01,-7.355675101280212402e-01,2.233283594250679016e-02,-2.595694661140441895e-01,2.041271030902862549e-01,2.015363872051239014e-01,-2.172921150922775269e-01,-3.165397346019744873e-01,-8.987095355987548828e-01,-2.266153246164321899e-01,1.805340349674224854e-01,5.916445329785346985e-02,-9.490732103586196899e-03,5.149319767951965332e-01
-4.525662958621978760e-01,-7.481039166450500488e-01,-4.952378571033477783e-02,-2.178969234228134155e-01,2.498283535242080688e-01,2.614063210785388947e-02,7.816654630005359650e-03,-1.442519426345825195e-01,-8.428378701210021973e-01,-6.782937049865722656e-01,4.659569561481475830e-01,9.248895198106765747e-02,2.285284698009490967e-01,1.204820796847343445e-01
-4.557635784149169922e-01,-7.920613288879394531e-01,1.861429214477539062e-01,-1.490497887134552002e-01,1.206470578908920288e-01,-3.789290413260459900e-02,-1.916125714778900146e-01,-1.441878527402877808e-01,-1.009473681449890137e+00,-9.659330546855926514e-02,3.259887695312500000e-01,1.240884810686111450e-01,-1.513368785381317139e-01,5.229581594467163086e-01
-4.553925991058349609e-01,-8.382582664489746094e-01,1.769345253705978394e-01,-9.754501283168792725e-02,7.152523100376129150e-02,2.220663130283355713e-01,-5.123279616236686707e-02,-1.672110855579376221e-01,-7.493098974227905273e-01,-3.249471187591552734e-01,1.308231055736541748e-01,2.082477211952209473e-01,4.125899577047675848e-04,4.789209961891174316e-01
-3.521208465099334717e-01,-8.188898563385009766e-01,1.795394867658615112e-01,6.262269616127014160e-02,2.349705621600151062e-02,1.855296343564987183e-01,-2.286621928215026855e-02,-3.934320062398910522e-02,-7.096680998802185059e-01,-1.434476375579833984e-01,1.367115229368209839e-01,1.119338497519493103e-01,-1.592781990766525269e-01,6.025297045707702637e-01
-5.007755160331726074e-01,-6.908164024353027344e-01,2.913012802600860596e-01,-9.898900985717773438e-02,1.959877312183380127e-01,1.897907108068466187e-01,3.789330646395683289e-02,-3.295534849166870117e-01,-9.759886860847473145e-01,-2.749580144882202148e-01,2.384585738182067871e-01,-1.093201935291290283e-01,-1.991112083196640015e-01,5.927307009696960449e-01
-4.356532394886016846e-01,-6.490951180458068848e-01,2.354532331228256226e-01,-1.709545552730560303e-01,2.191054821014404297e-01,2.434615045785903931e-01,-1.485104411840438843e-01,-6.605574488639831543e-02,-8.077935576438903809e-01,9.944589436054229736e-02,1.124575883150100708e-01,2.016363143920898438e-01,-9.336457401514053345e-02,7.475826144218444824e-01
-4.252236783504486084e-01,-6.313319802284240723e-01,4.308174252510070801e-01,-3.640622645616531372e-02,2.567072212696075439e-01,3.613825440406799316e-01,-1.088886186480522156e-01,-7.585976272821426392e-02,-8.538894653320312500e-01,-1.435377597808837891e-01,2.637490928173065186e-01,1.720348000526428223e-01,-1.847634091973304749e-02,6.772399544715881348e-01
-5.945907831192016602e-01,-5.104167461395263672e-01,5.392186045646667480e-01,-5.503858253359794617e-02,1.543523520231246948e-01,3.732883334159851074e-01,-4.454023763537406921e-02,-3.053983300924301147e-02,-7.912521958351135254e-01,1.398851126432418823e-01,-2.735943533480167389e-02,-1.604457013309001923e-02,-1.781028509140014648e-01,4.927747249603271484e-01
-4.225173890590667725e-01,-2.360434681177139282e-01,5.495524406433105469e-01,-1.213083192706108093e-01,-1.706823110580444336e-01,4.152210056781768799e-01,1.238319948315620422e-01,-6.392310559749603271e-02,-6.910627484321594238e-01,2.350267395377159119e-02,1.080784797668457031e-01,-3.920825570821762085e-02,-1.313561201095581055e-01,4.711360037326812744e-01
-2.209117561578750610e-01,-9.958080202341079712e-02,5.799182653427124023e-01,-1.134947314858436584e-01,9.516232460737228394e-02,3.734828531742095947e-01,1.144485995173454285e-01,-4.216015338897705078e-02,-9.494370818138122559e-01,3.797867894172668457e-02,1.623098924756050110e-02,1.958688050508499146e-01,-5.227481722831726074e-01,5.631915926933288574e-01
-1.088877767324447632e-01,-2.275399863719940186e-01,7.675305604934692383e-01,-2.766314744949340820e-01,4.169591516256332397e-02,5.870189666748046875e-01,1.521832942962646484e-01,2.608253657817840576e-01,-6.994593143463134766e-01,-7.779465615749359131e-02,9.871470183134078979e-02,2.891935966908931732e-02,-3.153455853462219238e-01,5.982915759086608887e-01
-2.023227363824844360e-01,-1.935434788465499878e-01,5.845766067504882812e-01,-3.209857940673828125e-01,3.076593577861785889e-01,4.653739631175994873e-01,1.168249826878309250e-02,3.256621658802032471e-01,-6.382592916488647461e-01,1.525930166244506836e-01,5.651430040597915649e-02,1.285423785448074341e-01,-3.016712069511413574e-01,6.095077395439147949e-01
-2.457576096057891846e-01,-4.753060638904571533e-02,7.302086353302001953e-01,-4.405317604541778564e-01,1.082746088504791260e-01,6.461927890777587891e-01,1.625261753797531128e-01,5.019862651824951172e-01,-9.527652859687805176e-01,-1.077880244702100754e-02,1.355363707989454269e-02,-6.049090530723333359e-03,-4.377888143062591553e-01,3.446174263954162598e-01
-4.088237285614013672e-01,1.371309310197830200e-01,7.564604282379150391e-01,-2.552304267883300781e-01,-1.665824651718139648e-02,5.201132297515869141e-01,9.594081342220306396e-02,5.898137688636779785e-01,-6.416020989418029785e-01,4.221367835998535156e-02,1.658897846937179565e-02,1.502831429243087769e-01,-3.458949923515319824e-01,1.180246323347091675e-01
-2.368267923593521118e-01,7.494885474443435669e-02,6.546238660812377930e-01,-4.201007783412933350e-01,-1.154908351600170135e-02,6.103726625442504883e-01,1.175985112786293030e-01,3.022040426731109619e-01,-7.765286564826965332e-01,-2.739692628383636475e-01,-3.745836019515991211e-02,2.552772872149944305e-02,-1.827353388071060181e-01,3.079615831375122070e-01
-2.248144894838333130e-01,1.597385257482528687e-01,4.304562509059906006e-01,-4.480003118515014648e-01,-1.210641860961914062e-01,7.015546560287475586e-01,1.865811198949813843e-01,4.933024644851684570e-01,-5.663641691207885742e-01,-1.961426287889480591e-01,-2.169670015573501587e-01,2.041520178318023682e-01,-4.351231455802917480e-01,1.957743167877197266e-01
2.683791145682334900e-02,9.348256886005401611e-02,4.987698495388031006e-01,-4.557096958160400391e-01,3.854468837380409241e-02,5.475257039070129395e-01,7.230401784181594849e-02,5.704935789108276367e-01,-6.395574808120727539e-01,-1.215455979108810425e-01,-1.486210078001022339e-01,2.511467039585113525e-01,-4.982569217681884766e-01,1.358748227357864380e-01
-3.462600409984588623e-01,6.925246864557266235e-02,5.080306529998779297e-01,-3.451008796691894531e-01,-1.184768751263618469e-01,5.637649893760681152e-01,3.065823912620544434e-01,6.606519222259521484e-01,-5.408107042312622070e-01,-3.425413072109222412e-01,-1.759477257728576660e-01,6.935708224773406982e-02,-3.550476729869842529e-01,-5.362139269709587097e-02
-2.518139183521270752e-01,2.824183702468872070e-01,3.201126456260681152e-01,-3.882540166378021240e-01,-1.669631004333496094e-01,3.127982914447784424e-01,1.451313197612762451e-01,7.070087194442749023e-01,-4.716831147670745850e-01,-1.846197843551635742e-01,-1.878905892372131348e-01,3.519922196865081787e-01,-3.689099848270416260e-01,1.164598092436790466e-01
4.855418950319290161e-02,2.418448626995086670e-01,1.967734843492507935e-01,-3.630081117153167725e-01,-5.624651908874511719e-02,2.779140174388885498e-01,2.868784070014953613e-01,4.417883157730102539e-01,-4.247118234634399414e-01,-3.208036720752716064e-01,3.146508708596229553e-02,3.309519588947296143e-01,-5.194081068038940430e-01,-1.380256414413452148e-01
1.441996395587921143e-01,3.017535507678985596e-01,1.325380504131317139e-01,-3.990826308727264404e-01,-5.611456185579299927e-02,1.454612165689468384e-01,4.448473751544952393e-01,4.523300528526306152e-01,-1.795357763767242432e-01,-3.648153543472290039e-01,-1.767751276493072510e-01,5.705236196517944336e-01,-5.613645315170288086e-01,-7.409955561161041260e-02
9.172392636537551880e-02,7.818892598152160645e-02,2.014592736959457397e-01,-3.718672096729278564e-01,7.193368673324584961e-02,-7.441807538270950317e-02,2.630254328250885010e-01,5.886332392692565918e-01,-1.399620622396469116e-01,-2.679377794265747070e-01,8.102538064122200012e-03,5.341529250144958496e-01,-4.087902009487152100e-01,-1.219798475503921509e-01
9.468879550695419312e-02,4.459339380264282227e-01,9.409695863723754883e-02,-3.538248538970947266e-01,1.317026615142822266e-01,1.105033308267593384e-01,3.153223395347595215e-01,2.157889157533645630e-01,-8.261237293481826782e-02,-3.355271816253662109e-01,-3.120311498641967773e-01,5.225201845169067383e-01,-5.743893384933471680e-01,-1.368314921855926514e-01
2.614096105098724365e-01,3.019444346427917480e-01,3.438233956694602966e-02,-1.855684667825698853e-01,1.311035603284835815e-01,-2.305197156965732574e-02,5.951797962188720703e-01,1.972444206476211548e-01,-1.292844712734222412e-01,-5.011684894561767578e-01,-1.224481314420700073e-01,7.198710441589355469e-01,-5.431084632873535156e-01,-3.077141344547271729e-01
4.912723898887634277e-01,1.103288456797599792e-01,-1.344223171472549438e-01,-4.977326393127441406e-01,1.657603830099105835e-01,-1.072196140885353088e-01,4.112764596939086914e-01,2.650206685066223145e-01,-9.361943602561950684e-02,-3.167439103126525879e-01,-2.469800226390361786e-02,3.803912401199340820e-01,-5.076088309288024902e-01,-3.675170838832855225e-01
2.705776989459991455e-01,4.033708572387695312e-01,2.443141937255859375e-01,-2.626650035381317139e-01,2.687476575374603271e-01,-1.031109541654586792e-01,6.305189728736877441e-01,3.420166373252868652e-01,-1.971497572958469391e-02,-4.238511919975280762e-01,2.276064008474349976e-01,7.471720576286315918e-01,-5.482915639877319336e-01,-2.331964671611785889e-01
4.323467612266540527e-01,2.787621021270751953e-01,2.858245372772216797e-02,-1.868550181388854980e-01,4.011183083057403564e-01,-4.008894860744476318e-01,5.776548385620117188e-01,-1.125383228063583374e-01,-1.434296071529388428e-01,-7.265309095382690430e-01,-6.835559755563735962e-02,7.069519162178039551e-01,-5.087840557098388672e-01,-3.082572817802429199e-01
4.013893306255340576e-01,3.265643417835235596e-01,1.428192108869552612e-01,-4.640611708164215088e-01,2.422767132520675659e-01,-4.781219363212585449e-01,3.826797306537628174e-01,-1.332074776291847229e-02,-1.305912733078002930e-01,-6.109638810157775879e-01,3.250842988491058350e-01,4.280691444873809814e-01,-5.629647970199584961e-01,-3.763337731361389160e-01
4.770854115486145020e-01,2.772852182388305664e-01,1.998189687728881836e-01,-2.662468552589416504e-01,4.268112778663635254e-01,-2.629154920578002930e-01,4.986110627651214600e-01,-2.835799567401409149e-02,-1.844031922519207001e-02,-6.024903655052185059e-01,3.548175394535064697e-01,4.886918365955352783e-01,-3.819214701652526855e-01,-3.437775373458862305e-01
5.178167223930358887e-01,3.092823922634124756e-01,4.122551083564758301e-01,-1.323677301406860352e-01,4.404166936874389648e-01,-4.352887868881225586e-01,4.735335707664489746e-01,1.056595332920551300e-02,-1.081246361136436462e-01,-7.116565704345703125e-01,4.200018644332885742e-01,3.697759807109832764e-01,-4.254457056522369385e-01,-4.671379625797271729e-01
3.620408475399017334e-01,2.995907068252563477e-01,1.451181322336196899e-01,-2.686660289764404297e-01,5.106393694877624512e-01,-4.444175660610198975e-01,2.186836004257202148e-01,-1.315568685531616211e-01,-6.998384743928909302e-02,-1.092465639114379883e+00,3.987629115581512451e-01,-1.332962885499000549e-02,-1.690228879451751709e-01,-5.794653892517089844e-01
4.813097417354583740e-01,1.133019030094146729e-01,1.141824424266815186e-01,-1.200370863080024719e-01,4.671986103057861328e-01,-6.483604907989501953e-01,2.795882821083068848e-01,-3.875736296176910400e-01,-4.758649766445159912e-01,-8.090577125549316406e-01,4.732061922550201416e-01,1.348154693841934204e-01,-2.411417514085769653e-01,-5.254969000816345215e-01
2.804050743579864502e-01,3.337849080562591553e-01,-7.242028415203094482e-02,-1.846141219139099121e-01,3.963502943515777588e-01,-3.896405994892120361e-01,2.612800598144531250e-01,-3.476985692977905273e-01,-1.075182110071182251e-01,-7.873131632804870605e-01,4.747897386550903320e-01,-6.872116029262542725e-02,-7.718539983034133911e-02,-5.582333803176879883e-01
3.201804757118225098e-01,2.174311727285385132e-01,-1.197290197014808655e-01,-2.482747100293636322e-02,4.510852098464965820e-01,-5.052413344383239746e-01,6.661127507686614990e-02,-8.808428794145584106e-02,-1.837253868579864502e-01,-9.080113172531127930e-01,4.177226126194000244e-01,-1.611535102128982544e-01,-4.481773450970649719e-02,-5.705941319465637207e-01
-7.312961388379335403e-03,2.036779075860977173e-01,-1.558553129434585571e-01,1.686189919710159302e-01,3.525947034358978271e-01,-6.659719347953796387e-01,-1.574937067925930023e-02,-1.804471909999847412e-01,-1.915455162525177002e-01,-9.174423217773437500e-01,5.656439661979675293e-01,-1.294418275356292725e-01,7.231504470109939575e-02,-7.084817886352539062e-01
1.823870688676834106e-01,1.902185827493667603e-01,6.674303114414215088e-02,2.822581231594085693e-01,2.686219811439514160e-01,-4.359446763992309570e-01,-1.482339799404144287e-01,-3.320569396018981934e-01,-4.428757429122924805e-01,-8.283101320266723633e-01,4.598253071308135986e-01,-1.908623278141021729e-01,-2.496021240949630737e-02,-7.063037157058715820e-01
-6.400337070226669312e-02,7.012879848480224609e-02,-1.260497979819774628e-02,2.094352692365646362e-01,4.120608866214752197e-01,-8.158838152885437012e-01,-1.289575695991516113e-01,-1.637361347675323486e-01,-3.175293803215026855e-01,-1.079009294509887695e+00,3.381540179252624512e-01,-9.726943820714950562e-02,-5.082126706838607788e-02,-4.947752058506011963e-01
-1.027871444821357727e-01,4.390750825405120850e-02,4.660431668162345886e-02,1.228201091289520264e-01,2.216424196958541870e-01,-7.447261214256286621e-01,-3.278492093086242676e-01,-1.771017909049987793e-01,-2.709631323814392090e-01,-8.200635313987731934e-01,4.148001670837402344e-01,-3.352030217647552490e-01,1.099251490086317062e-02,-5.591985583305358887e-01
-3.484228551387786865e-01,-1.766940057277679443e-01,2.528468072414398193e-01,2.782612740993499756e-01,-8.710141479969024658e-02,-6.404939889907836914e-01,-4.615031182765960693e-01,-4.551067054271697998e-01,-1.646657437086105347e-01,-8.166983723640441895e-01,3.059199452400207520e-01,-3.290655314922332764e-01,2.056637406349182129e-02,-6.894375085830688477e-01
-2.045357376337051392e-01,-1.432188302278518677e-01,1.817732453346252441e-01,1.748730391263961792e-01,-3.199495077133178711e-01,-6.442220211029052734e-01,-4.725730121135711670e-01,-4.178635478019714355e-01,5.401200056076049805e-02,-9.559118747711181641e-01,2.351713776588439941e-01,-1.723853647708892822e-01,3.602614253759384155e-02,-5.751401782035827637e-01
-9.593203663825988770e-02,-6.979207694530487061e-02,1.571359485387802124e-01,3.590814471244812012e-01,-1.066183522343635559e-01,-9.200989007949829102e-01,-6.488742232322692871e-01,-1.840506047010421753e-01,-3.732806816697120667e-02,-6.556770801544189453e-01,6.672454625368118286e-02,-3.388708531856536865e-01,-1.583022065460681915e-02,-5.085321664810180664e-01
-4.185168147087097168e-01,-6.379497051239013672e-02,2.135237604379653931e-01,5.006480813026428223e-01,-2.518107891082763672e-01,-7.995481491088867188e-01,-8.206156492233276367e-01,-2.351596206426620483e-02,1.298856735229492188e-01,-4.695824086666107178e-01,1.466996073722839355e-01,-3.772904872894287109e-01,5.936805903911590576e-02,-2.085362970829010010e-01
-2.620367705821990967e-01,-3.176009282469749451e-02,1.655090004205703735e-01,2.660727798938751221e-01,-2.757487595081329346e-01,-6.851913928985595703e-01,-6.144040822982788086e-01,-2.164239287376403809e-01,2.237869501113891602e-01,-5.387242436408996582e-01,1.128096804022789001e-01,-2.421337515115737915e-01,1.032737940549850464e-01,-2.628839910030364990e-01
-4.926896989345550537e-01,9.333749115467071533e-02,2.321953326463699341e-01,3.625828921794891357e-01,-3.329418897628784180e-01,-5.889184474945068359e-01,-3.796312808990478516e-01,-5.058673024177551270e-01,2.236234098672866821e-01,-4.401586353778839111e-01,1.816353201866149902e-01,-2.750049531459808350e-01,-1.511971503496170044e-01,-2.055649459362030029e-01
-3.003777265548706055e-01,-1.980897039175033569e-02,1.876089274883270264e-01,2.668029069900512695e-01,-4.252002537250518799e-01,-5.623644590377807617e-01,-4.215435385704040527e-01,-4.409501552581787109e-01,2.429799139499664307e-01,-5.314735174179077148e-01,1.038992702960968018e-01,-3.183079063892364502e-01,-1.437182277441024780e-01,-2.073302567005157471e-01
-1.881222277879714966e-01,7.235365360975265503e-02,4.471676349639892578e-01,4.796817898750305176e-01,-5.555550456047058105e-01,-5.864610075950622559e-01,-6.733286976814270020e-01,-2.347983866930007935e-01,4.042655825614929199e-01,-4.256562590599060059e-01,4.114834964275360107e-01,-2.370692193508148193e-01,-2.838294580578804016e-02,-2.554070949554443359e-01
-2.680346965789794922e-01,9.441814571619033813e-02,5.842519998550415039e-01,2.823059558868408203e-01,-4.209254682064056396e-01,-5.955159068107604980e-01,-5.970480442047119141e-01,-2.388731390237808228e-01,1.752647757530212402e-01,-4.168643653392791748e-01,-1.391981379128992558e-03,-4.566089510917663574e-01,-3.352785408496856689e-01,-6.743364781141281128e-02
-1.597139239311218262e-01,1.178769171237945557e-01,5.719521641731262207e-01,2.639583349227905273e-01,-6.632641553878784180e-01,-5.663742423057556152e-01,-5.382171869277954102e-01,-3.429179787635803223e-01,4.413483738899230957e-01,-2.410408705472946167e-01,4.304190725088119507e-02,-3.931420147418975830e-01,-2.224460840225219727e-01,-8.899026364088058472e-02
-2.683959305286407471e-01,1.736111193895339966e-01,4.547693133354187012e-01,1.434845179319381714e-01,-4.438786804676055908e-01,-4.422759413719177246e-01,-4.817104935646057129e-01,-3.786706924438476562e-01,5.695295333862304688e-01,-3.129470646381378174e-01,1.335334330797195435e-01,-1.379115581512451172e-01,-1.944037973880767822e-01,-2.517632544040679932e-01
5.814385041594505310e-02,1.613783836364746094e-01,5.500398874282836914e-01,1.289008110761642456e-01,-5.184639096260070801e-01,-2.959591746330261230e-01,-5.573475360870361328e-01,-2.535139322280883789e-01,4.630417823791503906e-01,-3.141540884971618652e-01,2.460147887468338013e-01,-6.421421766281127930e-01,-6.282760947942733765e-02,-8.267582207918167114e-02
-7.534916698932647705e-02,2.626849412918090820e-01,4.950582385063171387e-01,1.068245470523834229e-01,-6.486300230026245117e-01,-4.154556989669799805e-01,-5.131413340568542480e-01,-2.218157351016998291e-01,5.349476337432861328e-01,-1.937890946865081787e-01,1.991938948631286621e-01,-4.033306539058685303e-01,-5.119407773017883301e-01,-2.016381323337554932e-01
-1.531815379858016968e-01,2.734853029251098633e-01,4.281006455421447754e-01,-4.061286151409149170e-02,-5.426133871078491211e-01,-3.868323564529418945e-01,-3.530439138412475586e-01,-2.607300877571105957e-01,6.033648252487182617e-01,-1.156230419874191284e-01,1.918034106492996216e-01,-4.463983178138732910e-01,-3.985914289951324463e-01,-4.228857159614562988e-01
5.044764373451471329e-03,2.855146527290344238e-01,4.009737968444824219e-01,-1.273597776889801025e-01,-6.257150769233703613e-01,-2.238305360078811646e-01,-5.645290613174438477e-01,-4.239564538002014160e-01,4.870865046977996826e-01,-3.170740604400634766e-01,1.524913758039474487e-01,-3.061306476593017578e-01,-2.162100076675415039e-01,-4.317048192024230957e-01
-2.118270099163055420e-02,1.151607707142829895e-01,1.756322234869003296e-01,-1.826410144567489624e-01,-4.582512676715850830e-01,-2.260486334562301636e-01,-4.215222299098968506e-01,-2.402323782444000244e-01,8.494773507118225098e-01,-4.952335357666015625e-01,3.316699862480163574e-01,-2.301052361726760864e-01,-2.512284517288208008e-01,-5.051897168159484863e-01
-2.099987417459487915e-01,2.516796886920928955e-01,1.908673942089080811e-01,8.720580488443374634e-02,-6.657117605209350586e-01,-3.915683627128601074e-01,-4.171048402786254883e-01,-3.728205263614654541e-01,4.518552124500274658e-01,-3.632474839687347412e-01,5.771651268005371094e-01,-1.491584032773971558e-01,-4.486128687858581543e-01,-4.985716938972473145e-01
-1.013203263282775879e-01,1.309593170881271362e-01,9.557672590017318726e-02,8.496448397636413574e-03,-5.313980579376220703e-01,-4.976492226123809814e-01,-2.695594429969787598e-01,-4.132260680198669434e-01,4.094155430793762207e-01,-3.743347525596618652e-01,2.120451629161834717e-01,-2.625357508659362793e-01,-1.750428974628448486e-01,-7.266460061073303223e-01
-1.740342080593109131e-01,1.567175090312957764e-01,-6.469126045703887939e-02,-2.677809000015258789e-01,-7.503503561019897461e-01,-5.742952823638916016e-01,-5.930173993110656738e-01,-4.428070783615112305e-01,6.917814612388610840e-01,-3.304093480110168457e-01,3.905675709247589111e-01,-2.691351771354675293e-01,-1.753444224596023560e-01,-6.981282234191894531e-01
-4.212625324726104736e-02,-1.216715667396783829e-02,6.912728399038314819e-02,-3.117763251066207886e-02,-6.027616262435913086e-01,-4.372382462024688721e-01,-6.482179164886474609e-01,-4.136294722557067871e-01,5.826203823089599609e-01,-4.576547741889953613e-01,5.077860951423645020e-01,-2.731621265411376953e-01,-2.045508325099945068e-01,-5.801419019699096680e-01
3.806255012750625610e-02,3.036247566342353821e-02,1.312506292015314102e-02,8.140764385461807251e-02,-6.190104484558105469e-01,-6.145004034042358398e-01,-7.168040871620178223e-01,-4.073155820369720459e-01,6.817494034767150879e-01,-3.393754065036773682e-01,3.871041238307952881e-01,-7.297415286302566528e-02,-3.571534156799316406e-02,-8.376067280769348145e-01
-2.475430667400360107e-01,-7.897722721099853516e-02,-3.688257336616516113e-01,2.582501471042633057e-01,-5.953653454780578613e-01,-4.705410301685333252e-01,-4.831688106060028076e-01,-7.258943319320678711e-01,7.053838372230529785e-01,-3.469437360763549805e-01,4.347981810569763184e-01,1.835314035415649414e-01,-9.278125315904617310e-02,-7.056843042373657227e-01
-6.382562965154647827e-02,-1.857872307300567627e-01,-1.618076264858245850e-01,3.373593837022781372e-02,-6.156078577041625977e-01,-7.860018610954284668e-01,-5.071678757667541504e-01,-6.654810309410095215e-01,7.283288240432739258e-01,-4.323087036609649658e-01,4.276405870914459229e-01,-4.438998177647590637e-02,-1.467654854059219360e-02,-8.043448925018310547e-01
9.735587239265441895e-02,-1.642838865518569946e-01,-2.239299267530441284e-01,2.387826591730117798e-01,-6.961277723312377930e-01,-5.010328888893127441e-01,-5.586956739425659180e-01,-7.134158611297607422e-01,5.476360917091369629e-01,-2.950628697872161865e-01,6.563708186149597168e-01,4.265825822949409485e-02,2.285619080066680908e-01,-5.769134759902954102e-01
5.510807782411575317e-02,-2.195158153772354126e-01,-2.660261094570159912e-01,2.054774612188339233e-01,-8.542173504829406738e-01,-7.344207167625427246e-01,-5.135448575019836426e-01,-6.414241194725036621e-01,5.875022411346435547e-01,-2.522428631782531738e-01,6.051811575889587402e-01,8.811768144369125366e-02,3.072386980056762695e-01,-6.134911179542541504e-01
4.841088131070137024e-02,-3.180384635925292969e-01,-3.660941123962402344e-01,1.709367632865905762e-01,-7.825341820716857910e-01,-8.063810467720031738e-01,-5.363484621047973633e-01,-9.082017540931701660e-01,7.455406188964843750e-01,-4.181827604770660400e-01,6.919615268707275391e-01,4.413909465074539185e-02,4.921052977442741394e-02,-7.698196172714233398e-01
1.355785727500915527e-01,-3.037458658218383789e-01,-1.785506308078765869e-01,4.657274782657623291e-01,-8.369559645652770996e-01,-7.919288277626037598e-01,-5.878135561943054199e-01,-9.255265593528747559e-01,5.328311920166015625e-01,-1.745832115411758423e-01,6.203683614730834961e-01,2.269403189420700073e-01,1.676689833402633667e-01,-7.006480693817138672e-01
-9.036273509263992310e-02,-4.410535097122192383e-01,-1.539693027734756470e-01,2.709456682205200195e-01,-6.352187395095825195e-01,-8.203346133232116699e-01,-5.884617567062377930e-01,-8.725829720497131348e-01,5.172534584999084473e-01,-2.437730133533477783e-01,7.558925747871398926e-01,1.900928169488906860e-01,2.346495985984802246e-01,-5.686558485031127930e-01
1.058612689375877380e-01,-3.912383019924163818e-01,-1.556838601827621460e-01,4.971274137496948242e-01,-4.704974591732025146e-01,-5.634700059890747070e-01,-5.799103379249572754e-01,-9.971574544906616211e-01,4.016986787319183350e-01,-2.187108695507049561e-01,7.309969663619995117e-01,1.230995878577232361e-01,1.048867478966712952e-01,-7.762905955314636230e-01
1.661420911550521851e-01,-4.607401788234710693e-01,6.367600522935390472e-03,2.711233496665954590e-01,-6.334146261215209961e-01,-6.152106523513793945e-01,-3.489671349525451660e-01,-8.788029551506042480e-01,4.291426539421081543e-01,-1.688025891780853271e-01,8.582487106323242188e-01,9.929265081882476807e-02,1.115152090787887573e-01,-6.339798569679260254e-01
8.018133044242858887e-02,-5.771756768226623535e-01,4.760393872857093811e-02,4.115214943885803223e-01,-5.775308609008789062e-01,-6.286299824714660645e-01,-5.357714295387268066e-01,-1.059517383575439453e+00,2.545609176158905029e-01,9.048305219039320946e-05,7.715730667114257812e-01,-1.102554202079772949e-01,2.933499813079833984e-01,-5.877798199653625488e-01
-1.319922953844070435e-01,-5.752542614936828613e-01,-1.707814931869506836e-01,5.486084818840026855e-01,-5.815964937210083008e-01,-7.058176994323730469e-01,-7.842933535575866699e-01,-8.490936160087585449e-01,3.743296265602111816e-01,3.237565606832504272e-02,9.455931186676025391e-01,-2.045358717441558838e-01,2.298770844936370850e-01,-3.608501255512237549e-01
-9.417045861482620239e-02,-3.951120674610137939e-01,1.321746855974197388e-01,5.961635112762451172e-01,-4.905878305435180664e-01,-5.326133370399475098e-01,-6.757161021232604980e-01,-8.048520088195800781e-01,5.157198011875152588e-02,-1.152075640857219696e-02,8.825957775115966797e-01,-2.042538225650787354e-01,2.549205124378204346e-01,-5.323931574821472168e-01
-1.132942065596580505e-01,-3.702870309352874756e-01,-5.485462024807929993e-03,6.042200922966003418e-01,-5.017646551132202148e-01,-5.432361364364624023e-01,-7.680057287216186523e-01,-9.214081764221191406e-01,-8.794111758470535278e-02,1.496286480687558651e-03,7.631635069847106934e-01,-1.496786773204803467e-01,1.820488274097442627e-01,-3.941168785095214844e-01
-2.630385756492614746e-01,-4.730881452560424805e-01,8.954253047704696655e-02,6.982045173645019531e-01,-5.765813589096069336e-01,-6.686871647834777832e-01,-6.396258473396301270e-01,-8.664208054542541504e-01,-1.281086951494216919e-01,1.023623743094503880e-03,8.584074378013610840e-01,-2.417612522840499878e-01,2.157783359289169312e-01,-4.909274280071258545e-01
-3.433041274547576904e-01,-6.192562580108642578e-01,3.004651069641113281e-01,6.124052405357360840e-01,-6.593754887580871582e-01,-4.170971512794494629e-01,-7.445721626281738281e-01,-7.817426323890686035e-01,5.806021019816398621e-02,3.232668042182922363e-01,6.831413507461547852e-01,-1.709327548742294312e-01,3.371049761772155762e-01,-3.493952155113220215e-01
-2.773740589618682861e-01,-4.338396489620208740e-01,1.425943523645401001e-01,8.232358098030090332e-01,-5.387763381004333496e-01,-2.337825894355773926e-01,-9.241923093795776367e-01,-6.777164936065673828e-01,-2.101526409387588501e-01,3.349696844816207886e-02,5.188862085342407227e-01,-2.199636399745941162e-01,2.909090518951416016e-01,-5.546322464942932129e-01
-2.320375889539718628e-01,-5.286920666694641113e-01,2.545244097709655762e-01,7.615329027175903320e-01,-5.405603051185607910e-01,-2.888436913490295410e-01,-9.502456188201904297e-01,-6.652730107307434082e-01,-2.396808713674545288e-01,1.134055852890014648e-01,5.288689136505126953e-01,-3.505923151969909668e-01,3.356843888759613037e-01,-4.418934285640716553e-01
-6.483201980590820312e-01,-5.654330849647521973e-01,1.264144629240036011e-01,8.379048109054565430e-01,-6.251928210258483887e-01,-2.181498557329177856e-01,-1.080625891685485840e+00,-4.796797633171081543e-01,-2.400507219135761261e-02,2.523816525936126709e-01,4.350565075874328613e-01,-6.108818203210830688e-02,3.987465500831604004e-01,-3.451954424381256104e-01
-5.599898099899291992e-01,-4.173526167869567871e-01,2.424674183130264282e-01,8.333035111427307129e-01,-8.785737752914428711e-01,-6.190764904022216797e-02,-9.046546220779418945e-01,-4.697549641132354736e-01,9.901449084281921387e-02,2.027591615915298462e-01,2.468734532594680786e-01,-1.883094161748886108e-01,2.824972271919250488e-01,-2.764570713043212891e-01
-6.216191649436950684e-01,-6.815428733825683594e-01,1.393261253833770752e-01,8.698865175247192383e-01,-1.049174785614013672e+00,-4.598387703299522400e-02,-8.406554460525512695e-01,-3.117680847644805908e-01,1.666793823242187500e-01,4.753696620464324951e-01,3.126209378242492676e-01,3.986065275967121124e-03,1.500166356563568115e-01,-2.186454534530639648e-01
-4.206233620643615723e-01,-5.017177462577819824e-01,1.143034994602203369e-01,7.333236932754516602e-01,-8.977784514427185059e-01,9.539045393466949463e-02,-9.097517132759094238e-01,-5.357303619384765625e-01,-1.641972735524177551e-02,3.038387298583984375e-01,2.090335488319396973e-01,-8.516588062047958374e-02,2.379333078861236572e-01,-1.875722557306289673e-01
-5.023999810218811035e-01,-6.321386098861694336e-01,1.515862643718719482e-01,7.390606999397277832e-01,-7.791519761085510254e-01,-2.893618345260620117e-01,-8.442459106445312500e-01,-3.195635378360748291e-01,-2.608723938465118408e-01,4.603853225708007812e-01,7.754967361688613892e-02,-6.033656187355518341e-03,6.310313940048217773e-02,-1.138642057776451111e-01
-4.223977923393249512e-01,-5.706385970115661621e-01,2.774383500218391418e-02,7.649883031845092773e-01,-1.145645856857299805e+00,-1.229093968868255615e-01,-8.361457586288452148e-01,-2.012309730052947998e-01,8.142787218093872070e-02,5.691070556640625000e-01,8.420953154563903809e-02,7.608712464570999146e-02,1.060521528124809265e-01,-1.280938833951950073e-01
-4.440108239650726318e-01,-1.970546096563339233e-01,9.045770019292831421e-02,8.424777984619140625e-01,-1.001488924026489258e+00,8.512257784605026245e-02,-6.350581645965576172e-01,-3.886486887931823730e-01,2.748299539089202881e-01,5.791888236999511719e-01,-9.728641808032989502e-02,1.133551597595214844e-01,-1.946312487125396729e-01,-7.993730157613754272e-02
-3.721279799938201904e-01,-3.436243534088134766e-01,2.067136615514755249e-01,6.911915540695190430e-01,-7.952155470848083496e-01,7.255847007036209106e-02,-7.677867412567138672e-01,-2.118399292230606079e-01,9.422562271356582642e-02,8.432222604751586914e-01,-2.582576870918273926e-01,2.004311829805374146e-01,-2.362509667873382568e-01,-1.797961294651031494e-01
-4.091022610664367676e-01,-1.371286213397979736e-01,2.328000366687774658e-01,6.685514450073242188e-01,-8.351834416389465332e-01,7.636332511901855469e-02,-6.509287357330322266e-01,-1.811461299657821655e-01,1.816468834877014160e-01,6.528152227401733398e-01,-2.088510692119598389e-01,4.581353664398193359e-01,-3.583030998706817627e-01,-2.343618124723434448e-01
-3.313446342945098877e-01,-1.905584931373596191e-01,5.915229767560958862e-02,6.310425996780395508e-01,-8.690489530563354492e-01,4.385513439774513245e-02,-3.510443270206451416e-01,-6.082376092672348022e-02,2.983124852180480957e-01,7.162281870841979980e-01,-2.480185329914093018e-01,3.981644511222839355e-01,-4.070351123809814453e-01,-1.927650868892669678e-01
-2.652578651905059814e-01,-1.259406954050064087e-01,3.197357356548309326e-01,7.159338593482971191e-01,-9.538105130195617676e-01,1.641626209020614624e-01,-4.937183856964111328e-01,-2.614690065383911133e-01,4.034617841243743896e-01,7.544009685516357422e-01,-2.110535055398941040e-01,5.870189666748046875e-01,-4.774424135684967041e-01,-2.728405892848968506e-01
-2.547846138477325439e-01,-1.525158584117889404e-01,3.191296756267547607e-01,5.700453519821166992e-01,-6.135680079460144043e-01,1.926439702510833740e-01,-3.324595987796783447e-01,-2.006791085004806519e-01,1.923571079969406128e-01,8.966283798217773438e-01,-1.652188450098037720e-01,6.143649816513061523e-01,-5.707123875617980957e-01,-1.188802793622016907e-01
-2.030314505100250244e-01,7.759638130664825439e-02,2.891322411596775055e-02,3.032417297363281250e-01,-6.991669535636901855e-01,1.928251609206199646e-02,-2.243170589208602905e-01,-2.706082463264465332e-01,3.918727040290832520e-01,9.291008710861206055e-01,3.161239996552467346e-02,7.346263527870178223e-01,-5.425540804862976074e-01,-9.680005908012390137e-02
-1.093648672103881836e-01,4.174142330884933472e-02,4.970507323741912842e-02,4.129179120063781738e-01,-8.166630864143371582e-01,2.463932782411575317e-01,-8.984085917472839355e-02,-2.205061465501785278e-01,3.406153619289398193e-01,7.906762361526489258e-01,-3.171720206737518311e-01,5.789795517921447754e-01,-6.180576086044311523e-01,-3.442446887493133545e-01
-7.507574558258056641e-02,9.312836080789566040e-02,5.674614384770393372e-02,3.255952596664428711e-01,-3.558748960494995117e-01,1.832112669944763184e-01,-7.636348158121109009e-02,-3.395571187138557434e-02,2.221622169017791748e-01,5.475482344627380371e-01,-6.781761348247528076e-02,8.144815564155578613e-01,-4.326056241989135742e-01,-2.130551934242248535e-01
-7.294648885726928711e-02,8.902564644813537598e-02,1.368140727281570435e-01,3.061168789863586426e-01,-5.143510699272155762e-01,3.162179291248321533e-01,-3.687119781970977783e-01,-1.869768202304840088e-01,2.988540828227996826e-01,5.469741821289062500e-01,-2.529430687427520752e-01,6.405624151229858398e-01,-4.181514680385589600e-01,-3.346437215805053711e-01
-6.096770614385604858e-02,1.180936172604560852e-01,2.078900858759880066e-02,3.176162242889404297e-01,-7.608446292579174042e-03,2.497777044773101807e-01,1.451424229890108109e-02,-2.429927885532379150e-01,2.939805984497070312e-01,6.901472806930541992e-01,-1.072803288698196411e-01,4.766254723072052002e-01,-7.361003756523132324e-01,-4.981090426445007324e-01
-2.889775205403566360e-03,1.266534775495529175e-01,-1.240682005882263184e-01,4.347209334373474121e-01,-2.669355273246765137e-01,3.797069787979125977e-01,-6.001407280564308167e-02,-1.798043698072433472e-01,3.305854499340057373e-01,4.581685066223144531e-01,-2.229678034782409668e-01,7.880942225456237793e-01,-6.941752433776855469e-01,-5.331994891166687012e-01
-9.038642793893814087e-02,1.165786758065223694e-01,-2.786433696746826172e-01,2.605431675910949707e-01,-1.388987153768539429e-01,1.391467899084091187e-01,6.511314213275909424e-02,-2.061076462268829346e-01,2.903108298778533936e-01,2.358741164207458496e-01,-1.478928923606872559e-01,6.992638707160949707e-01,-7.377343177795410156e-01,-4.309108555316925049e-01
-2.097105979919433594e-01,6.578622758388519287e-02,-4.049582779407501221e-01,3.952686786651611328e-01,-1.152642369270324707e-01,-2.701975032687187195e-02,-1.486959606409072876e-01,-1.959623098373413086e-01,2.290445147082209587e-03,5.318651795387268066e-01,-2.478289417922496796e-02,9.543966650962829590e-01,-4.115461111068725586e-01,-8.044986128807067871e-01
-8.123533427715301514e-02,-1.285960823297500610e-01,-2.319109886884689331e-01,4.472537040710449219e-01,-1.052223443984985352e-01,-2.332032769918441772e-01,9.194148331880569458e-02,-2.096298784017562866e-01,1.450692862272262573e-01,1.976137459278106689e-01,-3.569971919059753418e-01,8.517871499061584473e-01,-5.803833007812500000e-01,-4.738951623439788818e-01
-2.077298164367675781e-01,3.106865100562572479e-02,-1.198952570557594299e-01,4.460612237453460693e-01,3.661986440420150757e-02,-1.505195796489715576e-01,-1.982840299606323242e-01,-2.167912125587463379e-01,7.750893384218215942e-02,2.020430862903594971e-01,-2.006284296512603760e-01,8.291392326354980469e-01,-4.777260720729827881e-01,-4.905088245868682861e-01
-3.012707270681858063e-02,-8.784234523773193359e-02,-3.296676874160766602e-01,4.570342898368835449e-01,4.817929118871688843e-03,-9.313154220581054688e-02,-1.411461979150772095e-01,-3.037764430046081543e-01,1.057052761316299438e-01,1.090734824538230896e-01,-2.196709066629409790e-01,8.709765076637268066e-01,-5.963642001152038574e-01,-6.163871288299560547e-01
-2.072647660970687866e-01,-4.576306641101837158e-01,-3.004116415977478027e-01,4.965365827083587646e-01,1.164780929684638977e-02,-1.392060518264770508e-01,1.939824968576431274e-02,-2.030126899480819702e-01,6.193779036402702332e-02,6.425003707408905029e-02,-1.745243668556213379e-01,8.095482587814331055e-01,-4.439641535282135010e-01,-5.276623964309692383e-01
-2.108704447746276855e-01,-3.290543556213378906e-01,-3.145297169685363770e-01,5.758684277534484863e-01,-8.114116638898849487e-02,-3.277745246887207031e-01,1.103026345372200012e-01,-3.376153707504272461e-01,6.144988164305686951e-02,2.846774458885192871e-01,-2.887110114097595215e-01,1.029443025588989258e+00,-6.223219037055969238e-01,-3.024741709232330322e-01
-1.291859298944473267e-01,-2.526718974113464355e-01,-4.741436243057250977e-01,7.288815975189208984e-01,2.066852711141109467e-02,-3.642347455024719238e-01,-2.379923462867736816e-01,-1.580999493598937988e-01,2.981202676892280579e-02,1.811853647232055664e-01,3.323185443878173828e-02,7.992653846740722656e-01,-3.248243331909179688e-01,-5.318890810012817383e-01
-1.798278838396072388e-01,-1.007619574666023254e-01,-1.091005951166152954e-01,6.452468037605285645e-01,-6.914317607879638672e-02,-3.541734516620635986e-01,1.257587224245071411e-01,-3.356686830520629883e-01,-4.908847063779830933e-02,2.083041816949844360e-01,-2.039445191621780396e-01,8.832437396049499512e-01,-2.677192986011505127e-01,-3.474614620208740234e-01
-6.767853349447250366e-02,-1.779333502054214478e-01,-2.838723659515380859e-01,6.842984557151794434e-01,1.019568443298339844e-01,-3.468104004859924316e-01,-3.632355630397796631e-01,-2.922911942005157471e-01,1.525055989623069763e-02,6.986691802740097046e-02,-2.668460011482238770e-01,7.266768813133239746e-01,-3.948137760162353516e-01,-1.893455982208251953e-01
-2.149053961038589478e-01,-3.039165735244750977e-01,-2.094583660364151001e-01,5.782283544540405273e-01,1.090368404984474182e-01,-2.890158891677856445e-01,-5.161579325795173645e-02,-3.138254880905151367e-01,5.570998415350914001e-02,1.917679011821746826e-01,-2.983224987983703613e-01,7.690694332122802734e-01,-5.778485536575317383e-01,-1.581019312143325806e-01
-2.339998930692672729e-01,-2.378419339656829834e-01,3.694162936881184578e-03,6.331866383552551270e-01,1.067944243550300598e-01,-4.386187791824340820e-01,4.515060409903526306e-02,-5.501610636711120605e-01,-8.723557740449905396e-02,1.833762973546981812e-01,-2.805213034152984619e-01,5.949578881263732910e-01,-4.482767283916473389e-01,-1.023960560560226440e-01
-2.956217825412750244e-01,-8.053039759397506714e-02,-2.152253687381744385e-02,6.785133481025695801e-01,2.270486205816268921e-01,-4.268514811992645264e-01,-2.412220239639282227e-01,-3.920319080352783203e-01,-1.557093560695648193e-01,1.845174431800842285e-01,-3.320876955986022949e-01,6.823932528495788574e-01,-5.049104690551757812e-01,1.393347680568695068e-01
-3.579588830471038818e-01,-2.157441377639770508e-01,1.554233394563198090e-02,4.540340006351470947e-01,1.947850883007049561e-01,-1.090616285800933838e-01,-2.641116082668304443e-02,-1.777539104223251343e-01,-1.196503564715385437e-01,3.311879932880401611e-01,-3.413012027740478516e-01,6.005640625953674316e-01,-4.048432707786560059e-01,-9.598016738891601562e-02
-3.183116316795349121e-01,-2.194608598947525024e-01,3.361216187477111816e-01,6.830473542213439941e-01,3.311740756034851074e-01,-8.159632980823516846e-02,-2.163318693637847900e-01,-3.958685994148254395e-01,-1.393111199140548706e-01,2.629218697547912598e-01,-5.235741734504699707e-01,5.804663896560668945e-01,-4.751377701759338379e-01,-4.336347058415412903e-02
-2.568722963333129883e-01,2.393574453890323639e-02,3.394470214843750000e-01,4.722624123096466064e-01,2.238074541091918945e-01,-2.544560432434082031e-01,-2.604000866413116455e-01,-4.451570659875869751e-02,-2.777080237865447998e-01,3.729026317596435547e-01,-3.373471796512603760e-01,5.045990347862243652e-01,-6.790415644645690918e-01,-1.493166089057922363e-01
-2.072481065988540649e-01,9.499402344226837158e-02,5.004275441169738770e-01,6.584814190864562988e-01,1.365546137094497681e-01,-2.613025158643722534e-02,-3.444333672523498535e-01,-1.566882431507110596e-01,-2.739618420600891113e-01,3.778668045997619629e-01,-3.718462884426116943e-01,3.975527882575988770e-01,-4.631138145923614502e-01,2.473966591060161591e-02
-2.916206419467926025e-01,-3.118865005671977997e-02,4.335888326168060303e-01,4.745559990406036377e-01,7.831944525241851807e-02,1.399409919977188110e-01,-2.415038347244262695e-01,-8.740539103746414185e-02,-3.611651957035064697e-01,2.608213722705841064e-01,-4.370191693305969238e-01,5.439167618751525879e-01,-5.915528535842895508e-01,8.966933190822601318e-02
-4.759691655635833740e-01,1.206229180097579956e-01,4.774489998817443848e-01,2.007325589656829834e-01,-5.500740557909011841e-02,1.061246171593666077e-01,-2.430980801582336426e-01,-3.503491356968879700e-02,-2.173669040203094482e-01,3.461891114711761475e-01,-4.869870543479919434e-01,2.953057885169982910e-01,-4.536207020282745361e-01,2.064313441514968872e-01
-4.429022669792175293e-01,1.059705540537834167e-01,5.870254635810852051e-01,3.657828867435455322e-01,1.929708272218704224e-01,-5.477143824100494385e-02,-3.967857956886291504e-01,1.298429965972900391e-01,-2.715021073818206787e-01,2.507240772247314453e-01,-5.091896653175354004e-01,2.726878225803375244e-01,-7.427204847335815430e-01,2.852677702903747559e-01
-4.910867214202880859e-01,8.447062969207763672e-02,6.227477192878723145e-01,2.623446285724639893e-01,7.389765977859497070e-02,6.910119205713272095e-02,-1.482672244310379028e-01,2.192793786525726318e-01,-7.392191886901855469e-02,2.156407535076141357e-01,-6.047157049179077148e-01,2.480043023824691772e-01,-5.355772376060485840e-01,1.060875803232192993e-01
-4.038477241992950439e-01,2.897117733955383301e-01,5.377911329269409180e-01,2.810465693473815918e-01,-7.296280562877655029e-02,-9.060780704021453857e-02,-3.553559184074401855e-01,1.864556521177291870e-01,-1.170733422040939331e-01,1.885640025138854980e-01,-7.098454833030700684e-01,2.811773419380187988e-01,-6.225503683090209961e-01,2.011400610208511353e-01
-4.017646014690399170e-01,1.325982809066772461e-01,5.310754179954528809e-01,3.723414242267608643e-01,-4.457634687423706055e-02,2.716215327382087708e-03,-2.905803322792053223e-01,2.156561911106109619e-01,-4.481636360287666321e-02,3.068222701549530029e-01,-7.516057491302490234e-01,2.526498436927795410e-01,-5.926966071128845215e-01,3.685243725776672363e-01
-7.266063094139099121e-01,2.990848124027252197e-01,6.965996026992797852e-01,2.390826046466827393e-01,-1.099268049001693726e-01,1.017499044537544250e-01,-2.424238473176956177e-01,1.743287295103073120e-01,-3.134709224104881287e-02,2.312698960304260254e-01,-7.219715118408203125e-01,2.788752317428588867e-01,-6.845118999481201172e-01,2.244972735643386841e-01
-3.742958307266235352e-01,2.547721862792968750e-01,6.342329978942871094e-01,1.016882434487342834e-01,-1.770438104867935181e-01,1.202657744288444519e-01,6.907247751951217651e-02,4.415034949779510498e-01,1.153237894177436829e-01,4.535341262817382812e-01,-7.489257454872131348e-01,4.365885555744171143e-01,-5.864045023918151855e-01,3.097209632396697998e-01
-6.344375610351562500e-01,2.567724287509918213e-01,6.220735907554626465e-01,-6.339859217405319214e-02,-1.126427799463272095e-01,1.699355244636535645e-02,-5.359258502721786499e-02,3.937391340732574463e-01,-5.715759471058845520e-02,4.902548193931579590e-01,-1.031121253967285156e+00,4.097900688648223877e-01,-7.548294663429260254e-01,3.836831450462341309e-01
-3.963935077190399170e-01,2.474039345979690552e-01,3.918379545211791992e-01,1.109224408864974976e-01,-3.868851363658905029e-01,-2.055485993623733521e-01,-3.955502063035964966e-02,3.132497370243072510e-01,1.806419938802719116e-01,3.868401348590850830e-01,-9.927967786788940430e-01,5.766670107841491699e-01,-8.458301424980163574e-01,1.898300796747207642e-01
-5.626770853996276855e-01,2.367588132619857788e-01,6.124307513236999512e-01,1.686450280249118805e-02,-1.604106724262237549e-01,6.996046006679534912e-02,-9.489843249320983887e-02,3.343046307563781738e-01,2.235170155763626099e-01,3.727824389934539795e-01,-8.606393337249755859e-01,3.375489711761474609e-01,-7.936099767684936523e-01,1.762052327394485474e-01
-1.683489382266998291e-01,3.465776145458221436e-01,6.244999766349792480e-01,1.911999285221099854e-02,-1.123543679714202881e-01,1.041449606418609619e-01,6.324912607669830322e-02,3.663808405399322510e-01,4.321822822093963623e-01,3.542105257511138916e-01,-8.829704523086547852e-01,7.297359704971313477e-01,-8.201539516448974609e-01,4.518075287342071533e-01
-2.096630334854125977e-01,3.594383001327514648e-01,5.593510270118713379e-01,-1.772152632474899292e-01,-3.379849195480346680e-01,9.000349789857864380e-02,1.524712294340133667e-01,2.448173910379409790e-01,2.401075214147567749e-01,5.860140323638916016e-01,-9.665516018867492676e-01,7.086428999900817871e-01,-8.003361225128173828e-01,3.393696546554565430e-01
-7.860477082431316376e-03,4.605772495269775391e-01,6.546349525451660156e-01,-2.014698684215545654e-01,-3.892851173877716064e-01,-2.282352000474929810e-02,1.785494983196258545e-01,3.097491264343261719e-01,4.249306321144104004e-01,5.314304828643798828e-01,-8.430315852165222168e-01,6.438523530960083008e-01,-7.119531035423278809e-01,1.306561976671218872e-01
-2.341592917218804359e-03,3.716824054718017578e-01,5.372452735900878906e-01,-3.228585720062255859e-01,-9.958373010158538818e-02,-2.882247604429721832e-02,3.479886651039123535e-01,1.005797982215881348e-01,5.489899516105651855e-01,2.900497317314147949e-01,-7.022004127502441406e-01,6.573714613914489746e-01,-8.794477581977844238e-01,1.290026158094406128e-01
2.227515280246734619e-01,5.132715106010437012e-01,6.490501165390014648e-01,-3.529003858566284180e-01,9.687748737633228302e-03,-1.613648841157555580e-03,6.255458593368530273e-01,1.663650870323181152e-01,4.110911488533020020e-01,2.540635466575622559e-01,-5.093010663986206055e-01,7.306922078132629395e-01,-6.958517432212829590e-01,1.754331588745117188e-01
5.095053836703300476e-02,6.001784801483154297e-01,4.686699509620666504e-01,-5.691389441490173340e-01,-1.074208915233612061e-01,4.711396060883998871e-03,2.481141388416290283e-01,6.296499818563461304e-02,3.941977024078369141e-01,2.585401237010955811e-01,-3.786611557006835938e-01,5.510767698287963867e-01,-6.895288228988647461e-01,2.861107587814331055e-01
3.599057197570800781e-01,5.147974491119384766e-01,7.145329713821411133e-01,-4.313925504684448242e-01,-8.746935427188873291e-02,-5.591151490807533264e-02,4.312259256839752197e-01,1.638905405998229980e-01,4.012735486030578613e-01,4.958130046725273132e-02,-7.057381868362426758e-01,6.314702033996582031e-01,-6.023784875869750977e-01,1.885619163513183594e-01
4.083919227123260498e-01,6.677684187889099121e-01,5.450221896171569824e-01,-4.569674730300903320e-01,-6.395161151885986328e-02,-2.914752960205078125e-01,4.424410164356231689e-01,1.778711751103401184e-02,3.091642856597900391e-01,-7.861954718828201294e-02,-3.504219353199005127e-01,6.059826612472534180e-01,-6.789124011993408203e-01,1.358026862144470215e-01
4.567886292934417725e-01,6.773865222930908203e-01,6.583188176155090332e-01,-5.616881847381591797e-01,2.995644509792327881e-01,6.396571546792984009e-02,3.758070170879364014e-01,3.938980400562286377e-02,3.197892904281616211e-01,-1.032800674438476562e-01,-4.150569140911102295e-01,3.405287563800811768e-01,-4.097063839435577393e-01,-7.745204120874404907e-02
5.074902176856994629e-01,4.567375183105468750e-01,7.263221740722656250e-01,-4.493713378906250000e-01,2.393854856491088867e-01,-1.441404819488525391e-01,3.125557005405426025e-01,3.091064095497131348e-01,3.343286216259002686e-01,-7.138475030660629272e-02,-1.627669036388397217e-01,5.288548469543457031e-01,-5.059477090835571289e-01,-9.540348500013351440e-02
5.913270115852355957e-01,4.729411602020263672e-01,6.830444335937500000e-01,-4.037350416183471680e-01,4.269804060459136963e-01,-2.484177500009536743e-01,2.733544409275054932e-01,1.649014353752136230e-01,1.990088075399398804e-01,-2.041706293821334839e-01,-3.520839214324951172e-01,3.057064414024353027e-01,-2.875129878520965576e-01,-2.294619679450988770e-01
5.846729278564453125e-01,3.734882175922393799e-01,6.063739657402038574e-01,-3.148742616176605225e-01,5.140874534845352173e-02,-2.002197951078414917e-01,5.246370434761047363e-01,1.398567706346511841e-01,1.104669347405433655e-01,-2.521515078842639923e-02,-2.328401803970336914e-01,4.966743290424346924e-01,-1.055195331573486328e-01,-2.368327677249908447e-01
3.419275879859924316e-01,4.981676638126373291e-01,6.232998371124267578e-01,-5.056005120277404785e-01,3.541361093521118164e-01,-1.907966583967208862e-01,2.640865147113800049e-01,2.153216600418090820e-01,1.436421275138854980e-01,-3.673795163631439209e-01,-1.444359868764877319e-01,4.725394845008850098e-01,-4.714438691735267639e-02,-3.408889770507812500e-01
4.835829734802246094e-01,4.096417129039764404e-01,6.696488857269287109e-01,-2.730543017387390137e-01,4.580457210540771484e-01,-3.085762560367584229e-01,2.939713299274444580e-01,1.450530290603637695e-01,1.766608357429504395e-01,-3.892775475978851318e-01,-3.487520664930343628e-02,4.447147548198699951e-01,-7.782845944166183472e-02,-3.347206413745880127e-01
4.919424355030059814e-01,1.742067039012908936e-01,5.154119133949279785e-01,-1.340114325284957886e-01,2.385145723819732666e-01,-3.499337136745452881e-01,1.096716672182083130e-01,-3.772563487291336060e-02,-7.203895598649978638e-02,-4.576778411865234375e-01,-1.248164474964141846e-01,2.217955738306045532e-01,-8.389185369014739990e-02,-3.235649168491363525e-01
4.326360225677490234e-01,2.072996944189071655e-01,5.902985930442810059e-01,-2.263769805431365967e-01,3.790555894374847412e-01,-3.764527440071105957e-01,1.301430165767669678e-01,-2.087178267538547516e-02,1.610154509544372559e-01,-3.393006026744842529e-01,-1.553227156400680542e-01,1.863208264112472534e-01,1.278819143772125244e-02,-2.534490823745727539e-01
4.390829801559448242e-01,2.466066032648086548e-01,3.742968142032623291e-01,2.449930831789970398e-02,1.618676334619522095e-01,-3.525027930736541748e-01,9.481278806924819946e-02,-1.539213657379150391e-01,-9.931504726409912109e-02,-2.971707284450531006e-01,-2.546172440052032471e-01,-6.824454758316278458e-03,7.633093744516372681e-02,-1.706771403551101685e-01
4.596448540687561035e-01,1.795678585767745972e-01,4.295721650123596191e-01,-1.158793047070503235e-01,1.275150328874588013e-01,-5.066242218017578125e-01,-1.518770866096019745e-02,1.414584815502166748e-01,-8.530094288289546967e-03,-2.311073094606399536e-01,-1.551013737916946411e-01,2.333792299032211304e-01,1.568474620580673218e-01,-8.091781288385391235e-03
4.813114106655120850e-01,2.546048164367675781e-01,6.733079552650451660e-01,2.682986296713352203e-02,1.805361807346343994e-01,-4.212557077407836914e-01,1.111927255988121033e-02,1.775076426565647125e-02,-1.157271862030029297e-02,-1.780025362968444824e-01,-2.756404876708984375e-02,-8.797527290880680084e-03,2.552071511745452881e-01,-1.646804511547088623e-01
4.627324938774108887e-01,-7.147894357331097126e-04,5.300282239913940430e-01,-1.014645025134086609e-01,6.347498297691345215e-02,-6.088994741439819336e-01,9.974333643913269043e-02,6.858391314744949341e-02,4.699834971688687801e-04,-1.768606007099151611e-01,4.746475815773010254e-02,-2.566447295248508453e-02,3.394646048545837402e-01,-1.812312379479408264e-02
4.984546005725860596e-01,1.117429733276367188e-01,5.445445775985717773e-01,-7.810946553945541382e-02,2.139968872070312500e-01,-2.718635201454162598e-01,-1.433238387107849121e-01,9.645218402147293091e-02,-1.937224119901657104e-01,-1.527526378631591797e-01,-2.100852429866790771e-01,6.498490273952484131e-02,3.544108867645263672e-01,-4.329916089773178101e-02
6.208631992340087891e-01,2.839159592986106873e-02,6.182774901390075684e-01,-2.445488981902599335e-02,3.563541173934936523e-02,-3.515839874744415283e-01,-4.397152457386255264e-03,7.330277562141418457e-02,-1.440280228853225708e-01,6.467359513044357300e-02,-2.028578072786331177e-01,-4.134723544120788574e-02,3.613237738609313965e-01,1.184595599770545959e-01
4.191446900367736816e-01,1.725939214229583740e-01,6.300110816955566406e-01,2.799756824970245361e-01,1.394729018211364746e-01,-4.576005041599273682e-01,4.183256253600120544e-02,1.413691639900207520e-01,-5.047778412699699402e-02,2.020044717937707901e-03,-1.815654933452606201e-01,-5.593195185065269470e-02,3.344669938087463379e-01,-6.379196792840957642e-02
4.446839094161987305e-01,1.917131543159484863e-01,7.392309904098510742e-01,5.390594899654388428e-02,3.727350383996963501e-02,-3.542411327362060547e-01,8.023797720670700073e-02,1.340425312519073486e-01,-6.826701015233993530e-02,2.343305647373199463e-01,-1.181738302111625671e-01,1.320094522088766098e-02,2.049708068370819092e-01,3.640377148985862732e-02
5.470184087753295898e-01,2.976386845111846924e-01,7.029430270195007324e-01,3.583277389407157898e-02,-1.431877613067626953e-01,-4.507708251476287842e-01,1.141071245074272156e-01,1.499384194612503052e-01,5.661475285887718201e-02,6.394629925489425659e-02,-8.550237119197845459e-02,6.293663382530212402e-02,2.525483667850494385e-01,1.706444919109344482e-01
4.934711754322052002e-01,2.990387380123138428e-01,7.948316335678100586e-01,1.268673539161682129e-01,-4.558857530355453491e-02,-2.159815281629562378e-01,1.081413328647613525e-01,6.842479854822158813e-02,1.321681737899780273e-01,1.826592683792114258e-01,-1.354646980762481689e-01,-5.401527974754571915e-03,1.314109265804290771e-01,1.616635471582412720e-01
4.743984043598175049e-01,4.905336201190948486e-01,8.916165828704833984e-01,-2.078527025878429413e-02,-1.622818559408187866e-01,-1.218096390366554260e-01,1.710889190435409546e-01,2.915982902050018311e-01,-1.835567057132720947e-01,4.948464632034301758e-01,-2.659128904342651367e-01,-7.290556281805038452e-02,1.618073284626007080e-01,1.470943242311477661e-01
4.734447896480560303e-01,4.179391860961914062e-01,1.058051347732543945e+00,1.397695988416671753e-01,2.839958481490612030e-02,-1.142736598849296570e-01,2.435732446610927582e-02,5.374693870544433594e-01,-8.154230564832687378e-02,5.290562510490417480e-01,-3.186853826045989990e-01,-5.560876335948705673e-03,8.690121024847030640e-02,1.968663483858108521e-01
5.885109305381774902e-01,4.598686099052429199e-01,8.958892226219177246e-01,1.729020476341247559e-01,5.190114304423332214e-02,9.955784305930137634e-03,2.211407721042633057e-01,4.063655138015747070e-01,-2.133341506123542786e-03,1.836359947919845581e-01,-1.781608611345291138e-01,-1.292187422513961792e-01,9.150732308626174927e-02,-1.615494638681411743e-01
5.742782950401306152e-01,6.494238972663879395e-01,7.084897160530090332e-01,-2.638414502143859863e-01,-2.738799154758453369e-01,-2.929838374257087708e-02,9.557988494634628296e-02,6.681802272796630859e-01,-3.669244423508644104e-02,4.383915662765502930e-01,-9.500248730182647705e-02,-2.072829604148864746e-01,4.943038523197174072e-02,-1.681300103664398193e-01
7.167783379554748535e-01,8.686919808387756348e-01,9.432642459869384766e-01,-1.105777639895677567e-02,-5.317200347781181335e-02,4.573776677716523409e-04,1.771165728569030762e-01,4.472760260105133057e-01,7.560075819492340088e-02,4.682830870151519775e-01,-1.726669222116470337e-01,-2.331819683313369751e-01,-9.838663041591644287e-02,-4.835567250847816467e-02
4.285219609737396240e-01,5.767579674720764160e-01,8.668792247772216797e-01,-2.822780311107635498e-01,3.534829884301871061e-04,-3.133309632539749146e-02,-3.448453173041343689e-02,5.381203889846801758e-01,6.613217294216156006e-02,3.962996304035186768e-01,-3.472004085779190063e-02,-9.012556076049804688e-02,5.258616060018539429e-02,-8.889333903789520264e-02
4.333122670650482178e-01,6.484531760215759277e-01,6.347033381462097168e-01,-2.165585458278656006e-01,-4.451024532318115234e-02,9.759812057018280029e-02,1.712110042572021484e-01,6.131872534751892090e-01,2.537762522697448730e-01,2.626386284828186035e-01,-3.874642550945281982e-01,-2.318656593561172485e-01,1.425256282091140747e-01,-1.711766421794891357e-01
5.462782382965087891e-01,8.087069392204284668e-01,7.081529498100280762e-01,-2.856713347136974335e-02,-1.585849821567535400e-01,-5.139451846480369568e-02,1.323479264974594116e-01,6.386646032333374023e-01,5.383130311965942383e-01,5.425945296883583069e-02,-2.580685317516326904e-01,-5.109118297696113586e-02,1.808803975582122803e-01,-3.005471453070640564e-02
4.733185470104217529e-01,9.105574488639831543e-01,5.222320556640625000e-01,-1.590158492326736450e-01,1.118166148662567139e-01,4.762719571590423584e-02,1.038207337260246277e-01,7.980187535285949707e-01,2.507441043853759766e-01,2.341697216033935547e-01,-1.588387042284011841e-01,-8.246105909347534180e-02,1.379892826080322266e-01,-4.522013366222381592e-01
3.932506740093231201e-01,8.320512175559997559e-01,5.811994075775146484e-01,-2.102769352495670319e-02,-1.514840126037597656e-01,-4.030015319585800171e-03,2.861213088035583496e-01,4.712435901165008545e-01,5.363332033157348633e-01,2.471339702606201172e-01,-3.523705899715423584e-01,-6.911776959896087646e-02,-5.597625859081745148e-03,-3.772341310977935791e-01
5.572142004966735840e-01,7.375113964080810547e-01,5.763648748397827148e-01,-2.261815778911113739e-02,-3.316472768783569336e-01,4.776408895850181580e-02,2.079777568578720093e-01,6.351064443588256836e-01,7.508897781372070312e-01,2.125791460275650024e-01,-4.656526148319244385e-01,-1.199798099696636200e-02,3.826308622956275940e-02,-4.678429961204528809e-01
8.522596359252929688e-01,8.327385187149047852e-01,2.815781235694885254e-01,-1.673166304826736450e-01,-1.158528476953506470e-01,-8.894142508506774902e-02,2.399648725986480713e-01,8.183060288429260254e-01,4.948509633541107178e-01,2.215701043605804443e-01,-6.124330163002014160e-01,2.294608801603317261e-01,-7.648678123950958252e-02,-4.382734298706054688e-01
9.288477301597595215e-01,8.322557806968688965e-01,2.293598502874374390e-01,8.639141917228698730e-02,-6.930993497371673584e-02,-3.883157372474670410e-01,1.151674315333366394e-01,5.557494163513183594e-01,8.469042778015136719e-01,7.944913953542709351e-02,-3.646996021270751953e-01,1.028577238321304321e-01,1.451557427644729614e-01,-4.962389171123504639e-01
7.844812273979187012e-01,7.016742229461669922e-01,2.329496890306472778e-01,7.219233363866806030e-02,-1.028781980276107788e-01,-3.453188538551330566e-01,2.293640077114105225e-01,6.358399987220764160e-01,6.029905676841735840e-01,9.946610033512115479e-02,-3.607267439365386963e-01,2.084595561027526855e-01,-1.954956725239753723e-02,-6.139588952064514160e-01
6.722680926322937012e-01,8.414844870567321777e-01,9.974158555269241333e-02,6.541765481233596802e-02,-1.141656860709190369e-01,-4.118288159370422363e-01,3.551476001739501953e-01,5.281667113304138184e-01,8.614464998245239258e-01,-1.055165827274322510e-01,-3.370889425277709961e-01,2.255471795797348022e-01,1.001449301838874817e-01,-5.482770204544067383e-01
7.586868405342102051e-01,7.454978227615356445e-01,-8.468334563076496124e-03,1.337552350014448166e-02,-2.358887195587158203e-01,-4.747103452682495117e-01,3.036243319511413574e-01,3.763330578804016113e-01,6.893681287765502930e-01,2.062090933322906494e-01,-1.919295936822891235e-01,3.995134532451629639e-01,1.041137948632240295e-01,-6.016107797622680664e-01
8.954042196273803711e-01,5.642796754837036133e-01,-1.112341210246086121e-01,1.317039579153060913e-01,-2.147731930017471313e-01,-3.561255931854248047e-01,5.426622033119201660e-01,3.264884650707244873e-01,5.987893342971801758e-01,6.543700117617845535e-03,2.053191140294075012e-02,4.516113996505737305e-01,-2.787123061716556549e-02,-6.194381117820739746e-01
8.771527409553527832e-01,7.154834866523742676e-01,-2.499991208314895630e-01,-2.303793281316757202e-02,-9.144780784845352173e-02,-7.157595157623291016e-01,3.833606839179992676e-01,1.973924487829208374e-01,8.864723443984985352e-01,4.536860063672065735e-02,-2.301140725612640381e-01,3.748271167278289795e-01,9.740062057971954346e-02,-5.415107011795043945e-01
9.737060070037841797e-01,6.597575545310974121e-01,-1.921861767768859863e-01,1.986358314752578735e-02,-1.757517009973526001e-01,-3.866224586963653564e-01,3.175646364688873291e-01,-9.142412245273590088e-02,8.160960674285888672e-01,6.404692679643630981e-02,-1.170303672552108765e-01,2.147160768508911133e-01,2.699621617794036865e-01,-4.301188588142395020e-01
9.765903353691101074e-01,8.310909271240234375e-01,-2.096707373857498169e-01,1.697030961513519287e-01,2.783074676990509033e-01,-4.543092250823974609e-01,2.876150310039520264e-01,9.038528800010681152e-02,7.227708101272583008e-01,-5.398749932646751404e-02,3.533521667122840881e-02,2.384188473224639893e-01,8.289842307567596436e-02,-8.931725025177001953e-01
8.473528623580932617e-01,5.460850000381469727e-01,-2.013956904411315918e-01,2.621646821498870850e-01,1.899896562099456787e-01,-5.532414913177490234e-01,3.541111946105957031e-01,-8.315586298704147339e-02,5.205859541893005371e-01,-1.457432061433792114e-01,1.880601942539215088e-01,5.118648335337638855e-02,2.661194801330566406e-01,-5.957551002502441406e-01
9.436326026916503906e-01,6.018851399421691895e-01,-4.021704792976379395e-01,1.393075734376907349e-01,1.998511254787445068e-01,-5.486736893653869629e-01,4.037764668464660645e-01,-2.122762501239776611e-01,7.646934986114501953e-01,-5.538235604763031006e-02,1.341921389102935791e-01,9.056124836206436157e-02,2.340024262666702271e-01,-6.807681322097778320e-01
9.544782042503356934e-01,6.388173699378967285e-01,-2.697013020515441895e-01,2.681790590286254883e-01,1.292537152767181396e-01,-5.837604403495788574e-01,1.601258963346481323e-01,-7.513946294784545898e-02,6.849758028984069824e-01,-3.010666966438293457e-01,2.749756276607513428e-01,-1.854816228151321411e-01,2.959720790386199951e-01,-8.348919153213500977e-01
8.122913837432861328e-01,8.090767264366149902e-01,-2.747886478900909424e-01,2.865749597549438477e-01,1.700301170349121094e-01,-5.806772112846374512e-01,7.153369486331939697e-02,-1.073364019393920898e-01,3.374739289283752441e-01,-8.397763222455978394e-02,1.013651564717292786e-01,-6.797012686729431152e-02,3.200179338455200195e-01,-8.055539131164550781e-01
8.698085546493530273e-01,7.082105875015258789e-01,-4.041398763656616211e-01,3.589650690555572510e-01,3.093279600143432617e-01,-4.881986379623413086e-01,3.036571107804775238e-02,-5.438479036092758179e-02,4.908194839954376221e-01,-1.254743933677673340e-01,2.618250846862792969e-01,-1.770165711641311646e-01,4.886698126792907715e-01,-6.800421476364135742e-01
6.932665705680847168e-01,4.463630616664886475e-01,-2.405999302864074707e-01,3.064599931240081787e-01,2.692177593708038330e-01,-6.274437308311462402e-01,-1.288211252540349960e-02,-1.811844408512115479e-01,4.799915850162506104e-01,-2.670896351337432861e-01,2.501549422740936279e-01,-2.019145637750625610e-01,4.445791542530059814e-01,-7.503158450126647949e-01
5.781957507133483887e-01,4.186010062694549561e-01,-2.042736411094665527e-01,4.233643412590026855e-01,2.839260995388031006e-01,-5.495073199272155762e-01,-2.074818015098571777e-01,-6.369937956333160400e-02,2.791928052902221680e-01,-2.690992057323455811e-01,3.863796293735504150e-01,-3.130756914615631104e-01,5.799033641815185547e-01,-7.338843941688537598e-01
4.963161349296569824e-01,3.739899098873138428e-01,-3.109665811061859131e-01,4.987804889678955078e-01,9.327550232410430908e-02,-7.009542584419250488e-01,-1.821797639131546021e-01,-1.367423087358474731e-01,4.745554924011230469e-01,-3.109562397003173828e-01,3.064279854297637939e-01,-2.832840681076049805e-01,6.637066006660461426e-01,-7.568559646606445312e-01
3.348067998886108398e-01,1.432524174451828003e-01,-4.444881975650787354e-01,7.149540185928344727e-01,2.047927975654602051e-01,-5.636102557182312012e-01,-1.237129345536231995e-01,-9.120261669158935547e-02,6.191697716712951660e-01,-2.266284227371215820e-01,1.561263501644134521e-01,-4.858856499195098877e-01,7.095417976379394531e-01,-7.089308500289916992e-01
3.325439393520355225e-01,1.803232729434967041e-01,-3.347657918930053711e-01,5.115849971771240234e-01,2.229534238576889038e-01,-6.442928314208984375e-01,-3.544699251651763916e-01,-6.991258263587951660e-02,4.856025278568267822e-01,-1.683791875839233398e-01,-6.949567236006259918e-03,-3.641492724418640137e-01,6.869126558303833008e-01,-6.611078977584838867e-01
1.173232570290565491e-01,2.573511302471160889e-01,-2.480546981096267700e-01,5.291815400123596191e-01,-1.330095622688531876e-02,-5.694959759712219238e-01,-4.533701539039611816e-01,-2.348039448261260986e-01,5.744117498397827148e-01,-1.247371807694435120e-01,-2.063606530427932739e-01,-4.109894037246704102e-01,7.119715809822082520e-01,-5.358128547668457031e-01
3.641586303710937500e-01,8.908088505268096924e-02,-2.402534782886505127e-01,1.004140973091125488e+00,1.040577050298452377e-02,-6.870104074478149414e-01,-3.439947664737701416e-01,-5.649555847048759460e-02,5.203184485435485840e-01,1.205225139856338501e-01,-1.231194883584976196e-01,-3.572959303855895996e-01,6.270176768302917480e-01,-4.097206294536590576e-01
2.635883688926696777e-01,2.363921254873275757e-01,-2.948475182056427002e-01,7.539837956428527832e-01,-1.679840683937072754e-01,-5.348606109619140625e-01,-5.972545742988586426e-01,-8.024120330810546875e-02,3.553407192230224609e-01,-1.206876486539840698e-01,1.253465563058853149e-01,-3.502014279365539551e-01,5.527940988540649414e-01,-2.689607441425323486e-01
2.629431430250406265e-03,-2.170520462095737457e-02,-2.210540771484375000e-01,7.790779471397399902e-01,-2.667742073535919189e-01,-5.530484914779663086e-01,-4.386135637760162354e-01,-1.179273650050163269e-01,5.946500301361083984e-01,4.811502620577812195e-02,-3.271916210651397705e-01,-5.545960068702697754e-01,5.844378471374511719e-01,-2.939280271530151367e-01
3.108751960098743439e-02,1.099062804132699966e-02,-2.904440462589263916e-01,7.709326744079589844e-01,-2.545694112777709961e-01,-3.488375842571258545e-01,-4.833917319774627686e-01,-8.242427557706832886e-02,4.225378930568695068e-01,2.985510826110839844e-01,-2.817829847335815430e-01,-3.974792063236236572e-01,5.294053554534912109e-01,-4.731032624840736389e-02
1.128298509865999222e-02,2.378063090145587921e-02,-1.124491319060325623e-01,7.480224967002868652e-01,-4.019911885261535645e-01,-4.245702624320983887e-01,-2.983296215534210205e-01,1.565891206264495850e-01,5.421646237373352051e-01,5.147017240524291992e-01,-2.124890238046646118e-01,-5.538702607154846191e-01,4.644440710544586182e-01,-1.330670863389968872e-01
-1.274744747206568718e-03,-7.298290729522705078e-02,-1.857657432556152344e-01,7.079598307609558105e-01,-4.626979231834411621e-01,-3.352267444133758545e-01,-3.137584328651428223e-01,-2.945930063724517822e-01,6.044335961341857910e-01,2.996512651443481445e-01,-1.235247030854225159e-01,-3.094356656074523926e-01,4.736565947532653809e-01,1.033847853541374207e-01
4.831295926123857498e-03,2.036318033933639526e-01,-1.803669631481170654e-01,6.286230087280273438e-01,-3.224433362483978271e-01,-3.534299731254577637e-01,-5.997207164764404297e-01,-1.181096211075782776e-01,6.227793097496032715e-01,5.534114837646484375e-01,-3.933378159999847412e-01,-4.998147487640380859e-01,2.967554926872253418e-01,-5.987922195345163345e-03
1.526055019348859787e-02,1.025698706507682800e-01,2.756179682910442352e-02,5.857908129692077637e-01,-6.293823122978210449e-01,-1.960208564996719360e-01,-3.449282348155975342e-01,-2.256330661475658417e-02,6.013593673706054688e-01,3.897216618061065674e-01,-2.261079102754592896e-01,-4.429172575473785400e-01,9.338270127773284912e-02,3.199807405471801758e-01
1.573135703802108765e-02,2.075776308774948120e-01,-2.601276896893978119e-02,4.052917659282684326e-01,-4.428986907005310059e-01,-9.430728852748870850e-02,-4.733420312404632568e-01,-2.225343436002731323e-01,6.696503758430480957e-01,5.028412342071533203e-01,-3.517228364944458008e-01,-3.744958341121673584e-01,-3.161394596099853516e-02,2.036698907613754272e-01
-1.242994293570518494e-01,1.663102209568023682e-01,-1.387107092887163162e-02,4.090877175331115723e-01,-5.514022707939147949e-01,-9.192470461130142212e-02,-1.772971004247665405e-01,-4.989662393927574158e-02,6.898099184036254883e-01,5.636117458343505859e-01,-3.910271227359771729e-01,-3.136580288410186768e-01,1.447362005710601807e-01,2.269920557737350464e-01
5.809508264064788818e-03,4.373634755611419678e-01,3.517637401819229126e-02,4.067166745662689209e-01,-2.505406141281127930e-01,-1.881298422813415527e-02,-3.548667132854461670e-01,-4.097861796617507935e-02,8.319328427314758301e-01,4.985890388488769531e-01,-3.223853111267089844e-01,-3.400872945785522461e-01,1.954621672630310059e-01,1.149606779217720032e-01
-1.081719771027565002e-01,4.173302650451660156e-01,-3.581960499286651611e-02,1.592507213354110718e-01,-3.204889595508575439e-01,1.650796271860599518e-02,-1.544062346220016479e-01,-2.104501724243164062e-01,7.424853444099426270e-01,5.165344476699829102e-01,-2.606243491172790527e-01,-2.871218919754028320e-01,5.230861529707908630e-02,1.700968444347381592e-01
2.101145684719085693e-02,3.165757656097412109e-01,-1.482017338275909424e-01,1.198687627911567688e-01,-2.603298127651214600e-01,1.507677584886550903e-01,-9.698565304279327393e-02,-8.813138306140899658e-02,7.927584648132324219e-01,4.011644124984741211e-01,-3.771925568580627441e-01,-3.439704775810241699e-01,2.552400827407836914e-01,-4.715881869196891785e-02
6.236696988344192505e-02,1.903657317161560059e-01,-1.177156269550323486e-01,-4.145628213882446289e-02,-3.448261618614196777e-01,1.400393545627593994e-01,-3.782574236392974854e-01,1.704288423061370850e-01,6.625567078590393066e-01,5.754312276840209961e-01,-1.346561461687088013e-01,-2.959805130958557129e-01,9.039865434169769287e-02,-5.547236278653144836e-02
4.832641221582889557e-03,3.736181855201721191e-01,-2.967595458030700684e-01,-4.105404764413833618e-02,-2.786827385425567627e-01,2.656573653221130371e-01,-3.637758642435073853e-02,-1.478420346975326538e-01,7.752611637115478516e-01,3.836390674114227295e-01,-9.904503077268600464e-02,-4.649530947208404541e-01,3.314998447895050049e-01,-2.503202483057975769e-02
4.064140096306800842e-02,3.785390555858612061e-01,-9.251330792903900146e-02,-1.575923338532447815e-02,-3.001434504985809326e-01,1.720101684331893921e-01,-6.114825233817100525e-02,-1.885245181620121002e-02,4.793737232685089111e-01,3.710906803607940674e-01,-3.141531646251678467e-01,-1.460047811269760132e-01,1.074296534061431885e-01,1.244458854198455811e-01
-1.226957608014345169e-02,1.344063878059387207e-01,-3.882854282855987549e-01,-1.024429947137832642e-01,-3.592156767845153809e-01,2.376067042350769043e-01,-2.687190473079681396e-01,1.454540994018316269e-02,5.383634567260742188e-01,3.252896368503570557e-01,-1.645590662956237793e-01,-2.310830652713775635e-01,3.043386638164520264e-01,4.703374207019805908e-02
1.537576913833618164e-01,1.578334122896194458e-01,-1.520534306764602661e-01,-5.432510375976562500e-02,-1.093694120645523071e-01,1.400708705186843872e-01,-3.569169715046882629e-02,2.772130258381366730e-02,7.617437243461608887e-01,3.014660775661468506e-01,-3.929321467876434326e-01,-1.927489936351776123e-01,1.375590115785598755e-01,-2.941632270812988281e-01
1.749951764941215515e-02,1.160315349698066711e-01,-4.913818836212158203e-01,-1.939448527991771698e-02,-2.005799710750579834e-01,3.226755261421203613e-01,-2.572164535522460938e-01,-2.882108278572559357e-02,5.948369503021240234e-01,3.666519224643707275e-01,-2.532154917716979980e-01,9.970024973154067993e-02,3.175807297229766846e-01,-1.749119162559509277e-01
-1.023907735943794250e-01,1.478166431188583374e-01,-4.097022116184234619e-01,1.158732175827026367e-01,-3.371826112270355225e-01,1.767179667949676514e-01,-2.816886454820632935e-02,-5.503311287611722946e-03,6.554471254348754883e-01,3.446095287799835205e-01,-1.404768526554107666e-01,-3.084523081779479980e-01,2.995469868183135986e-01,-7.900865375995635986e-02
-4.040702432394027710e-02,-4.703623428940773010e-02,-3.314734399318695068e-01,-1.009352505207061768e-01,-3.928987085819244385e-01,1.383343338966369629e-01,-1.057765558362007141e-01,-5.422453954815864563e-02,3.961130380630493164e-01,5.849876999855041504e-01,-1.353989988565444946e-01,2.586916834115982056e-02,3.008716404438018799e-01,7.273025065660476685e-02
7.568363845348358154e-02,-5.059735383838415146e-03,-5.271850228309631348e-01,5.049335956573486328e-02,-3.156787455081939697e-01,1.595849841833114624e-01,-2.126680463552474976e-01,-2.557608298957347870e-02,5.692644715309143066e-01,3.115809559822082520e-01,-1.678915619850158691e-01,-1.595675051212310791e-01,3.210689425468444824e-01,-8.249449310824275017e-04
1.915270686149597168e-01,-2.432426959276199341e-01,-6.037815809249877930e-01,-3.003166615962982178e-02,-1.808373779058456421e-01,2.457417547702789307e-01,1.052768304944038391e-01,-6.439950317144393921e-02,4.502724707126617432e-01,3.359600007534027100e-01,-3.003545850515365601e-02,1.374504268169403076e-01,4.444925189018249512e-01,-2.430263161659240723e-01
1.305822134017944336e-01,-3.291553854942321777e-01,-5.699789524078369141e-01,1.258289813995361328e-01,-2.180648744106292725e-01,5.299521982669830322e-02,1.340568810701370239e-01,-1.600012481212615967e-01,4.631868302822113037e-01,4.948161840438842773e-01,-1.839679628610610962e-01,6.096490472555160522e-02,2.976703047752380371e-01,-6.471064686775207520e-02
1.426809430122375488e-01,-8.954049646854400635e-02,-6.451557874679565430e-01,1.483316719532012939e-01,-1.986586675047874451e-02,-1.162133738398551941e-01,3.347555175423622131e-02,-2.342202067375183105e-01,4.865770637989044189e-01,4.018797576427459717e-01,-5.611510947346687317e-02,-1.488522589206695557e-01,3.354798853397369385e-01,1.696832031011581421e-01
3.477408364415168762e-02,-4.437537193298339844e-01,-7.318472266197204590e-01,2.413647025823593140e-01,-4.014578834176063538e-02,1.522447466850280762e-01,4.023335501551628113e-02,-4.627683460712432861e-01,4.145764708518981934e-01,3.888879120349884033e-01,-1.084469538182020187e-02,2.524883449077606201e-01,6.056996583938598633e-01,1.639574468135833740e-01
3.565062880516052246e-01,-4.183395206928253174e-01,-4.278741478919982910e-01,3.648201003670692444e-02,-4.373020678758621216e-02,-8.653599768877029419e-02,1.565160229802131653e-02,-3.338178396224975586e-01,2.978375554084777832e-01,4.040309786796569824e-01,7.518956065177917480e-02,-1.042082323692739010e-03,3.953219354152679443e-01,2.014690041542053223e-01
4.557902738451957703e-02,-2.871920764446258545e-01,-6.390512585639953613e-01,9.558577835559844971e-02,3.254973515868186951e-02,2.835349552333354950e-02,1.210511550307273865e-01,-2.597195506095886230e-01,3.193961381912231445e-01,4.532810747623443604e-01,1.398876607418060303e-01,1.937227845191955566e-01,4.745206236839294434e-01,3.405136764049530029e-01
2.424606680870056152e-02,-4.344008564949035645e-01,-5.163902640342712402e-01,1.613669246435165405e-01,7.060837000608444214e-02,2.383876740932464600e-01,1.075863093137741089e-01,-5.417047142982482910e-01,8.422587066888809204e-02,5.449457764625549316e-01,-1.077633723616600037e-02,-3.888101875782012939e-02,3.395398557186126709e-01,2.319816201925277710e-01
1.197684705257415771e-01,-4.476079642772674561e-01,-3.146928548812866211e-01,1.463365256786346436e-01,1.064470037817955017e-01,1.369248628616333008e-01,2.109305113554000854e-01,-5.036573410034179688e-01,-3.526571206748485565e-03,5.925925374031066895e-01,2.160649597644805908e-01,-3.608939424157142639e-02,3.265226483345031738e-01,3.694767057895660400e-01
2.010647058486938477e-01,-4.188272058963775635e-01,-3.284803628921508789e-01,-1.676146388053894043e-01,2.086980491876602173e-01,1.719377785921096802e-01,6.206808984279632568e-02,-1.950473785400390625e-01,-2.024187445640563965e-01,5.694134831428527832e-01,4.275360330939292908e-02,-2.703678309917449951e-01,4.758536815643310547e-01,4.929733574390411377e-01
6.441352516412734985e-02,-6.200861334800720215e-01,-1.595420390367507935e-01,1.561701670289039612e-02,1.498663425445556641e-01,3.203290998935699463e-01,1.564518362283706665e-01,-4.477102160453796387e-01,-6.313698738813400269e-02,5.199812054634094238e-01,2.550662755966186523e-01,-5.171728879213333130e-02,4.411573112010955811e-01,3.776939511299133301e-01
-5.378883332014083862e-03,-2.971921861171722412e-01,-1.044146367348730564e-03,1.479065120220184326e-01,1.042173504829406738e-01,3.574021756649017334e-01,-1.990981101989746094e-01,-2.448472380638122559e-01,-3.590655028820037842e-01,5.019043087959289551e-01,3.204565048217773438e-01,-1.992438137531280518e-01,4.193928241729736328e-01,2.910304367542266846e-01
-8.230953663587570190e-02,-3.963217437267303467e-01,-1.465004533529281616e-01,7.996922731399536133e-02,3.027718067169189453e-01,3.496711850166320801e-01,3.666446730494499207e-02,-2.119943499565124512e-01,-5.000264048576354980e-01,6.945829391479492188e-01,5.979474261403083801e-02,-2.176306992769241333e-01,2.881921827793121338e-01,3.634652197360992432e-01
1.156504675745964050e-01,-4.994725286960601807e-01,-1.497569531202316284e-01,1.951200366020202637e-01,1.423918455839157104e-01,5.653254985809326172e-01,-5.607042089104652405e-02,7.500241696834564209e-02,-5.459739565849304199e-01,4.575433433055877686e-01,-3.634963557124137878e-02,-2.176253497600555420e-01,2.904065251350402832e-01,3.434733152389526367e-01
-8.935356140136718750e-02,-5.933156609535217285e-01,1.120394021272659302e-01,2.329003214836120605e-01,3.276458680629730225e-01,6.532160639762878418e-01,-6.176172196865081787e-02,5.767161026597023010e-02,-4.527615606784820557e-01,5.949138402938842773e-01,1.567075997591018677e-01,-3.855415284633636475e-01,2.794071435928344727e-01,2.406944334506988525e-01
-9.148523956537246704e-02,-5.590855479240417480e-01,2.096752822399139404e-02,1.218287497758865356e-01,1.582362353801727295e-01,7.154508829116821289e-01,6.983768194913864136e-02,2.046869099140167236e-01,-5.109924674034118652e-01,6.695530414581298828e-01,-9.532160311937332153e-02,-1.482332199811935425e-01,5.011626482009887695e-01,4.208075702190399170e-01
-2.584974840283393860e-02,-5.784683227539062500e-01,5.721662938594818115e-02,2.151081860065460205e-01,9.340444207191467285e-02,6.713396906852722168e-01,-2.888233168050646782e-03,2.277879863977432251e-01,-5.341000556945800781e-01,6.908772587776184082e-01,-3.101211488246917725e-01,-2.539702355861663818e-01,3.403862118721008301e-01,6.025988459587097168e-01
-6.803123652935028076e-02,-3.863038420677185059e-01,5.810605362057685852e-02,3.071981370449066162e-01,3.744574962183833122e-03,5.794147253036499023e-01,-1.348814964294433594e-01,5.131340026855468750e-01,-4.041258990764617920e-01,5.512674450874328613e-01,-3.581938147544860840e-01,6.709034740924835205e-02,2.401159107685089111e-01,5.825607180595397949e-01
