AF3,F7,F3,FC5,T7,P7,O1,O2,P8,T8,FC6,F4,F8,AF4
4.959409311413764954e-02,6.814974546432495117e-01,2.502605617046356201e-01,-4.868894070386886597e-02,3.613940179347991943e-01,4.161534309387207031e-01,-4.654812514781951904e-01,2.603288590908050537e-01,9.642890840768814087e-02,-7.635136842727661133e-01,-7.468739748001098633e-01,3.234502673149108887e-01,4.212466478347778320e-01,1.395261287689208984e-01
-1.028074771165847778e-01,7.475991845130920410e-01,2.367113083600997925e-01,3.574750199913978577e-02,2.411741018295288086e-01,3.097140789031982422e-01,-4.130227267742156982e-01,3.261029124259948730e-01,8.124774694442749023e-02,-5.802307128906250000e-01,-4.615893065929412842e-01,1.325457841157913208e-01,4.092402458190917969e-01,1.674607098102569580e-01
1.647453010082244873e-01,7.489336729049682617e-01,3.560874164104461670e-01,8.911721408367156982e-02,2.268198579549789429e-01,3.500312268733978271e-01,-4.285899996757507324e-01,1.660764217376708984e-01,1.989825814962387085e-02,-5.614780187606811523e-01,-7.058371305465698242e-01,4.596144855022430420e-01,5.007318854331970215e-01,2.710165083408355713e-01
-5.422927811741828918e-02,9.205080270767211914e-01,7.347365468740463257e-02,1.987600177526473999e-01,3.742357194423675537e-01,4.719773232936859131e-01,-3.521265089511871338e-01,1.520070880651473999e-01,9.957426786422729492e-02,-6.242576837539672852e-01,-5.906189680099487305e-01,2.216607034206390381e-01,4.291144013404846191e-01,1.974014341831207275e-01
-8.731607347726821899e-02,8.373500704765319824e-01,1.409269422292709351e-01,3.174271062016487122e-02,9.553349018096923828e-02,5.012667775154113770e-01,-3.952285945415496826e-01,3.269080817699432373e-01,-4.997673630714416504e-02,-5.465238094329833984e-01,-7.882027029991149902e-01,2.223926931619644165e-01,7.072174549102783203e-01,2.012808322906494141e-01
-3.188303411006927490e-01,8.357085585594177246e-01,-8.745731413364410400e-02,1.176038533449172974e-01,3.060275912284851074e-01,5.345915555953979492e-01,-4.988333880901336670e-01,9.884504973888397217e-02,1.618708670139312744e-01,-2.950131893157958984e-01,-6.030465960502624512e-01,2.804985046386718750e-01,4.974198937416076660e-01,2.280947566032409668e-01
-3.775550127029418945e-01,7.747600078582763672e-01,-1.388974338769912720e-01,1.702965050935745239e-01,1.472022235393524170e-01,4.506698250770568848e-01,-4.950622916221618652e-01,2.229174673557281494e-01,9.820668958127498627e-03,-4.097499847412109375e-01,-7.407620549201965332e-01,-1.318344175815582275e-01,5.189706683158874512e-01,3.658652305603027344e-01
-2.915556430816650391e-01,7.545465826988220215e-01,-3.472872776910662651e-04,2.523091137409210205e-01,3.844608664512634277e-01,5.649433135986328125e-01,-4.196347892284393311e-01,2.191941738128662109e-01,4.747925326228141785e-02,-1.397158950567245483e-01,-7.994055151939392090e-01,-4.967869259417057037e-03,3.401665091514587402e-01,3.295108079910278320e-01
-4.672064483165740967e-01,5.535199642181396484e-01,2.196935005486011505e-02,1.139980554580688477e-01,2.497931271791458130e-01,6.353521347045898438e-01,-6.735020279884338379e-01,-1.512394752353429794e-02,-3.538235649466514587e-02,-4.715598523616790771e-01,-7.541916370391845703e-01,-5.050325021147727966e-02,4.114727675914764404e-01,3.340694606304168701e-01
-5.015169978141784668e-01,5.603477358818054199e-01,-1.087361574172973633e-01,9.114103019237518311e-02,3.680620491504669189e-01,5.326252579689025879e-01,-6.098679304122924805e-01,-6.837171316146850586e-02,2.357554994523525238e-02,-3.035237193107604980e-01,-7.158860564231872559e-01,-1.031711846590042114e-01,5.094197392463684082e-01,3.603824377059936523e-01
-6.971098780632019043e-01,4.351734220981597900e-01,-4.578559398651123047e-01,3.080894947052001953e-01,3.424791991710662842e-01,5.084920525550842285e-01,-5.752575993537902832e-01,-4.704416543245315552e-02,-1.380786448717117310e-01,-3.648981750011444092e-01,-5.984938740730285645e-01,-1.425192952156066895e-01,5.256969928741455078e-01,3.407559692859649658e-01
-7.323427796363830566e-01,4.641299843788146973e-01,-3.467684686183929443e-01,1.076332777738571167e-01,2.221658974885940552e-01,7.095622420310974121e-01,-7.846488952636718750e-01,-1.707939803600311279e-01,1.986035145819187164e-02,-2.965242564678192139e-01,-2.952092587947845459e-01,-3.214583918452262878e-02,6.128521561622619629e-01,4.224012494087219238e-01
-6.418389678001403809e-01,5.029723644256591797e-01,-3.291952311992645264e-01,4.083806872367858887e-01,4.436265826225280762e-01,5.247914791107177734e-01,-1.080355644226074219e+00,-9.437133371829986572e-02,2.382659167051315308e-01,-2.313857525587081909e-01,-2.767167687416076660e-01,-1.556389778852462769e-01,3.733985424041748047e-01,2.444404363632202148e-01
-6.514722704887390137e-01,3.973346650600433350e-01,-3.898572027683258057e-01,2.871908843517303467e-01,3.211226761341094971e-01,6.684729456901550293e-01,-6.286590099334716797e-01,-1.727992892265319824e-01,1.807306855916976929e-01,-9.803347289562225342e-02,-5.444105267524719238e-01,-1.664662361145019531e-01,5.481370091438293457e-01,3.899835348129272461e-01
-8.043774366378784180e-01,4.659661054611206055e-01,-6.233139038085937500e-01,1.738293319940567017e-01,4.804259538650512695e-01,6.160666346549987793e-01,-8.188735842704772949e-01,-1.619047671556472778e-01,1.334205716848373413e-01,-9.173104166984558105e-02,-3.731740415096282959e-01,-2.891854345798492432e-01,5.434849262237548828e-01,3.936030864715576172e-01
-6.812638044357299805e-01,1.749367564916610718e-01,-5.879210233688354492e-01,3.093139529228210449e-01,2.995513677597045898e-01,4.557708799839019775e-01,-9.803118705749511719e-01,-1.023527383804321289e-01,2.352064400911331177e-01,-1.822801530361175537e-01,-5.472550988197326660e-01,-4.575302898883819580e-01,5.250532627105712891e-01,2.283529639244079590e-01
-8.496226072311401367e-01,2.982214093208312988e-01,-5.553485751152038574e-01,4.266513288021087646e-01,4.155773222446441650e-01,7.726570963859558105e-01,-7.924893498420715332e-01,-2.008520364761352539e-01,2.892203629016876221e-01,-3.388648033142089844e-01,-5.822182297706604004e-01,-5.416286587715148926e-01,5.350170731544494629e-01,4.356142580509185791e-01
-7.354534268379211426e-01,8.859325200319290161e-02,-4.882136881351470947e-01,3.686307072639465332e-01,3.792218863964080811e-01,4.055442810058593750e-01,-9.260170459747314453e-01,-2.686686813831329346e-01,4.047043621540069580e-01,2.586657926440238953e-02,-3.174684643745422363e-01,-4.959022998809814453e-01,2.865428030490875244e-01,2.010139375925064087e-01
-8.898019194602966309e-01,1.950079947710037231e-01,-6.701424717903137207e-01,4.575711786746978760e-01,2.920972406864166260e-01,5.054704546928405762e-01,-1.018944621086120605e+00,-5.416061282157897949e-01,3.693217635154724121e-01,-1.583940982818603516e-01,-2.151917368173599243e-01,-3.108911514282226562e-01,4.245424568653106689e-01,1.926338882185518742e-04
-6.227244734764099121e-01,2.390626370906829834e-01,-4.012597203254699707e-01,5.621013641357421875e-01,4.617121517658233643e-01,7.791025042533874512e-01,-8.779056072235107422e-01,-3.186371922492980957e-01,6.323601603507995605e-01,-2.493642121553421021e-01,-1.432181000709533691e-01,-3.439606726169586182e-01,5.101589560508728027e-01,8.866804838180541992e-02
-7.963932752609252930e-01,1.300716102123260498e-01,-4.452141523361206055e-01,4.973460435867309570e-01,2.944193184375762939e-01,8.000051379203796387e-01,-8.983808159828186035e-01,-1.977264434099197388e-01,5.410228371620178223e-01,-1.161355376243591309e-01,-6.947663426399230957e-02,-3.667975962162017822e-01,4.316276907920837402e-01,8.870843052864074707e-02
-8.443146347999572754e-01,1.994132399559020996e-01,-5.063294172286987305e-01,4.482428729534149170e-01,2.139957845211029053e-01,7.011107206344604492e-01,-9.434099197387695312e-01,-6.660374999046325684e-01,4.037665128707885742e-01,-1.252609938383102417e-01,-1.720726639032363892e-01,-3.817498981952667236e-01,4.328737258911132812e-01,9.948404133319854736e-02
-8.985299468040466309e-01,4.612546786665916443e-02,-3.420298099517822266e-01,5.293511152267456055e-01,2.507844865322113037e-01,7.918820977210998535e-01,-9.286302924156188965e-01,-2.785342335700988770e-01,7.135244011878967285e-01,-1.748196035623550415e-01,-1.001974493265151978e-01,-1.453009098768234253e-01,2.136742621660232544e-01,8.223642595112323761e-03
-9.156493544578552246e-01,-2.312313206493854523e-02,-4.602168798446655273e-01,7.091631293296813965e-01,4.153227806091308594e-02,5.288386940956115723e-01,-9.163649082183837891e-01,-3.335262835025787354e-01,5.661774277687072754e-01,-1.183881014585494995e-01,-1.063623232766985893e-03,-4.345577657222747803e-01,7.021493464708328247e-02,-8.043604344129562378e-02
-7.529186010360717773e-01,2.015044093132019043e-01,-2.740351557731628418e-01,7.343187332153320312e-01,4.014708697795867920e-01,8.483397364616394043e-01,-6.964778900146484375e-01,-3.610990643501281738e-01,6.273680329322814941e-01,-2.329009324312210083e-01,5.289824679493904114e-02,-2.708320915699005127e-01,-1.892923563718795776e-01,-9.509076178073883057e-02
-6.980782747268676758e-01,3.221155405044555664e-01,-4.016423225402832031e-01,3.507270216941833496e-01,2.117223292589187622e-02,7.874823212623596191e-01,-8.471130132675170898e-01,-1.443283706903457642e-01,6.095427870750427246e-01,-1.922198943793773651e-02,-1.473846882581710815e-01,-3.811447024345397949e-01,-1.305629909038543701e-01,-5.129290744662284851e-02
-7.061253786087036133e-01,4.739171266555786133e-02,-3.421039283275604248e-01,6.371657252311706543e-01,1.634302437305450439e-01,7.308939695358276367e-01,-7.519179582595825195e-01,6.521690171211957932e-03,6.196000576019287109e-01,-1.670967191457748413e-01,-3.172980993986129761e-02,-4.117680191993713379e-01,-1.316814273595809937e-01,-3.744288533926010132e-02
-6.506426930427551270e-01,2.641085982322692871e-01,-1.812459379434585571e-01,5.171594619750976562e-01,9.834089875221252441e-02,6.980037689208984375e-01,-6.110660433769226074e-01,-2.089503407478332520e-02,5.399706959724426270e-01,-9.571988880634307861e-02,1.165071688592433929e-02,-3.186068236827850342e-01,-1.873426735401153564e-01,-8.791957795619964600e-02
-6.050052046775817871e-01,1.353612691164016724e-01,-1.722322851419448853e-01,5.383044481277465820e-01,1.997098773717880249e-01,6.932805776596069336e-01,-4.246101975440979004e-01,-6.596572697162628174e-02,6.016386747360229492e-01,6.489797681570053101e-02,-4.157164320349693298e-02,-3.259509503841400146e-01,-3.042631447315216064e-01,-3.922624513506889343e-02
-6.695829033851623535e-01,-2.005563862621784210e-02,-3.331944346427917480e-02,3.358255922794342041e-01,9.399877488613128662e-02,5.773863792419433594e-01,-5.076494812965393066e-01,-5.262491106986999512e-02,5.456494092941284180e-01,1.568237394094467163e-01,-1.220138669013977051e-01,-5.360258817672729492e-01,-2.595349550247192383e-01,1.080220490694046021e-01
-7.979000210762023926e-01,-2.406986802816390991e-02,-5.136027559638023376e-02,1.522354632616043091e-01,1.140430010855197906e-02,3.188100755214691162e-01,-4.141367673873901367e-01,1.253374218940734863e-01,5.862630009651184082e-01,2.308984845876693726e-01,-6.136982887983322144e-02,-4.741870164871215820e-01,-3.361608684062957764e-01,2.129920274019241333e-01
-7.105126976966857910e-01,5.961421504616737366e-02,1.765707880258560181e-01,3.212763369083404541e-01,-1.078056618571281433e-01,6.432774066925048828e-01,-4.164282381534576416e-01,2.638078629970550537e-01,5.178880095481872559e-01,2.116373330354690552e-01,-7.045194040983915329e-03,-5.599479079246520996e-01,-4.052289128303527832e-01,1.266571134328842163e-01
-9.317401647567749023e-01,-1.916813291609287262e-02,-4.926506429910659790e-02,1.006146743893623352e-01,-9.430183470249176025e-02,4.549308717250823975e-01,-2.912118732929229736e-01,1.981715261936187744e-01,4.901031851768493652e-01,1.038270369172096252e-01,-1.292918771505355835e-01,-6.359905600547790527e-01,-3.741475939750671387e-01,1.807840764522552490e-01
-6.207852363586425781e-01,-1.510729789733886719e-01,-3.459074199199676514e-01,-1.156629249453544617e-02,6.790996342897415161e-02,1.138914898037910461e-01,-1.444685757160186768e-01,2.618200182914733887e-01,3.510611355304718018e-01,7.682258728891611099e-03,-1.598804295063018799e-01,-6.529585123062133789e-01,-5.312904119491577148e-01,1.425173133611679077e-01
-6.491501331329345703e-01,-2.327406704425811768e-01,-2.148751169443130493e-01,-6.898204982280731201e-02,2.385683804750442505e-01,1.143745258450508118e-01,-3.391168117523193359e-01,6.200278401374816895e-01,4.697688519954681396e-01,3.225504457950592041e-01,1.857468932867050171e-01,-7.734274864196777344e-01,-3.938916325569152832e-01,1.192896589636802673e-01
-4.860382974147796631e-01,-1.920021623373031616e-01,-1.269525140523910522e-01,6.364674866199493408e-02,-5.423281341791152954e-02,3.330387920141220093e-02,-2.514525651931762695e-01,4.856059253215789795e-01,4.602071046829223633e-01,3.338327407836914062e-01,2.537753991782665253e-02,-7.597833275794982910e-01,-6.304087042808532715e-01,-1.042226701974868774e-02
-7.039317488670349121e-01,-1.302386075258255005e-01,3.366125822067260742e-01,-3.508597239851951599e-02,3.111097514629364014e-01,7.662384212017059326e-02,-1.932193338871002197e-01,5.260764956474304199e-01,5.843958854675292969e-01,1.388858407735824585e-01,1.335837841033935547e-01,-8.042467832565307617e-01,-5.348147749900817871e-01,2.220260538160800934e-02
-5.648198723793029785e-01,-1.887832880020141602e-01,3.031519707292318344e-03,-1.556507684290409088e-02,2.502202689647674561e-01,-3.296407163143157959e-01,-1.155766546726226807e-01,2.926518917083740234e-01,4.037760794162750244e-01,3.025947511196136475e-01,9.898220002651214600e-02,-6.651570796966552734e-01,-4.560289978981018066e-01,-5.075383558869361877e-02
-7.059513926506042480e-01,-2.711996436119079590e-01,1.304890960454940796e-01,-6.334524601697921753e-02,2.484611049294471741e-02,-2.389420866966247559e-01,-1.139535307884216309e-01,3.910475969314575195e-01,2.349584996700286865e-01,1.774229556322097778e-01,2.249300926923751831e-01,-7.661321759223937988e-01,-6.537968516349792480e-01,-4.781785234808921814e-02
-6.075945496559143066e-01,-2.267681211233139038e-01,1.386030912399291992e-01,-2.004551291465759277e-01,7.307402789592742920e-02,-4.324464499950408936e-01,-1.415734291076660156e-01,4.891116023063659668e-01,1.539119333028793335e-01,3.575194776058197021e-01,1.713733226060867310e-01,-8.804192543029785156e-01,-4.789748191833496094e-01,-3.562500327825546265e-02
-7.516478300094604492e-01,-1.607795506715774536e-01,-6.479611247777938843e-02,-1.856719255447387695e-01,1.096074730157852173e-01,-3.439426422119140625e-01,-5.030453950166702271e-02,3.995164632797241211e-01,2.279240041971206665e-01,1.500453054904937744e-01,2.653663754463195801e-01,-8.105745911598205566e-01,-3.188876509666442871e-01,1.398222520947456360e-02
-4.430810213088989258e-01,-2.346398532390594482e-01,-8.767763525247573853e-02,-2.430492937564849854e-01,2.698501944541931152e-01,-4.136502444744110107e-01,2.275166362524032593e-01,6.769428849220275879e-01,7.209736108779907227e-02,3.915999829769134521e-01,1.364995986223220825e-01,-1.040314555168151855e+00,-3.913341462612152100e-01,-2.771629951894283295e-02
-4.612714350223541260e-01,-2.869041264057159424e-01,1.908363252878189087e-01,-2.203531414270401001e-01,2.722065746784210205e-01,-4.019521176815032959e-01,4.460991919040679932e-02,6.754109859466552734e-01,3.668935969471931458e-02,2.630608975887298584e-01,1.074519082903862000e-01,-7.476642131805419922e-01,-4.885761439800262451e-01,-9.631482511758804321e-02
-5.971164703369140625e-01,-1.746030002832412720e-01,-5.612458288669586182e-02,-2.988205552101135254e-01,3.127029240131378174e-01,-5.074347257614135742e-01,-1.554846167564392090e-01,4.992822706699371338e-01,-3.086532652378082275e-02,3.535821735858917236e-01,2.669519186019897461e-01,-6.689836978912353516e-01,-3.537753820419311523e-01,-8.208075165748596191e-02
-5.006986260414123535e-01,-3.487901091575622559e-01,3.061837852001190186e-01,-1.623774468898773193e-01,3.220408558845520020e-01,-5.537053942680358887e-01,1.066736131906509399e-02,7.502606511116027832e-01,-3.324916958808898926e-02,1.153229624032974243e-01,1.955874115228652954e-01,-6.584671139717102051e-01,-3.607228696346282959e-01,-4.954090341925621033e-02
-4.923025965690612793e-01,-2.545537352561950684e-01,2.410739213228225708e-01,-9.084151685237884521e-02,4.463460147380828857e-01,-4.440811574459075928e-01,5.721278861165046692e-02,5.914657711982727051e-01,3.562599420547485352e-02,1.880982518196105957e-01,1.422313451766967773e-01,-4.171254932880401611e-01,-1.411549150943756104e-01,-2.973840571939945221e-02
-5.178058147430419922e-01,-2.265240997076034546e-01,3.592777252197265625e-01,-2.753263413906097412e-01,5.727273225784301758e-01,-4.848666489124298096e-01,3.803295642137527466e-02,8.711235523223876953e-01,-2.667612731456756592e-01,3.384342789649963379e-02,3.917990922927856445e-01,-5.264253020286560059e-01,-1.474432200193405151e-01,-2.510564029216766357e-01
-3.952382206916809082e-01,-3.007929623126983643e-01,3.722205162048339844e-01,-5.970377102494239807e-02,5.395488739013671875e-01,-4.971638917922973633e-01,3.180031850934028625e-02,6.464467048645019531e-01,4.023745283484458923e-02,1.947304606437683105e-01,1.844936907291412354e-01,-4.981268048286437988e-01,-2.874871790409088135e-01,-2.094589173793792725e-01
-3.934278786182403564e-01,-1.872017383575439453e-01,4.200774133205413818e-01,-1.696319282054901123e-01,5.503276586532592773e-01,-5.901886820793151855e-01,4.454416036605834961e-02,7.079751491546630859e-01,-1.227943822741508484e-01,1.752330362796783447e-01,4.488461613655090332e-01,-6.809511184692382812e-01,-2.705840468406677246e-01,5.850144196301698685e-03
-1.839645206928253174e-01,-3.191403150558471680e-01,4.349818229675292969e-01,-1.488353013992309570e-01,7.786247730255126953e-01,-6.482968926429748535e-01,3.571474924683570862e-02,8.063710927963256836e-01,-1.712772995233535767e-01,2.946039438247680664e-01,4.839635789394378662e-01,-5.162452459335327148e-01,-1.571630686521530151e-01,-1.152354106307029724e-01
-2.284385263919830322e-01,1.142442077398300171e-01,4.901027977466583252e-01,-3.332149982452392578e-01,7.162763476371765137e-01,-6.199299097061157227e-01,-2.719544619321823120e-02,8.069813251495361328e-01,-1.809184812009334564e-02,6.661116331815719604e-02,1.759443134069442749e-01,-4.887115359306335449e-01,-6.083852052688598633e-02,-1.571295112371444702e-01
1.120349392294883728e-01,-1.352093964815139771e-01,5.012257099151611328e-01,-3.320994973182678223e-01,8.464012145996093750e-01,-5.727218389511108398e-01,-9.071046370081603527e-04,7.393193840980529785e-01,-1.216298192739486694e-01,4.795375466346740723e-02,3.249456286430358887e-01,-4.754427969455718994e-01,-1.107285991311073303e-01,-1.477654874324798584e-01
-5.097259953618049622e-02,1.535227000713348389e-01,3.912056386470794678e-01,-1.221903041005134583e-01,8.256248235702514648e-01,-8.525416851043701172e-01,-2.911224067211151123e-01,6.790293455123901367e-01,-1.969142109155654907e-01,-1.206349581480026245e-01,4.540317356586456299e-01,-4.296956360340118408e-01,1.267259940505027771e-02,-1.549938172101974487e-01
5.293824523687362671e-02,3.626158088445663452e-02,5.197842121124267578e-01,-3.941439092159271240e-02,9.783312678337097168e-01,-6.039626002311706543e-01,-2.128027826547622681e-01,7.453515529632568359e-01,-2.348328977823257446e-01,-7.411352545022964478e-02,1.902068108320236206e-01,-4.792926311492919922e-01,3.202544525265693665e-02,-7.953269034624099731e-02
1.777747124433517456e-01,1.280945092439651489e-01,8.051838278770446777e-01,-1.634884774684906006e-01,1.015849471092224121e+00,-6.167187690734863281e-01,-1.880021840333938599e-01,6.094025969505310059e-01,-4.821250215172767639e-03,-2.254040539264678955e-01,2.650749683380126953e-01,-3.709086179733276367e-01,7.871785759925842285e-02,-2.509496212005615234e-01
2.879213392734527588e-01,6.399709731340408325e-02,6.480102539062500000e-01,9.661073237657546997e-02,1.022817969322204590e+00,-6.408230066299438477e-01,-2.454374879598617554e-01,7.003244161605834961e-01,6.683688145130872726e-03,-2.378412783145904541e-01,4.073943197727203369e-01,-9.741435945034027100e-02,-8.839688450098037720e-02,-1.389699578285217285e-01
2.849890291690826416e-01,1.774820089340209961e-01,7.591003775596618652e-01,3.269797936081886292e-02,8.459523320198059082e-01,-6.561619043350219727e-01,-3.697738647460937500e-01,5.662549734115600586e-01,-1.102986037731170654e-01,-2.948265671730041504e-01,-3.815252706408500671e-02,-1.382989138364791870e-01,5.509794130921363831e-02,-1.128402575850486755e-01
3.926711678504943848e-01,2.683306336402893066e-01,5.749346613883972168e-01,-9.902267158031463623e-02,8.313386440277099609e-01,-8.867886066436767578e-01,-3.836963176727294922e-01,4.902871549129486084e-01,5.755257979035377502e-02,-4.089122116565704346e-01,-1.398774236440658569e-02,-1.129559576511383057e-01,2.217858731746673584e-01,-8.677890896797180176e-02
4.156664609909057617e-01,3.190539181232452393e-01,6.016710996627807617e-01,2.949040941894054413e-02,9.507542848587036133e-01,-6.582036018371582031e-01,-4.322924613952636719e-01,6.648787856101989746e-01,-8.301506191492080688e-02,-4.249345064163208008e-01,9.906774759292602539e-02,-2.077762503176927567e-03,7.968693226575851440e-02,-8.444636315107345581e-02
3.645953536033630371e-01,3.816928565502166748e-01,6.095120310783386230e-01,3.093494772911071777e-01,8.238260149955749512e-01,-4.151367843151092529e-01,-2.595124840736389160e-01,7.788409590721130371e-01,2.779280394315719604e-02,-5.200860500335693359e-01,2.103361040353775024e-01,1.730422675609588623e-01,9.828537702560424805e-02,-2.560032159090042114e-02
3.721961677074432373e-01,3.204698562622070312e-01,6.236463189125061035e-01,-2.824014797806739807e-02,7.868500351905822754e-01,-5.695468187332153320e-01,-5.433022379875183105e-01,7.400884628295898438e-01,-2.249277830123901367e-01,-5.634919404983520508e-01,-1.324226260185241699e-01,1.094992235302925110e-01,1.627153754234313965e-01,-9.427486360073089600e-02
5.712954401969909668e-01,3.625990450382232666e-01,6.192114353179931641e-01,1.806696355342864990e-01,6.760520339012145996e-01,-5.765613913536071777e-01,-4.799786508083343506e-01,6.367734074592590332e-01,-2.659963667392730713e-01,-4.506816267967224121e-01,1.227168664336204529e-01,2.087596654891967773e-01,1.903198957443237305e-01,-8.014786988496780396e-02
6.680250167846679688e-01,3.032212257385253906e-01,8.256117701530456543e-01,1.232680231332778931e-01,8.392696380615234375e-01,-5.188838839530944824e-01,-2.979398071765899658e-01,8.196853399276733398e-01,-2.413094639778137207e-01,-5.622459650039672852e-01,-1.723952442407608032e-01,1.067315116524696350e-01,2.813705503940582275e-01,3.212077915668487549e-01
3.598244190216064453e-01,5.638113617897033691e-01,7.821424007415771484e-01,2.484073489904403687e-01,7.547472715377807617e-01,-4.611216783523559570e-01,-2.694575190544128418e-01,5.901871323585510254e-01,-2.631181776523590088e-01,-5.544779300689697266e-01,-4.518437385559082031e-01,1.557563096284866333e-01,2.356061935424804688e-01,1.162498146295547485e-01
3.790923655033111572e-01,6.634732484817504883e-01,9.136608242988586426e-01,3.200289607048034668e-01,5.925388932228088379e-01,-4.094435572624206543e-01,-4.640899598598480225e-01,4.585421383380889893e-01,-1.406304240226745605e-01,-7.322704195976257324e-01,-1.695525050163269043e-01,2.678369283676147461e-01,1.131584197282791138e-01,2.065674066543579102e-01
3.721565604209899902e-01,7.535460591316223145e-01,7.948978543281555176e-01,1.630467474460601807e-01,4.963729381561279297e-01,-4.808048903942108154e-01,-2.246832698583602905e-01,4.350840747356414795e-01,-2.564557194709777832e-01,-5.301546454429626465e-01,-4.511074125766754150e-01,4.247463345527648926e-01,4.521503746509552002e-01,3.770851492881774902e-01
5.838428735733032227e-01,6.503964662551879883e-01,5.756452679634094238e-01,3.146109282970428467e-01,4.520386457443237305e-01,-4.026630818843841553e-01,-2.525016963481903076e-01,5.361585021018981934e-01,-3.875433206558227539e-01,-4.952622354030609131e-01,-4.369916617870330811e-01,3.699897825717926025e-01,4.004609286785125732e-01,5.563787221908569336e-01
5.787863731384277344e-01,5.609665513038635254e-01,8.397518992424011230e-01,4.190156459808349609e-01,4.984057843685150146e-01,-2.696841359138488770e-01,-2.051899433135986328e-01,7.330144643783569336e-01,-3.307301700115203857e-01,-5.555132031440734863e-01,-7.237798571586608887e-01,2.662166059017181396e-01,3.795828223228454590e-01,4.303020238876342773e-01
3.795886635780334473e-01,4.744942784309387207e-01,5.608683824539184570e-01,1.918042004108428955e-01,4.916948676109313965e-01,-3.336583673954010010e-01,-2.397162765264511108e-01,5.790694355964660645e-01,-3.883002698421478271e-01,-2.681989669799804688e-01,-7.058861851692199707e-01,1.948648840188980103e-01,3.699257671833038330e-01,4.706963002681732178e-01
6.803215742111206055e-01,7.434269189834594727e-01,7.432694435119628906e-01,2.475000023841857910e-01,3.380175232887268066e-01,-2.011816501617431641e-01,-1.991677880287170410e-01,6.721233725547790527e-01,-4.324167370796203613e-01,-6.625592112541198730e-01,-8.473312258720397949e-01,2.844302356243133545e-01,3.628085553646087646e-01,5.275074243545532227e-01
4.021830856800079346e-01,4.433871507644653320e-01,5.929307341575622559e-01,9.116033464670181274e-02,2.734426558017730713e-01,-5.045785307884216309e-01,-1.950675696134567261e-01,7.648599743843078613e-01,-3.593843579292297363e-01,-3.103244602680206299e-01,-9.172266125679016113e-01,1.834853738546371460e-01,3.330990374088287354e-01,8.853083252906799316e-01
5.634935498237609863e-01,5.622617602348327637e-01,6.333681941032409668e-01,1.327033191919326782e-01,3.809192180633544922e-01,-2.761051058769226074e-01,-1.974282711744308472e-01,4.540341794490814209e-01,-3.630243241786956787e-01,-2.729210257530212402e-01,-7.966955304145812988e-01,-1.681199371814727783e-01,2.466597706079483032e-01,6.878557801246643066e-01
4.780171215534210205e-01,5.381845831871032715e-01,3.996210098266601562e-01,9.513270109891891479e-02,4.346664845943450928e-01,-5.268503427505493164e-01,-2.271559834480285645e-01,5.647453665733337402e-01,-4.068591594696044922e-01,-2.476257830858230591e-01,-7.881931066513061523e-01,-8.695533871650695801e-02,6.224935650825500488e-01,8.447842001914978027e-01
2.761199772357940674e-01,5.108664631843566895e-01,5.518764853477478027e-01,1.779127866029739380e-01,3.300013542175292969e-01,-4.137143492698669434e-01,-2.693726420402526855e-01,5.127336978912353516e-01,-3.889895677566528320e-01,-2.453020364046096802e-01,-9.257661104202270508e-01,1.164756715297698975e-02,4.914503693580627441e-01,7.952902317047119141e-01
3.019686937332153320e-01,4.737620949745178223e-01,4.066659510135650635e-01,2.091594636440277100e-01,2.704212963581085205e-01,-3.723930120468139648e-01,-2.791055142879486084e-01,3.044883608818054199e-01,-2.066460400819778442e-01,-1.734823435544967651e-01,-1.028538703918457031e+00,-2.373612970113754272e-01,3.619047105312347412e-01,7.832526564598083496e-01
2.251018434762954712e-01,4.339985549449920654e-01,2.987994849681854248e-01,7.447925955057144165e-02,1.528652161359786987e-01,-4.868521988391876221e-01,-2.582615911960601807e-01,4.487933516502380371e-01,-2.191585153341293335e-01,-1.122714057564735413e-01,-1.013990998268127441e+00,-1.793735474348068237e-01,4.573235809803009033e-01,9.240245223045349121e-01
1.430899351835250854e-01,1.287530213594436646e-01,9.803625941276550293e-02,2.425292432308197021e-01,1.705362796783447266e-01,-4.093416929244995117e-01,-2.075391560792922974e-01,2.003295868635177612e-01,-1.379756182432174683e-01,-2.470688819885253906e-01,-8.395308256149291992e-01,-1.840939074754714966e-01,6.292862296104431152e-01,8.757081627845764160e-01
2.141694426536560059e-01,3.242719173431396484e-01,3.890572786331176758e-01,2.529536783695220947e-01,2.875685393810272217e-01,-3.008573651313781738e-01,-1.001523807644844055e-01,1.016110032796859741e-01,-2.295784801244735718e-01,-1.243293359875679016e-01,-8.461760282516479492e-01,-1.574364453554153442e-01,6.664216518402099609e-01,9.088512659072875977e-01
7.893703132867813110e-02,5.676116421818733215e-02,6.580055505037307739e-02,2.019571363925933838e-01,3.841622173786163330e-02,-4.278577864170074463e-01,-2.474541962146759033e-01,2.596850991249084473e-01,-2.771337628364562988e-01,-1.559392958879470825e-01,-7.911406159400939941e-01,-1.716873943805694580e-01,6.004934906959533691e-01,1.180865764617919922e+00
1.388590633869171143e-01,3.157781064510345459e-01,1.404696553945541382e-01,8.844515681266784668e-02,3.040001392364501953e-01,-1.463625580072402954e-01,-2.630995810031890869e-01,9.564619511365890503e-03,-1.911712139844894409e-01,-2.329595386981964111e-01,-6.411579847335815430e-01,-1.770834028720855713e-01,6.005981564521789551e-01,1.020121455192565918e+00
3.067124783992767334e-01,1.567926853895187378e-01,-1.316572260111570358e-02,1.055257916450500488e-01,9.814018011093139648e-02,-4.007573127746582031e-01,-1.767906695604324341e-01,-3.870933130383491516e-02,5.582787096500396729e-03,-3.943493962287902832e-02,-7.031681537628173828e-01,-6.602721661329269409e-02,6.778610944747924805e-01,1.064584255218505859e+00
1.411762088537216187e-01,-2.633724547922611237e-02,4.368868470191955566e-01,1.140939965844154358e-01,-1.051952540874481201e-01,-1.136923395097255707e-02,-2.535378336906433105e-01,-7.933709025382995605e-02,-2.179653346538543701e-01,-1.558137089014053345e-01,-6.824007034301757812e-01,-1.719218045473098755e-01,5.602384805679321289e-01,1.045188903808593750e+00
-2.340790629386901855e-02,9.214458614587783813e-02,6.081221252679824829e-02,3.187128901481628418e-01,6.938004493713378906e-02,-4.422986134886741638e-02,-3.920618891716003418e-01,-3.566833734512329102e-01,1.290235966444015503e-01,-2.373083978891372681e-01,-4.499393105506896973e-01,-1.785442829132080078e-01,7.132673859596252441e-01,9.421313405036926270e-01
-6.635849177837371826e-02,1.072005331516265869e-01,-2.058579958975315094e-02,1.287699043750762939e-01,3.223225474357604980e-02,-9.055882692337036133e-02,-3.509812355041503906e-01,-2.353308051824569702e-01,-8.006480336189270020e-02,-1.290470361709594727e-01,-6.803421974182128906e-01,-2.688497006893157959e-01,7.101598381996154785e-01,8.963169455528259277e-01
-7.139628380537033081e-02,2.792542278766632080e-01,1.033563762903213501e-01,3.394451141357421875e-01,-8.542665839195251465e-02,-5.960508063435554504e-02,-8.592914044857025146e-02,-4.702297747135162354e-01,1.597826778888702393e-01,-1.419931501150131226e-01,-3.842564523220062256e-01,-2.565875463187694550e-02,8.925215005874633789e-01,9.518422484397888184e-01
1.543394625186920166e-01,1.797596067190170288e-01,1.249594092369079590e-01,1.793874949216842651e-01,2.644403092563152313e-02,-1.059230603277683258e-02,-3.315671682357788086e-01,-5.250046849250793457e-01,3.539415076375007629e-02,5.419536307454109192e-02,-4.543291628360748291e-01,-1.905606538057327271e-01,6.651740074157714844e-01,9.287455081939697266e-01
-1.748703420162200928e-01,1.968532055616378784e-01,1.001944616436958313e-01,3.781692683696746826e-01,-1.525373607873916626e-01,8.112620562314987183e-02,-1.952914297580718994e-01,-5.392401218414306641e-01,1.382507234811782837e-01,-2.000053226947784424e-02,-6.050164103507995605e-01,-2.290741950273513794e-01,6.935781240463256836e-01,8.377389907836914062e-01
-7.081981003284454346e-02,2.837287783622741699e-01,4.119943827390670776e-02,2.975654006004333496e-01,-4.832513630390167236e-02,1.378952860832214355e-01,-3.440749049186706543e-01,-6.073741912841796875e-01,5.656066164374351501e-02,1.153617203235626221e-01,-4.772310256958007812e-01,-9.776505082845687866e-02,7.749225497245788574e-01,8.874480724334716797e-01
-2.019203826785087585e-02,1.587201356887817383e-01,1.311046332120895386e-01,4.205915629863739014e-01,-1.348460465669631958e-01,3.084986805915832520e-01,-1.102561354637145996e-01,-4.886409044265747070e-01,5.154859423637390137e-01,-7.888313382863998413e-02,-5.648573040962219238e-01,-1.959464550018310547e-01,4.455245137214660645e-01,7.801582813262939453e-01
6.655881553888320923e-02,2.449369430541992188e-01,8.468311280012130737e-02,3.842509388923645020e-01,-1.796182841062545776e-01,4.115194380283355713e-01,-2.781511247158050537e-01,-5.634803175926208496e-01,4.572287797927856445e-01,8.312582224607467651e-02,-6.745688319206237793e-01,-1.729254573583602905e-01,4.193117022514343262e-01,8.059400916099548340e-01
-6.992628425359725952e-02,2.368340790271759033e-01,1.098695993423461914e-01,3.885584771633148193e-01,-3.815700858831405640e-02,2.574861943721771240e-01,-2.163035124540328979e-01,-6.534441113471984863e-01,5.327787399291992188e-01,2.840873003005981445e-01,-5.199646949768066406e-01,-9.567020833492279053e-02,3.519909679889678955e-01,7.575317025184631348e-01
-1.096832528710365295e-01,3.617525845766067505e-02,4.481395334005355835e-02,3.590665161609649658e-01,-9.780368208885192871e-02,1.673421710729598999e-01,-2.376024872064590454e-01,-5.467825531959533691e-01,4.876850545406341553e-01,3.604314848780632019e-02,-6.533932089805603027e-01,-1.545663923025131226e-01,1.595824062824249268e-01,6.278499364852905273e-01
4.168615117669105530e-02,3.060427606105804443e-01,-1.313155144453048706e-02,1.894064843654632568e-01,-3.341069221496582031e-01,2.037969529628753662e-01,-1.508178710937500000e-01,-6.482591629028320312e-01,5.070636272430419922e-01,8.255727589130401611e-02,-4.689617156982421875e-01,1.104936599731445312e-01,2.212078571319580078e-01,4.793812930583953857e-01
1.710880398750305176e-01,8.648066781461238861e-03,1.987220644950866699e-01,1.657791621983051300e-02,-2.166940271854400635e-01,2.395666390657424927e-01,-1.655496507883071899e-01,-6.571747064590454102e-01,7.342535853385925293e-01,5.745358765125274658e-02,-3.948571979999542236e-01,-1.245219558477401733e-01,2.852384150028228760e-01,5.771737098693847656e-01
3.777981176972389221e-02,2.331022322177886963e-01,2.121711224317550659e-01,-1.883918046951293945e-02,-1.011195480823516846e-01,1.485051065683364868e-01,-6.663999706506729126e-02,-6.204508543014526367e-01,5.838871598243713379e-01,-1.661190837621688843e-01,-4.756563603878021240e-01,-4.877219721674919128e-02,1.778823435306549072e-01,8.059591650962829590e-01
3.135368460789322853e-03,-1.999043487012386322e-02,2.910209000110626221e-01,-1.707450151443481445e-01,-1.933967918157577515e-01,1.225197762250900269e-01,-5.949838832020759583e-02,-5.771479010581970215e-01,7.243831157684326172e-01,1.983183808624744415e-02,-4.060710966587066650e-01,-2.952307760715484619e-01,1.400955766439437866e-01,5.482422709465026855e-01
1.150051727890968323e-01,1.828107088804244995e-01,1.773692071437835693e-01,-1.205478608608245850e-01,-4.642862975597381592e-01,4.352979958057403564e-01,-5.601031333208084106e-02,-5.795474052429199219e-01,6.408345103263854980e-01,-2.455815672874450684e-02,-3.791869282722473145e-01,-1.748209893703460693e-01,-1.080990433692932129e-01,6.111044287681579590e-01
-4.776703938841819763e-02,3.013412654399871826e-01,1.639643311500549316e-01,-5.658718198537826538e-02,-2.587077021598815918e-01,2.381089925765991211e-01,3.016795590519905090e-02,-6.462247371673583984e-01,7.902171611785888672e-01,-9.783006459474563599e-02,-2.843808233737945557e-01,-1.828845590353012085e-01,-2.190546989440917969e-01,2.774413526058197021e-01
9.639210253953933716e-02,8.848684281110763550e-02,5.969560891389846802e-02,-1.717226058244705200e-01,-3.703561723232269287e-01,1.044286489486694336e-01,9.227848798036575317e-02,-5.122857093811035156e-01,5.849716663360595703e-01,-1.756127029657363892e-01,-3.255418241024017334e-01,-1.536686271429061890e-01,6.311386078596115112e-02,3.488261401653289795e-01
2.327474206686019897e-01,8.135330677032470703e-02,2.139235585927963257e-01,-1.871735304594039917e-01,-6.112471818923950195e-01,2.471617013216018677e-01,4.670380055904388428e-02,-6.015170812606811523e-01,6.148463487625122070e-01,-3.044015541672706604e-02,-3.300512731075286865e-01,-3.921430034097284079e-04,-1.927274167537689209e-01,2.784042954444885254e-01
1.926934272050857544e-01,1.678670197725296021e-01,2.727496623992919922e-01,-1.747384071350097656e-01,-5.243273973464965820e-01,2.322568185627460480e-02,1.087283045053482056e-01,-6.218687891960144043e-01,6.516554951667785645e-01,-2.057739794254302979e-01,-1.821791231632232666e-01,7.703516632318496704e-02,-4.231352806091308594e-01,3.629055917263031006e-01
7.575765997171401978e-02,7.605851441621780396e-02,7.453001290559768677e-02,-3.111645281314849854e-01,-5.293983817100524902e-01,4.503041040152311325e-03,3.843637406826019287e-01,-6.749831438064575195e-01,7.639616131782531738e-01,1.009290739893913269e-01,-2.100398540496826172e-01,2.135215327143669128e-02,-5.022331327199935913e-02,5.998843312263488770e-01
2.372141480445861816e-01,2.947322130203247070e-01,3.830926120281219482e-01,-4.520399272441864014e-01,-7.081486582756042480e-01,3.849228378385305405e-03,3.738487362861633301e-01,-3.966528475284576416e-01,6.063489913940429688e-01,-9.972661733627319336e-02,-4.043426513671875000e-01,-2.536737360060214996e-02,-3.569352328777313232e-01,3.832155168056488037e-01
2.414371818304061890e-01,1.368982046842575073e-01,2.233971655368804932e-01,-4.069626331329345703e-01,-5.425474047660827637e-01,2.161231189966201782e-01,4.161401689052581787e-01,-4.561574459075927734e-01,7.092604041099548340e-01,-2.271154522895812988e-01,-1.922416836023330688e-01,-5.907749757170677185e-02,-6.821291446685791016e-01,4.903813898563385010e-01
9.602811932563781738e-02,9.029097110033035278e-02,2.908747196197509766e-01,-5.560498833656311035e-01,-3.709571957588195801e-01,-1.210004743188619614e-02,3.637996912002563477e-01,-3.954222202301025391e-01,7.091718316078186035e-01,-1.454365849494934082e-01,-1.770221889019012451e-01,1.180855184793472290e-01,-2.793976366519927979e-01,2.818576097488403320e-01
-1.360422968864440918e-01,7.172024995088577271e-02,3.824385702610015869e-01,-5.603863000869750977e-01,-4.655053913593292236e-01,-2.727546989917755127e-01,3.267226815223693848e-01,-2.691294550895690918e-01,4.754790663719177246e-01,-1.079158782958984375e-01,-8.009308576583862305e-02,2.127470970153808594e-01,-6.912720203399658203e-01,4.314971566200256348e-01
-1.924352347850799561e-01,3.376914933323860168e-02,3.294225633144378662e-01,-4.680556356906890869e-01,-5.611278414726257324e-01,4.636752605438232422e-02,5.290164947509765625e-01,-3.784009516239166260e-01,3.067796230316162109e-01,1.766045093536376953e-01,-6.125873699784278870e-02,1.486830320209264755e-02,-4.643248021602630615e-01,4.894297420978546143e-01
1.238717734813690186e-01,6.277346611022949219e-02,4.726432859897613525e-01,-6.992878913879394531e-01,-5.684978365898132324e-01,-1.552408635616302490e-01,5.552143454551696777e-01,-4.266076087951660156e-01,5.021212100982666016e-01,-1.380721479654312134e-01,-2.307704687118530273e-01,8.902634680271148682e-02,-4.387480616569519043e-01,2.557434439659118652e-01
6.125516723841428757e-03,8.577501028776168823e-02,3.917621970176696777e-01,-5.644918084144592285e-01,-4.594285786151885986e-01,-3.626297414302825928e-01,5.999758839607238770e-01,-2.440615743398666382e-01,2.060963064432144165e-01,-4.883049055933952332e-02,-1.544431447982788086e-01,2.268799208104610443e-02,-4.807249605655670166e-01,1.930193006992340088e-01
1.480362266302108765e-01,6.424152106046676636e-02,3.052747249603271484e-01,-6.654636263847351074e-01,-5.322199463844299316e-01,-2.643694877624511719e-01,7.346475124359130859e-01,-1.871379315853118896e-01,2.289875596761703491e-01,-8.338013291358947754e-02,-6.810715049505233765e-02,5.854016914963722229e-02,-4.142275452613830566e-01,8.959930390119552612e-02
-1.398221552371978760e-01,3.674411028623580933e-02,-5.326068494468927383e-03,-9.293110966682434082e-01,-4.174451529979705811e-01,-2.359775006771087646e-01,8.084059357643127441e-01,-2.174976319074630737e-01,1.126892417669296265e-01,2.113306522369384766e-02,6.901719421148300171e-02,-1.354505121707916260e-01,-4.832760989665985107e-01,1.579761803150177002e-01
-6.193816661834716797e-03,3.003747463226318359e-01,3.894321620464324951e-01,-1.038901805877685547e+00,-4.956910908222198486e-01,-3.015753328800201416e-01,7.615759372711181641e-01,-2.444086223840713501e-02,3.465923964977264404e-01,-8.866914361715316772e-02,2.090229392051696777e-01,-6.443113833665847778e-02,-4.078895151615142822e-01,1.570681333541870117e-01
1.342228800058364868e-01,-2.483403496444225311e-02,1.530211567878723145e-01,-9.811232089996337891e-01,-1.830452680587768555e-01,-2.125729322433471680e-01,5.748926997184753418e-01,-4.087786972522735596e-01,2.781499326229095459e-01,-1.677847355604171753e-01,-1.559891551733016968e-02,3.447991982102394104e-02,-6.043313145637512207e-01,3.044891655445098877e-01
-1.589012518525123596e-02,8.197021484375000000e-02,3.371472954750061035e-01,-8.985282182693481445e-01,-1.866356730461120605e-01,-5.226550102233886719e-01,6.655698418617248535e-01,-4.410292208194732666e-02,3.555378317832946777e-01,-1.011648923158645630e-01,1.246871054172515869e-01,1.353726685047149658e-01,-6.306605339050292969e-01,-8.242905139923095703e-02
1.875083297491073608e-01,1.190041080117225647e-01,2.836553156375885010e-01,-1.089412212371826172e+00,-1.884914934635162354e-02,-4.703467190265655518e-01,5.325669050216674805e-01,-7.982020080089569092e-02,1.232423037290573120e-01,-1.497116237878799438e-01,2.376451045274734497e-01,-3.886843472719192505e-02,-6.113232374191284180e-01,-6.909638643264770508e-03
1.045803576707839966e-01,1.204090341925621033e-01,2.009323239326477051e-01,-9.637813568115234375e-01,5.445368005894124508e-04,-5.737431049346923828e-01,3.618621826171875000e-01,-1.217211857438087463e-01,5.832329764962196350e-02,-2.269062399864196777e-01,2.023608386516571045e-01,-1.215194836258888245e-01,-4.205084741115570068e-01,-2.581478059291839600e-01
1.512190252542495728e-01,5.612741038203239441e-02,3.073934316635131836e-01,-9.353231191635131836e-01,-4.748760536313056946e-02,-6.767884492874145508e-01,4.999092519283294678e-01,-5.134089589118957520e-01,6.024028360843658447e-02,-2.780537009239196777e-01,3.581537604331970215e-01,8.067464083433151245e-02,-5.980833172798156738e-01,-1.850338876247406006e-01
6.138483434915542603e-02,5.088789761066436768e-02,2.617042660713195801e-01,-1.122868299484252930e+00,1.337528377771377563e-01,-4.422456026077270508e-01,5.936720371246337891e-01,-6.582930684089660645e-02,-5.069386586546897888e-02,-1.690927296876907349e-01,4.663822054862976074e-01,2.891758084297180176e-01,-4.223064184188842773e-01,-1.763388812541961670e-01
2.353491336107254028e-01,1.424524784088134766e-01,2.469623237848281860e-01,-1.091051340103149414e+00,9.728898108005523682e-02,-4.821809530258178711e-01,3.938640952110290527e-01,-3.111194372177124023e-01,1.927229762077331543e-01,-3.877809345722198486e-01,3.765037357807159424e-01,9.496430307626724243e-02,-5.644065141677856445e-01,-2.184507548809051514e-01
4.587562084197998047e-01,1.560932844877243042e-01,5.413947626948356628e-02,-9.203594923019409180e-01,3.840630948543548584e-01,-4.879808127880096436e-01,4.709162116050720215e-01,-2.712734043598175049e-01,3.521338999271392822e-01,-5.400690436363220215e-01,5.294358730316162109e-01,2.064492404460906982e-01,-5.344031453132629395e-01,-2.678976655006408691e-01
3.063542246818542480e-01,1.453071087598800659e-01,2.480448633432388306e-01,-9.367865920066833496e-01,1.794393956661224365e-01,-4.528708755970001221e-01,2.822461724281311035e-01,-2.454779893159866333e-01,-9.566733241081237793e-02,-5.440309643745422363e-01,5.222265124320983887e-01,4.138261675834655762e-01,-3.059755861759185791e-01,-3.370397984981536865e-01
2.155484557151794434e-01,6.557583808898925781e-02,1.436385810375213623e-01,-9.753633141517639160e-01,2.580502927303314209e-01,-5.363803505897521973e-01,3.798652887344360352e-01,-1.899531483650207520e-01,-3.531164024025201797e-03,-5.616918206214904785e-01,4.463676810264587402e-01,4.615494310855865479e-01,-3.590549230575561523e-01,-3.600455820560455322e-01
4.610257446765899658e-01,2.329140305519104004e-01,1.861728429794311523e-01,-8.936138749122619629e-01,2.416427880525588989e-01,-5.358536839485168457e-01,2.495851218700408936e-01,-1.623492538928985596e-01,-1.187768206000328064e-01,-7.662931084632873535e-01,5.638784170150756836e-01,6.058158278465270996e-01,-6.025578975677490234e-01,-4.450874030590057373e-01
2.722299695014953613e-01,2.284481972455978394e-01,2.894861400127410889e-01,-8.163133263587951660e-01,2.682049572467803955e-01,-3.964311778545379639e-01,3.894376754760742188e-01,-1.254517436027526855e-01,-9.942156076431274414e-02,-5.303092002868652344e-01,6.284293532371520996e-01,4.926694035530090332e-01,-4.623612761497497559e-01,-5.757728219032287598e-01
5.481346845626831055e-01,3.429267704486846924e-01,5.015093088150024414e-01,-9.180025458335876465e-01,4.141662716865539551e-01,-2.487719208002090454e-01,1.685537993907928467e-01,-1.145674213767051697e-01,-7.696051150560379028e-02,-6.599995493888854980e-01,7.166728377342224121e-01,6.461091041564941406e-01,-6.313741803169250488e-01,-6.672578454017639160e-01
2.772955894470214844e-01,4.801105558872222900e-01,4.186628162860870361e-01,-6.404001712799072266e-01,3.174215257167816162e-01,-1.707490980625152588e-01,1.074886694550514221e-01,-1.459604501724243164e-01,-3.346880376338958740e-01,-6.505799293518066406e-01,7.202823758125305176e-01,8.534480929374694824e-01,-4.158891737461090088e-01,-5.381731986999511719e-01
4.621093273162841797e-01,5.778258442878723145e-01,4.473373293876647949e-01,-7.247950434684753418e-01,4.517390131950378418e-01,-2.225198000669479370e-01,2.693411409854888916e-01,-9.967223554849624634e-02,-3.031761646270751953e-01,-7.940422892570495605e-01,4.685952663421630859e-01,6.610912680625915527e-01,-4.156953096389770508e-01,-4.896162152290344238e-01
6.186038851737976074e-01,7.807178497314453125e-01,4.964644908905029297e-01,-9.205422401428222656e-01,5.394015312194824219e-01,-2.749316692352294922e-01,2.340475097298622131e-02,-2.168980240821838379e-01,-1.671175658702850342e-01,-1.075317621231079102e+00,4.225174486637115479e-01,9.650633931159973145e-01,-4.504436552524566650e-01,-3.358689844608306885e-01
4.109278023242950439e-01,6.030333042144775391e-01,3.386792242527008057e-01,-6.152781844139099121e-01,4.765200316905975342e-01,-2.328415066003799438e-01,5.981327220797538757e-02,-1.479337513446807861e-01,-2.658910453319549561e-01,-7.386503219604492188e-01,4.417030811309814453e-01,7.380992770195007324e-01,-3.000243604183197021e-01,-4.502570331096649170e-01
5.370835661888122559e-01,7.799646258354187012e-01,2.656375169754028320e-01,-6.628851890563964844e-01,3.168030977249145508e-01,-2.471424192190170288e-01,-6.199670210480690002e-02,5.124490335583686829e-02,-3.110226988792419434e-01,-9.990012645721435547e-01,3.304316103458404541e-01,9.481307864189147949e-01,-3.979420959949493408e-01,-4.339968562126159668e-01
6.738331913948059082e-01,7.692145705223083496e-01,2.348739206790924072e-01,-3.999619185924530029e-01,6.834595799446105957e-01,-3.456411957740783691e-01,4.358079656958580017e-02,7.753223925828933716e-02,-3.181472718715667725e-01,-1.006276726722717285e+00,4.501628875732421875e-01,8.359082341194152832e-01,-2.100492566823959351e-01,-3.464020192623138428e-01
3.584468066692352295e-01,8.940493464469909668e-01,4.102704823017120361e-01,-6.105794310569763184e-01,5.835124254226684570e-01,-2.408216446638107300e-01,3.787362203001976013e-02,9.413792192935943604e-02,-3.330625295639038086e-01,-9.234434366226196289e-01,2.826251983642578125e-01,7.614098787307739258e-01,-4.173515141010284424e-01,-3.800827264785766602e-01
6.973572969436645508e-01,8.375078439712524414e-01,4.531993567943572998e-01,-6.466332077980041504e-01,5.845595002174377441e-01,-3.813102245330810547e-01,-2.002209573984146118e-01,-7.315678987652063370e-03,-3.033231198787689209e-01,-8.083455562591552734e-01,2.235483825206756592e-01,8.227297663688659668e-01,-4.245369136333465576e-01,-2.384117841720581055e-01
6.095207929611206055e-01,6.844824552536010742e-01,4.046899080276489258e-01,-4.710464775562286377e-01,5.259188413619995117e-01,-2.675911784172058105e-01,-1.157711744308471680e-01,1.509784460067749023e-01,-3.706288933753967285e-01,-8.442211747169494629e-01,2.315013259649276733e-01,9.183673858642578125e-01,-4.550418257713317871e-01,-8.659435808658599854e-02
7.674646973609924316e-01,6.093140840530395508e-01,1.821045726537704468e-01,-5.715637803077697754e-01,6.151089072227478027e-01,-1.001128852367401123e-01,-1.395914703607559204e-01,-4.746755212545394897e-02,-4.806615114212036133e-01,-8.585118651390075684e-01,1.374528110027313232e-01,8.505479693412780762e-01,-5.040405392646789551e-01,-2.929278649389743805e-02
5.354163646697998047e-01,8.010138273239135742e-01,3.470671176910400391e-01,-5.646377801895141602e-01,6.055213212966918945e-01,-1.895432323217391968e-01,-2.184355854988098145e-01,1.780117005109786987e-01,-4.732941389083862305e-01,-9.757506251335144043e-01,1.124196872115135193e-01,9.470720291137695312e-01,-5.290305018424987793e-01,-2.011334151029586792e-01
4.633870720863342285e-01,6.985980272293090820e-01,3.583132922649383545e-01,-4.135167896747589111e-01,5.868248343467712402e-01,-3.703540861606597900e-01,-9.979054331779479980e-02,3.910042345523834229e-02,-5.521435737609863281e-01,-9.679771065711975098e-01,7.522769272327423096e-02,9.598543047904968262e-01,-4.666872024536132812e-01,-1.378982812166213989e-01
5.202617645263671875e-01,6.295831799507141113e-01,1.550405770540237427e-01,-5.423910021781921387e-01,4.760399758815765381e-01,-2.884309291839599609e-01,-1.152965798974037170e-01,2.225647121667861938e-01,-6.605118513107299805e-01,-8.857077956199645996e-01,8.020172826945781708e-03,6.762108206748962402e-01,-4.341437816619873047e-01,2.767349965870380402e-02
4.794842898845672607e-01,5.728647112846374512e-01,1.824456304311752319e-01,-5.539729595184326172e-01,2.741388380527496338e-01,-3.639049828052520752e-01,-3.607459962368011475e-01,-1.139894351363182068e-01,-6.346399188041687012e-01,-9.119914174079895020e-01,-8.806070685386657715e-02,6.441229581832885742e-01,-3.908396661281585693e-01,-1.013469770550727844e-01
4.661822021007537842e-01,6.845660805702209473e-01,6.074994057416915894e-02,-2.018954753875732422e-01,4.131010770797729492e-01,-2.817562818527221680e-01,-1.572878807783126831e-01,1.946632862091064453e-01,-6.864023804664611816e-01,-7.815571427345275879e-01,1.631629765033721924e-01,6.111048460006713867e-01,-2.797224819660186768e-01,2.810999192297458649e-02
3.820017576217651367e-01,7.856296300888061523e-01,-1.087835803627967834e-01,-2.798123359680175781e-01,3.604198992252349854e-01,-1.622432470321655273e-01,-2.255576699972152710e-01,-4.039544239640235901e-02,-8.907655477523803711e-01,-7.512236833572387695e-01,-1.137812659144401550e-01,6.195597648620605469e-01,-2.727508544921875000e-01,-1.041766479611396790e-01
1.631170362234115601e-01,5.583009123802185059e-01,-2.100742608308792114e-01,-3.253876268863677979e-01,2.420759350061416626e-01,-1.881564110517501831e-01,-2.467484921216964722e-01,-6.654473394155502319e-02,-6.878573298454284668e-01,-7.308185696601867676e-01,1.352312266826629639e-01,7.833001017570495605e-01,-3.133146464824676514e-01,2.959697507321834564e-02
2.848117053508758545e-01,6.204733252525329590e-01,-3.612037599086761475e-01,-2.595120370388031006e-01,1.839173883199691772e-01,1.084609981626272202e-02,-2.878847122192382812e-01,-3.450405225157737732e-02,-7.116038203239440918e-01,-9.903660416603088379e-01,-4.307458002585917711e-04,6.873642802238464355e-01,-2.955416738986968994e-01,2.290353924036026001e-01
2.458105385303497314e-01,5.112391114234924316e-01,-2.993006110191345215e-01,-1.688327789306640625e-01,2.908450663089752197e-01,-1.003980934619903564e-01,-4.068237245082855225e-01,-1.496923863887786865e-01,-7.864562869071960449e-01,-6.654742956161499023e-01,-9.720540046691894531e-02,5.300890803337097168e-01,-1.622469574213027954e-01,9.458629786968231201e-02
1.321825534105300903e-01,3.498657643795013428e-01,-3.324138820171356201e-01,-8.334703743457794189e-02,2.075802236795425415e-01,-1.803289800882339478e-01,-2.264041751623153687e-01,-1.136997565627098083e-01,-7.791341543197631836e-01,-6.234038472175598145e-01,1.746167801320552826e-02,5.316376686096191406e-01,-2.444128543138504028e-01,2.053372859954833984e-01
1.121278703212738037e-01,5.064315795898437500e-01,-3.834585249423980713e-01,-2.192746996879577637e-01,1.613128036260604858e-01,-1.140956282615661621e-01,-2.237654179334640503e-01,-2.073779553174972534e-01,-9.021159410476684570e-01,-5.251978039741516113e-01,4.098286852240562439e-02,6.166833043098449707e-01,-1.664838045835494995e-01,1.094964966177940369e-01
2.916347980499267578e-02,2.739573121070861816e-01,-4.261401593685150146e-01,-7.222247123718261719e-02,3.590262532234191895e-01,-1.839644759893417358e-01,-5.984322726726531982e-02,-2.319585531949996948e-01,-9.416075944900512695e-01,-5.440071821212768555e-01,1.362290531396865845e-01,6.067680120468139648e-01,-1.544272452592849731e-01,5.114822387695312500e-01
-1.732267737388610840e-01,3.320669233798980713e-01,-6.968935132026672363e-01,-1.269190013408660889e-01,2.558820247650146484e-01,-2.597803473472595215e-01,-3.371097445487976074e-01,-1.430619955062866211e-01,-7.888904809951782227e-01,-5.268221497535705566e-01,-1.630560159683227539e-01,3.790757358074188232e-01,1.583411842584609985e-01,4.746177792549133301e-01
-1.124650090932846069e-01,2.381585985422134399e-01,-4.418368935585021973e-01,-6.455703824758529663e-02,2.332693934440612793e-01,-1.416700193658471107e-03,-4.465547204017639160e-01,-3.140767514705657959e-01,-9.709209799766540527e-01,-2.751968204975128174e-01,-3.863938897848129272e-02,2.340761385858058929e-02,-1.998019218444824219e-01,3.963510096073150635e-01
-1.093231886625289917e-01,3.002128601074218750e-01,-4.815199375152587891e-01,-4.475084715522825718e-04,3.151475191116333008e-01,-1.762981712818145752e-02,-4.251563251018524170e-01,-3.357017934322357178e-01,-9.437546133995056152e-01,-2.878506779670715332e-01,1.234438940882682800e-01,2.560881078243255615e-01,-1.443259567022323608e-01,4.480612277984619141e-01
-1.736645549535751343e-01,4.050625488162040710e-02,-5.834399461746215820e-01,1.128029730170965195e-02,2.302203625440597534e-01,-1.303367316722869873e-01,-1.737630367279052734e-01,-4.342273771762847900e-01,-7.481211423873901367e-01,-1.309267431497573853e-01,7.497123628854751587e-02,2.595758140087127686e-01,-1.171095743775367737e-01,4.463934600353240967e-01
-3.198330998420715332e-01,1.186539158225059509e-01,-7.840535044670104980e-01,1.141729131340980530e-01,1.289296746253967285e-01,-6.704862415790557861e-02,-4.059881567955017090e-01,-3.885071575641632080e-01,-7.001388669013977051e-01,-1.986802220344543457e-01,6.830553710460662842e-02,1.328640878200531006e-01,-1.062727048993110657e-01,5.441818833351135254e-01
-6.115699186921119690e-02,-7.199952006340026855e-02,-6.726450920104980469e-01,1.190588548779487610e-01,1.587843000888824463e-01,4.175338521599769592e-02,-2.538731992244720459e-01,-2.508249878883361816e-01,-5.912742614746093750e-01,5.873388051986694336e-02,1.920304894447326660e-01,1.335461884737014771e-01,3.703342005610466003e-02,3.425937592983245850e-01
-2.871821522712707520e-01,-1.059633791446685791e-01,-7.434000968933105469e-01,-4.895382374525070190e-02,2.637977302074432373e-01,1.557290833443403244e-02,-4.171947836875915527e-01,-5.123319625854492188e-01,-7.924903035163879395e-01,5.742327123880386353e-02,5.569653958082199097e-02,5.457872897386550903e-02,-9.211242198944091797e-02,4.471152424812316895e-01
-3.157406449317932129e-01,-4.827350378036499023e-01,-7.270538210868835449e-01,-1.871329441200941801e-04,2.390043586492538452e-01,-2.001405954360961914e-01,-5.390871167182922363e-01,-5.472931861877441406e-01,-5.659089088439941406e-01,1.874625682830810547e-02,-1.320379227399826050e-01,-1.383048295974731445e-01,-2.044508308172225952e-01,4.531939625740051270e-01
-1.855634003877639771e-01,2.981426380574703217e-02,-6.393158435821533203e-01,1.346420347690582275e-01,1.992292702198028564e-01,-1.172138843685388565e-02,-2.593284845352172852e-01,-5.001527070999145508e-01,-6.037527918815612793e-01,-8.217952214181423187e-03,1.088756769895553589e-01,-1.285842657089233398e-01,6.398597359657287598e-02,4.325994551181793213e-01
-2.173228710889816284e-01,-1.787818372249603271e-01,-8.221212625503540039e-01,3.924091756343841553e-01,1.073818840086460114e-02,-3.234867379069328308e-02,-3.376402556896209717e-01,-5.991741418838500977e-01,-3.418140709400177002e-01,1.159596294164657593e-01,3.868881165981292725e-01,-8.890089392662048340e-02,-6.192459538578987122e-02,4.700446501374244690e-02
-1.208574771881103516e-01,-3.580132722854614258e-01,-7.851249575614929199e-01,1.633999049663543701e-01,1.678472608327865601e-01,1.187899336218833923e-01,-4.879200458526611328e-01,-3.769274353981018066e-01,-2.344462871551513672e-01,8.282393217086791992e-02,2.566067278385162354e-01,4.036179557442665100e-02,-5.818254873156547546e-02,1.735030710697174072e-01
-8.898973464965820312e-02,-4.333380460739135742e-01,-8.776111006736755371e-01,2.665533125400543213e-01,3.492116928100585938e-02,1.356212943792343140e-01,-3.604205846786499023e-01,-6.467131972312927246e-01,-2.630595862865447998e-01,7.747951894998550415e-02,1.826681345701217651e-01,-1.460976004600524902e-01,-5.069695785641670227e-02,9.293929487466812134e-02
-9.991424530744552612e-02,-4.018434286117553711e-01,-6.760976314544677734e-01,2.707144618034362793e-01,5.052642896771430969e-02,1.902796179056167603e-01,-4.270707070827484131e-01,-6.188637614250183105e-01,-3.210561573505401611e-01,1.672295778989791870e-01,4.377746880054473877e-01,-2.294618263840675354e-02,-2.590366303920745850e-01,1.742955744266510010e-01
-1.683953702449798584e-01,-3.040202558040618896e-01,-6.651480197906494141e-01,3.021661341190338135e-01,-1.475243419408798218e-01,-2.807492390275001526e-02,-3.641898930072784424e-01,-5.696051716804504395e-01,-2.983301281929016113e-01,2.161916047334671021e-01,4.218907356262207031e-01,-3.490680083632469177e-02,-1.619276702404022217e-01,-7.297423481941223145e-02
-1.093713268637657166e-01,-5.811328291893005371e-01,-6.724008917808532715e-01,4.028351902961730957e-01,7.477392256259918213e-02,2.819993160665035248e-02,-1.902852505445480347e-01,-5.717181563377380371e-01,-2.291979491710662842e-01,-3.806434944272041321e-02,3.792855739593505859e-01,9.679104387760162354e-02,-1.105354130268096924e-01,-1.005574539303779602e-01
-3.168409466743469238e-01,-4.163499772548675537e-01,-7.513536214828491211e-01,5.447615385055541992e-01,-1.547522693872451782e-01,2.365396618843078613e-01,-4.682197272777557373e-01,-6.291313171386718750e-01,-2.425423413515090942e-01,2.156013943022117019e-04,4.433463215827941895e-01,-6.437417119741439819e-02,-2.944654822349548340e-01,3.031800985336303711e-01
-4.642542451620101929e-02,-2.311164587736129761e-01,-6.619051098823547363e-01,4.604067504405975342e-01,-2.774398028850555420e-01,7.810329645872116089e-02,-2.945572733879089355e-01,-6.450676321983337402e-01,-1.499025672674179077e-01,5.065346509218215942e-02,2.958488762378692627e-01,-2.376397103071212769e-01,-2.438381463289260864e-01,1.370010673999786377e-01
-1.894105523824691772e-01,-5.252298116683959961e-01,-7.221662402153015137e-01,3.336234986782073975e-01,-2.241474241018295288e-01,-1.099520176649093628e-02,-1.926507949829101562e-01,-3.920167982578277588e-01,-1.888730376958847046e-01,7.571630645543336868e-03,3.665798008441925049e-01,-4.367464222013950348e-03,-2.699549794197082520e-01,8.281514048576354980e-02
5.773739144206047058e-02,-4.071728587150573730e-01,-5.543344616889953613e-01,6.765919327735900879e-01,-2.516597807407379150e-01,1.884573400020599365e-01,-9.525135159492492676e-02,-5.601884722709655762e-01,-2.351407855749130249e-01,1.861795932054519653e-01,3.945433497428894043e-01,1.320880800485610962e-01,-5.247884988784790039e-01,1.079947203397750854e-01
-1.376075670123100281e-02,-1.999749541282653809e-01,-3.622081875801086426e-01,3.842230439186096191e-01,-3.174999356269836426e-01,6.356312334537506104e-02,-1.846781522035598755e-01,-5.423704385757446289e-01,-4.472221434116363525e-02,2.918796837329864502e-01,5.033336877822875977e-01,-2.917362377047538757e-02,-5.396746993064880371e-01,9.121134877204895020e-02
-1.292714029550552368e-01,-3.656712770462036133e-01,-3.463155031204223633e-01,2.818661630153656006e-01,-5.181245207786560059e-01,2.688132226467132568e-01,1.012699007987976074e-01,-5.052196979522705078e-01,-2.489499002695083618e-02,2.727310061454772949e-01,3.266206979751586914e-01,-2.035671621561050415e-01,-7.237557768821716309e-01,1.836390346288681030e-01
-8.701620250940322876e-02,-4.297476112842559814e-01,-3.285208642482757568e-01,4.331086874008178711e-01,-3.363697826862335205e-01,7.951455563306808472e-02,-3.716159984469413757e-02,-5.526615977287292480e-01,1.095527783036231995e-01,2.665416896343231201e-01,3.646060228347778320e-01,-2.621803879737854004e-01,-5.304280519485473633e-01,2.859625965356826782e-02
5.297133699059486389e-02,-4.108898043632507324e-01,-1.613755524158477783e-01,1.879411488771438599e-01,-5.116819739341735840e-01,1.519569568336009979e-02,2.031869255006313324e-02,-2.365919649600982666e-01,-9.529367834329605103e-02,4.780502915382385254e-01,4.966689646244049072e-01,-2.818846404552459717e-01,-4.190172851085662842e-01,1.173352226614952087e-01
-2.650760114192962646e-01,-5.269228816032409668e-01,-2.516465485095977783e-01,3.367646336555480957e-01,-5.004999041557312012e-01,-9.795267879962921143e-02,1.851974278688430786e-01,-4.941389858722686768e-01,-2.347997128963470459e-01,4.235343337059020996e-01,5.922085046768188477e-01,-2.053836360573768616e-02,-7.253649234771728516e-01,1.256334185600280762e-01
-2.703542634844779968e-02,-3.879295587539672852e-01,-3.187454342842102051e-01,1.409612037241458893e-02,-7.373054623603820801e-01,3.023957833647727966e-02,4.625664651393890381e-01,-2.043754160404205322e-01,3.914015367627143860e-02,4.848374724388122559e-01,2.436920851469039917e-01,-2.876164913177490234e-01,-7.160841822624206543e-01,-1.379654160700738430e-03
1.877113282680511475e-01,-5.937777757644653320e-01,-3.157007396221160889e-01,1.724824458360671997e-01,-5.769484043121337891e-01,-1.661531031131744385e-01,5.878117680549621582e-01,-1.743109524250030518e-01,5.023273825645446777e-02,6.026115417480468750e-01,3.411445021629333496e-01,-3.528992235660552979e-01,-6.263543963432312012e-01,2.268406897783279419e-01
1.299492418766021729e-01,-7.892239689826965332e-01,-2.579648494720458984e-01,-2.188803255558013916e-02,-5.888921618461608887e-01,-3.188438415527343750e-01,4.413309395313262939e-01,1.134621053934097290e-01,6.718778610229492188e-02,5.060428380966186523e-01,1.793440580368041992e-01,-3.300837576389312744e-01,-7.208259701728820801e-01,4.551102593541145325e-02
-1.224598847329616547e-02,-6.736248135566711426e-01,-2.716568112373352051e-01,1.826016046106815338e-02,-5.057368278503417969e-01,-4.335942864418029785e-01,4.260635972023010254e-01,-2.576660215854644775e-01,9.064504504203796387e-02,7.494408488273620605e-01,3.389137685298919678e-01,-3.677642345428466797e-01,-8.526055812835693359e-01,1.779877692461013794e-01
1.262555718421936035e-01,-7.720552682876586914e-01,-1.241345107555389404e-01,1.519045140594244003e-02,-6.100148558616638184e-01,-4.354089498519897461e-01,5.218129158020019531e-01,-1.358397603034973145e-01,7.710264623165130615e-02,5.173270106315612793e-01,3.288498818874359131e-01,-1.941167116165161133e-01,-5.984091162681579590e-01,6.966993212699890137e-02
1.701719127595424652e-02,-7.419739365577697754e-01,-1.692389845848083496e-01,-3.460275828838348389e-01,-7.240130901336669922e-01,-5.951188206672668457e-01,5.950187444686889648e-01,-3.732246533036231995e-02,-1.897504627704620361e-01,7.743865847587585449e-01,5.071741342544555664e-01,-4.593080282211303711e-01,-7.156219482421875000e-01,2.000922262668609619e-01
9.679913520812988281e-02,-7.737909555435180664e-01,-2.328315526247024536e-01,-1.554836332798004150e-01,-5.389673709869384766e-01,-4.573033154010772705e-01,7.624607086181640625e-01,-2.727867290377616882e-02,3.666952624917030334e-02,4.838826060295104980e-01,2.946031391620635986e-01,-2.386213541030883789e-01,-7.325321435928344727e-01,-9.116365760564804077e-02
1.772188097238540649e-01,-6.559311151504516602e-01,-2.147155106067657471e-01,-4.661875367164611816e-01,-5.863421559333801270e-01,-7.960297465324401855e-01,5.468322038650512695e-01,-5.090505629777908325e-02,-1.818073689937591553e-01,6.348694562911987305e-01,3.147822022438049316e-01,-3.352919816970825195e-01,-6.894876360893249512e-01,-1.204331368207931519e-01
2.050581276416778564e-01,-7.262716293334960938e-01,-9.722410142421722412e-02,-4.641627967357635498e-01,-6.276698708534240723e-01,-6.754931211471557617e-01,8.387075662612915039e-01,4.278594627976417542e-03,-1.037610545754432678e-01,5.164679884910583496e-01,6.339613795280456543e-01,-2.101571708917617798e-01,-5.739713311195373535e-01,-1.275386065244674683e-01
2.357647418975830078e-01,-7.809705138206481934e-01,-4.231430590152740479e-02,-4.662896096706390381e-01,-5.342103242874145508e-01,-6.379471421241760254e-01,6.239365339279174805e-01,-1.071357131004333496e-01,-1.945536136627197266e-01,6.869392991065979004e-01,4.548192024230957031e-01,-1.493694782257080078e-01,-6.484096646308898926e-01,-4.780865460634231567e-02
2.949616909027099609e-01,-8.099942207336425781e-01,-2.985291481018066406e-01,-3.552702367305755615e-01,-7.028568387031555176e-01,-6.934860944747924805e-01,7.613102793693542480e-01,6.031848117709159851e-02,-3.552522659301757812e-01,5.187816023826599121e-01,5.722960829734802246e-01,-2.704049944877624512e-01,-3.816727995872497559e-01,7.034274935722351074e-02
6.271855533123016357e-02,-9.089385867118835449e-01,-9.752113372087478638e-02,-4.162729084491729736e-01,-4.378753006458282471e-01,-8.201597332954406738e-01,8.459364771842956543e-01,-2.014733999967575073e-01,-1.781125813722610474e-01,5.851497054100036621e-01,6.127710342407226562e-01,-2.772645950317382812e-01,-3.646076321601867676e-01,5.468178912997245789e-02
1.985644996166229248e-01,-1.005979299545288086e+00,-3.378642722964286804e-02,-4.456682503223419189e-01,-4.860354363918304443e-01,-6.961261630058288574e-01,9.166550636291503906e-01,3.509249538183212280e-02,-3.727347254753112793e-01,4.784847199916839600e-01,5.299713015556335449e-01,-2.027138620615005493e-01,-4.429685175418853760e-01,-3.546069860458374023e-01
1.304923444986343384e-01,-7.536930441856384277e-01,5.184566974639892578e-02,-4.203046858310699463e-01,-4.552181959152221680e-01,-8.586317896842956543e-01,8.957554101943969727e-01,-1.421462744474411011e-02,-1.692813038825988770e-01,6.226182579994201660e-01,5.490607619285583496e-01,-1.799917370080947876e-01,-3.941437304019927979e-01,-1.161000952124595642e-01
2.017816752195358276e-01,-6.561757922172546387e-01,4.947948828339576721e-02,-3.793644309043884277e-01,-2.874322235584259033e-01,-7.754989266395568848e-01,9.243676066398620605e-01,1.566183716058731079e-01,-4.531233906745910645e-01,4.461117088794708252e-01,7.521854043006896973e-01,-2.956576347351074219e-01,-4.454893171787261963e-01,-4.788792431354522705e-01
2.002249211072921753e-01,-7.118649482727050781e-01,1.198934689164161682e-01,-3.735693693161010742e-01,-3.851086497306823730e-01,-7.077659368515014648e-01,9.111537933349609375e-01,2.402313649654388428e-01,-4.914650022983551025e-01,6.595534086227416992e-01,7.115845680236816406e-01,6.722757965326309204e-02,-3.897256255149841309e-01,-9.438056498765945435e-02
3.680413663387298584e-01,-7.159442901611328125e-01,9.509493410587310791e-02,-3.316414952278137207e-01,-2.506422698497772217e-01,-7.236906290054321289e-01,7.446109056472778320e-01,4.112015664577484131e-02,-4.636066854000091553e-01,3.670072853565216064e-01,6.394545435905456543e-01,-2.015227079391479492e-02,-4.090980589389801025e-01,-7.893066108226776123e-02
4.742421209812164307e-01,-5.746204257011413574e-01,7.545129209756851196e-02,-2.585724294185638428e-01,-2.325866222381591797e-01,-8.324488997459411621e-01,9.334749579429626465e-01,2.217649817466735840e-01,-2.462561577558517456e-01,3.023988902568817139e-01,6.178112626075744629e-01,-1.161611229181289673e-01,-2.894884645938873291e-01,-2.128928750753402710e-01
5.382396578788757324e-01,-5.861227512359619141e-01,2.686430215835571289e-01,-4.408591091632843018e-01,1.584224700927734375e-01,-6.383416652679443359e-01,9.270036220550537109e-01,5.759514495730400085e-02,-5.437735319137573242e-01,4.966071546077728271e-01,6.477655768394470215e-01,-1.596863716840744019e-01,-2.394814044237136841e-01,-2.203341126441955566e-01
3.821277320384979248e-01,-3.646709620952606201e-01,3.025969862937927246e-01,-4.871295690536499023e-01,-6.068187579512596130e-02,-7.406665682792663574e-01,9.421491026878356934e-01,-3.637099405750632286e-03,-2.810501456260681152e-01,3.003099858760833740e-01,6.340563297271728516e-01,-1.361857354640960693e-01,-3.834131360054016113e-01,-2.431493699550628662e-01
5.501502752304077148e-01,-3.644751906394958496e-01,3.135727345943450928e-01,-3.674764931201934814e-01,-1.752017140388488770e-01,-6.640032529830932617e-01,9.486089348793029785e-01,2.680086493492126465e-01,-1.701056212186813354e-01,3.100436031818389893e-01,6.977889537811279297e-01,2.262606918811798096e-01,-1.351269781589508057e-01,-3.524428904056549072e-01
5.215585231781005859e-01,-3.453517258167266846e-01,3.556591868400573730e-01,-5.338904261589050293e-01,1.552748233079910278e-01,-5.714906454086303711e-01,7.572421431541442871e-01,1.423305869102478027e-01,-3.489211499691009521e-01,2.232825607061386108e-01,5.424168109893798828e-01,1.434827893972396851e-01,-2.705747783184051514e-01,-2.553826868534088135e-01
5.906689763069152832e-01,-3.178904056549072266e-01,1.972396522760391235e-01,-4.741845726966857910e-01,1.162965372204780579e-01,-5.951791405677795410e-01,8.082028627395629883e-01,8.399086445569992065e-02,-3.497236073017120361e-01,6.310313194990158081e-02,5.592979192733764648e-01,2.197296619415283203e-01,-1.207488924264907837e-01,-3.462680280208587646e-01
7.110835909843444824e-01,-4.734414815902709961e-01,2.634972333908081055e-01,-2.890201210975646973e-01,3.795636445283889771e-02,-5.731946229934692383e-01,6.207855939865112305e-01,1.424458771944046021e-01,-2.827680110931396484e-01,1.208211854100227356e-01,5.553896427154541016e-01,3.773343563079833984e-01,-5.802729353308677673e-02,-2.532814443111419678e-01
8.766034245491027832e-01,-2.268280237913131714e-01,4.448057413101196289e-01,-3.796793818473815918e-01,-1.126251754612894729e-05,-6.394089460372924805e-01,4.291054904460906982e-01,8.897349238395690918e-02,-3.871842920780181885e-01,1.861255168914794922e-01,5.238955616950988770e-01,3.430462181568145752e-01,1.700487360358238220e-02,-3.777913451194763184e-01
9.520139098167419434e-01,-2.017526924610137939e-01,3.863009214401245117e-01,-4.622840881347656250e-01,-8.993461728096008301e-02,-5.476349592208862305e-01,6.305533647537231445e-01,4.110865667462348938e-02,2.655185235198587179e-04,9.007117897272109985e-02,5.600159168243408203e-01,5.172037482261657715e-01,2.282121777534484863e-02,-4.677736461162567139e-01
1.014397978782653809e+00,-1.223599538207054138e-01,3.737277090549468994e-01,-4.611441195011138916e-01,7.402250170707702637e-02,-5.689178705215454102e-01,5.752252340316772461e-01,-9.831602871417999268e-02,-1.937473416328430176e-01,-5.560091882944107056e-02,3.760518729686737061e-01,5.402673482894897461e-01,1.069137826561927795e-01,-5.438320636749267578e-01
1.046738147735595703e+00,-7.481509447097778320e-02,3.599017858505249023e-01,-2.754736244678497314e-01,-5.784377455711364746e-02,-6.697465777397155762e-01,4.755317866802215576e-01,-5.423464346677064896e-03,-3.860598206520080566e-01,-3.230007365345954895e-02,2.799355089664459229e-01,5.889827013015747070e-01,5.152782425284385681e-02,-5.769425630569458008e-01
9.301509261131286621e-01,-1.779439114034175873e-02,5.280042290687561035e-01,-1.331160217523574829e-01,-1.075407266616821289e-01,-4.731366634368896484e-01,4.510274529457092285e-01,7.333917170763015747e-02,-3.550887703895568848e-01,-3.080280721187591553e-01,2.562397122383117676e-01,5.031789541244506836e-01,1.517581567168235779e-02,-2.500088810920715332e-01
1.149357438087463379e+00,2.692324519157409668e-01,2.386477291584014893e-01,-1.017064079642295837e-01,2.285941876471042633e-02,-4.295522272586822510e-01,4.940438568592071533e-01,-8.970077149569988251e-03,-2.732908725738525391e-01,-2.847851514816284180e-01,3.073719739913940430e-01,6.357839703559875488e-01,-2.170727588236331940e-02,-4.073788225650787354e-01
1.116610884666442871e+00,5.369048193097114563e-02,4.567863345146179199e-01,-1.726345568895339966e-01,6.093769893050193787e-02,-3.471643626689910889e-01,4.077325761318206787e-01,8.921296149492263794e-02,-4.428275227546691895e-01,-2.526267170906066895e-01,1.791139692068099976e-01,8.274609446525573730e-01,3.860424086451530457e-02,-2.974477112293243408e-01
9.900748729705810547e-01,2.154441177845001221e-01,4.281983375549316406e-01,4.453599825501441956e-02,-1.815782338380813599e-01,-3.688101172447204590e-01,4.858167171478271484e-01,3.642626479268074036e-02,-4.898076653480529785e-01,-3.337211012840270996e-01,3.605786561965942383e-01,7.387294173240661621e-01,2.355931997299194336e-01,-1.124231889843940735e-01
9.799231886863708496e-01,1.316905766725540161e-01,3.112986385822296143e-01,-1.443110406398773193e-01,-9.322971105575561523e-02,-3.843330442905426025e-01,3.526091575622558594e-01,-8.772373199462890625e-02,-3.379867374897003174e-01,-3.616459071636199951e-01,7.083241641521453857e-02,9.559706449508666992e-01,7.163351774215698242e-02,-2.972017526626586914e-01
9.301045536994934082e-01,3.093257248401641846e-01,5.925095081329345703e-01,-1.310432106256484985e-01,-1.901766657829284668e-01,-1.978803724050521851e-01,3.683385252952575684e-01,-1.277897059917449951e-01,-2.948184013366699219e-01,-4.610827565193176270e-01,-9.173815697431564331e-02,1.086362838745117188e+00,1.062563061714172363e-01,-2.461590319871902466e-01
8.389194607734680176e-01,3.681978285312652588e-01,1.472073197364807129e-01,-3.637713789939880371e-01,-2.094627171754837036e-01,-3.545721769332885742e-01,3.211351931095123291e-01,-6.915625184774398804e-03,-3.301267027854919434e-01,-5.415854454040527344e-01,-3.201694786548614502e-02,9.210421442985534668e-01,2.666208446025848389e-01,-1.335017830133438110e-01
1.002111792564392090e+00,3.454669415950775146e-01,4.037483334541320801e-01,-1.481728702783584595e-01,-3.566672801971435547e-01,-4.226964339613914490e-02,6.791468858718872070e-01,-4.001579806208610535e-02,-4.503273665904998779e-01,-2.336750030517578125e-01,2.099706232547760010e-02,9.960057139396667480e-01,1.054304763674736023e-01,-5.102558806538581848e-02
9.814518690109252930e-01,5.000185370445251465e-01,4.089798927307128906e-01,-2.074637450277805328e-02,-3.206735551357269287e-01,-1.817402690649032593e-01,4.598706662654876709e-01,4.666323959827423096e-02,-4.895943701267242432e-01,-2.644165754318237305e-01,-2.816082537174224854e-01,8.986328840255737305e-01,5.755909904837608337e-02,2.016774117946624756e-01
7.676017880439758301e-01,2.570702433586120605e-01,2.120444327592849731e-01,4.283058643341064453e-02,-4.290658831596374512e-01,-1.098537370562553406e-01,5.664977431297302246e-01,-6.309698522090911865e-02,-4.688642024993896484e-01,-1.651232987642288208e-01,-3.479885458946228027e-01,7.429488897323608398e-01,2.583461701869964600e-01,2.343387156724929810e-01
6.957767009735107422e-01,2.971026599407196045e-01,2.799435555934906006e-01,-2.078513652086257935e-01,-4.575405120849609375e-01,-5.900904536247253418e-02,3.238825500011444092e-01,-6.391040235757827759e-02,-3.802655637264251709e-01,-2.611671090126037598e-01,-3.397899866104125977e-01,7.781150341033935547e-01,7.127298414707183838e-02,2.001534104347229004e-01
6.820967197418212891e-01,3.555211126804351807e-01,1.626448929309844971e-01,-9.169166535139083862e-02,-2.961587011814117432e-01,-3.970545157790184021e-02,3.980449736118316650e-01,8.352582156658172607e-02,-6.040722727775573730e-01,-2.486219555139541626e-01,-4.352225959300994873e-01,9.153320789337158203e-01,2.056653201580047607e-01,3.366468846797943115e-01
7.415374517440795898e-01,3.997878730297088623e-01,2.085238099098205566e-01,-4.611398279666900635e-02,-4.110575914382934570e-01,-2.254357039928436279e-01,4.492293596267700195e-01,-3.580814599990844727e-02,-5.488424301147460938e-01,-1.364633888006210327e-01,-5.452452898025512695e-01,6.141515970230102539e-01,2.027578800916671753e-01,2.191647887229919434e-01
5.447716116905212402e-01,2.974545359611511230e-01,3.795074522495269775e-01,-1.602844893932342529e-01,-4.598852097988128662e-01,1.212183572351932526e-02,5.151256918907165527e-01,-1.597542315721511841e-01,-4.960152506828308105e-01,-1.314144115895032883e-02,-5.925163030624389648e-01,5.141083002090454102e-01,2.301181256771087646e-01,3.026836216449737549e-01
7.454967498779296875e-01,3.681740462779998779e-01,-2.335932292044162750e-02,-3.961038291454315186e-01,-4.992715120315551758e-01,-2.372747287154197693e-02,2.788507044315338135e-01,-1.365271061658859253e-01,-4.648963510990142822e-01,-8.620435744524002075e-02,-4.311110675334930420e-01,4.574185311794281006e-01,-2.037078700959682465e-02,2.683432698249816895e-01
6.861379742622375488e-01,1.280535310506820679e-01,-8.330208063125610352e-02,-1.435242891311645508e-01,-5.407232046127319336e-01,-9.740929305553436279e-02,2.684124112129211426e-01,-5.847888812422752380e-02,-4.248063564300537109e-01,4.866330698132514954e-02,-3.861854672431945801e-01,5.050435662269592285e-01,3.269098103046417236e-01,1.851631999015808105e-01
5.649867057800292969e-01,3.177434951066970825e-02,-3.261410892009735107e-01,-8.546804636716842651e-02,-5.977004170417785645e-01,-8.307974785566329956e-02,1.988030821084976196e-01,-2.330435663461685181e-01,-3.977144360542297363e-01,-1.049590408802032471e-01,-5.189111232757568359e-01,3.870105743408203125e-01,2.736379206180572510e-01,4.408300220966339111e-01
5.432451963424682617e-01,1.277023553848266602e-01,-2.879259586334228516e-01,-2.419047802686691284e-01,-4.056039452552795410e-01,-8.824110031127929688e-03,2.362308800220489502e-01,-2.753298282623291016e-01,-3.016429245471954346e-01,2.439671196043491364e-03,-4.356960356235504150e-01,6.208298802375793457e-01,3.741550743579864502e-01,3.713830709457397461e-01
4.046096205711364746e-01,4.197751358151435852e-02,-4.210793375968933105e-01,-1.502372473478317261e-01,-6.958920955657958984e-01,-6.486482918262481689e-02,1.185300797224044800e-01,-4.859735667705535889e-01,-5.176452398300170898e-01,3.070751577615737915e-02,-3.802670240402221680e-01,4.469849765300750732e-01,3.960573971271514893e-01,3.106146156787872314e-01
3.790483772754669189e-01,6.051618978381156921e-02,-3.720331788063049316e-01,-2.106648385524749756e-01,-4.038305282592773438e-01,2.856221199035644531e-01,5.165427178144454956e-02,-3.856768012046813965e-01,-4.725690484046936035e-01,1.765212863683700562e-01,-4.716329276561737061e-01,5.000939369201660156e-01,4.094899594783782959e-01,2.934317290782928467e-01
1.346144080162048340e-01,-3.472007438540458679e-02,-6.491366624832153320e-01,-3.161548972129821777e-01,-4.229913055896759033e-01,3.179597854614257812e-01,1.989120841026306152e-01,-3.329622745513916016e-01,-3.486841022968292236e-01,8.882782608270645142e-02,-2.320367991924285889e-01,3.556012213230133057e-01,3.663248717784881592e-01,1.236684024333953857e-01
3.353845179080963135e-01,-9.794887900352478027e-02,-6.603086590766906738e-01,8.422335237264633179e-02,-4.975434839725494385e-01,2.770325243473052979e-01,2.206800729036331177e-01,-7.167945504188537598e-01,-1.638719588518142700e-01,2.559121549129486084e-01,-2.503640353679656982e-01,2.579236030578613281e-01,3.895338177680969238e-01,1.542273759841918945e-01
8.047894388437271118e-02,-9.676127880811691284e-02,-4.711242616176605225e-01,2.456233277916908264e-02,-4.972466528415679932e-01,2.770830988883972168e-01,2.279795706272125244e-02,-8.229267597198486328e-01,-2.812447547912597656e-01,-4.021806269884109497e-02,-1.718412041664123535e-01,2.301275432109832764e-01,4.366625249385833740e-01,2.614386379718780518e-01
5.211265385150909424e-02,-1.052265092730522156e-01,-5.945486426353454590e-01,2.287313491106033325e-01,-5.481758117675781250e-01,3.503696024417877197e-01,5.424818396568298340e-02,-7.466707229614257812e-01,-1.830301582813262939e-01,1.215426847338676453e-01,-1.101850345730781555e-01,2.606704831123352051e-01,4.632167220115661621e-01,1.496897339820861816e-01
2.541429996490478516e-01,-1.516620367765426636e-01,-5.008319020271301270e-01,1.971614509820938110e-01,-5.093750357627868652e-01,5.174215435981750488e-01,9.788573533296585083e-02,-7.272317409515380859e-01,-1.253275722265243530e-01,1.417037695646286011e-01,1.076609566807746887e-01,3.765939772129058838e-01,3.963357210159301758e-01,1.549399495124816895e-01
-6.986777484416961670e-02,-1.498395055532455444e-01,-6.071064472198486328e-01,1.148687675595283508e-01,-5.196784138679504395e-01,6.874796748161315918e-01,2.651886940002441406e-01,-8.647596240043640137e-01,-6.151600182056427002e-02,2.023194730281829834e-01,-1.981539577245712280e-01,3.830516040325164795e-01,5.136094689369201660e-01,1.397341042757034302e-01
-1.957638002932071686e-02,-1.749433428049087524e-01,-5.969376564025878906e-01,1.754618287086486816e-01,-4.168759584426879883e-01,5.210171341896057129e-01,-2.022877931594848633e-01,-9.918149709701538086e-01,1.129194051027297974e-01,7.662835717201232910e-02,-1.504633426666259766e-01,3.786314129829406738e-01,3.548838198184967041e-01,5.455418676137924194e-02
-7.910843193531036377e-02,-5.218998715281486511e-02,-6.790955066680908203e-01,2.671481668949127197e-01,-3.969321846961975098e-01,5.268852710723876953e-01,1.113421246409416199e-01,-9.185150265693664551e-01,8.006782084703445435e-02,3.446358740329742432e-01,1.367788910865783691e-01,1.542592793703079224e-01,2.463131248950958252e-01,-2.770591061562299728e-03
-2.918166518211364746e-01,-1.214410513639450073e-01,-6.650671958923339844e-01,3.263351321220397949e-01,-4.010878205299377441e-01,8.465259671211242676e-01,1.199754700064659119e-01,-8.599665164947509766e-01,1.685974448919296265e-01,1.955141127109527588e-01,5.893477052450180054e-02,2.853945791721343994e-01,3.498442769050598145e-01,-9.799045324325561523e-02
-2.774990797042846680e-01,8.079539239406585693e-02,-5.454636216163635254e-01,2.730088829994201660e-01,-6.310896873474121094e-01,5.574540495872497559e-01,-3.435092791914939880e-02,-9.645220637321472168e-01,1.176110580563545227e-01,1.024280712008476257e-01,2.220646105706691742e-02,1.629297882318496704e-01,4.154894053936004639e-01,1.520675607025623322e-02
1.539861690253019333e-02,-1.349492967128753662e-01,-6.520614624023437500e-01,3.544808924198150635e-01,-4.756902754306793213e-01,6.702744960784912109e-01,-1.298006623983383179e-02,-8.601928949356079102e-01,3.408999443054199219e-01,2.244150638580322266e-01,-1.342404540628194809e-02,2.841821312904357910e-01,4.073514416813850403e-02,5.522827431559562683e-02
-1.338073313236236572e-01,-2.150346338748931885e-01,-5.154566168785095215e-01,2.100605517625808716e-01,-5.024433135986328125e-01,7.717381715774536133e-01,4.160147905349731445e-02,-7.957617640495300293e-01,2.640127539634704590e-01,2.067333459854125977e-01,2.905873209238052368e-02,2.696672081947326660e-01,7.042075693607330322e-02,-2.108574360609054565e-01
-1.914552003145217896e-01,9.512382745742797852e-02,-6.413189172744750977e-01,1.293269395828247070e-01,-6.222161650657653809e-01,6.562758088111877441e-01,-5.730588454753160477e-03,-8.747954368591308594e-01,1.225851029157638550e-01,5.249617695808410645e-01,4.895900189876556396e-02,8.241845667362213135e-02,1.125065833330154419e-01,-9.208782017230987549e-02
-2.378562688827514648e-01,-1.455107331275939941e-01,-7.451153397560119629e-01,2.064847350120544434e-01,-6.539502739906311035e-01,9.306913018226623535e-01,1.601014137268066406e-01,-8.843176364898681641e-01,6.209308505058288574e-01,3.565034270286560059e-01,-6.003829836845397949e-02,2.753732800483703613e-01,-1.376299746334552765e-02,-1.076886877417564392e-01
-1.454280167818069458e-01,-1.052324548363685608e-01,-7.508830428123474121e-01,2.132091969251632690e-01,-6.154045462608337402e-01,9.045403003692626953e-01,-1.050277380272746086e-03,-7.779772877693176270e-01,4.301281273365020752e-01,2.577314376831054688e-01,2.082798033952713013e-01,3.932090103626251221e-01,-8.347988873720169067e-02,-2.830572426319122314e-01
-1.298270672559738159e-01,-1.640753298997879028e-01,-6.368182301521301270e-01,4.920955747365951538e-02,-7.009252905845642090e-01,7.540762424468994141e-01,8.020378649234771729e-02,-9.228452444076538086e-01,5.202332139015197754e-01,2.397173196077346802e-01,-6.573294848203659058e-02,2.259065508842468262e-01,-2.137283682823181152e-01,-9.128273278474807739e-02
-1.453261524438858032e-01,-1.807511746883392334e-01,-5.223508477210998535e-01,1.029765140265226364e-02,-7.552926540374755859e-01,9.266991019248962402e-01,5.252254754304885864e-02,-9.059083461761474609e-01,3.916710019111633301e-01,3.419232070446014404e-01,7.791507244110107422e-02,1.117742136120796204e-01,-5.488246083259582520e-01,-3.212507367134094238e-01
-6.208566576242446899e-02,-2.089903056621551514e-01,-6.724620461463928223e-01,1.619880199432373047e-01,-5.917811989784240723e-01,9.263716936111450195e-01,9.905464202165603638e-02,-8.068621754646301270e-01,7.377097010612487793e-01,3.415639996528625488e-01,1.501023620367050171e-01,8.441836386919021606e-02,-3.177925050258636475e-01,-3.403227031230926514e-01
-2.622108757495880127e-01,-3.910948932170867920e-01,-5.220152139663696289e-01,4.900261014699935913e-02,-6.657136678695678711e-01,7.491973042488098145e-01,-1.701556704938411713e-02,-7.952390313148498535e-01,4.455563426017761230e-01,-5.427204817533493042e-02,4.405587613582611084e-01,8.505376428365707397e-02,-3.607814610004425049e-01,-3.907260894775390625e-01
-2.882957160472869873e-01,-2.605748176574707031e-01,-5.712963938713073730e-01,4.467517882585525513e-02,-6.942493319511413574e-01,6.914578080177307129e-01,1.204869449138641357e-01,-7.877577543258666992e-01,4.805220067501068115e-01,2.982010841369628906e-01,2.507556974887847900e-01,2.083338610827922821e-02,-3.341966569423675537e-01,-5.916523933410644531e-01
-1.027938276529312134e-01,-4.439302086830139160e-01,-5.039036273956298828e-01,-4.018725827336311340e-03,-6.308243274688720703e-01,9.356982707977294922e-01,1.410562545061111450e-01,-4.807782769203186035e-01,3.480970859527587891e-01,2.369287461042404175e-01,3.278476595878601074e-01,1.131213903427124023e-01,-5.650446414947509766e-01,-3.482104539871215820e-01
-2.030693180859088898e-02,-3.405713737010955811e-01,-5.740182399749755859e-01,1.533934026956558228e-01,-7.657632231712341309e-01,7.522389888763427734e-01,1.293072998523712158e-01,-3.977334201335906982e-01,5.083485245704650879e-01,1.076389998197555542e-01,2.435501366853713989e-01,-3.609685972332954407e-02,-3.599689602851867676e-01,-5.730319619178771973e-01
-1.762798875570297241e-01,-4.052109122276306152e-01,-5.053674578666687012e-01,9.508544951677322388e-02,-6.797363162040710449e-01,6.730317473411560059e-01,3.508106172084808350e-01,-5.960719585418701172e-01,4.052083492279052734e-01,3.366136848926544189e-01,4.520611166954040527e-01,-1.235657781362533569e-01,-5.934273600578308105e-01,-5.232287049293518066e-01
-1.626714766025543213e-01,-3.048076033592224121e-01,-4.075062274932861328e-01,-1.895575821399688721e-01,-8.450675606727600098e-01,7.474787235260009766e-01,1.158383861184120178e-01,-4.922697246074676514e-01,2.331202179193496704e-01,4.886341392993927002e-01,6.923010349273681641e-01,7.186558097600936890e-02,-6.412479877471923828e-01,-4.559386670589447021e-01
-3.329417407512664795e-01,-3.142590224742889404e-01,-4.810853302478790283e-01,-1.565210819244384766e-01,-8.441033363342285156e-01,6.009919643402099609e-01,5.102574229240417480e-01,-4.566436111927032471e-01,3.298069834709167480e-01,3.405395746231079102e-01,4.757443070411682129e-01,3.273105621337890625e-02,-6.926092505455017090e-01,-3.806084692478179932e-01
-3.309809267520904541e-01,-3.068567812442779541e-01,-5.113640427589416504e-01,-5.849354714155197144e-02,-7.552973031997680664e-01,4.754292070865631104e-01,2.083762735128402710e-01,-2.603048682212829590e-01,2.924818396568298340e-01,4.204541146755218506e-01,4.199401140213012695e-01,-4.985325783491134644e-02,-5.406250953674316406e-01,-6.418381333351135254e-01
-3.616346120834350586e-01,-3.347228169441223145e-01,-6.228656768798828125e-01,-1.261997669935226440e-01,-5.196478366851806641e-01,4.844711720943450928e-01,4.636163413524627686e-01,-1.719123125076293945e-01,2.043363749980926514e-01,5.198403596878051758e-01,2.748440206050872803e-01,-1.481752544641494751e-01,-7.766943573951721191e-01,-5.834316015243530273e-01
-4.171593487262725830e-01,-4.346910715103149414e-01,-3.728312253952026367e-01,-2.355079799890518188e-01,-5.661949515342712402e-01,5.261020064353942871e-01,6.137473583221435547e-01,-4.115632772445678711e-01,-5.250629503279924393e-03,2.871936559677124023e-01,5.700970888137817383e-01,-2.120997942984104156e-02,-6.224838495254516602e-01,-4.051325321197509766e-01
-2.891703248023986816e-01,-4.134000837802886963e-01,-4.943829476833343506e-01,-3.911682665348052979e-01,-5.363100767135620117e-01,1.645330935716629028e-01,4.316563904285430908e-01,-1.193880513310432434e-01,1.569805443286895752e-01,2.150031924247741699e-01,4.238494038581848145e-01,-1.814001053571701050e-01,-7.811229825019836426e-01,-5.031696557998657227e-01
-3.303488194942474365e-01,-3.116033375263214111e-01,-4.640912711620330811e-01,-3.914015889167785645e-01,-7.242569923400878906e-01,2.730258107185363770e-01,6.128326058387756348e-01,-2.344707101583480835e-01,-4.334270954132080078e-02,4.945285320281982422e-01,4.685865342617034912e-01,-1.287984102964401245e-01,-7.147492766380310059e-01,-4.919816851615905762e-01
-4.859089851379394531e-01,-3.161467015743255615e-01,-5.183050632476806641e-01,-4.185478389263153076e-01,-5.047401189804077148e-01,3.760134577751159668e-01,6.105861663818359375e-01,1.298877894878387451e-01,1.329352706670761108e-01,4.274829924106597900e-01,6.601070165634155273e-01,3.064129129052162170e-02,-8.671177625656127930e-01,-6.787053346633911133e-01
-6.069803237915039062e-01,-5.592784285545349121e-01,-4.370737373828887939e-01,-3.789507448673248291e-01,-3.626123964786529541e-01,1.218062415719032288e-01,6.089823246002197266e-01,4.917596653103828430e-02,-4.578200355172157288e-02,3.314919769763946533e-01,5.443574786186218262e-01,-1.080735176801681519e-01,-6.338876485824584961e-01,-6.320707798004150391e-01
-4.380340874195098877e-01,-6.207150816917419434e-01,-2.096746265888214111e-01,-2.701004147529602051e-01,-1.572243124246597290e-01,2.641783654689788818e-01,5.281871557235717773e-01,-3.383519500494003296e-02,7.301739603281021118e-02,4.692905545234680176e-01,6.098416447639465332e-01,-3.317917287349700928e-01,-7.179129719734191895e-01,-6.381568312644958496e-01
-5.300362110137939453e-01,-5.632609724998474121e-01,-3.905979692935943604e-01,-5.350877046585083008e-01,-4.530635774135589600e-01,1.909431070089340210e-01,4.939176142215728760e-01,5.950873717665672302e-02,-4.388460889458656311e-02,5.483309030532836914e-01,7.249155640602111816e-01,-3.365441858768463135e-01,-6.298899650573730469e-01,-7.410580515861511230e-01
-3.898457884788513184e-01,-4.071944057941436768e-01,-4.958445429801940918e-01,-5.853231549263000488e-01,-1.306642889976501465e-01,-1.181015372276306152e-02,3.530562818050384521e-01,8.178126811981201172e-02,-6.141389533877372742e-02,4.487248063087463379e-01,6.131157279014587402e-01,-1.990387886762619019e-01,-6.783900856971740723e-01,-8.626852035522460938e-01
-4.734545946121215820e-01,-4.076537191867828369e-01,-4.800958931446075439e-01,-4.989594519138336182e-01,-1.851543597877025604e-02,-1.095676496624946594e-01,4.633226692676544189e-01,1.828035712242126465e-01,3.870517387986183167e-02,3.624942898750305176e-01,5.911843180656433105e-01,-3.468602597713470459e-01,-5.750661492347717285e-01,-7.911143898963928223e-01
-2.111699134111404419e-01,-6.333945393562316895e-01,-5.769953727722167969e-01,-3.785380125045776367e-01,-4.717281088232994080e-03,-1.200432330369949341e-01,5.250167250633239746e-01,2.478776574134826660e-01,-1.909185796976089478e-01,3.864525854587554932e-01,8.044112324714660645e-01,-3.940975368022918701e-01,-5.930685997009277344e-01,-6.526629924774169922e-01
-2.378125637769699097e-01,-5.145442485809326172e-01,-5.389080643653869629e-01,-6.079965829849243164e-01,-1.147905364632606506e-01,1.465779393911361694e-01,3.448618352413177490e-01,3.768107667565345764e-02,-2.399714291095733643e-01,3.656986951828002930e-01,8.713710308074951172e-01,-1.149505302309989929e-01,-4.695197343826293945e-01,-8.313329815864562988e-01
-2.091218978166580200e-01,-3.572780787944793701e-01,-5.404146313667297363e-01,-2.879087328910827637e-01,1.100602746009826660e-01,4.961229860782623291e-02,3.062598407268524170e-01,3.425572812557220459e-01,-9.714066237211227417e-02,1.263948082923889160e-01,7.743275165557861328e-01,-1.008363813161849976e-01,-4.414488673210144043e-01,-7.478308677673339844e-01
-1.369208246469497681e-01,-4.847018718719482422e-01,-3.622598946094512939e-01,-4.098048806190490723e-01,1.862150281667709351e-01,-1.326003372669219971e-01,4.626751542091369629e-01,3.248819112777709961e-01,-3.081922829151153564e-01,2.516142725944519043e-01,8.016024827957153320e-01,-4.449409991502761841e-02,-4.244413971900939941e-01,-9.118887782096862793e-01
-1.745058447122573853e-01,-3.591883480548858643e-01,-3.145673871040344238e-01,-4.162826240062713623e-01,2.139571607112884521e-01,-2.032361924648284912e-01,2.454214245080947876e-01,8.391880989074707031e-02,-2.825750708580017090e-01,7.506363838911056519e-02,7.804183959960937500e-01,-1.365173980593681335e-02,-4.833202660083770752e-01,-1.045106053352355957e+00
-1.289102882146835327e-01,-3.663145005702972412e-01,-3.140516877174377441e-01,-4.460397660732269287e-01,1.752221137285232544e-01,-1.191590353846549988e-01,2.566925883293151855e-01,1.892307549715042114e-01,-3.880650997161865234e-01,2.183098196983337402e-01,9.796436429023742676e-01,7.080390118062496185e-03,-3.882697820663452148e-01,-8.721033930778503418e-01
-1.033478230237960815e-02,-5.125831365585327148e-01,-2.411317974328994751e-01,-1.537672728300094604e-01,2.057018131017684937e-01,-8.776563405990600586e-02,2.364182919263839722e-01,3.683886528015136719e-01,-1.433529555797576904e-01,-5.935699492692947388e-02,1.107925534248352051e+00,2.474965993314981461e-03,-3.767606019973754883e-01,-1.000730156898498535e+00
-1.372540891170501709e-01,-3.878486454486846924e-01,-3.063980340957641602e-01,-1.776071488857269287e-01,3.710899949073791504e-01,-2.126599401235580444e-01,1.291672438383102417e-01,3.418296873569488525e-01,-3.872836828231811523e-01,1.456520855426788330e-01,1.005328655242919922e+00,1.744288057088851929e-01,-1.169259548187255859e-01,-9.377275705337524414e-01
-3.252253681421279907e-02,-3.064697682857513428e-01,-2.936595380306243896e-01,-7.956538349390029907e-02,2.933686673641204834e-01,-5.364175885915756226e-02,1.772899925708770752e-01,2.124169319868087769e-01,-3.800570666790008545e-01,-4.411002248525619507e-02,8.866431713104248047e-01,3.266344964504241943e-01,-1.482665836811065674e-01,-1.142075061798095703e+00
-1.662905514240264893e-01,-2.367155551910400391e-01,-2.430350035429000854e-01,-1.251285225152969360e-01,3.282772004604339600e-01,9.783761948347091675e-02,1.719084829092025757e-01,3.612540662288665771e-01,-4.694167375564575195e-01,-9.923035651445388794e-02,9.381121397018432617e-01,1.690333187580108643e-01,-1.957402229309082031e-01,-9.221554994583129883e-01
-1.933031342923641205e-02,-9.127743542194366455e-02,-1.982808858156204224e-01,-9.460208937525749207e-03,4.095848500728607178e-01,-1.886773258447647095e-01,1.267489790916442871e-01,6.187149286270141602e-01,-4.020655751228332520e-01,-5.080907791852951050e-02,7.414290904998779297e-01,1.556633412837982178e-01,-2.355103492736816406e-01,-8.999612927436828613e-01
2.341632097959518433e-01,-7.898245751857757568e-02,2.289366442710161209e-03,2.585121802985668182e-02,4.666289687156677246e-01,9.615287929773330688e-02,1.005099639296531677e-01,3.728880286216735840e-01,-3.976512551307678223e-01,-1.956301182508468628e-01,8.079934716224670410e-01,1.747726649045944214e-01,-2.438975870609283447e-01,-9.497017264366149902e-01
1.267533451318740845e-01,-3.540090620517730713e-01,2.061770558357238770e-01,1.102833673357963562e-01,5.784080028533935547e-01,1.683792769908905029e-01,-2.477884143590927124e-01,3.450358808040618896e-01,-3.170202374458312988e-01,-1.036286428570747375e-01,5.991065502166748047e-01,2.235577553510665894e-01,-1.428921073675155640e-01,-1.023474574089050293e+00
7.462693005800247192e-02,-1.379617899656295776e-01,-6.961543112993240356e-02,9.278397262096405029e-02,3.749222159385681152e-01,-1.345795020461082458e-02,-1.961858421564102173e-01,4.721077978610992432e-01,-5.445705652236938477e-01,-2.214393913745880127e-01,6.238346099853515625e-01,3.437926769256591797e-01,3.604312986135482788e-02,-9.051805138587951660e-01
1.475330889225006104e-01,-1.791899800300598145e-01,2.198730409145355225e-02,3.962427377700805664e-02,3.802901506423950195e-01,2.177082002162933350e-01,-1.704922616481781006e-01,5.247017145156860352e-01,-4.821560978889465332e-01,-2.155922055244445801e-01,6.663069725036621094e-01,1.146503537893295288e-01,-1.417829245328903198e-01,-7.923697233200073242e-01
1.553458869457244873e-01,9.460423886775970459e-02,8.771606534719467163e-02,4.939264953136444092e-01,4.811331331729888916e-01,-2.078210189938545227e-02,-2.385280728340148926e-01,4.894263446331024170e-01,-2.871780395507812500e-01,-1.267991662025451660e-01,5.593706369400024414e-01,3.701801896095275879e-01,-1.516389381140470505e-02,-7.793938517570495605e-01
2.138337790966033936e-01,1.292710751295089722e-01,4.093320295214653015e-02,1.086947396397590637e-01,3.423098027706146240e-01,8.738141506910324097e-02,-2.696640789508819580e-01,6.227762103080749512e-01,-3.314542770385742188e-01,-2.850164473056793213e-01,4.536507129669189453e-01,3.819117844104766846e-01,-9.762907773256301880e-02,-6.896146535873413086e-01
1.790074110031127930e-01,1.522371619939804077e-01,9.422887861728668213e-02,2.844876348972320557e-01,5.766594409942626953e-01,3.892407752573490143e-03,-1.450690627098083496e-01,4.833925366401672363e-01,-5.093352794647216797e-01,-2.983232736587524414e-01,3.585539758205413818e-01,1.237242296338081360e-01,-5.384030565619468689e-02,-5.936828851699829102e-01
2.898221313953399658e-01,3.766813874244689941e-02,-1.281905267387628555e-02,1.092938259243965149e-01,3.065656125545501709e-01,-7.052026223391294479e-03,-2.561102509498596191e-01,5.649979114532470703e-01,-4.535611271858215332e-01,-1.449467986822128296e-01,1.668782383203506470e-01,1.875005066394805908e-01,-1.362323015928268433e-01,-7.037149667739868164e-01
3.062692284584045410e-01,2.024159282445907593e-01,-4.649775475263595581e-02,1.072203814983367920e-01,5.567600727081298828e-01,-4.957497119903564453e-02,-3.084903955459594727e-01,7.220863103866577148e-01,-2.609836757183074951e-01,-1.674327552318572998e-01,1.832650750875473022e-01,2.721210718154907227e-01,-7.959852367639541626e-02,-6.972689628601074219e-01
2.568678855895996094e-01,2.010065615177154541e-01,-2.529799379408359528e-02,3.386238217353820801e-01,5.695775747299194336e-01,7.158251851797103882e-02,-3.396145999431610107e-01,4.774495363235473633e-01,-5.892584919929504395e-01,-1.395925581455230713e-01,1.818570643663406372e-01,2.261193841695785522e-01,-1.065619289875030518e-01,-5.272200107574462891e-01
2.622558474540710449e-01,-7.508991286158561707e-03,-6.802115123718976974e-03,3.705754578113555908e-01,4.506928026676177979e-01,7.870963960886001587e-02,-3.729157745838165283e-01,7.423021197319030762e-01,-6.773632764816284180e-01,-1.115659847855567932e-01,2.022119052708148956e-02,2.667527794837951660e-01,5.083380639553070068e-02,-4.966638684272766113e-01
2.630096375942230225e-01,-4.439536482095718384e-02,5.414682999253273010e-02,5.064710974693298340e-01,1.996974349021911621e-01,-1.679007709026336670e-02,-3.662816882133483887e-01,4.429756402969360352e-01,-5.574654340744018555e-01,-1.218447163701057434e-01,-2.839607931673526764e-02,1.731195449829101562e-01,4.656300693750381470e-02,-3.234803676605224609e-01
1.456931978464126587e-01,8.319333940744400024e-02,-7.198613882064819336e-02,4.504287242889404297e-01,3.530475199222564697e-01,-1.459951549768447876e-01,-2.060779631137847900e-01,4.573807716369628906e-01,-5.334832072257995605e-01,-4.458498954772949219e-02,-1.013057008385658264e-01,2.840945720672607422e-01,1.628395318984985352e-01,-4.457234144210815430e-01
2.060226351022720337e-01,2.411754280328750610e-01,-1.702593564987182617e-01,4.283010959625244141e-01,2.179573029279708862e-01,3.557562083005905151e-02,-5.182698369026184082e-01,5.622349977493286133e-01,-6.282475590705871582e-01,-6.726191937923431396e-02,-1.236901804804801941e-01,9.341364353895187378e-02,8.806344866752624512e-02,-1.701229810714721680e-01
1.855704188346862793e-01,2.092540860176086426e-01,-9.649208188056945801e-02,3.831284046173095703e-01,1.328264623880386353e-01,4.757440462708473206e-02,-2.068214565515518188e-01,6.188354492187500000e-01,-4.732815623283386230e-01,-2.425774782896041870e-01,-2.088823169469833374e-01,-7.878885604441165924e-03,2.938200831413269043e-01,-6.847861409187316895e-02
1.969838291406631470e-01,7.176002860069274902e-02,-1.128643900156021118e-01,6.638879179954528809e-01,2.685336470603942871e-01,-1.768283429555594921e-03,-9.423898160457611084e-02,6.980718374252319336e-01,-5.710256099700927734e-01,-1.744451075792312622e-01,-1.618602722883224487e-01,-5.461423844099044800e-02,3.267959356307983398e-01,-1.337304860353469849e-01
2.045466192066669464e-02,-8.254516124725341797e-02,-2.752515673637390137e-01,6.428230404853820801e-01,2.487768828868865967e-01,2.248171120882034302e-01,-1.849485188722610474e-01,5.448387265205383301e-01,-6.697166562080383301e-01,2.422249466180801392e-01,-2.262108176946640015e-01,8.252524584531784058e-02,3.833904564380645752e-01,-5.667819827795028687e-02
-1.311185956001281738e-01,5.282699316740036011e-02,-2.905119061470031738e-01,4.602638185024261475e-01,2.675183713436126709e-01,-9.741002321243286133e-02,-3.992064595222473145e-01,4.865483939647674561e-01,-6.742476820945739746e-01,1.048301830887794495e-01,-3.693636357784271240e-01,-3.512111306190490723e-02,4.649391174316406250e-01,-6.876362860202789307e-02
-1.497235000133514404e-01,-1.091974973678588867e-01,-3.489574790000915527e-01,6.217313408851623535e-01,8.363693207502365112e-02,-1.402039229869842529e-01,-3.398120999336242676e-01,5.400310158729553223e-01,-6.978904604911804199e-01,2.604887485504150391e-01,1.219030655920505524e-02,-2.602473832666873932e-02,4.537274539470672607e-01,2.268490381538867950e-02
-3.148313462734222412e-01,-1.711191982030868530e-01,-2.542319297790527344e-01,6.627528667449951172e-01,1.091815158724784851e-01,3.163367509841918945e-02,-1.827325224876403809e-01,3.644414544105529785e-01,-5.332397818565368652e-01,1.952910721302032471e-01,-3.758767247200012207e-01,-8.321371674537658691e-02,9.039212465286254883e-01,1.015479639172554016e-01
-1.839489787817001343e-01,-3.419942855834960938e-01,-3.590569794178009033e-01,6.411661505699157715e-01,2.449023276567459106e-01,1.987630128860473633e-01,-3.110136091709136963e-01,4.331279695034027100e-01,-6.451246738433837891e-01,2.903597950935363770e-01,-3.078429400920867920e-01,-4.046202003955841064e-01,6.096503734588623047e-01,3.467229306697845459e-01
-5.120906233787536621e-01,-1.537558138370513916e-01,-5.374051332473754883e-01,7.772110700607299805e-01,2.800047099590301514e-01,4.436450079083442688e-02,-3.427541255950927734e-01,2.645519077777862549e-01,-6.867197155952453613e-01,3.169316947460174561e-01,-3.079819679260253906e-01,-3.765112459659576416e-01,6.066015958786010742e-01,2.480881214141845703e-01
-2.451416105031967163e-01,-2.666434049606323242e-01,-3.867054879665374756e-01,8.046866059303283691e-01,1.750574260950088501e-01,7.303519546985626221e-02,-3.143455684185028076e-01,3.551440238952636719e-01,-4.285188019275665283e-01,6.725795865058898926e-01,-3.840819299221038818e-01,-4.246475100517272949e-01,6.975944042205810547e-01,1.670738011598587036e-01
-2.659761905670166016e-01,-2.367110103368759155e-01,-3.084525167942047119e-01,7.217273712158203125e-01,3.129857033491134644e-02,2.864392995834350586e-01,-4.341865181922912598e-01,2.928814291954040527e-01,-4.978262484073638916e-01,5.105081200599670410e-01,-3.520358502864837646e-01,-4.627200365066528320e-01,5.931633114814758301e-01,3.587162792682647705e-01
-6.978356242179870605e-01,-5.214183926582336426e-01,-3.294655978679656982e-01,7.305305004119873047e-01,6.705112010240554810e-02,2.572007477283477783e-01,-3.574296832084655762e-01,1.807349026203155518e-01,-5.409484505653381348e-01,4.844641983509063721e-01,-4.325977265834808350e-01,-4.782629311084747314e-01,6.070503592491149902e-01,4.387355446815490723e-01
-2.933730185031890869e-01,-3.210842013359069824e-01,-5.608307719230651855e-01,9.258486628532409668e-01,4.722194746136665344e-02,2.683017551898956299e-01,-4.905534684658050537e-01,2.293201386928558350e-01,-1.593918353319168091e-01,4.175955355167388916e-01,-2.803118228912353516e-01,-3.862040638923645020e-01,7.557811737060546875e-01,3.652380406856536865e-01
-3.271266222000122070e-01,-6.279143691062927246e-01,-6.054790616035461426e-01,8.869651556015014648e-01,1.310077011585235596e-01,3.292260169982910156e-01,-3.244161903858184814e-01,1.771164834499359131e-01,-1.883564889430999756e-01,8.159156441688537598e-01,-3.518144786357879639e-01,-4.093390107154846191e-01,7.746393084526062012e-01,5.154274702072143555e-01
-4.619424641132354736e-01,-3.213447332382202148e-01,-3.637068271636962891e-01,8.197897076606750488e-01,-3.118524327874183655e-02,2.307268232107162476e-01,-5.068590641021728516e-01,2.249061167240142822e-01,-1.589049249887466431e-01,6.285392642021179199e-01,-2.686097621917724609e-01,-5.934675335884094238e-01,8.120780587196350098e-01,4.369409978389739990e-01
-5.508242845535278320e-01,-4.202073216438293457e-01,-4.077349901199340820e-01,6.701285839080810547e-01,6.681711971759796143e-02,2.599349319934844971e-01,-4.398135542869567871e-01,-1.081644222140312195e-01,-9.668766707181930542e-02,7.363001704216003418e-01,-1.790464073419570923e-01,-6.154317259788513184e-01,5.549673438072204590e-01,2.363653033971786499e-01
-5.112823843955993652e-01,-5.377702116966247559e-01,-5.204101800918579102e-01,8.896763920783996582e-01,4.392782598733901978e-02,4.063545167446136475e-01,-5.065597891807556152e-01,-9.573130868375301361e-03,-1.578024402260780334e-02,7.559254169464111328e-01,-3.353219926357269287e-01,-6.778624653816223145e-01,6.867297291755676270e-01,2.615204453468322754e-01
-4.978074729442596436e-01,-4.848722219467163086e-01,-7.317768931388854980e-01,9.487124681472778320e-01,1.867715269327163696e-02,2.215909212827682495e-01,-4.337746202945709229e-01,-1.298353821039199829e-01,6.746776401996612549e-02,6.252166628837585449e-01,-2.078241854906082153e-01,-6.066432595252990723e-01,7.311150431632995605e-01,3.101732432842254639e-01
-2.845765948295593262e-01,-6.627048850059509277e-01,-6.045469641685485840e-01,6.276881098747253418e-01,-1.602307558059692383e-01,1.754636913537979126e-01,-3.908237516880035400e-01,-1.406894158571958542e-02,1.511538922786712646e-01,7.343559265136718750e-01,-1.078476533293724060e-01,-5.956847667694091797e-01,7.652012109756469727e-01,8.967076241970062256e-02
-4.559512734413146973e-01,-5.731230378150939941e-01,-6.263244748115539551e-01,9.519398808479309082e-01,-7.802782952785491943e-02,3.823556303977966309e-01,-4.357092380523681641e-01,-6.621193885803222656e-02,1.947881579399108887e-01,5.987350940704345703e-01,-2.502142786979675293e-01,-5.292043685913085938e-01,7.362369894981384277e-01,2.588384449481964111e-01
-3.164941966533660889e-01,-5.077598690986633301e-01,-2.987983226776123047e-01,9.064701795578002930e-01,2.427739836275577545e-02,5.558985471725463867e-01,-5.155001282691955566e-01,-1.227898374199867249e-01,3.120422065258026123e-01,5.506736040115356445e-01,-1.469981819391250610e-01,-5.192679762840270996e-01,5.833593606948852539e-01,2.025095187127590179e-02
-4.166047573089599609e-01,-8.952132463455200195e-01,-5.865564346313476562e-01,9.433501362800598145e-01,-2.517246603965759277e-01,5.251545906066894531e-01,-4.728706479072570801e-01,-2.657721936702728271e-01,3.230135440826416016e-01,7.572972774505615234e-01,-2.444168776273727417e-01,-8.159861564636230469e-01,6.984593868255615234e-01,2.740134894847869873e-01
-3.967710435390472412e-01,-6.215334534645080566e-01,-1.999218910932540894e-01,8.859198689460754395e-01,-2.350158840417861938e-01,6.199433803558349609e-01,-1.423441171646118164e-01,-1.173712983727455139e-01,4.609113037586212158e-01,6.185412406921386719e-01,-6.492364406585693359e-02,-5.872381329536437988e-01,6.505938172340393066e-01,2.429918497800827026e-01
-5.578281879425048828e-01,-5.638935565948486328e-01,-3.313301205635070801e-01,9.650463461875915527e-01,-4.997868537902832031e-01,3.630113303661346436e-01,-2.371430695056915283e-01,-3.576281666755676270e-01,4.842761754989624023e-01,6.835287809371948242e-01,-2.274078726768493652e-01,-4.213853776454925537e-01,6.144369244575500488e-01,1.893848627805709839e-01
-5.133674740791320801e-01,-5.615867376327514648e-01,-3.774504065513610840e-01,1.112524271011352539e+00,-3.426647186279296875e-01,6.203791499137878418e-01,-2.988605499267578125e-01,-3.650866150856018066e-01,4.587884843349456787e-01,6.748446822166442871e-01,-1.064936220645904541e-01,-5.948205590248107910e-01,4.297605156898498535e-01,6.412635743618011475e-02
-2.660460174083709717e-01,-3.740772902965545654e-01,-9.470055252313613892e-02,9.110307097434997559e-01,-3.948170840740203857e-01,6.702524423599243164e-01,-2.787432372570037842e-01,-2.950426340103149414e-01,5.573587417602539062e-01,7.047807574272155762e-01,-8.325520157814025879e-02,-4.330975711345672607e-01,3.960397541522979736e-01,1.472454369068145752e-01
-4.055634438991546631e-01,-6.096146702766418457e-01,-6.731690466403961182e-02,1.022590398788452148e+00,-4.482041895389556885e-01,4.760533273220062256e-01,-3.044613897800445557e-01,-1.369775086641311646e-01,6.533769369125366211e-01,4.975682199001312256e-01,-3.126596510410308838e-01,-5.793621540069580078e-01,6.151170134544372559e-01,8.212821930646896362e-02
-3.518894910812377930e-01,-5.384302139282226562e-01,-1.971787363290786743e-01,8.035040497779846191e-01,-4.241643249988555908e-01,6.926614642143249512e-01,1.429482828825712204e-02,-2.438820526003837585e-02,4.030492603778839111e-01,6.112378239631652832e-01,-2.783469557762145996e-01,-5.389057993888854980e-01,4.727838039398193359e-01,3.697851300239562988e-02
-1.902683377265930176e-01,-6.504603028297424316e-01,-1.866126619279384613e-02,9.062256217002868652e-01,-5.559697151184082031e-01,5.790622830390930176e-01,-1.078281179070472717e-01,-3.420890867710113525e-01,7.131956815719604492e-01,6.570379734039306641e-01,-3.026567101478576660e-01,-6.834610104560852051e-01,3.059803545475006104e-01,1.144935190677642822e-01
-3.695853054523468018e-01,-2.953095138072967529e-01,1.691291630268096924e-01,7.658449411392211914e-01,-4.347634315490722656e-01,8.695487380027770996e-01,1.289555728435516357e-01,1.384731084108352661e-01,5.567312240600585938e-01,6.277605891227722168e-01,-1.456467807292938232e-01,-6.979078054428100586e-01,2.458725869655609131e-01,2.264711409807205200e-01
-3.584753572940826416e-01,-4.642735123634338379e-01,3.072226233780384064e-02,7.269225120544433594e-01,-6.588348746299743652e-01,3.059891164302825928e-01,1.643150150775909424e-01,7.078780978918075562e-02,6.547049283981323242e-01,7.752766609191894531e-01,-3.922186791896820068e-01,-5.371462106704711914e-01,4.134132266044616699e-01,1.675823181867599487e-01
-2.006546705961227417e-01,-4.829915165901184082e-01,2.720065116882324219e-01,6.112689375877380371e-01,-4.386599659919738770e-01,6.122906208038330078e-01,2.720142006874084473e-01,-4.917126148939132690e-02,4.357096850872039795e-01,8.708786368370056152e-01,-2.603902220726013184e-01,-5.450322628021240234e-01,1.412085145711898804e-01,3.116220235824584961e-01
-3.001764118671417236e-01,-4.498572647571563721e-01,5.441159382462501526e-02,5.887720584869384766e-01,-5.692499279975891113e-01,3.798080682754516602e-01,2.648209631443023682e-01,1.640333831310272217e-01,7.895822525024414062e-01,9.032775759696960449e-01,-2.338662445545196533e-01,-6.539900302886962891e-01,7.762486487627029419e-02,2.421138137578964233e-01
-2.496277540922164917e-01,-3.915661573410034180e-01,-1.501693297177553177e-02,1.797413378953933716e-01,-6.010000705718994141e-01,1.957558840513229370e-01,2.173316925764083862e-01,3.043054342269897461e-01,6.688289642333984375e-01,7.468153238296508789e-01,-2.967789173126220703e-01,-8.007493019104003906e-01,-2.846458740532398224e-02,2.252779752016067505e-01
-1.634283214807510376e-01,-4.348167479038238525e-01,1.647977232933044434e-01,2.068602740764617920e-01,-7.367645502090454102e-01,2.399092167615890503e-01,2.867823839187622070e-01,2.897907793521881104e-01,6.974154710769653320e-01,8.163063526153564453e-01,-1.859221607446670532e-01,-6.910819411277770996e-01,-5.987756885588169098e-04,-1.301217451691627502e-02
-2.469688951969146729e-01,-2.211758792400360107e-01,2.376733161509037018e-02,3.057976961135864258e-01,-7.011654973030090332e-01,2.549431622028350830e-01,3.324070274829864502e-01,3.676917552947998047e-01,7.550109028816223145e-01,8.318373560905456543e-01,-4.973829090595245361e-01,-5.817183852195739746e-01,-1.625171750783920288e-01,1.025981530547142029e-01
-1.554015725851058960e-01,-4.570460915565490723e-01,1.901686489582061768e-01,-1.998340152204036713e-02,-5.487483739852905273e-01,2.674689888954162598e-01,3.460641205310821533e-01,1.422684788703918457e-01,5.409235954284667969e-01,8.431631922721862793e-01,-2.274872660636901855e-01,-5.384321212768554688e-01,5.210223421454429626e-02,3.242177190259099007e-03
-2.368336319923400879e-01,-5.634350180625915527e-01,1.861546337604522705e-01,5.831369757652282715e-02,-6.460324525833129883e-01,2.766068875789642334e-01,2.519996762275695801e-01,2.523096501827239990e-01,7.295981645584106445e-01,6.807962656021118164e-01,-2.822118103504180908e-01,-7.421948909759521484e-01,1.309634298086166382e-01,6.616805493831634521e-02
-1.223183944821357727e-01,-5.835255980491638184e-01,1.194718629121780396e-01,4.082183539867401123e-02,-4.618059396743774414e-01,1.932795643806457520e-01,2.385220378637313843e-01,2.107201665639877319e-01,7.671453356742858887e-01,9.325829148292541504e-01,-3.838304579257965088e-01,-8.665553331375122070e-01,1.467557102441787720e-01,-1.274646632373332977e-02
-1.772981882095336914e-01,-5.714032649993896484e-01,3.960672616958618164e-01,-9.318580478429794312e-02,-5.152739286422729492e-01,-9.144042432308197021e-02,5.675356984138488770e-01,4.803330004215240479e-01,6.928474307060241699e-01,8.202023506164550781e-01,-3.058021962642669678e-01,-5.989913940429687500e-01,-2.778582088649272919e-02,-1.056198403239250183e-02
-2.440315783023834229e-01,-6.799210906028747559e-01,2.246835976839065552e-01,-1.276034414768218994e-01,-6.641125679016113281e-01,8.023573458194732666e-02,5.084002017974853516e-01,3.751926422119140625e-01,6.043905615806579590e-01,7.958334088325500488e-01,-2.537697553634643555e-03,-6.860817670822143555e-01,-1.581660658121109009e-01,1.035675331950187683e-01
-2.179989218711853027e-01,-5.153046250343322754e-01,3.329136073589324951e-01,-7.122773677110671997e-02,-4.170711040496826172e-01,-2.318634092807769775e-02,6.535211801528930664e-01,5.973194837570190430e-01,6.129198670387268066e-01,7.907982468605041504e-01,-5.621106922626495361e-02,-5.335364341735839844e-01,1.379952877759933472e-01,1.582727953791618347e-02
-4.741207063198089600e-01,-4.220167398452758789e-01,3.652379214763641357e-01,-3.005309589207172394e-02,-4.741292893886566162e-01,-1.492482125759124756e-01,5.455088019371032715e-01,2.671412229537963867e-01,5.646893382072448730e-01,6.913606524467468262e-01,-7.065261015668511391e-04,-5.640816688537597656e-01,2.704136073589324951e-01,4.116443172097206116e-02
-1.131323873996734619e-01,-5.343711972236633301e-01,4.783734381198883057e-01,-2.531295418739318848e-01,-4.196870028972625732e-01,-1.191040053963661194e-01,6.028095483779907227e-01,2.436201721429824829e-01,6.118168830871582031e-01,5.008417963981628418e-01,5.056365579366683960e-02,-6.410384178161621094e-01,1.223515998572111130e-02,-2.457844614982604980e-01
-3.575010299682617188e-01,-5.185822844505310059e-01,2.143948525190353394e-01,-2.359570413827896118e-01,-2.600959837436676025e-01,-1.766997575759887695e-01,7.074385285377502441e-01,3.055292367935180664e-01,6.273797154426574707e-01,5.536603927612304688e-01,-1.500237733125686646e-01,-5.046345591545104980e-01,1.672312319278717041e-01,-1.043672785162925720e-01
-3.334127366542816162e-01,-2.441117614507675171e-01,1.946768164634704590e-01,-2.687394917011260986e-01,-4.457839131355285645e-01,-1.046871468424797058e-01,7.723906040191650391e-01,4.631636738777160645e-01,4.306595027446746826e-01,3.647002577781677246e-01,3.544075787067413330e-02,-3.355804085731506348e-01,2.687229514122009277e-01,-3.649910911917686462e-02
-2.581789493560791016e-01,-4.904446303844451904e-01,5.786523818969726562e-01,-4.518865644931793213e-01,-3.535982668399810791e-01,-1.801540255546569824e-01,5.773985981941223145e-01,2.958948910236358643e-01,4.701736569404602051e-01,5.314198136329650879e-01,1.393811106681823730e-01,-4.361480176448822021e-01,1.728070825338363647e-01,-4.632925149053335190e-03
-3.738338947296142578e-01,-5.022015571594238281e-01,4.996304810047149658e-01,-2.074110358953475952e-01,-1.374733895063400269e-01,-2.060198336839675903e-01,4.903289675712585449e-01,3.533268868923187256e-01,3.619958758354187012e-01,4.302973449230194092e-01,1.125037088058888912e-03,-4.787611365318298340e-01,1.031825691461563110e-01,-3.319441378116607666e-01
-1.196120604872703552e-01,-3.551674187183380127e-01,4.876786768436431885e-01,-1.380538940429687500e-01,-2.645339369773864746e-01,-4.949346184730529785e-02,6.819826960563659668e-01,3.594048917293548584e-01,4.591331481933593750e-01,3.968467712402343750e-01,1.828018873929977417e-01,-4.874747395515441895e-01,2.159767001867294312e-01,-2.346709668636322021e-01
-9.376103430986404419e-02,-3.363847136497497559e-01,4.925541281700134277e-01,-1.379911750555038452e-01,-7.774383574724197388e-02,-2.748446539044380188e-02,4.917566478252410889e-01,3.621465861797332764e-01,4.591003060340881348e-01,4.704805612564086914e-01,-1.568613387644290924e-02,-3.582096397876739502e-01,2.436040043830871582e-01,-1.196523234248161316e-01
-1.342629641294479370e-01,-8.513392508029937744e-02,5.023145675659179688e-01,-3.328122496604919434e-01,1.583941578865051270e-01,-1.011115089058876038e-01,4.221413731575012207e-01,3.001340329647064209e-01,3.983101248741149902e-01,2.482753396034240723e-01,5.169902369379997253e-02,-2.730048298835754395e-01,1.187655180692672729e-01,-2.674642205238342285e-01
-1.026231870055198669e-01,-1.008419021964073181e-01,6.433496475219726562e-01,-3.744482100009918213e-01,1.247586756944656372e-01,6.343995779752731323e-02,3.728095293045043945e-01,3.567442893981933594e-01,4.738883674144744873e-01,2.068000137805938721e-01,6.818600744009017944e-02,-9.905847907066345215e-02,4.192131161689758301e-01,-3.661809861660003662e-01
-4.856801778078079224e-02,-2.768164686858654022e-02,4.331142008304595947e-01,-2.474772483110427856e-01,6.836332380771636963e-02,-8.896263688802719116e-02,2.769254744052886963e-01,3.549019694328308105e-01,4.327697157859802246e-01,1.661610603332519531e-01,8.960974961519241333e-02,-2.397455424070358276e-01,4.711129367351531982e-01,-4.585296213626861572e-01
1.404937356710433960e-01,1.686929464340209961e-01,6.422374844551086426e-01,-1.631958335638046265e-01,2.877672314643859863e-01,-8.083841949701309204e-02,3.583154082298278809e-01,3.716467022895812988e-01,4.396284222602844238e-01,-9.396440535783767700e-02,-3.155735507607460022e-02,8.397389948368072510e-02,3.224388957023620605e-01,-4.276021122932434082e-01
-2.187879942357540131e-02,4.366553574800491333e-02,7.119809389114379883e-01,-2.226364910602569580e-01,2.824418842792510986e-01,3.048397041857242584e-02,7.786601036787033081e-02,4.633578658103942871e-01,3.677999973297119141e-01,-1.568113267421722412e-02,7.947913557291030884e-02,-1.458540260791778564e-01,3.972186446189880371e-01,-5.305468440055847168e-01
1.528040170669555664e-01,2.503920793533325195e-01,6.955490112304687500e-01,-1.962832659482955933e-01,2.964359819889068604e-01,-3.049944527447223663e-02,1.536791920661926270e-01,5.392016768455505371e-01,4.817640483379364014e-01,-3.207371830940246582e-01,4.677202668972313404e-04,2.830663621425628662e-01,1.828041374683380127e-01,-3.830089867115020752e-01
