AF3,F7,F3,FC5,T7,P7,O1,O2,P8,T8,FC6,F4,F8,AF4
-4.942886233329772949e-01,7.199354171752929688e-01,-6.768414378166198730e-02,-1.187202781438827515e-01,1.710689812898635864e-01,7.072237879037857056e-02,-1.266288757324218750e-02,-3.742779791355133057e-01,-5.848841071128845215e-01,-1.854826696217060089e-02,-6.736449599266052246e-01,4.366398453712463379e-01,-2.195981442928314209e-01,-6.103692054748535156e-01
-5.191826820373535156e-01,5.125957131385803223e-01,-1.063681319355964661e-01,2.000515535473823547e-02,1.974274218082427979e-01,4.619479924440383911e-02,-9.966111974790692329e-04,-5.153044462203979492e-01,-6.185678839683532715e-01,-6.791863590478897095e-02,-5.522148609161376953e-01,3.951724767684936523e-01,-1.146261096000671387e-01,-4.757801294326782227e-01
-7.539319396018981934e-01,7.020732164382934570e-01,-6.688399612903594971e-02,3.468486964702606201e-01,3.151074349880218506e-01,1.580635309219360352e-01,1.729971356689929962e-02,-5.982578992843627930e-01,-4.849237203598022461e-01,6.574489176273345947e-02,-8.137035965919494629e-01,5.615236163139343262e-01,1.082386150956153870e-01,-4.515141546726226807e-01
-9.349862337112426758e-01,7.808654904365539551e-01,-1.368832886219024658e-01,2.363029718399047852e-01,3.222221434116363525e-01,-1.431817188858985901e-02,-6.824179738759994507e-02,-3.805128335952758789e-01,-4.537725150585174561e-01,1.426384001970291138e-01,-6.127615571022033691e-01,2.314734756946563721e-01,3.348286822438240051e-02,-6.359889507293701172e-01
-1.104734539985656738e+00,8.486266732215881348e-01,-1.749987453222274780e-01,-3.233499452471733093e-02,2.493732869625091553e-01,-4.893684014678001404e-02,-8.457881957292556763e-02,-4.122226238250732422e-01,-5.774433612823486328e-01,2.341831177473068237e-01,-7.020224928855895996e-01,3.558439612388610840e-01,9.330213814973831177e-02,-5.229981541633605957e-01
-8.173153996467590332e-01,8.209340572357177734e-01,4.725160542875528336e-03,2.777741551399230957e-01,4.208019375801086426e-01,2.279401943087577820e-02,-1.382125914096832275e-01,-1.984392255544662476e-01,-5.385406613349914551e-01,1.898068338632583618e-01,-7.558002471923828125e-01,2.401755303144454956e-01,1.041619926691055298e-01,-6.723994612693786621e-01
-9.935921430587768555e-01,8.491560816764831543e-01,-1.184066981077194214e-01,4.824472963809967041e-01,2.773728072643280029e-01,1.338558346033096313e-01,-1.394191086292266846e-01,-1.999068856239318848e-01,-5.589851737022399902e-01,1.144656985998153687e-01,-8.157547116279602051e-01,4.939839243888854980e-01,-3.592934086918830872e-02,-6.363716721534729004e-01
-1.006118535995483398e+00,7.943794727325439453e-01,7.588384300470352173e-02,3.584460616111755371e-01,2.233555614948272705e-01,1.407324820756912231e-01,-2.110810279846191406e-01,-2.531883418560028076e-01,-3.715645372867584229e-01,2.206553071737289429e-01,-9.145234227180480957e-01,3.560732901096343994e-01,-6.813225895166397095e-02,-4.609099328517913818e-01
-1.022983193397521973e+00,8.568837642669677734e-01,9.572567790746688843e-02,3.615327775478363037e-01,3.786006867885589600e-01,-6.915993243455886841e-02,1.602168567478656769e-02,-2.535872161388397217e-01,-7.733160257339477539e-01,4.247619807720184326e-01,-7.761139869689941406e-01,3.235903978347778320e-01,1.375129520893096924e-01,-2.524011731147766113e-01
-1.058660745620727539e+00,1.091268777847290039e+00,2.045485377311706543e-01,1.974215060472488403e-01,2.634020745754241943e-01,8.603787049651145935e-03,4.522829875349998474e-02,-2.328173518180847168e-01,-6.397289633750915527e-01,3.161532282829284668e-01,-8.478489518165588379e-01,3.080644905567169189e-01,-1.193428877741098404e-02,-2.244729995727539062e-01
-8.212548494338989258e-01,9.465233683586120605e-01,1.826302558183670044e-01,3.737725019454956055e-01,3.426128625869750977e-01,6.279485300183296204e-03,1.106331124901771545e-01,-1.585814654827117920e-01,-5.486207008361816406e-01,2.837569117546081543e-01,-7.573317289352416992e-01,2.384511381387710571e-01,8.114363253116607666e-02,-4.266418814659118652e-01
-1.062319993972778320e+00,8.439877629280090332e-01,5.098081827163696289e-01,2.551076412200927734e-01,3.656982779502868652e-01,-1.880066096782684326e-01,1.922187656164169312e-01,5.237107723951339722e-02,-4.752679169178009033e-01,1.822804808616638184e-01,-8.011296987533569336e-01,4.570657312870025635e-01,4.972310736775398254e-02,-4.807820320129394531e-01
-9.063074588775634766e-01,8.500406742095947266e-01,2.410658001899719238e-01,3.143683671951293945e-01,3.350734114646911621e-01,-1.879242807626724243e-01,1.688180267810821533e-01,-8.881969749927520752e-02,-5.442854762077331543e-01,4.567280411720275879e-01,-8.039324879646301270e-01,3.711672127246856689e-01,-4.732443019747734070e-02,-2.889010608196258545e-01
-8.831510543823242188e-01,7.423219084739685059e-01,3.821901082992553711e-01,3.079446256160736084e-01,6.213979125022888184e-01,-1.219789087772369385e-01,5.013437196612358093e-02,2.448734641075134277e-02,-6.461803317070007324e-01,3.164248466491699219e-01,-7.762597799301147461e-01,4.003043770790100098e-01,2.317961491644382477e-02,-5.848088264465332031e-01
-1.054677009582519531e+00,6.879071593284606934e-01,3.585116565227508545e-01,6.432461142539978027e-01,4.522559940814971924e-01,-4.309558570384979248e-01,1.624043285846710205e-01,-2.179729938507080078e-01,-4.065998494625091553e-01,4.521991610527038574e-01,-9.418171644210815430e-01,4.592029750347137451e-01,1.853256374597549438e-01,-4.342170059680938721e-01
-8.214781284332275391e-01,7.116410136222839355e-01,6.036784052848815918e-01,5.584341883659362793e-01,3.641456365585327148e-01,-4.290180206298828125e-01,1.706542670726776123e-01,-2.639443278312683105e-01,-2.946640253067016602e-01,4.209666252136230469e-01,-9.803849458694458008e-01,3.416396379470825195e-01,1.151702627539634705e-01,-4.839374721050262451e-01
-9.667073488235473633e-01,4.839597940444946289e-01,5.956819057464599609e-01,6.421279907226562500e-01,3.666696846485137939e-01,-2.799067795276641846e-01,2.067118734121322632e-01,-1.690132766962051392e-01,-6.127773523330688477e-01,4.448380768299102783e-01,-9.186961650848388672e-01,6.540451049804687500e-01,7.799026370048522949e-02,-4.373997747898101807e-01
-8.335564732551574707e-01,4.518002271652221680e-01,4.808605909347534180e-01,3.857717812061309814e-01,4.125449955463409424e-01,-5.585374832153320312e-01,3.859423398971557617e-01,-1.055417302995920181e-02,-4.092088639736175537e-01,5.470058321952819824e-01,-8.437127470970153809e-01,6.361863613128662109e-01,1.671887040138244629e-01,-3.135652244091033936e-01
-8.360648155212402344e-01,2.446924448013305664e-01,6.464192271232604980e-01,5.522222518920898438e-01,3.508936464786529541e-01,-4.623200595378875732e-01,3.546055853366851807e-01,-1.048768907785415649e-01,-3.278278708457946777e-01,4.114908576011657715e-01,-8.978449702262878418e-01,4.967232644557952881e-01,2.805787920951843262e-01,-7.329372167587280273e-01
-7.657139301300048828e-01,3.748722374439239502e-01,7.780773639678955078e-01,4.452164769172668457e-01,3.649801611900329590e-01,-5.428436398506164551e-01,2.690433859825134277e-01,1.618688553571701050e-02,-3.862948119640350342e-01,4.060814976692199707e-01,-9.158746600151062012e-01,4.863130152225494385e-01,1.556706875562667847e-01,-4.646722674369812012e-01
-6.838575005531311035e-01,3.207803070545196533e-01,7.250254154205322266e-01,4.653066098690032959e-01,3.939090669155120850e-01,-3.351699709892272949e-01,4.323266446590423584e-01,6.019337847828865051e-02,-3.141090869903564453e-01,5.964264273643493652e-01,-9.334358572959899902e-01,5.905659794807434082e-01,3.829130232334136963e-01,-4.795595407485961914e-01
-8.041720986366271973e-01,1.939375698566436768e-01,9.509755969047546387e-01,6.067861914634704590e-01,3.769653439521789551e-01,-5.720586776733398438e-01,3.319011330604553223e-01,-1.519181132316589355e-01,-4.418647885322570801e-01,5.434329509735107422e-01,-7.876412272453308105e-01,6.423986554145812988e-01,2.151203304529190063e-01,-5.329455137252807617e-01
-7.447718977928161621e-01,3.508180752396583557e-02,7.908214926719665527e-01,5.756906867027282715e-01,6.498389244079589844e-01,-4.343934357166290283e-01,2.653519213199615479e-01,4.023817181587219238e-02,-4.720064699649810791e-01,4.078139662742614746e-01,-7.869977355003356934e-01,7.027743458747863770e-01,1.625200808048248291e-01,-5.040311813354492188e-01
-8.170785307884216309e-01,-1.458073779940605164e-02,9.357180595397949219e-01,5.766085982322692871e-01,3.653769195079803467e-01,-5.003580451011657715e-01,3.624560832977294922e-01,1.108946949243545532e-01,-2.266883105039596558e-01,5.982061028480529785e-01,-7.541100382804870605e-01,5.836108326911926270e-01,2.371028065681457520e-01,-4.804426431655883789e-01
-7.284573316574096680e-01,-5.684434995055198669e-02,9.404291510581970215e-01,4.037107825279235840e-01,5.757915973663330078e-01,-5.061147212982177734e-01,4.372989237308502197e-01,9.205915778875350952e-02,-2.878468036651611328e-01,6.575911045074462891e-01,-6.636099815368652344e-01,5.189704298973083496e-01,4.335659444332122803e-01,-5.066277980804443359e-01
-5.060275793075561523e-01,-1.576181128621101379e-02,1.074867486953735352e+00,5.139627456665039062e-01,5.663174986839294434e-01,-5.107620954513549805e-01,2.141764760017395020e-01,-1.538031399250030518e-01,-2.686437368392944336e-01,2.846349477767944336e-01,-7.292290925979614258e-01,5.010519623756408691e-01,3.521222472190856934e-01,-7.084560394287109375e-01
-5.787548422813415527e-01,-6.778872758150100708e-02,9.477891325950622559e-01,4.983012080192565918e-01,5.517539978027343750e-01,-2.982917129993438721e-01,1.627806276082992554e-01,-1.637939065694808960e-01,-2.212765067815780640e-01,3.950781226158142090e-01,-6.598749160766601562e-01,2.783005833625793457e-01,8.257332444190979004e-02,-5.687341690063476562e-01
-4.080629944801330566e-01,-3.540525436401367188e-01,1.042849540710449219e+00,3.492709100246429443e-01,4.766273498535156250e-01,-1.950816363096237183e-01,2.833939194679260254e-01,-8.731884881854057312e-03,-3.450434803962707520e-01,4.401369690895080566e-01,-6.296348571777343750e-01,4.005372524261474609e-01,8.654808998107910156e-02,-2.881073653697967529e-01
-5.502078533172607422e-01,-3.312877416610717773e-01,9.814716577529907227e-01,3.348706364631652832e-01,3.609707355499267578e-01,-2.049570083618164062e-01,2.430902719497680664e-01,7.148638833314180374e-03,-2.164553850889205933e-01,5.924437642097473145e-01,-7.855476737022399902e-01,4.560862481594085693e-01,2.263249903917312622e-01,-5.269005298614501953e-01
-4.879116415977478027e-01,-2.275438755750656128e-01,8.034121394157409668e-01,1.364542692899703979e-01,4.666199386119842529e-01,-1.489283740520477295e-01,1.749047785997390747e-01,1.419253945350646973e-01,-8.636588603258132935e-02,5.962248444557189941e-01,-4.242097437381744385e-01,1.705908179283142090e-01,4.996340274810791016e-01,-3.599542677402496338e-01
-2.570695579051971436e-01,-4.279112815856933594e-01,1.112847685813903809e+00,2.007637172937393188e-02,4.297582507133483887e-01,-1.837993711233139038e-01,1.563919037580490112e-01,-3.239871188998222351e-02,1.131478250026702881e-01,5.655952692031860352e-01,-6.663844585418701172e-01,3.912634253501892090e-01,3.266139328479766846e-01,-3.946560919284820557e-01
-3.032490611076354980e-01,-2.216077446937561035e-01,9.712288379669189453e-01,3.693242073059082031e-01,5.776944756507873535e-01,-1.199916005134582520e-02,2.370194494724273682e-01,1.103090792894363403e-01,-1.274518072605133057e-01,5.975388884544372559e-01,-5.383592247962951660e-01,2.696518898010253906e-01,2.787089049816131592e-01,-2.153127342462539673e-01
-4.372065961360931396e-01,-3.573194742202758789e-01,7.359392046928405762e-01,1.226120516657829285e-01,3.587579131126403809e-01,-9.296197444200515747e-03,1.170836910605430603e-01,-3.696337342262268066e-02,-5.988838151097297668e-02,3.959575593471527100e-01,-5.239538550376892090e-01,4.866731166839599609e-01,6.026145219802856445e-01,-2.459359616041183472e-01
-3.106908798217773438e-01,-2.725601494312286377e-01,6.915527582168579102e-01,3.277036594226956367e-03,2.705307900905609131e-01,-4.200522229075431824e-02,2.083139419555664062e-01,1.075412929058074951e-01,9.435465931892395020e-02,3.840586841106414795e-01,-4.047439098358154297e-01,2.787367701530456543e-01,5.557627081871032715e-01,-1.102397814393043518e-01
-1.385521292686462402e-01,-3.505046367645263672e-01,8.828860521316528320e-01,6.187071651220321655e-02,1.886350512504577637e-01,-6.575948558747768402e-03,1.996733397245407104e-01,2.894343808293342590e-02,-1.920692473649978638e-01,6.289083957672119141e-01,-1.881012320518493652e-01,2.585954368114471436e-01,4.868460595607757568e-01,-8.685366064310073853e-02
-2.167411148548126221e-01,-3.712725341320037842e-01,8.120136260986328125e-01,-1.541558057069778442e-01,9.110134840011596680e-02,-4.565747454762458801e-02,1.987813711166381836e-01,1.128970086574554443e-01,2.990583330392837524e-02,5.135994553565979004e-01,-1.189307421445846558e-01,2.478223592042922974e-01,5.265681147575378418e-01,-1.129211187362670898e-01
-5.768542364239692688e-02,-4.738335311412811279e-01,7.471836805343627930e-01,-9.577953815460205078e-02,9.953409433364868164e-02,2.245924472808837891e-01,3.370491564273834229e-01,4.449335485696792603e-02,-8.310019969940185547e-02,6.236846446990966797e-01,-1.918980628252029419e-01,2.359423339366912842e-01,7.580893635749816895e-01,-2.446798086166381836e-01
-2.917047142982482910e-01,-4.191458523273468018e-01,5.368995666503906250e-01,-2.524223737418651581e-02,7.749412953853607178e-02,1.413004696369171143e-01,5.175268650054931641e-01,-1.342315524816513062e-01,2.328155040740966797e-01,4.314749836921691895e-01,-2.016387432813644409e-01,2.883364856243133545e-01,6.346914768218994141e-01,-5.482454225420951843e-02
-2.619796991348266602e-02,-3.699912130832672119e-01,5.220100283622741699e-01,-2.641571164131164551e-01,-1.183084174990653992e-01,8.181221038103103638e-02,1.944591701030731201e-01,1.448339521884918213e-01,6.480629742145538330e-02,3.918757438659667969e-01,2.122432291507720947e-01,1.449237465858459473e-01,7.506476640701293945e-01,-3.332260251045227051e-02
-2.515964210033416748e-01,-3.614882528781890869e-01,6.598751544952392578e-01,-2.104570269584655762e-01,-1.482727974653244019e-01,1.071761325001716614e-01,4.489309787750244141e-01,2.197178900241851807e-01,-1.478046178817749023e-01,3.628048598766326904e-01,2.447763830423355103e-01,1.498743593692779541e-01,8.810861706733703613e-01,2.372883446514606476e-02
-9.367246925830841064e-02,-2.560524046421051025e-01,5.303390026092529297e-01,-2.966455519199371338e-01,-2.487758398056030273e-01,1.177921891212463379e-01,3.801665008068084717e-01,2.837339229881763458e-02,-9.500840306282043457e-02,5.572916269302368164e-01,-5.704604461789131165e-02,1.941031813621520996e-01,8.779640793800354004e-01,2.557893693447113037e-01
-5.487966816872358322e-03,-3.680837452411651611e-01,3.367862105369567871e-01,-6.362333893775939941e-02,-1.730908155441284180e-01,1.582142412662506104e-01,-2.073136344552040100e-02,2.013317048549652100e-01,-2.521735429763793945e-01,5.714194774627685547e-01,2.492209672927856445e-01,8.134250342845916748e-02,8.867721557617187500e-01,4.706418216228485107e-01
-6.496575474739074707e-02,-2.758333384990692139e-01,4.870462417602539062e-01,-1.080489754676818848e-01,-1.718694269657135010e-01,2.419240474700927734e-01,3.354010879993438721e-01,6.503361463546752930e-02,-3.137581944465637207e-01,4.863160848617553711e-01,1.384203135967254639e-01,1.133042275905609131e-01,1.053888797760009766e+00,8.634477853775024414e-02
7.138991728425025940e-03,-8.586197346448898315e-02,4.842143356800079346e-01,1.248448435217142105e-02,-6.194466948509216309e-01,7.258914411067962646e-02,7.080777883529663086e-01,-6.872001104056835175e-03,-3.928787112236022949e-01,3.502209782600402832e-01,2.987644076347351074e-01,-2.679464407265186310e-02,1.060773968696594238e+00,2.479611039161682129e-01
8.676400035619735718e-02,-1.130256354808807373e-01,1.746779233217239380e-01,7.020809687674045563e-03,-4.475954174995422363e-01,2.400977462530136108e-01,1.497168540954589844e-01,6.262946873903274536e-02,-3.875435590744018555e-01,4.213309288024902344e-01,3.617657124996185303e-01,2.748313173651695251e-02,1.084761500358581543e+00,4.872603416442871094e-01
7.285890728235244751e-02,-1.404281854629516602e-01,9.585344791412353516e-02,-7.416045665740966797e-02,-3.035017848014831543e-01,2.686907947063446045e-01,4.593750834465026855e-01,9.315562993288040161e-02,-3.273853063583374023e-01,3.709965050220489502e-01,4.138388335704803467e-01,1.044323146343231201e-01,8.646563887596130371e-01,5.022583603858947754e-01
4.173500090837478638e-02,-2.510083317756652832e-01,2.585073411464691162e-01,2.267372980713844299e-02,-4.770268797874450684e-01,2.924112379550933838e-01,3.666355907917022705e-01,-4.208218306303024292e-02,-2.915833592414855957e-01,5.453534051775932312e-02,1.908175498247146606e-01,2.322894893586635590e-02,1.168417692184448242e+00,6.326500177383422852e-01
1.033326610922813416e-01,-1.972625702619552612e-01,2.240718901157379150e-01,5.263014882802963257e-02,-5.807259678840637207e-01,3.168283104896545410e-01,2.167393714189529419e-01,1.929196268320083618e-01,-5.570036768913269043e-01,1.654492765665054321e-01,5.175348520278930664e-01,-2.248969376087188721e-01,8.486900329589843750e-01,6.364838480949401855e-01
9.886936843395233154e-02,4.690579697489738464e-02,1.813220381736755371e-01,1.112969443202018738e-01,-8.051118254661560059e-01,3.038467764854431152e-01,3.380579352378845215e-01,-1.380953043699264526e-01,-5.769553780555725098e-01,1.704371124505996704e-01,2.476003468036651611e-01,2.776538208127021790e-02,1.043587088584899902e+00,8.188632726669311523e-01
1.213454604148864746e-01,9.626492857933044434e-02,2.813260629773139954e-02,2.103663086891174316e-01,-6.604492068290710449e-01,3.385482132434844971e-01,3.116582334041595459e-01,-9.301689267158508301e-02,-2.856606543064117432e-01,1.963010728359222412e-01,2.770219445228576660e-01,-1.218606010079383850e-01,1.207859754562377930e+00,7.803494334220886230e-01
4.342895150184631348e-01,-1.384411305189132690e-01,-8.493353426456451416e-02,-2.113570831716060638e-02,-8.114482164382934570e-01,2.793069183826446533e-01,2.427410632371902466e-01,-1.951449066400527954e-01,-5.202226638793945312e-01,2.350326441228389740e-02,3.258748054504394531e-01,-6.649946421384811401e-02,1.032114505767822266e+00,8.359726071357727051e-01
4.212845265865325928e-01,1.535120606422424316e-01,4.273496940732002258e-02,-7.669804245233535767e-02,-7.774999141693115234e-01,3.853289186954498291e-01,1.965088248252868652e-01,-4.044022411108016968e-02,-5.818475484848022461e-01,-6.133515853434801102e-04,2.299711257219314575e-01,1.180258914828300476e-01,8.700709939002990723e-01,8.627486824989318848e-01
5.572397112846374512e-01,4.803643003106117249e-02,-8.696600049734115601e-02,2.829583361744880676e-02,-6.682652235031127930e-01,3.467123806476593018e-01,1.655466705560684204e-01,-4.064438939094543457e-01,-6.494196653366088867e-01,-6.167822703719139099e-02,3.092890381813049316e-01,2.372448146343231201e-02,8.034986853599548340e-01,6.416172385215759277e-01
5.191100239753723145e-01,7.779242098331451416e-02,-9.209692478179931641e-02,2.033592760562896729e-01,-1.052784204483032227e+00,5.023050904273986816e-01,2.091358751058578491e-01,-2.577643394470214844e-01,-6.436377167701721191e-01,-5.797856301069259644e-02,2.730462849140167236e-01,6.864744424819946289e-02,7.978341579437255859e-01,8.069250583648681641e-01
4.598326981067657471e-01,2.153609842061996460e-01,-2.905876561999320984e-02,2.209743708372116089e-01,-7.934150695800781250e-01,3.485836386680603027e-01,2.020672261714935303e-01,-4.072611629962921143e-01,-5.821539759635925293e-01,-2.398808747529983521e-01,2.621662616729736328e-01,2.430314421653747559e-01,8.781706094741821289e-01,7.880137562751770020e-01
4.055381715297698975e-01,2.031276375055313110e-01,-3.546489030122756958e-02,1.476087421178817749e-01,-9.716556668281555176e-01,2.097215652465820312e-01,2.145634591579437256e-01,-6.378902196884155273e-01,-4.792564511299133301e-01,-1.703724265098571777e-01,2.138000428676605225e-01,2.480568587779998779e-01,7.768359780311584473e-01,6.546483039855957031e-01
4.867941737174987793e-01,1.203654929995536804e-01,-7.807632535696029663e-02,2.038455307483673096e-01,-8.097880482673645020e-01,2.802830040454864502e-01,6.189578771591186523e-02,-6.312654018402099609e-01,-7.111179232597351074e-01,-3.281689584255218506e-01,1.878682896494865417e-02,2.120976746082305908e-01,6.717147231101989746e-01,6.105402112007141113e-01
6.105622649192810059e-01,1.982702016830444336e-01,-1.243704333901405334e-01,1.757181733846664429e-01,-9.737822413444519043e-01,2.630729675292968750e-01,6.962712109088897705e-02,-6.918573379516601562e-01,-6.265075802803039551e-01,-1.334453821182250977e-01,1.790432035923004150e-01,4.934461414813995361e-01,7.239965796470642090e-01,5.635450482368469238e-01
4.659487903118133545e-01,9.324923157691955566e-02,-3.177612274885177612e-02,2.777669429779052734e-01,-9.828358292579650879e-01,3.381977975368499756e-01,-1.449376642704010010e-01,-6.851394772529602051e-01,-4.235830307006835938e-01,-1.413623709231615067e-02,2.485017329454421997e-01,5.942237377166748047e-01,4.420915842056274414e-01,4.539237916469573975e-01
6.533432006835937500e-01,5.374452471733093262e-02,-7.282094657421112061e-02,2.489238828420639038e-01,-7.711824774742126465e-01,4.755922853946685791e-01,-2.440365701913833618e-01,-8.692471981048583984e-01,-7.521073818206787109e-01,-1.092159226536750793e-01,1.344254892319440842e-02,6.370646953582763672e-01,4.619796276092529297e-01,3.487138450145721436e-01
4.611546099185943604e-01,2.666419446468353271e-01,-1.491451263427734375e-01,5.113134980201721191e-01,-9.683217406272888184e-01,3.651543855667114258e-01,-1.724898219108581543e-01,-7.929086089134216309e-01,-4.642435312271118164e-01,-1.524706557393074036e-02,3.993298113346099854e-02,4.995319545269012451e-01,4.180670678615570068e-01,6.470888853073120117e-01
3.455798327922821045e-01,2.873953282833099365e-01,-5.382955074310302734e-03,5.076204538345336914e-01,-8.308251500129699707e-01,3.738422989845275879e-01,-3.065714240074157715e-01,-8.923446536064147949e-01,-3.674870431423187256e-01,9.308446943759918213e-02,1.114865317940711975e-01,6.643739342689514160e-01,5.250138640403747559e-01,4.891931712627410889e-01
3.982925415039062500e-01,1.118497699499130249e-01,-1.878414861857891083e-02,4.725858569145202637e-01,-7.813456654548645020e-01,5.146984457969665527e-01,-2.532830834388732910e-01,-8.833625316619873047e-01,-5.537238121032714844e-01,3.725598454475402832e-01,7.528808712959289551e-02,5.988235473632812500e-01,3.827086687088012695e-01,3.368673324584960938e-01
4.130520820617675781e-01,1.518295258283615112e-01,1.539736613631248474e-02,4.242437183856964111e-01,-7.246311306953430176e-01,4.108164310455322266e-01,-2.713697552680969238e-01,-1.038650393486022949e+00,-4.001074135303497314e-01,1.387979388236999512e-01,-1.305201351642608643e-01,5.378710627555847168e-01,5.443249344825744629e-01,1.460874676704406738e-01
5.184507966041564941e-01,3.307478129863739014e-01,-6.923428177833557129e-02,5.510730743408203125e-01,-5.499840974807739258e-01,4.288051724433898926e-01,-3.604894876480102539e-01,-9.885095357894897461e-01,-6.904498934745788574e-01,2.643744647502899170e-01,-1.821996867656707764e-01,5.985856652259826660e-01,3.200307488441467285e-01,3.118880093097686768e-01
3.177467882633209229e-01,2.153000086545944214e-01,-1.179841086268424988e-01,4.575864970684051514e-01,-5.195872783660888672e-01,5.709015727043151855e-01,-4.706000983715057373e-01,-9.603235125541687012e-01,-4.862771928310394287e-01,2.169686257839202881e-01,-1.308605819940567017e-01,3.935881257057189941e-01,1.076691746711730957e-01,1.911838054656982422e-01
2.027951329946517944e-01,4.130824208259582520e-01,-6.798592954874038696e-02,4.687247872352600098e-01,-5.493209362030029297e-01,3.609120845794677734e-01,-5.451024770736694336e-01,-9.645373821258544922e-01,-3.065187633037567139e-01,3.114461302757263184e-01,-1.345718801021575928e-01,5.668865442276000977e-01,2.154742330312728882e-01,1.874204128980636597e-01
3.665475249290466309e-01,2.825288176536560059e-01,-1.530782878398895264e-01,2.793068885803222656e-01,-5.882747769355773926e-01,4.888786673545837402e-01,-4.202757477760314941e-01,-9.736719727516174316e-01,-5.090090036392211914e-01,3.099183142185211182e-01,-1.188395544886589050e-01,5.193553566932678223e-01,-5.738674197345972061e-03,4.075192511081695557e-01
3.011333346366882324e-01,4.099337458610534668e-01,-1.635165512561798096e-01,4.730040729045867920e-01,-5.067626833915710449e-01,6.089397072792053223e-01,-4.020321667194366455e-01,-7.542192935943603516e-01,-1.813228577375411987e-01,3.042567372322082520e-01,-4.330059587955474854e-01,6.773607730865478516e-01,-2.980946935713291168e-02,3.550428450107574463e-01
1.382782906293869019e-01,5.896611213684082031e-01,-1.561360359191894531e-01,3.091376125812530518e-01,-6.033607125282287598e-01,3.153310120105743408e-01,-5.157920122146606445e-01,-8.972463011741638184e-01,-5.797297693789005280e-03,3.570764958858489990e-01,-2.689888477325439453e-01,6.759910583496093750e-01,-4.229711741209030151e-02,-8.730984479188919067e-02
-4.864724725484848022e-02,4.456672072410583496e-01,-2.812182903289794922e-01,3.872694075107574463e-01,-5.931276679039001465e-01,2.876658141613006592e-01,-5.872700214385986328e-01,-8.710896968841552734e-01,-2.778134047985076904e-01,5.306305885314941406e-01,-2.553904354572296143e-01,4.671449661254882812e-01,-4.035326093435287476e-02,1.696932315826416016e-01
1.996276527643203735e-02,5.303106904029846191e-01,-1.339656263589859009e-01,4.334318935871124268e-01,-5.303364992141723633e-01,2.762538194656372070e-01,-4.166933596134185791e-01,-9.063296914100646973e-01,-8.018422126770019531e-02,4.617508947849273682e-01,-4.338160157203674316e-01,7.081075310707092285e-01,-8.304186165332794189e-02,1.324601173400878906e-01
1.162213906645774841e-01,6.675395369529724121e-01,-2.244757860898971558e-01,3.171107172966003418e-01,-5.987207889556884766e-01,9.480419009923934937e-02,-5.866271853446960449e-01,-8.626834154129028320e-01,-1.195692829787731171e-02,3.389172852039337158e-01,-2.483557760715484619e-01,5.536819100379943848e-01,-1.076145544648170471e-01,1.319696307182312012e-01
1.339770704507827759e-01,4.841292798519134521e-01,-2.292604595422744751e-01,4.484409391880035400e-01,-4.347890317440032959e-01,5.000277757644653320e-01,-5.286756753921508789e-01,-8.784837126731872559e-01,9.251461923122406006e-02,4.411900639533996582e-01,-3.368535041809082031e-01,4.963284432888031006e-01,-2.439733445644378662e-01,1.843527704477310181e-02
-1.105661690235137939e-02,6.978943943977355957e-01,-1.068394035100936890e-01,5.039080381393432617e-01,-3.830151259899139404e-01,2.609476745128631592e-01,-3.107948899269104004e-01,-6.956425905227661133e-01,-1.487279087305068970e-01,4.187388420104980469e-01,-1.535100936889648438e-01,4.121534824371337891e-01,-1.575211435556411743e-01,4.928766191005706787e-02
-6.794975697994232178e-02,8.258855342864990234e-01,-2.263360917568206787e-01,3.141321241855621338e-01,-4.327043592929840088e-01,1.183883100748062134e-01,-4.831511676311492920e-01,-8.586177229881286621e-01,-7.359866052865982056e-02,6.240911483764648438e-01,-2.740134596824645996e-01,4.974120259284973145e-01,-1.315930038690567017e-01,-8.838371932506561279e-02
-1.442034095525741577e-01,8.081707954406738281e-01,-1.902444213628768921e-01,4.241734743118286133e-01,-5.333895087242126465e-01,-7.319721393287181854e-03,-3.948774039745330811e-01,-7.402492761611938477e-01,7.547757029533386230e-02,4.774042665958404541e-01,-2.353412210941314697e-01,5.475365519523620605e-01,-7.849822193384170532e-02,9.455307573080062866e-02
-5.010893568396568298e-02,7.220509052276611328e-01,-6.853403896093368530e-02,3.038045167922973633e-01,-4.535338580608367920e-01,2.792565822601318359e-01,-9.053435921669006348e-02,-5.808899402618408203e-01,3.272187337279319763e-02,6.592885851860046387e-01,-3.372066617012023926e-01,6.419829130172729492e-01,-2.121178209781646729e-01,5.992128327488899231e-02
-2.555163502693176270e-01,7.286358475685119629e-01,-6.111190840601921082e-02,3.332227170467376709e-01,-2.974846363067626953e-01,6.434740871191024780e-02,-3.196834325790405273e-01,-6.853980422019958496e-01,2.134518176317214966e-01,6.872741580009460449e-01,-7.101516425609588623e-02,5.093399286270141602e-01,-4.415410161018371582e-01,9.137555211782455444e-02
-2.336349934339523315e-01,8.704906702041625977e-01,2.866400778293609619e-01,5.066125988960266113e-01,-2.515675425529479980e-01,-7.130950689315795898e-02,-1.366271078586578369e-01,-7.360150814056396484e-01,4.831347614526748657e-03,6.161842346191406250e-01,-9.609332680702209473e-02,4.621960818767547607e-01,-5.753301084041595459e-02,-1.813808083534240723e-01
-6.112339720129966736e-02,8.491943478584289551e-01,9.521655738353729248e-02,5.751655101776123047e-01,-4.668438732624053955e-01,9.459203109145164490e-03,1.195485368371009827e-01,-7.341206073760986328e-01,-4.371748771518468857e-03,6.628576517105102539e-01,-1.819960623979568481e-01,5.220659375190734863e-01,-1.200131773948669434e-01,-1.067091226577758789e-01
-1.137375757098197937e-01,6.903635263442993164e-01,-2.068531811237335205e-01,3.815476298332214355e-01,-2.777656912803649902e-01,-1.243530362844467163e-01,4.745994880795478821e-02,-6.607781052589416504e-01,7.834334671497344971e-02,5.585051774978637695e-01,-2.159380018711090088e-01,4.454132020473480225e-01,-3.223483264446258545e-01,4.336471110582351685e-02
-6.706938892602920532e-02,6.219406723976135254e-01,9.785374999046325684e-02,7.641227841377258301e-01,-3.803861439228057861e-01,-2.611316442489624023e-01,-7.607974857091903687e-02,-5.212471485137939453e-01,8.199861645698547363e-02,6.867026686668395996e-01,-1.125971972942352295e-01,2.462098151445388794e-01,-3.548298180103302002e-01,-2.529774904251098633e-01
-2.764807343482971191e-01,7.533559203147888184e-01,-7.726489007472991943e-02,5.321460962295532227e-01,-1.566276997327804565e-01,-3.166375756263732910e-01,9.715403616428375244e-02,-3.314012289047241211e-01,4.574566707015037537e-02,4.635537564754486084e-01,-1.494700312614440918e-01,3.174226284027099609e-01,-1.651389300823211670e-01,-3.078887164592742920e-01
-3.227279186248779297e-01,7.609855532646179199e-01,1.031785979866981506e-01,6.187270283699035645e-01,-1.297449469566345215e-01,-3.578621447086334229e-01,1.353714913129806519e-01,-4.006573557853698730e-01,-1.794341951608657837e-02,5.197677016258239746e-01,-3.172832429409027100e-01,2.683502137660980225e-01,-2.911804020404815674e-01,-1.956815719604492188e-01
-2.663782611489295959e-02,7.633444666862487793e-01,2.006042152643203735e-01,5.523849129676818848e-01,-4.834233522415161133e-01,-4.413168132305145264e-01,1.128263678401708603e-02,-4.541340470314025879e-01,1.116705536842346191e-01,5.071820020675659180e-01,-3.515687584877014160e-01,2.773442566394805908e-01,-4.370937943458557129e-01,-1.257652491331100464e-01
-6.938108801841735840e-02,6.580544710159301758e-01,1.765660941600799561e-01,5.753378272056579590e-01,-3.116701841354370117e-01,-2.676150202751159668e-01,2.007475346326828003e-01,-4.049456119537353516e-01,1.743862777948379517e-01,6.030235886573791504e-01,-3.900930881500244141e-01,2.142870277166366577e-01,-4.384654760360717773e-01,-3.241487741470336914e-01
-1.411833916790783405e-03,5.343084931373596191e-01,4.494571313261985779e-02,7.428115010261535645e-01,-1.611747145652770996e-01,-4.676162600517272949e-01,3.064377009868621826e-01,-3.537780344486236572e-01,8.066498488187789917e-02,6.373593211174011230e-01,-3.407751321792602539e-01,1.546718627214431763e-01,-3.841321170330047607e-01,-7.885033637285232544e-02
1.589571498334407806e-02,3.684793114662170410e-01,3.135380446910858154e-01,7.175793051719665527e-01,-4.128915965557098389e-01,-3.150390386581420898e-01,3.572028279304504395e-01,-4.431173205375671387e-01,9.600555896759033203e-02,3.816580772399902344e-01,-4.011375904083251953e-01,3.600122928619384766e-01,-4.827256798744201660e-01,-3.789102733135223389e-01
1.748736947774887085e-01,6.896226406097412109e-01,2.970153093338012695e-01,3.671296536922454834e-01,-3.101952187716960907e-02,-5.644540786743164062e-01,2.710257768630981445e-01,-3.308060467243194580e-01,2.957738339900970459e-01,3.776523172855377197e-01,-2.727595269680023193e-01,1.921536624431610107e-01,-4.903957843780517578e-01,-2.380735278129577637e-01
1.101977527141571045e-01,6.108721494674682617e-01,4.648835659027099609e-01,4.308150410652160645e-01,-1.268312484025955200e-01,-5.683327317237854004e-01,3.342720270156860352e-01,-3.163145482540130615e-01,6.206248998641967773e-01,2.312457859516143799e-01,-3.025400638580322266e-01,2.322049885988235474e-01,-4.607576429843902588e-01,-3.900853991508483887e-01
1.094775497913360596e-01,3.232008814811706543e-01,2.594923079013824463e-01,7.283611893653869629e-01,-3.094501793384552002e-01,-5.748808979988098145e-01,1.897531598806381226e-01,2.648832276463508606e-02,4.917502701282501221e-01,3.068102300167083740e-01,-4.378317594528198242e-01,1.645729392766952515e-01,-3.846562206745147705e-01,-3.897793292999267578e-01
1.670879125595092773e-01,3.632732331752777100e-01,4.247733354568481445e-01,3.288007676601409912e-01,-4.005349799990653992e-02,-6.337966918945312500e-01,4.797664284706115723e-01,-1.463153362274169922e-01,4.001617133617401123e-01,3.963080048561096191e-01,-3.676013946533203125e-01,2.523573040962219238e-01,-4.437729716300964355e-01,-2.837699651718139648e-01
1.987421512603759766e-01,2.623586952686309814e-01,6.256619691848754883e-01,3.476449251174926758e-01,-2.202435210347175598e-02,-6.085636019706726074e-01,2.452304363250732422e-01,-3.346926271915435791e-01,4.494417309761047363e-01,8.400660008192062378e-02,-3.295461237430572510e-01,1.574420034885406494e-01,-4.814504086971282959e-01,-4.112503826618194580e-01
3.676188588142395020e-01,2.286021858453750610e-01,3.644661605358123779e-01,3.485830426216125488e-01,-4.470419883728027344e-02,-4.916206300258636475e-01,2.902305126190185547e-01,-3.714313209056854248e-01,5.344902276992797852e-01,2.498201131820678711e-01,-1.862682998180389404e-01,2.587979137897491455e-01,-3.552041053771972656e-01,-5.668995976448059082e-01
3.617820143699645996e-01,1.185705363750457764e-01,6.730041503906250000e-01,2.478572577238082886e-01,-3.617558255791664124e-02,-4.132365584373474121e-01,3.375376164913177490e-01,-3.290559649467468262e-01,5.010426640510559082e-01,3.111044764518737793e-01,-3.181647658348083496e-01,-1.329998970031738281e-01,-5.734811425209045410e-01,-5.183757543563842773e-01
4.132529497146606445e-01,1.655377894639968872e-01,5.780927538871765137e-01,-1.921094954013824463e-01,3.030676394701004028e-02,-4.800004959106445312e-01,3.450933992862701416e-01,-3.612229600548744202e-02,6.356126666069030762e-01,2.426624149084091187e-01,-3.057582080364227295e-01,1.520580649375915527e-01,-4.593860805034637451e-01,-3.869293332099914551e-01
6.432481855154037476e-02,-7.587212324142456055e-02,6.542555093765258789e-01,5.087628215551376343e-02,-1.394078135490417480e-01,-5.953846573829650879e-01,2.947738766670227051e-01,-2.851288318634033203e-01,4.766004681587219238e-01,2.208368033170700073e-01,-5.720657110214233398e-01,1.502630710601806641e-01,-4.798216521739959717e-01,-4.350244104862213135e-01
2.442484349012374878e-01,-5.511029809713363647e-02,5.744233131408691406e-01,1.217945739626884460e-01,1.541300490498542786e-02,-4.933802187442779541e-01,3.919123709201812744e-01,4.519398882985115051e-02,5.995995998382568359e-01,3.337695598602294922e-01,-1.848990023136138916e-01,1.294837743043899536e-01,-3.923477530479431152e-01,-4.109773039817810059e-01
1.749191731214523315e-01,2.601750195026397705e-02,6.571948528289794922e-01,-1.188041344285011292e-01,-5.907427519559860229e-02,-4.403994679450988770e-01,5.770956277847290039e-01,-4.985281080007553101e-02,7.959905862808227539e-01,1.731826514005661011e-01,-2.415278702974319458e-01,-4.238102585077285767e-02,-3.383120298385620117e-01,-5.438026189804077148e-01
4.442962408065795898e-01,-2.949175834655761719e-01,5.719344019889831543e-01,-2.923401892185211182e-01,1.550489217042922974e-01,-1.553373485803604126e-01,3.609342873096466064e-01,-4.925194382667541504e-02,7.399963736534118652e-01,1.835330277681350708e-01,-2.806803584098815918e-01,-4.726960510015487671e-02,-3.492863476276397705e-01,-5.792348980903625488e-01
1.739911139011383057e-01,-9.229971468448638916e-02,5.303732156753540039e-01,-3.549271523952484131e-01,5.566513910889625549e-02,-1.655258685350418091e-01,3.615303933620452881e-01,-8.361767977476119995e-02,7.405853867530822754e-01,8.165933936834335327e-02,-2.448323220014572144e-01,-1.277907043695449829e-01,-2.722201943397521973e-01,-5.334437489509582520e-01
2.977674901485443115e-01,-1.921806186437606812e-01,6.992887854576110840e-01,-3.354424238204956055e-01,-1.588690578937530518e-01,-7.950557023286819458e-02,5.540863871574401855e-01,2.176218181848526001e-01,7.824159860610961914e-01,2.990990281105041504e-01,-8.592994511127471924e-02,-2.953604981303215027e-02,-1.166717782616615295e-01,-4.930240809917449951e-01
4.269991219043731689e-01,2.128751017153263092e-02,5.611274242401123047e-01,-3.095193505287170410e-01,-8.513533324003219604e-02,-2.091719508171081543e-01,2.057961076498031616e-01,2.092770934104919434e-01,6.307440996170043945e-01,2.828644514083862305e-01,-2.206196486949920654e-01,-4.727180674672126770e-02,-1.442227959632873535e-01,-3.773109018802642822e-01
2.548408508300781250e-01,-9.936040639877319336e-02,5.474981069564819336e-01,-1.485597342252731323e-01,5.114622414112091064e-02,-2.057024687528610229e-01,4.784470200538635254e-01,3.089443743228912354e-01,5.151266455650329590e-01,1.903765648603439331e-01,-1.482480317354202271e-01,-3.641363382339477539e-01,-3.738059699535369873e-01,-4.346325695514678955e-01
1.826605200767517090e-01,-1.933515369892120361e-01,4.736515283584594727e-01,-5.260707736015319824e-01,-2.094252221286296844e-02,3.423733636736869812e-02,3.688724935054779053e-01,2.545266151428222656e-01,6.628127694129943848e-01,1.375486999750137329e-01,7.164277136325836182e-02,-2.415376454591751099e-01,3.444119915366172791e-02,-1.436374783515930176e-01
2.423747479915618896e-01,5.613019317388534546e-02,5.367130637168884277e-01,-4.993959665298461914e-01,-4.669232293963432312e-02,-2.002558857202529907e-02,4.358010292053222656e-01,4.075978994369506836e-01,6.734814047813415527e-01,1.935838907957077026e-01,1.353976726531982422e-01,-4.086405634880065918e-01,6.641999632120132446e-02,-1.247759610414505005e-01
9.380394965410232544e-02,-5.544419959187507629e-02,3.872059285640716553e-01,-7.670124769210815430e-01,-1.110762134194374084e-01,9.713352471590042114e-02,4.172835946083068848e-01,5.425065755844116211e-01,7.812900543212890625e-01,1.721323132514953613e-01,2.098744213581085205e-01,-2.030034065246582031e-01,-6.929318606853485107e-02,-1.835020333528518677e-01
9.208287298679351807e-02,-9.466571733355522156e-03,3.439554870128631592e-01,-8.356702923774719238e-01,-1.667124927043914795e-01,1.437321901321411133e-01,5.299772620201110840e-01,4.998302161693572998e-01,5.150376558303833008e-01,7.966493139974772930e-04,-1.456366200000047684e-02,-3.704170286655426025e-01,2.560601234436035156e-01,-3.463339060544967651e-02
3.141014277935028076e-01,1.023968383669853210e-01,3.123392760753631592e-01,-7.680438160896301270e-01,-1.003463491797447205e-01,9.027898311614990234e-02,2.862708568572998047e-01,3.719787895679473877e-01,5.309152603149414062e-01,-1.207310631871223450e-01,5.477751046419143677e-02,-5.023865103721618652e-01,1.248867735266685486e-01,-2.082714438438415527e-02
3.471353650093078613e-02,-1.164082996547222137e-02,1.083740368485450745e-01,-7.202132344245910645e-01,-1.207798868417739868e-01,2.511392533779144287e-01,2.777058780193328857e-01,5.573309659957885742e-01,6.409159898757934570e-01,-1.483608633279800415e-01,1.775065064430236816e-01,-5.115321874618530273e-01,2.967484593391418457e-01,1.333978772163391113e-01
2.940746843814849854e-01,2.260050177574157715e-01,3.333288431167602539e-01,-8.135641813278198242e-01,-2.294857800006866455e-01,2.058546245098114014e-02,4.623649716377258301e-01,5.989359617233276367e-01,5.720642209053039551e-01,-1.720611602067947388e-01,2.900648713111877441e-01,-3.888080418109893799e-01,2.457347065210342407e-01,1.409774869680404663e-01
3.099563121795654297e-01,1.668707728385925293e-01,-8.711896836757659912e-03,-8.320983648300170898e-01,-2.485125809907913208e-01,1.901078820228576660e-01,3.295189142227172852e-01,6.998769640922546387e-01,2.889668941497802734e-01,-1.975604444742202759e-01,2.654999792575836182e-01,-5.227243304252624512e-01,2.387303560972213745e-01,5.086544156074523926e-01
5.417854785919189453e-01,6.745605170726776123e-02,1.309993565082550049e-01,-8.883774280548095703e-01,-3.643603324890136719e-01,2.580966055393218994e-01,5.380450487136840820e-01,5.907560586929321289e-01,4.971055090427398682e-01,-1.335158944129943848e-01,2.723692655563354492e-01,-7.070480585098266602e-01,3.711484670639038086e-01,1.978165954351425171e-01
4.190357029438018799e-01,1.048168987035751343e-01,1.146888360381126404e-01,-8.771931529045104980e-01,-5.754078030586242676e-01,3.720167279243469238e-01,5.122439265251159668e-01,6.348441839218139648e-01,4.934501349925994873e-01,-1.612438112497329712e-01,2.203800380229949951e-01,-3.667976558208465576e-01,3.234481215476989746e-01,2.841542661190032959e-01
3.556742072105407715e-01,3.303279355168342590e-02,3.142709434032440186e-01,-9.066603779792785645e-01,-3.139297664165496826e-01,2.290718257427215576e-01,5.089181661605834961e-01,5.723558664321899414e-01,1.996847242116928101e-01,-2.267058342695236206e-01,1.872446238994598389e-01,-4.193091094493865967e-01,4.006376564502716064e-01,4.330656826496124268e-01
4.930599629878997803e-01,1.947450786828994751e-01,1.120629683136940002e-01,-1.004342079162597656e+00,-3.545962870121002197e-01,3.589032590389251709e-01,4.068425297737121582e-01,3.561471700668334961e-01,2.920365333557128906e-01,-2.092174142599105835e-01,1.702034622430801392e-01,-5.294173955917358398e-01,2.945925891399383545e-01,5.037504434585571289e-01
4.285098314285278320e-01,1.471381485462188721e-01,-6.203268654644489288e-03,-1.000298142433166504e+00,-4.601785242557525635e-01,3.747841417789459229e-01,4.608393609523773193e-01,5.515951514244079590e-01,1.653427779674530029e-01,-2.350400984287261963e-01,2.951756715774536133e-01,-3.850835561752319336e-01,4.509725570678710938e-01,5.344097018241882324e-01
3.090507388114929199e-01,1.939894556999206543e-01,8.520227856934070587e-03,-6.876251101493835449e-01,-6.608729958534240723e-01,5.172371268272399902e-01,4.200901091098785400e-01,4.547838568687438965e-01,-6.685757637023925781e-02,-2.671764194965362549e-01,2.652341425418853760e-01,-4.716399610042572021e-01,3.798698186874389648e-01,6.396636366844177246e-01
4.531745612621307373e-01,-1.144703850150108337e-02,2.907730825245380402e-02,-8.704437613487243652e-01,-6.909366846084594727e-01,3.494844436645507812e-01,5.816146135330200195e-01,6.144855618476867676e-01,-1.917492449283599854e-01,-3.117538392543792725e-01,2.706575095653533936e-01,-4.361763000488281250e-01,5.153611302375793457e-01,6.102387309074401855e-01
4.426401257514953613e-01,1.018562614917755127e-01,8.601672947406768799e-02,-7.707845568656921387e-01,-6.145710945129394531e-01,5.610765814781188965e-01,3.406109213829040527e-01,2.411771565675735474e-01,-9.902214258909225464e-02,-4.428116381168365479e-01,3.278713822364807129e-01,-3.437317907810211182e-01,5.687994956970214844e-01,4.876874387264251709e-01
4.377472400665283203e-01,5.223840102553367615e-02,9.405743330717086792e-02,-5.826029777526855469e-01,-3.160905241966247559e-01,4.799884557723999023e-01,2.473250925540924072e-01,2.406454831361770630e-01,-1.013163328170776367e-01,-4.837879538536071777e-01,3.360901474952697754e-01,-2.291068136692047119e-01,5.154254436492919922e-01,6.967507004737854004e-01
4.756797850131988525e-01,1.975181251764297485e-01,1.139926239848136902e-01,-6.820325851440429688e-01,-4.781254529953002930e-01,2.918404042720794678e-01,3.513099253177642822e-01,3.934479057788848877e-01,-3.127561509609222412e-01,-4.166875183582305908e-01,1.949831247329711914e-01,-1.977746784687042236e-01,5.835687518119812012e-01,6.616763472557067871e-01
5.387434363365173340e-01,8.791817724704742432e-02,7.411033660173416138e-02,-5.217092037200927734e-01,-4.929615855216979980e-01,4.961381554603576660e-01,8.175238966941833496e-02,4.370618462562561035e-01,-4.513588845729827881e-01,-2.545177042484283447e-01,2.410888522863388062e-01,-1.048212870955467224e-01,6.586953997611999512e-01,7.440028786659240723e-01
4.701883494853973389e-01,1.972827464342117310e-01,1.206821426749229431e-01,-6.556672453880310059e-01,-4.587276875972747803e-01,4.498533904552459717e-01,2.790433764457702637e-01,2.363671064376831055e-01,-5.954139828681945801e-01,-1.386087834835052490e-01,2.095475494861602783e-01,-1.028288528323173523e-01,4.105316102504730225e-01,6.152753829956054688e-01
3.072763085365295410e-01,1.011473163962364197e-01,-5.058261379599571228e-02,-3.734925687313079834e-01,-4.841439425945281982e-01,7.415627241134643555e-01,-1.463852822780609131e-01,1.964650303125381470e-01,-3.997414708137512207e-01,-3.193693459033966064e-01,4.660069197416305542e-02,4.594419524073600769e-02,3.820700943470001221e-01,7.221996784210205078e-01
2.848807871341705322e-01,3.227872550487518311e-01,-1.008967235684394836e-01,-4.745106101036071777e-01,-4.237878620624542236e-01,6.499409675598144531e-01,1.060280203819274902e-01,1.850452125072479248e-01,-5.094862580299377441e-01,-3.378371000289916992e-01,-1.959103345870971680e-02,1.269225478172302246e-01,2.559655904769897461e-01,3.418079316616058350e-01
3.984292447566986084e-01,1.718005836009979248e-01,1.675774455070495605e-01,-4.747689962387084961e-01,-3.797193467617034912e-01,5.422069430351257324e-01,-1.577065140008926392e-01,6.905003637075424194e-02,-5.278636813163757324e-01,-2.610649466514587402e-01,-1.596231386065483093e-02,4.175907373428344727e-02,7.599295675754547119e-02,5.636505484580993652e-01
3.894625306129455566e-01,2.645206451416015625e-01,-1.021883040666580200e-01,-4.701947867870330811e-01,-4.174302518367767334e-01,7.994136214256286621e-01,-2.827721536159515381e-01,1.664265394210815430e-01,-2.746449112892150879e-01,-2.051121443510055542e-01,-1.832776516675949097e-01,3.813470155000686646e-02,2.213017046451568604e-01,5.156937241554260254e-01
4.645220637321472168e-01,1.668146699666976929e-01,5.027889460325241089e-02,-3.650601804256439209e-01,-4.503283500671386719e-01,8.758924603462219238e-01,-1.465283781290054321e-01,-3.261280804872512817e-02,-3.594374656677246094e-01,-4.306918084621429443e-01,1.212428137660026550e-01,1.168876588344573975e-01,2.201712727546691895e-01,6.678722500801086426e-01
5.509907007217407227e-01,2.737755775451660156e-01,-1.721295900642871857e-02,-4.109472632408142090e-01,-2.862161993980407715e-01,7.317304015159606934e-01,-4.210362434387207031e-01,3.251376748085021973e-02,-3.515804409980773926e-01,-2.252580597996711731e-02,-1.614624410867691040e-01,7.452481891959905624e-03,1.016599684953689575e-01,5.099888443946838379e-01
5.578090548515319824e-01,1.050806567072868347e-01,2.481568455696105957e-01,-7.509717345237731934e-01,-3.397202491760253906e-01,7.517372369766235352e-01,-5.661753416061401367e-01,-2.227099090814590454e-01,-4.051519334316253662e-01,-1.198309138417243958e-01,-3.449952602386474609e-01,2.682322263717651367e-01,-2.831606194376945496e-02,6.631227135658264160e-01
3.121324181556701660e-01,1.763619780540466309e-01,2.708093523979187012e-01,-4.745885133743286133e-01,-1.180562227964401245e-01,8.376588821411132812e-01,-5.304203629493713379e-01,3.063810616731643677e-02,-3.227505087852478027e-01,-3.719519674777984619e-01,-2.225090712308883667e-01,2.702006399631500244e-01,-8.258455246686935425e-02,6.214249134063720703e-01
1.667550951242446899e-01,1.296108812093734741e-01,9.559574723243713379e-02,-3.961173892021179199e-01,-1.373129040002822876e-01,6.547931432723999023e-01,-5.164398550987243652e-01,-4.001525044441223145e-01,-3.209171891212463379e-01,-2.826151251792907715e-01,-3.370812237262725830e-01,3.249711692333221436e-01,-1.435821354389190674e-01,4.551299810409545898e-01
3.077141046524047852e-01,3.563564419746398926e-01,7.598005235195159912e-02,-5.217960476875305176e-01,-1.542019248008728027e-01,9.231455922126770020e-01,-6.365316510200500488e-01,-3.354879319667816162e-01,-3.631111681461334229e-01,1.602702438831329346e-01,-2.098937630653381348e-01,4.512290060520172119e-01,-5.116852745413780212e-02,5.099165439605712891e-01
3.611719012260437012e-01,4.260234907269477844e-02,9.401634335517883301e-02,-4.685024619102478027e-01,-1.695560961961746216e-01,1.036032795906066895e+00,-7.019058465957641602e-01,-3.721312060952186584e-02,-3.099403679370880127e-01,5.146366357803344727e-02,-2.803010642528533936e-01,2.987858057022094727e-01,-1.562000215053558350e-01,4.330225586891174316e-01
1.492816656827926636e-01,3.600581884384155273e-01,1.491438597440719604e-01,-4.452388286590576172e-01,1.851521059870719910e-02,8.151946067810058594e-01,-7.432044148445129395e-01,-2.766820490360260010e-01,-1.673521250486373901e-01,-3.636602312326431274e-02,-2.659239768981933594e-01,5.368338227272033691e-01,5.100962147116661072e-02,4.343116283416748047e-01
1.333397477865219116e-01,7.917532697319984436e-03,2.231946587562561035e-01,-2.295726537704467773e-01,7.236761599779129028e-02,1.076462268829345703e+00,-6.890776753425598145e-01,-3.667237460613250732e-01,-2.409157752990722656e-01,1.112615913152694702e-01,-5.718399286270141602e-01,6.121020913124084473e-01,7.516913581639528275e-03,4.672877788543701172e-01
4.115640744566917419e-02,2.131520509719848633e-01,4.787060320377349854e-01,-3.058670759201049805e-01,4.700685385614633560e-03,1.001601457595825195e+00,-8.954206705093383789e-01,-4.315720498561859131e-01,-2.517558820545673370e-02,2.608523368835449219e-01,-2.610363066196441650e-01,4.650336802005767822e-01,3.722265735268592834e-02,3.324754238128662109e-01
1.437919139862060547e-01,7.447459548711776733e-02,3.619163483381271362e-02,-3.034061193466186523e-01,1.350994408130645752e-01,9.016452431678771973e-01,-7.625554800033569336e-01,-3.397651016712188721e-01,-1.286680847406387329e-01,3.559981584548950195e-01,-1.174405887722969055e-01,7.703211307525634766e-01,6.251163780689239502e-02,1.768145114183425903e-01
1.432092189788818359e-01,1.628958284854888916e-01,1.622305363416671753e-01,-4.182432889938354492e-01,5.982229113578796387e-02,9.762300252914428711e-01,-6.801245808601379395e-01,-2.492926567792892456e-01,-2.586041092872619629e-01,4.826500713825225830e-01,-1.032565757632255554e-01,6.849533319473266602e-01,-1.001380905508995056e-01,3.851576447486877441e-01
-9.049611538648605347e-02,1.250762045383453369e-01,1.147381141781806946e-01,-3.311755657196044922e-01,2.039065361022949219e-01,1.070790767669677734e+00,-7.122616767883300781e-01,-2.027408629655838013e-01,-2.251865565776824951e-01,4.433094263076782227e-01,-3.432637453079223633e-02,7.656728029251098633e-01,2.257831580936908722e-02,4.226396381855010986e-01
-1.528299599885940552e-01,6.776405870914459229e-02,6.741275638341903687e-02,-1.356826424598693848e-01,1.415603756904602051e-01,9.169862270355224609e-01,-7.235618233680725098e-01,-1.850807517766952515e-01,-2.392029762268066406e-01,5.128043293952941895e-01,-9.235758334398269653e-02,6.673396229743957520e-01,-8.753760159015655518e-02,1.421291679143905640e-01
-4.183546304702758789e-01,1.708555370569229126e-01,6.362137943506240845e-02,-1.110775917768478394e-01,2.031519860029220581e-01,9.260486960411071777e-01,-9.701409935951232910e-01,-3.566885590553283691e-01,-9.217165410518646240e-02,5.047562122344970703e-01,-2.265186756849288940e-01,6.403902769088745117e-01,-9.074078500270843506e-02,3.118192851543426514e-01
-3.686309158802032471e-01,1.351655721664428711e-01,8.370716869831085205e-02,-2.753189802169799805e-01,3.590582311153411865e-01,8.083473443984985352e-01,-7.220837473869323730e-01,-1.221240758895874023e-01,-3.399077355861663818e-01,4.941694140434265137e-01,-1.213993132114410400e-01,7.320092320442199707e-01,-9.455569088459014893e-02,2.315200716257095337e-01
-2.747463583946228027e-01,2.487850338220596313e-01,1.040097698569297791e-01,4.939997941255569458e-02,4.031596481800079346e-01,8.153911828994750977e-01,-9.037311077117919922e-01,-5.965941026806831360e-02,-2.223701328039169312e-01,5.245013236999511719e-01,-2.138791829347610474e-01,6.841671466827392578e-01,-1.684187948703765869e-01,4.511449635028839111e-01
-3.474187254905700684e-01,1.046329885721206665e-01,1.152196153998374939e-01,-1.360334604978561401e-01,1.499398201704025269e-01,8.530538082122802734e-01,-8.396526575088500977e-01,-1.809133403003215790e-02,-1.214750185608863831e-01,6.317046284675598145e-01,-1.477290391921997070e-01,7.191669344902038574e-01,-1.154375076293945312e-01,4.732774198055267334e-01
-3.496446609497070312e-01,2.626409232616424561e-01,1.265038400888442993e-01,2.353437617421150208e-02,2.703152000904083252e-01,7.109221816062927246e-01,-8.632137775421142578e-01,-1.324484404176473618e-02,-1.168700829148292542e-01,6.944147944450378418e-01,-1.096498966217041016e-01,4.866162836551666260e-01,-1.315838098526000977e-01,2.914770245552062988e-01
-5.728995800018310547e-01,3.065683543682098389e-01,-5.780984088778495789e-02,2.954391241073608398e-01,3.438639342784881592e-01,6.158437132835388184e-01,-9.048211574554443359e-01,-1.077214702963829041e-01,3.478322178125381470e-03,5.194613933563232422e-01,-1.945208311080932617e-01,3.969532549381256104e-01,-7.103444635868072510e-02,2.570298612117767334e-01
-6.054413914680480957e-01,2.066490203142166138e-01,2.929292619228363037e-02,1.131140906363725662e-02,1.576023548841476440e-01,7.111881375312805176e-01,-7.929138541221618652e-01,-5.203323438763618469e-02,-1.593641638755798340e-01,8.673363924026489258e-01,-1.060711964964866638e-01,3.427220880985260010e-01,-1.795641332864761353e-01,4.259005486965179443e-01
-1.784866303205490112e-01,7.336051017045974731e-02,1.737117171287536621e-01,9.791086614131927490e-02,2.055096328258514404e-01,5.688416361808776855e-01,-6.910676360130310059e-01,1.795059740543365479e-01,-2.457979172468185425e-01,5.854628086090087891e-01,-2.493375837802886963e-01,3.482535779476165771e-01,-2.304704189300537109e-01,2.982411384582519531e-01
-3.628664016723632812e-01,3.566368520259857178e-01,2.949027419090270996e-01,5.073558166623115540e-02,2.826079428195953369e-01,3.940039575099945068e-01,-6.691872477531433105e-01,-8.022144436836242676e-03,-8.152164518833160400e-03,5.582016110420227051e-01,-1.177437603473663330e-01,5.069068074226379395e-01,-1.242124438285827637e-01,4.961149692535400391e-01
-4.829871952533721924e-01,1.967642754316329956e-01,2.381656765937805176e-01,1.476700007915496826e-01,1.585072278976440430e-01,5.382131338119506836e-01,-6.382666230201721191e-01,2.654872834682464600e-03,-7.790139876306056976e-03,6.284607052803039551e-01,-1.531245559453964233e-01,7.099338769912719727e-01,-2.984374463558197021e-01,3.909434676170349121e-01
-2.928444445133209229e-01,3.344226628541946411e-02,2.066363394260406494e-01,2.948864996433258057e-01,6.727410852909088135e-02,4.973571002483367920e-01,-7.102471590042114258e-01,4.563848674297332764e-02,4.719972237944602966e-02,3.817585110664367676e-01,-2.084244340658187866e-01,5.905768871307373047e-01,-2.334165126085281372e-01,5.505312681198120117e-01
-3.862149715423583984e-01,9.982113540172576904e-02,3.350801765918731689e-01,1.543550789356231689e-01,1.596107780933380127e-01,3.152154684066772461e-01,-5.947450995445251465e-01,-4.943304508924484253e-02,-8.352254517376422882e-03,6.437809467315673828e-01,-4.461661726236343384e-02,4.269791245460510254e-01,-1.636390984058380127e-01,5.333638787269592285e-01
-3.193810284137725830e-01,-1.816472858190536499e-01,3.671351075172424316e-01,1.652989536523818970e-01,1.708083450794219971e-01,2.902789972722530365e-02,-5.068022608757019043e-01,1.307735443115234375e-01,1.190420314669609070e-01,4.996706843376159668e-01,-2.617443203926086426e-01,5.279254913330078125e-01,-1.545685976743698120e-01,4.952875375747680664e-01
-2.402712404727935791e-01,3.136844933032989502e-02,2.909047901630401611e-01,3.254557847976684570e-01,3.529110848903656006e-01,1.327701508998870850e-01,-6.502210497856140137e-01,-6.443619728088378906e-02,5.875445529818534851e-02,4.001649320125579834e-01,-1.243266314268112183e-01,4.015997946262359619e-01,-1.112012714147567749e-01,3.467880785465240479e-01
-2.718815207481384277e-01,4.846735298633575439e-02,4.299701452255249023e-01,1.082046627998352051e-01,4.442436099052429199e-01,1.046520173549652100e-01,-3.936656117439270020e-01,1.672035604715347290e-01,1.757926940917968750e-01,6.028494238853454590e-01,-7.224421203136444092e-02,4.109793007373809814e-01,-2.077443003654479980e-01,1.748021095991134644e-01
-4.314357936382293701e-01,-1.624044030904769897e-01,5.120893120765686035e-01,2.605592310428619385e-01,2.595200538635253906e-01,-1.481325328350067139e-01,-3.826638460159301758e-01,-7.664807885885238647e-02,1.191817969083786011e-01,6.007858514785766602e-01,9.756749123334884644e-02,3.557076156139373779e-01,-2.412840425968170166e-01,8.245100080966949463e-02
1.980684697628021240e-02,-4.265735745429992676e-01,6.073834896087646484e-01,1.943960040807723999e-01,2.568316757678985596e-01,1.050565987825393677e-01,-2.600463628768920898e-01,3.243114426732063293e-02,3.179830014705657959e-01,7.802165746688842773e-01,-3.825887665152549744e-02,3.560027778148651123e-01,-9.958612173795700073e-02,2.522346377372741699e-01
-7.930646836757659912e-02,-6.048348546028137207e-01,7.096685767173767090e-01,2.541365623474121094e-01,1.602569967508316040e-01,-7.385392207652330399e-03,-4.332833290100097656e-01,1.013241037726402283e-01,1.153362914919853210e-02,6.027554273605346680e-01,-1.616128161549568176e-02,4.956445097923278809e-01,-3.494753837585449219e-01,2.243936806917190552e-01
1.098113879561424255e-01,-3.452156782150268555e-01,7.688273787498474121e-01,1.943332105875015259e-01,1.563676297664642334e-01,7.908511906862258911e-02,-3.901139795780181885e-01,1.565928310155868530e-01,4.369004815816879272e-02,5.999413132667541504e-01,1.260863393545150757e-01,5.689375996589660645e-01,-1.972633749246597290e-01,1.528389155864715576e-01
5.496365949511528015e-02,-5.662809014320373535e-01,4.347800314426422119e-01,1.381971091032028198e-01,4.354066848754882812e-01,-6.081743910908699036e-02,-3.834671378135681152e-01,6.928493082523345947e-02,3.240249156951904297e-01,5.825200676918029785e-01,4.638862982392311096e-02,4.986255764961242676e-01,-2.742435038089752197e-01,-3.110852651298046112e-02
-9.284061193466186523e-02,-6.534784436225891113e-01,5.846621394157409668e-01,4.977771639823913574e-02,1.918323189020156860e-01,2.707332372665405273e-02,-3.187630772590637207e-01,3.871306031942367554e-02,1.533174812793731689e-01,3.130451440811157227e-01,-2.670860290527343750e-02,5.078783631324768066e-01,-5.151882767677307129e-01,4.137508571147918701e-03
1.262898147106170654e-01,-5.526981353759765625e-01,7.446302175521850586e-01,2.054021209478378296e-01,4.195959568023681641e-01,4.488071799278259277e-02,-4.380102157592773438e-01,2.701009213924407959e-01,3.648685216903686523e-01,5.672694444656372070e-01,3.102136850357055664e-01,4.026745855808258057e-01,-1.534987241029739380e-01,8.186566084623336792e-02
3.126709461212158203e-01,-7.748419642448425293e-01,6.547477841377258301e-01,2.433985918760299683e-01,5.999988317489624023e-01,2.587690204381942749e-02,-2.759279608726501465e-01,1.665097177028656006e-01,3.526316881179809570e-01,5.393590331077575684e-01,1.803427636623382568e-01,2.787110209465026855e-01,-4.070253968238830566e-01,9.390944615006446838e-03
2.051264196634292603e-01,-6.780825257301330566e-01,6.339645385742187500e-01,2.616513073444366455e-01,2.593023180961608887e-01,7.213800400495529175e-02,-4.282372891902923584e-01,1.513857394456863403e-01,5.926775336265563965e-01,5.103419423103332520e-01,7.796270400285720825e-02,1.843205839395523071e-01,-5.197878926992416382e-02,-2.593392739072442055e-03
1.878691166639328003e-01,-7.828945517539978027e-01,4.465449154376983643e-01,-3.205277491360902786e-03,1.617729067802429199e-01,2.460229210555553436e-02,-3.845241069793701172e-01,5.700566805899143219e-03,5.237577557563781738e-01,4.184541702270507812e-01,1.226828396320343018e-01,2.473780363798141479e-01,-3.285256326198577881e-01,-1.103419996798038483e-02
1.616675853729248047e-01,-7.847742438316345215e-01,4.128480553627014160e-01,8.696903288364410400e-02,3.851393163204193115e-01,-6.627026945352554321e-02,-4.755305945873260498e-01,2.242052108049392700e-01,5.276153683662414551e-01,5.324671268463134766e-01,5.439180508255958557e-02,-2.628127858042716980e-02,-4.409289658069610596e-01,8.800783753395080566e-02
2.930829524993896484e-01,-6.649438142776489258e-01,5.060840845108032227e-01,6.209150329232215881e-02,4.416777789592742920e-01,-1.404988318681716919e-01,-5.096182823181152344e-01,2.200570851564407349e-01,8.079814314842224121e-01,3.504088819026947021e-01,2.316699326038360596e-01,3.324038907885551453e-02,-2.602453231811523438e-01,1.008450984954833984e-01
2.777551412582397461e-01,-8.903094530105590820e-01,3.478149175643920898e-01,-2.824103645980358124e-02,1.832428276538848877e-01,1.142051629722118378e-02,-3.898411989212036133e-01,9.849323332309722900e-02,7.609146833419799805e-01,4.896540045738220215e-01,3.454359471797943115e-01,-3.248706832528114319e-02,-3.659883439540863037e-01,6.195283308625221252e-02
3.863924443721771240e-01,-9.089723229408264160e-01,2.354666143655776978e-01,-1.113127470016479492e-01,3.416691124439239502e-01,1.598775833845138550e-01,-4.405925273895263672e-01,1.678381413221359253e-01,6.357900500297546387e-01,4.287989735603332520e-01,1.265053004026412964e-01,1.240626499056816101e-01,-2.989377379417419434e-01,1.706196218729019165e-01
2.515159547328948975e-01,-8.772742748260498047e-01,3.108536899089813232e-01,-4.259146749973297119e-01,3.295842111110687256e-01,-1.670168712735176086e-02,-4.280063211917877197e-01,2.661029100418090820e-01,5.991920232772827148e-01,5.016260743141174316e-01,3.898756206035614014e-01,-1.840291470289230347e-01,-2.190534770488739014e-01,2.206666618585586548e-01
3.791609704494476318e-01,-9.803588986396789551e-01,2.315224707126617432e-01,-2.913666963577270508e-01,1.991097629070281982e-01,1.991556882858276367e-01,-2.956141829490661621e-01,3.140650391578674316e-01,9.566315412521362305e-01,2.873727083206176758e-01,2.945793271064758301e-01,1.093476428650319576e-03,-2.246157377958297729e-01,2.577916681766510010e-01
5.857877731323242188e-01,-7.663698196411132812e-01,2.862446606159210205e-01,-3.520329594612121582e-01,7.535576075315475464e-02,2.383961975574493408e-01,-3.879166245460510254e-01,1.766575276851654053e-01,8.795183897018432617e-01,4.409427046775817871e-01,4.820127785205841064e-01,-9.893897175788879395e-02,-1.872222870588302612e-01,1.539820134639739990e-01
5.602176785469055176e-01,-7.762401700019836426e-01,1.870495229959487915e-01,-3.462184667587280273e-01,1.493243575096130371e-01,1.537825912237167358e-01,-2.465790808200836182e-01,1.902219206094741821e-01,9.420394897460937500e-01,3.026668727397918701e-01,6.089643239974975586e-01,-1.443711221218109131e-01,-1.857491731643676758e-01,2.468013167381286621e-01
5.267321467399597168e-01,-8.502294421195983887e-01,2.835269570350646973e-01,-3.098713755607604980e-01,-3.024500235915184021e-02,9.870529174804687500e-02,-1.717553138732910156e-01,3.173592090606689453e-01,9.701161980628967285e-01,2.482129037380218506e-01,6.928202509880065918e-01,-2.791491746902465820e-01,-2.947123646736145020e-01,3.078206181526184082e-01
4.430494606494903564e-01,-9.298499226570129395e-01,-6.751209497451782227e-02,-5.122434496879577637e-01,-2.888953685760498047e-02,2.283658236265182495e-01,-2.888201735913753510e-02,2.387910485267639160e-01,8.974424600601196289e-01,1.438041031360626221e-01,9.921059608459472656e-01,-4.285765886306762695e-01,1.755129918456077576e-02,3.488498032093048096e-01
7.409347891807556152e-01,-1.094838500022888184e+00,-2.589693665504455566e-02,-5.479370951652526855e-01,-1.066984161734580994e-01,2.539131045341491699e-01,-1.142183244228363037e-01,3.223624527454376221e-01,8.416730165481567383e-01,2.399113476276397705e-01,8.588436841964721680e-01,-2.839811444282531738e-01,9.234890341758728027e-02,2.349023818969726562e-01
7.992236018180847168e-01,-8.806791901588439941e-01,-3.841627016663551331e-02,-5.170799493789672852e-01,-8.789356797933578491e-02,1.293201297521591187e-01,-3.007976897060871124e-02,5.414143800735473633e-01,7.635557651519775391e-01,1.204892247915267944e-01,8.436191082000732422e-01,-2.988076508045196533e-01,2.946843504905700684e-01,3.687609732151031494e-01
4.627332985401153564e-01,-7.911049723625183105e-01,-1.096402108669281006e-01,-5.349735021591186523e-01,-1.442354470491409302e-01,1.745122671127319336e-01,-1.698543280363082886e-01,3.820923566818237305e-01,7.740167379379272461e-01,1.282613873481750488e-01,8.670040965080261230e-01,-3.920179605484008789e-01,2.195619642734527588e-01,4.992967247962951660e-01
6.798698306083679199e-01,-9.221655726432800293e-01,-2.063353508710861206e-01,-4.924719035625457764e-01,-2.109180390834808350e-01,9.850764274597167969e-02,-1.467328071594238281e-01,5.108192563056945801e-01,6.484987735748291016e-01,1.658270806074142456e-01,9.563728570938110352e-01,-5.103240013122558594e-01,7.327017188072204590e-02,4.203881621360778809e-01
4.853837490081787109e-01,-4.409080147743225098e-01,-4.767207801342010498e-01,-4.744880497455596924e-01,-2.800461351871490479e-01,2.208460569381713867e-01,8.016993105411529541e-02,3.042521178722381592e-01,7.619013786315917969e-01,3.534147515892982483e-02,1.089463829994201660e+00,-6.622772216796875000e-01,-3.497035941109061241e-04,5.572633147239685059e-01
6.722241044044494629e-01,-6.014491319656372070e-01,-5.688098669052124023e-01,-5.315489172935485840e-01,-2.451120615005493164e-01,-4.648472648113965988e-03,-6.572786718606948853e-02,3.685061335563659668e-01,6.448312997817993164e-01,1.341385114938020706e-02,9.030882716178894043e-01,-6.599707603454589844e-01,-1.051558740437030792e-02,5.664020776748657227e-01
3.980191946029663086e-01,-5.368397235870361328e-01,-5.480544567108154297e-01,-4.472001791000366211e-01,-4.275747537612915039e-01,1.791009753942489624e-01,-8.754903823137283325e-02,3.772062063217163086e-01,6.695327758789062500e-01,6.946130096912384033e-02,9.730534553527832031e-01,-5.965037941932678223e-01,2.346933186054229736e-01,5.622559189796447754e-01
6.039780378341674805e-01,-5.516644716262817383e-01,-4.550567865371704102e-01,-5.004932284355163574e-01,-4.866538047790527344e-01,1.251053512096405029e-01,-8.701147884130477905e-02,3.490802049636840820e-01,5.040544867515563965e-01,-9.532995522022247314e-02,1.125700712203979492e+00,-7.571413516998291016e-01,2.883459627628326416e-01,7.761700749397277832e-01
7.166422009468078613e-01,-4.071306288242340088e-01,-7.531062364578247070e-01,-6.048638224601745605e-01,-3.429835438728332520e-01,1.990878582000732422e-01,-1.986286416649818420e-02,2.770102620124816895e-01,4.319464862346649170e-01,-2.940380275249481201e-01,1.069610357284545898e+00,-8.018705248832702637e-01,2.543115019798278809e-01,6.580590605735778809e-01
7.731778621673583984e-01,-4.559108018875122070e-01,-5.483049154281616211e-01,-5.574107766151428223e-01,-4.136194884777069092e-01,1.212870106101036072e-01,7.660872489213943481e-02,4.574424922466278076e-01,3.727685213088989258e-01,-3.441686928272247314e-01,1.117294788360595703e+00,-8.673031330108642578e-01,2.211959809064865112e-01,7.001833915710449219e-01
6.723343729972839355e-01,-3.895602226257324219e-01,-6.872680783271789551e-01,-6.586727499961853027e-01,-6.232724785804748535e-01,-1.648119185119867325e-03,-2.086687833070755005e-01,4.504373669624328613e-01,5.145720243453979492e-01,-3.678212165832519531e-01,9.639791250228881836e-01,-6.744595766067504883e-01,2.956146597862243652e-01,6.982263922691345215e-01
8.748704791069030762e-01,-1.847358793020248413e-01,-7.236272096633911133e-01,-2.439376562833786011e-01,-6.727032065391540527e-01,1.099958643317222595e-01,2.682034969329833984e-01,2.801539897918701172e-01,1.923198252916336060e-01,-2.463171631097793579e-01,9.528485536575317383e-01,-6.697621345520019531e-01,1.588967740535736084e-01,9.110099077224731445e-01
8.480574488639831543e-01,-1.730649769306182861e-01,-5.188795924186706543e-01,-2.682114541530609131e-01,-7.040401697158813477e-01,1.117224171757698059e-01,6.397893186658620834e-03,2.532084286212921143e-01,9.698911756277084351e-02,-6.642801165580749512e-01,1.083440780639648438e+00,-5.869330167770385742e-01,-1.542880665510892868e-02,9.076002836227416992e-01
7.475423812866210938e-01,-2.483484297990798950e-01,-5.477244257926940918e-01,-2.808255255222320557e-01,-8.476479649543762207e-01,2.494768649339675903e-01,-9.434541314840316772e-02,2.798390388488769531e-01,2.366391569375991821e-01,-5.774288773536682129e-01,1.001881957054138184e+00,-8.866374492645263672e-01,-2.181836962699890137e-02,8.770694136619567871e-01
8.136440515518188477e-01,-1.663154549896717072e-02,-7.982474565505981445e-01,-3.938512802124023438e-01,-5.875959992408752441e-01,6.399025768041610718e-02,-3.353912383317947388e-02,2.115821242332458496e-01,2.225326746702194214e-01,-5.167332887649536133e-01,7.433326840400695801e-01,-5.149901509284973145e-01,3.509128093719482422e-02,8.310676813125610352e-01
1.115914583206176758e+00,-2.058480232954025269e-01,-6.500182747840881348e-01,-2.620596587657928467e-01,-6.536813974380493164e-01,3.167513012886047363e-02,-1.268804669380187988e-01,2.456633895635604858e-01,3.228167593479156494e-01,-6.377694606781005859e-01,6.780612468719482422e-01,-4.727241098880767822e-01,-3.544661030173301697e-02,6.254765391349792480e-01
9.853696823120117188e-01,-2.334632873535156250e-01,-7.142765522003173828e-01,-2.563414871692657471e-01,-7.749456763267517090e-01,-9.711408987641334534e-03,-2.925761789083480835e-02,1.864980012178421021e-01,3.316591978073120117e-01,-7.465832829475402832e-01,7.073844075202941895e-01,-4.093306660652160645e-01,-1.058874800801277161e-01,6.275547146797180176e-01
9.281515479087829590e-01,-1.607058495283126831e-01,-6.191450357437133789e-01,-4.762452542781829834e-01,-5.971791148185729980e-01,2.227133661508560181e-01,-1.493222266435623169e-01,-6.238459795713424683e-02,1.616073250770568848e-01,-9.269273877143859863e-01,7.097410559654235840e-01,-4.611126482486724854e-01,-1.929170191287994385e-01,5.443704128265380859e-01
8.133020997047424316e-01,-1.374833583831787109e-01,-7.285614609718322754e-01,-3.921639621257781982e-01,-5.496978163719177246e-01,9.182658791542053223e-02,-8.248250931501388550e-02,-6.790216267108917236e-02,1.153794303536415100e-01,-6.128921508789062500e-01,8.195842504501342773e-01,-3.931241929531097412e-01,-2.802873253822326660e-01,6.655312776565551758e-01
8.897693753242492676e-01,-2.827129960060119629e-01,-8.079491853713989258e-01,-2.405163645744323730e-01,-6.016247868537902832e-01,1.539356112480163574e-01,-1.790026128292083740e-01,-2.214035242795944214e-01,-9.957117587327957153e-02,-8.085421323776245117e-01,5.575124621391296387e-01,-3.376587629318237305e-01,-6.546056270599365234e-02,7.315305471420288086e-01
9.372214674949645996e-01,-1.102991029620170593e-01,-6.659572124481201172e-01,-3.222571015357971191e-01,-4.995425045490264893e-01,-8.570700883865356445e-03,-1.115784645080566406e-01,-2.396784722805023193e-02,3.630980849266052246e-01,-8.429986238479614258e-01,7.111017107963562012e-01,-3.987862467765808105e-01,-3.698340654373168945e-01,4.982381463050842285e-01
9.167104959487915039e-01,5.919033288955688477e-02,-5.717492699623107910e-01,-3.221850097179412842e-01,-4.414040446281433105e-01,-5.002095829695463181e-03,-4.424801096320152283e-02,-1.917053163051605225e-01,1.778499186038970947e-01,-6.999934911727905273e-01,5.532849431037902832e-01,-3.484997749328613281e-01,-3.806671798229217529e-01,5.295963287353515625e-01
8.420218229293823242e-01,-4.634735733270645142e-02,-6.627998948097229004e-01,-1.471787691116333008e-01,-4.195232689380645752e-01,1.090442910790443420e-01,-3.378898203372955322e-01,-1.535273343324661255e-01,2.406672835350036621e-01,-5.525641441345214844e-01,5.281019806861877441e-01,-1.999610662460327148e-01,-3.621523082256317139e-01,3.410815298557281494e-01
7.054739594459533691e-01,-5.842501670122146606e-02,-5.680309534072875977e-01,-2.915264964103698730e-01,-3.450648188591003418e-01,3.924538195133209229e-01,-3.254429399967193604e-01,-3.139488399028778076e-01,2.147571444511413574e-01,-6.198193430900573730e-01,4.476392865180969238e-01,-2.163652330636978149e-01,-3.775472640991210938e-01,2.640483081340789795e-01
5.220380425453186035e-01,-5.371254310011863708e-02,-5.302066206932067871e-01,5.806994065642356873e-02,-2.402348816394805908e-01,1.518214344978332520e-01,-3.093385994434356689e-01,-1.906866878271102905e-01,-7.254055887460708618e-02,-6.586302518844604492e-01,4.721917808055877686e-01,-9.671971946954727173e-02,-4.382019042968750000e-01,1.166286617517471313e-01
6.381587982177734375e-01,-1.715100258588790894e-01,-5.515390634536743164e-01,-1.538698375225067139e-02,-1.862453967332839966e-01,2.267655879259109497e-01,-3.077959120273590088e-01,-2.246244996786117554e-01,6.531237810850143433e-02,-5.578809976577758789e-01,4.839146435260772705e-01,-1.884070634841918945e-01,-6.712766885757446289e-01,1.844853758811950684e-01
5.771080851554870605e-01,-1.346026062965393066e-01,-6.379081010818481445e-01,-1.850975602865219116e-01,-1.844943910837173462e-01,3.143696784973144531e-01,-4.432267844676971436e-01,-1.697107255458831787e-01,1.287164688110351562e-01,-5.315142273902893066e-01,2.584057748317718506e-01,-2.907373011112213135e-01,-5.223651528358459473e-01,1.697565019130706787e-01
4.259016513824462891e-01,2.407706342637538910e-02,-8.344309329986572266e-01,-3.250642865896224976e-02,-1.341153532266616821e-01,2.674727737903594971e-01,-6.012801527976989746e-01,-4.240669608116149902e-01,1.321116536855697632e-01,-5.521516799926757812e-01,3.873913884162902832e-01,-2.826834022998809814e-01,-4.956850111484527588e-01,1.457301974296569824e-01
4.254780113697052002e-01,1.232453994452953339e-02,-9.178316593170166016e-01,-1.374661773443222046e-01,1.360016912221908569e-01,3.862519264221191406e-01,-6.841758489608764648e-01,-2.692021131515502930e-01,2.582483291625976562e-01,-4.626045227050781250e-01,3.096400797367095947e-01,-2.173535823822021484e-01,-6.261605024337768555e-01,1.860578544437885284e-02
3.912181556224822998e-01,-3.918604552745819092e-02,-6.777755618095397949e-01,-2.009950131177902222e-01,-1.277122925966978073e-02,2.540159821510314941e-01,-5.644230246543884277e-01,-1.501310765743255615e-01,6.867260485887527466e-02,-5.180510282516479492e-01,1.483050882816314697e-01,-7.207729667425155640e-02,-4.885582327842712402e-01,9.332435438409447670e-04
3.500028550624847412e-01,1.217507496476173401e-01,-6.712367534637451172e-01,3.122150152921676636e-02,-6.144126504659652710e-02,2.154120057821273804e-01,-5.409021377563476562e-01,-3.339623212814331055e-01,1.926671713590621948e-01,-5.030365586280822754e-01,6.837072223424911499e-02,-2.014976441860198975e-01,-5.897364020347595215e-01,-4.841288551688194275e-02
3.366377353668212891e-01,2.521432042121887207e-01,-7.558699846267700195e-01,-1.374142915010452271e-01,2.202466428279876709e-01,5.753319263458251953e-01,-5.608059763908386230e-01,-1.668396592140197754e-01,2.668963372707366943e-01,-3.192564845085144043e-01,2.362508028745651245e-01,-1.249493733048439026e-01,-7.960763573646545410e-01,-1.200068145990371704e-01
-5.132922902703285217e-02,3.123013079166412354e-01,-7.315505146980285645e-01,-2.769749760627746582e-01,1.286724954843521118e-01,1.781173348426818848e-01,-5.404874682426452637e-01,-1.391256749629974365e-01,2.040800005197525024e-01,-3.856479227542877197e-01,3.794895857572555542e-02,-3.268381357192993164e-01,-8.383229374885559082e-01,4.145957995206117630e-03
1.798620969057083130e-01,2.133282423019409180e-01,-7.608880996704101562e-01,-1.520422548055648804e-01,1.521952450275421143e-01,3.108412623405456543e-01,-7.134880423545837402e-01,-1.021143347024917603e-01,4.213267564773559570e-01,-3.211891353130340576e-01,2.221820130944252014e-02,-1.474217027425765991e-01,-9.024472832679748535e-01,-2.943936884403228760e-01
-8.778657764196395874e-02,3.280220627784729004e-01,-7.302042245864868164e-01,-3.848978877067565918e-02,1.783941835165023804e-01,8.941105753183364868e-02,-6.133180260658264160e-01,-1.133498549461364746e-01,3.788989782333374023e-01,-3.684333264827728271e-01,6.800074875354766846e-02,-1.630492955446243286e-01,-8.035325407981872559e-01,-2.944343984127044678e-01
-8.971604704856872559e-02,4.027347862720489502e-01,-6.769043803215026855e-01,-2.101508378982543945e-01,3.331046700477600098e-01,-2.360686287283897400e-02,-5.332078337669372559e-01,-5.758439004421234131e-02,4.888416826725006104e-01,-3.204337060451507568e-01,9.333999454975128174e-02,-5.051864311099052429e-02,-7.725333571434020996e-01,-2.062764912843704224e-01
6.541986763477325439e-02,2.551357746124267578e-01,-5.953450202941894531e-01,-1.880980879068374634e-01,1.342013478279113770e-01,6.474635750055313110e-02,-4.471049606800079346e-01,-4.623629152774810791e-02,5.806443691253662109e-01,-2.843651771545410156e-01,1.467971056699752808e-01,-1.569201946258544922e-01,-6.814584732055664062e-01,-3.055911064147949219e-01
-2.248623967170715332e-01,3.173706531524658203e-01,-6.389387249946594238e-01,-2.311660796403884888e-01,3.668290376663208008e-01,-1.187439262866973877e-01,-3.934535086154937744e-01,6.186623498797416687e-02,3.625985085964202881e-01,-2.670567929744720459e-01,6.420176476240158081e-02,-9.970108419656753540e-02,-7.877531647682189941e-01,-9.836664050817489624e-02
-6.978350132703781128e-02,3.982031047344207764e-01,-6.075583696365356445e-01,-1.510625928640365601e-01,3.180009722709655762e-01,-8.241382986307144165e-02,-3.341050744056701660e-01,-9.195502102375030518e-02,4.609514772891998291e-01,-2.222023606300354004e-01,2.867917157709598541e-02,1.332344952970743179e-02,-8.453561663627624512e-01,-2.815164923667907715e-01
-2.719715237617492676e-01,3.064091801643371582e-01,-5.791211724281311035e-01,-2.620751261711120605e-01,4.070321023464202881e-01,-1.797409206628799438e-01,-5.114988684654235840e-01,5.414423719048500061e-02,1.750615388154983521e-01,-1.357768774032592773e-01,3.959484025835990906e-02,-1.848412454128265381e-01,-6.373677253723144531e-01,-1.805488914251327515e-01
-1.136127784848213196e-01,3.561158180236816406e-01,-4.942944347858428955e-01,-2.154958248138427734e-01,3.024699091911315918e-01,-2.958802878856658936e-02,-3.954862058162689209e-01,1.861146837472915649e-01,2.024717777967453003e-01,6.707197055220603943e-03,-1.069604009389877319e-01,-4.584905505180358887e-02,-8.473939895629882812e-01,-1.685502976179122925e-01
-4.479824304580688477e-01,6.248092651367187500e-01,-6.689918637275695801e-01,-1.366527825593948364e-01,6.509343385696411133e-01,-3.604834377765655518e-01,-2.098278850317001343e-01,3.348178416490554810e-02,3.613263368606567383e-01,-3.657824546098709106e-02,-1.638126745820045471e-02,-2.002597749233245850e-01,-6.679493784904479980e-01,-3.224136233329772949e-01
-3.606972396373748779e-01,2.065167427062988281e-01,-3.281561434268951416e-01,-4.866235330700874329e-02,4.074502587318420410e-01,-1.868382841348648071e-01,-1.555500030517578125e-01,9.311764687299728394e-02,2.771009206771850586e-01,-1.312580257654190063e-01,-9.173294901847839355e-02,-2.824070751667022705e-01,-6.780381202697753906e-01,-3.231996595859527588e-01
-6.673052906990051270e-01,4.782030582427978516e-01,-3.894838988780975342e-01,8.417750895023345947e-02,4.485881030559539795e-01,-2.707262635231018066e-01,-1.473417580127716064e-01,2.667195498943328857e-01,4.492196440696716309e-01,-1.519244015216827393e-01,7.540138810873031616e-02,-2.585728168487548828e-01,-6.793737411499023438e-01,-2.577061653137207031e-01
-4.005621373653411865e-01,3.454624712467193604e-01,-3.999388813972473145e-01,-4.345183260738849640e-03,3.991538286209106445e-01,-3.639243841171264648e-01,-5.706408992409706116e-02,4.048696458339691162e-01,3.325358629226684570e-01,-2.638777792453765869e-01,-9.210819005966186523e-02,-3.186774849891662598e-01,-7.149887084960937500e-01,-3.016063570976257324e-01
-5.910559892654418945e-01,1.617954373359680176e-01,-1.354978382587432861e-01,1.272726505994796753e-01,5.109306573867797852e-01,-4.560119807720184326e-01,-1.962175825610756874e-03,3.044023811817169189e-01,1.145034879446029663e-01,-1.573775708675384521e-01,6.082780286669731140e-02,-3.358459472656250000e-01,-5.697239041328430176e-01,-6.263645291328430176e-01
-4.555534124374389648e-01,3.222774565219879150e-01,-2.523351907730102539e-01,2.915127389132976532e-02,4.687758386135101318e-01,-3.999981284141540527e-01,-1.530055701732635498e-01,3.757578134536743164e-01,2.817457616329193115e-01,-2.106458097696304321e-01,-1.321197599172592163e-01,-3.661229014396667480e-01,-6.641009449958801270e-01,-4.750859737396240234e-01
-5.129843354225158691e-01,2.259469181299209595e-01,-2.809230387210845947e-01,1.532640010118484497e-01,7.990286946296691895e-01,-4.299204349517822266e-01,-1.919098794460296631e-01,4.466852843761444092e-01,2.063239365816116333e-01,-1.121513843536376953e-01,-1.863556951284408569e-01,-3.569961786270141602e-01,-6.673715114593505859e-01,-3.946208357810974121e-01
-2.304303348064422607e-01,3.059286773204803467e-01,-5.248031765222549438e-02,2.265690863132476807e-01,4.272865951061248779e-01,-4.466323256492614746e-01,-3.800863027572631836e-02,4.001842439174652100e-01,3.933882415294647217e-01,2.747103571891784668e-02,-2.305024862289428711e-01,-2.701562047004699707e-01,-6.562540531158447266e-01,-4.345948696136474609e-01
-4.339607954025268555e-01,2.110454589128494263e-01,-1.235277280211448669e-01,9.752575308084487915e-02,3.963090479373931885e-01,-5.446757078170776367e-01,8.829072862863540649e-02,7.003686428070068359e-01,2.547034025192260742e-01,-2.041981220245361328e-01,-3.363125324249267578e-01,-5.216264128684997559e-01,-8.829809427261352539e-01,-5.649454593658447266e-01
-1.921278238296508789e-01,1.194559410214424133e-01,-6.083094328641891479e-02,1.362477540969848633e-01,5.911509990692138672e-01,-6.617631316184997559e-01,6.681356579065322876e-02,4.138033390045166016e-01,2.651970386505126953e-01,-3.369724154472351074e-01,-3.129195570945739746e-01,-3.281179666519165039e-01,-8.629558086395263672e-01,-6.462171077728271484e-01
-4.261583089828491211e-01,1.872317120432853699e-02,1.165704056620597839e-01,2.448664419353008270e-02,7.002988457679748535e-01,-4.858902394771575928e-01,3.305315598845481873e-02,5.337644219398498535e-01,2.258449494838714600e-01,-2.380948066711425781e-01,-3.343592882156372070e-01,-3.450085222721099854e-01,-8.472701907157897949e-01,-4.252606034278869629e-01
-6.230156421661376953e-01,1.102591529488563538e-01,1.846851259469985962e-01,1.144388988614082336e-01,8.147972226142883301e-01,-5.965006947517395020e-01,2.051184624433517456e-01,5.477051734924316406e-01,2.422195672988891602e-01,-2.871828377246856689e-01,-1.866375207901000977e-01,-2.139550894498825073e-01,-7.692497968673706055e-01,-5.834456682205200195e-01
-1.775013655424118042e-01,-1.072880104184150696e-01,7.451039273291826248e-03,-2.597845792770385742e-01,7.082056403160095215e-01,-6.745914816856384277e-01,3.158425986766815186e-01,3.255454003810882568e-01,3.118881583213806152e-01,-1.375923901796340942e-01,-3.314886987209320068e-01,-3.802896738052368164e-01,-8.603487014770507812e-01,-5.273756980895996094e-01
-3.420866727828979492e-01,-2.744860649108886719e-01,1.891598105430603027e-01,-1.842265427112579346e-01,6.776517033576965332e-01,-7.240500450134277344e-01,1.970634609460830688e-01,4.639272689819335938e-01,5.215992331504821777e-01,-4.672689735889434814e-01,-3.298266828060150146e-01,-2.190909087657928467e-01,-8.464860916137695312e-01,-5.162990689277648926e-01
-7.887753099203109741e-02,-3.943920135498046875e-01,1.051310747861862183e-01,-1.115070469677448273e-02,7.293659448623657227e-01,-5.344461202621459961e-01,3.024395406246185303e-01,4.150321185588836670e-01,6.269963383674621582e-01,-3.864595592021942139e-01,-3.497218191623687744e-01,-4.056228697299957275e-01,-7.712530493736267090e-01,-5.652877092361450195e-01
-1.810123324394226074e-01,-4.012679457664489746e-01,2.558667063713073730e-01,-2.818404436111450195e-01,8.255566358566284180e-01,-4.822514951229095459e-01,1.344767585396766663e-02,6.246560215950012207e-01,6.479210257530212402e-01,-2.125943154096603394e-01,-1.945857554674148560e-01,-3.532031178474426270e-01,-6.254040598869323730e-01,-6.607882976531982422e-01
-9.000549465417861938e-02,-2.709431052207946777e-01,2.627099454402923584e-01,-2.182761132717132568e-01,6.528344750404357910e-01,-5.476457476615905762e-01,1.923485547304153442e-01,3.879174888134002686e-01,5.565157532691955566e-01,-4.400040209293365479e-01,-2.607580721378326416e-01,-2.567629814147949219e-01,-5.906456708908081055e-01,-5.933977961540222168e-01
-5.141035467386245728e-02,-4.597332179546356201e-01,4.819526672363281250e-01,-8.003436774015426636e-02,8.911663889884948730e-01,-5.156676173210144043e-01,1.398356109857559204e-01,6.600171923637390137e-01,4.495669901371002197e-01,-2.136424332857131958e-01,-3.415333926677703857e-01,-2.329110652208328247e-01,-5.765135288238525391e-01,-6.542352437973022461e-01
8.337396383285522461e-02,-5.691173076629638672e-01,2.926083505153656006e-01,-1.836681663990020752e-01,6.296199560165405273e-01,-4.279000163078308105e-01,2.709606885910034180e-01,4.618252515792846680e-01,4.163974523544311523e-01,-3.203606903553009033e-01,-3.456518948078155518e-01,-3.216341435909271240e-01,-5.294853448867797852e-01,-4.440873861312866211e-01
-3.629272431135177612e-02,-5.978486537933349609e-01,4.706185162067413330e-01,-7.816195487976074219e-02,8.137599229812622070e-01,-5.378350615501403809e-01,8.244616538286209106e-02,6.962269544601440430e-01,5.685392618179321289e-01,-1.305022537708282471e-01,-2.260177582502365112e-01,-2.816766202449798584e-01,-5.291799902915954590e-01,-5.914636850357055664e-01
-1.330808401107788086e-01,-5.260936617851257324e-01,3.884897530078887939e-01,-3.551954925060272217e-01,8.481424450874328613e-01,-2.373488247394561768e-01,2.017744332551956177e-01,4.873520135879516602e-01,4.442862868309020996e-01,-2.158161997795104980e-01,-9.101316332817077637e-03,-3.373812735080718994e-01,-4.384933114051818848e-01,-3.507400155067443848e-01
-7.852391898632049561e-02,-5.904518365859985352e-01,2.481826394796371460e-01,-4.134994447231292725e-01,7.305881977081298828e-01,-5.001953244209289551e-01,1.382238417863845825e-01,7.027124762535095215e-01,7.412032485008239746e-01,-2.053165733814239502e-01,-9.889887273311614990e-02,-2.670719325542449951e-01,-3.975239396095275879e-01,-7.237612009048461914e-01
-1.039905846118927002e-01,-6.712226867675781250e-01,3.026757538318634033e-01,-4.443011581897735596e-01,8.856822848320007324e-01,-3.585439026355743408e-01,2.743822038173675537e-01,7.926617860794067383e-01,6.051958799362182617e-01,-1.106747388839721680e-01,7.908498495817184448e-02,-3.939222395420074463e-01,-3.204738199710845947e-01,-5.954539775848388672e-01
-1.442111730575561523e-01,-7.692003846168518066e-01,2.211595326662063599e-01,-5.758427977561950684e-01,8.392969369888305664e-01,-3.501485586166381836e-01,1.340846866369247437e-01,7.994247078895568848e-01,5.145974159240722656e-01,-1.545824408531188965e-01,1.809986531734466553e-01,-4.413089156150817871e-01,-2.416380345821380615e-01,-5.576718449592590332e-01
-4.147159401327371597e-03,-7.581295371055603027e-01,2.249196767807006836e-01,-5.410783886909484863e-01,8.985739946365356445e-01,-2.066042721271514893e-01,1.784805208444595337e-02,6.652598977088928223e-01,5.204812884330749512e-01,-2.723746597766876221e-01,2.493392974138259888e-01,-3.647140860557556152e-01,-2.289740294218063354e-01,-5.553748607635498047e-01
-2.380810678005218506e-01,-7.307568788528442383e-01,1.536901444196701050e-01,-6.809113621711730957e-01,8.836699128150939941e-01,1.673439517617225647e-02,2.104078084230422974e-01,9.457718133926391602e-01,4.760156273841857910e-01,-2.006152868270874023e-01,6.544046103954315186e-02,-4.906793534755706787e-01,-3.317779004573822021e-01,-4.526315331459045410e-01
-2.038272619247436523e-01,-7.951774001121520996e-01,1.635267734527587891e-01,-4.715007543563842773e-01,8.613446950912475586e-01,-1.289582550525665283e-01,2.420755922794342041e-01,9.307036399841308594e-01,5.626480579376220703e-01,-3.191181123256683350e-01,5.490314215421676636e-02,-4.934636056423187256e-01,-1.114627695642411709e-03,-3.960911631584167480e-01
-2.751053869724273682e-01,-6.963514685630798340e-01,2.311191558837890625e-01,-5.476629137992858887e-01,7.316231727600097656e-01,-1.859384588897228241e-02,6.285061687231063843e-02,6.793609261512756348e-01,4.619175195693969727e-01,-2.588456869125366211e-01,2.579206526279449463e-01,-3.573520779609680176e-01,-1.223401050083339214e-03,-3.692447245121002197e-01
6.729488074779510498e-02,-7.530030608177185059e-01,-1.181514188647270203e-02,-7.685773968696594238e-01,7.453910708427429199e-01,-3.150371313095092773e-01,2.186922132968902588e-01,9.589149951934814453e-01,3.364284336566925049e-01,-4.099121093750000000e-01,1.086582094430923462e-01,-8.486293554306030273e-01,-1.127680093050003052e-01,-1.020433194935321808e-02
-2.268910259008407593e-01,-5.904757380485534668e-01,-1.000593081116676331e-01,-7.476260662078857422e-01,7.901580929756164551e-01,4.688372090458869934e-02,1.668906807899475098e-01,1.255926966667175293e+00,4.042162597179412842e-01,7.583721075206995010e-03,2.588673233985900879e-01,-7.896505594253540039e-01,1.771427392959594727e-01,-1.138785406947135925e-01
-1.417354047298431396e-01,-5.459942221641540527e-01,-1.035309508442878723e-01,-6.671761274337768555e-01,6.803225874900817871e-01,1.243691891431808472e-01,1.760450154542922974e-01,1.099708676338195801e+00,3.119855821132659912e-01,-2.642475962638854980e-01,2.057899981737136841e-01,-8.086535930633544922e-01,1.982364505529403687e-01,7.109764218330383301e-02
-2.503339648246765137e-01,-4.490623176097869873e-01,-1.239793375134468079e-01,-6.994698047637939453e-01,5.576628446578979492e-01,5.013313144445419312e-02,-3.734168410301208496e-02,9.437583684921264648e-01,2.553893029689788818e-01,-2.471819072961807251e-01,2.912018001079559326e-01,-8.211448788642883301e-01,6.621759384870529175e-02,1.586452573537826538e-01
-1.708211153745651245e-01,-5.038367509841918945e-01,-2.155346572399139404e-01,-8.457091450691223145e-01,3.550937771797180176e-01,-6.123493611812591553e-02,3.127893507480621338e-01,1.043587565422058105e+00,2.164769768714904785e-01,-4.245904982089996338e-01,3.613219857215881348e-01,-6.036323308944702148e-01,4.492082297801971436e-01,2.786978781223297119e-01
-1.160264713689684868e-03,-4.797366857528686523e-01,-3.037956058979034424e-01,-7.407519817352294922e-01,1.171666160225868225e-01,-7.116422802209854126e-02,2.524746656417846680e-01,9.356843233108520508e-01,1.817624866962432861e-01,-3.290350437164306641e-01,3.621578216552734375e-01,-1.012917399406433105e+00,3.225811421871185303e-01,1.071263775229454041e-01
-8.929588645696640015e-02,-5.635370016098022461e-01,-1.283025294542312622e-01,-6.880037784576416016e-01,1.049909442663192749e-01,-5.253859329968690872e-03,2.639249861240386963e-01,1.053231358528137207e+00,-1.502438932657241821e-01,-3.431351482868194580e-01,5.181518793106079102e-01,-6.887643337249755859e-01,6.117671728134155273e-01,3.933347463607788086e-01
6.690137833356857300e-02,-4.671405255794525146e-01,-1.684007495641708374e-01,-6.730972528457641602e-01,3.000970184803009033e-01,-6.959860026836395264e-02,2.947684526443481445e-01,8.392655849456787109e-01,1.295874118804931641e-01,-3.628956973552703857e-01,5.015729665756225586e-01,-8.722032904624938965e-01,5.474282503128051758e-01,3.117144405841827393e-01
5.425133556127548218e-02,-5.520498752593994141e-01,-2.525905966758728027e-01,-5.422183871269226074e-01,9.515699744224548340e-02,2.115455120801925659e-01,2.897961735725402832e-01,1.003838896751403809e+00,7.062541693449020386e-02,-4.969497621059417725e-01,4.099371433258056641e-01,-6.907742023468017578e-01,6.399950385093688965e-01,5.659493207931518555e-01
-1.815922744572162628e-02,-6.120439171791076660e-01,-1.039230599999427795e-01,-6.528059840202331543e-01,-5.063000600785017014e-03,1.064592003822326660e-01,4.197705984115600586e-01,9.320350885391235352e-01,-1.773569881916046143e-01,-4.149430990219116211e-01,4.432247281074523926e-01,-6.355072259902954102e-01,5.258733630180358887e-01,4.492350220680236816e-01
-7.897602766752243042e-02,-4.633937776088714600e-01,-1.638757623732089996e-02,-7.590409517288208008e-01,1.394370850175619125e-02,2.141688466072082520e-01,3.789214491844177246e-01,8.572468757629394531e-01,-3.081049323081970215e-01,-6.005354523658752441e-01,4.846361279487609863e-01,-5.340150594711303711e-01,5.764089226722717285e-01,3.076308071613311768e-01
5.433158576488494873e-02,-4.847337603569030762e-01,-1.382006108760833740e-01,-6.895917654037475586e-01,3.147134184837341309e-02,5.565355345606803894e-02,2.112375497817993164e-01,9.501055479049682617e-01,-8.751089870929718018e-02,-5.213102102279663086e-01,6.886306405067443848e-01,-6.107560992240905762e-01,6.477771997451782227e-01,5.676149129867553711e-01
6.672455370426177979e-02,-3.715603947639465332e-01,-4.881115853786468506e-01,-3.982778191566467285e-01,2.813081443309783936e-02,2.797307260334491730e-02,5.075019001960754395e-01,7.914968729019165039e-01,-9.672189503908157349e-02,-5.689606666564941406e-01,6.323032975196838379e-01,-5.585221052169799805e-01,6.301305294036865234e-01,5.705733299255371094e-01
4.886705800890922546e-02,-5.267631411552429199e-01,-2.540871202945709229e-01,-2.980906665325164795e-01,-7.087307423353195190e-02,5.861254781484603882e-02,2.771506011486053467e-01,7.393004894256591797e-01,-3.974677622318267822e-01,-7.030477523803710938e-01,3.503635823726654053e-01,-7.014264464378356934e-01,6.710660457611083984e-01,3.333397507667541504e-01
8.684997260570526123e-02,-1.455119848251342773e-01,-3.724634051322937012e-01,-3.947407007217407227e-01,8.378697931766510010e-02,1.109649166464805603e-01,3.514154851436614990e-01,6.945275068283081055e-01,-3.469679355621337891e-01,-7.775348424911499023e-01,5.586934685707092285e-01,-2.224705219268798828e-01,5.900517106056213379e-01,5.409656763076782227e-01
-4.527382552623748779e-03,-4.686120748519897461e-01,-3.403699994087219238e-01,-2.842506170272827148e-01,-3.391795977950096130e-02,1.386607587337493896e-01,1.257963031530380249e-01,5.964224338531494141e-01,-5.382159352302551270e-01,-6.312407255172729492e-01,7.491346001625061035e-01,-3.727644681930541992e-01,4.077363908290863037e-01,6.277015805244445801e-01
1.409339159727096558e-01,-4.183593392372131348e-01,-4.768297672271728516e-01,-2.459325343370437622e-01,-3.722390532493591309e-02,3.424247503280639648e-01,5.458383262157440186e-02,5.127409696578979492e-01,-5.553286671638488770e-01,-6.357229351997375488e-01,4.891669750213623047e-01,-3.112542927265167236e-01,5.066877007484436035e-01,5.135524868965148926e-01
1.265263706445693970e-01,-4.555138349533081055e-01,-3.036188185214996338e-01,-2.214542180299758911e-01,-1.010810509324073792e-01,3.435275554656982422e-01,-1.479243785142898560e-01,3.375840485095977783e-01,-6.581192612648010254e-01,-6.360727548599243164e-01,4.015012383460998535e-01,-1.980467289686203003e-01,5.576907992362976074e-01,3.642470836639404297e-01
1.717652380466461182e-02,-3.055610954761505127e-01,-1.704595983028411865e-01,-2.825896441936492920e-01,1.918686479330062866e-01,3.095202744007110596e-01,-2.711312174797058105e-01,2.752848267555236816e-01,-5.723928213119506836e-01,-5.047942399978637695e-01,2.918431162834167480e-01,-2.603939771652221680e-01,5.020681619644165039e-01,5.561490058898925781e-01
5.535789579153060913e-02,-3.867988884449005127e-01,-3.634269833564758301e-01,-3.431664407253265381e-02,-1.245327387005090714e-02,1.438492536544799805e-01,-1.630205214023590088e-01,3.182721138000488281e-01,-6.336771249771118164e-01,-4.700011909008026123e-01,1.973541229963302612e-01,-1.572521179914474487e-01,6.098554134368896484e-01,5.123080015182495117e-01
1.054400727152824402e-01,-4.437739253044128418e-01,-2.673786878585815430e-01,1.401615440845489502e-01,6.652736663818359375e-02,3.628922402858734131e-01,-2.690292894840240479e-01,2.665315568447113037e-01,-5.304233431816101074e-01,-5.359801650047302246e-01,2.638848125934600830e-01,-7.153178006410598755e-02,3.168903589248657227e-01,4.099049866199493408e-01
7.023692131042480469e-02,-5.088932514190673828e-01,-3.445106744766235352e-01,1.547429990023374557e-02,3.875698149204254150e-02,3.214445114135742188e-01,-2.620158493518829346e-01,1.354019343852996826e-01,-6.993238329887390137e-01,-5.322334170341491699e-01,-2.261942252516746521e-02,-2.314042150974273682e-01,3.321996927261352539e-01,3.701167404651641846e-01
4.139125347137451172e-02,-2.480529695749282837e-01,-3.098219931125640869e-01,-2.274637110531330109e-03,1.563155353069305420e-01,5.076307058334350586e-01,-4.329369962215423584e-01,1.166768930852413177e-02,-6.065639853477478027e-01,-5.822290778160095215e-01,5.676732212305068970e-02,3.051673062145709991e-02,3.042123913764953613e-01,4.607281386852264404e-01
2.200666964054107666e-01,-2.213790267705917358e-01,-6.172711849212646484e-01,8.244779892265796661e-03,-4.067887365818023682e-02,4.665026366710662842e-01,-3.487528264522552490e-01,-2.825370989739894867e-02,-5.505648255348205566e-01,-5.327878594398498535e-01,7.153118401765823364e-02,2.478992789983749390e-01,2.276515215635299683e-01,2.769978344440460205e-01
1.959620565176010132e-01,-2.346109896898269653e-01,-3.482996821403503418e-01,1.200914382934570312e-01,1.111955866217613220e-01,3.970133364200592041e-01,-3.800660073757171631e-01,-9.358418732881546021e-02,-5.580438375473022461e-01,-4.757329821586608887e-01,1.432691365480422974e-01,2.784645259380340576e-01,5.053597688674926758e-02,3.564250469207763672e-01
1.502741426229476929e-01,-2.748262286186218262e-01,-3.050845861434936523e-01,2.017489522695541382e-01,4.445530846714973450e-02,1.753679960966110229e-01,-3.396723270416259766e-01,-1.318763494491577148e-01,-5.401977300643920898e-01,-4.643977582454681396e-01,-1.536421775817871094e-01,3.194358646869659424e-01,1.303838938474655151e-01,4.192196726799011230e-01
-5.368570610880851746e-02,-2.714743018150329590e-01,-2.160706073045730591e-01,1.552778929471969604e-01,1.154883727431297302e-01,3.710760474205017090e-01,-3.123877346515655518e-01,-2.481716424226760864e-01,-3.986296951770782471e-01,-3.702033162117004395e-01,-7.006490230560302734e-02,4.170978367328643799e-01,-4.767939075827598572e-02,4.099625647068023682e-01
2.138761878013610840e-01,-1.494661718606948853e-01,-5.258553028106689453e-01,-6.861451268196105957e-02,8.610700070858001709e-02,3.167813420295715332e-01,-5.031520128250122070e-01,-1.694959998130798340e-01,-6.185538768768310547e-01,-3.676581382751464844e-01,1.998518966138362885e-02,1.554376482963562012e-01,-2.075031213462352753e-02,1.605365276336669922e-01
1.647711917757987976e-02,-2.256632000207901001e-01,-2.133381366729736328e-01,3.115336298942565918e-01,3.394872546195983887e-01,4.184676408767700195e-01,-4.000314474105834961e-01,-3.489556014537811279e-01,-4.286579787731170654e-01,-3.571940064430236816e-01,-7.025861740112304688e-02,2.779585421085357666e-01,-1.394722890108823776e-02,7.255412638187408447e-03
-8.016132563352584839e-02,-9.114340692758560181e-02,-4.072667956352233887e-01,2.434629946947097778e-01,1.671773195266723633e-01,2.582035362720489502e-01,-5.763762593269348145e-01,-4.442010223865509033e-01,-5.351039767265319824e-01,-2.110685110092163086e-01,7.707979530096054077e-02,2.803509831428527832e-01,-2.916261367499828339e-02,4.738904163241386414e-02
-4.392804205417633057e-02,-2.001267671585083008e-01,-3.544316589832305908e-01,1.697178632020950317e-01,5.522016808390617371e-02,3.917347788810729980e-01,-6.063323616981506348e-01,-4.189701676368713379e-01,-5.303373932838439941e-01,-1.863929778337478638e-01,5.809017922729253769e-03,7.526450157165527344e-01,-1.734228730201721191e-01,1.529552191495895386e-01
-2.033517807722091675e-01,-1.878564357757568359e-01,-2.811081409454345703e-01,1.674015223979949951e-01,2.310561835765838623e-01,1.349585950374603271e-01,-7.427581548690795898e-01,-5.404909253120422363e-01,-4.647593498229980469e-01,5.855186656117439270e-02,-1.228132769465446472e-01,4.487702250480651855e-01,-2.859367616474628448e-02,-4.684722051024436951e-02
-5.474478006362915039e-01,-1.178425103425979614e-01,-2.887455224990844727e-01,2.134322971105575562e-01,2.899217605590820312e-01,2.069194763898849487e-01,-6.413285136222839355e-01,-2.369201630353927612e-01,-3.772546350955963135e-01,-5.410662293434143066e-02,-3.054327704012393951e-02,2.933357059955596924e-01,-1.467304956167936325e-02,9.567733854055404663e-02
-3.011819422245025635e-01,7.841854356229305267e-03,-5.629113912582397461e-01,3.864049911499023438e-01,3.200870454311370850e-01,2.425850033760070801e-01,-6.850086450576782227e-01,-3.696543872356414795e-01,-3.543653488159179688e-01,3.465745747089385986e-01,-1.055848300457000732e-01,3.242344260215759277e-01,-7.266326341778039932e-03,-1.212018281221389771e-01
-2.845115661621093750e-01,1.445613894611597061e-02,-3.915709853172302246e-01,1.479923576116561890e-01,2.063051015138626099e-01,2.561774849891662598e-01,-7.466517090797424316e-01,-4.236759245395660400e-01,-4.143350124359130859e-01,2.907913029193878174e-01,-2.582444623112678528e-02,4.347165822982788086e-01,-6.005743891000747681e-02,-1.306091994047164917e-01
-4.169278740882873535e-01,-7.555539906024932861e-02,-5.239410400390625000e-01,4.444048404693603516e-01,2.363981455564498901e-01,3.237254321575164795e-01,-8.006243109703063965e-01,-2.599374055862426758e-01,-2.984462678432464600e-01,7.191716879606246948e-02,4.039233550429344177e-03,2.685451507568359375e-01,1.561943590641021729e-01,-1.134386360645294189e-01
-6.957643032073974609e-01,-7.189701497554779053e-02,-4.283610582351684570e-01,4.692685306072235107e-01,5.553391575813293457e-01,8.592294156551361084e-02,-6.369854211807250977e-01,-3.953132331371307373e-01,-2.781633436679840088e-01,3.591607809066772461e-01,5.446576327085494995e-02,5.655061602592468262e-01,-3.285965695977210999e-02,-1.649798452854156494e-02
-4.699102342128753662e-01,-1.165731921792030334e-01,-5.096399784088134766e-01,5.153235793113708496e-01,3.542231619358062744e-01,1.454180032014846802e-01,-7.278414368629455566e-01,-3.477614521980285645e-01,-1.697195023298263550e-01,2.596114575862884521e-01,5.516720935702323914e-03,4.265289902687072754e-01,-1.075634285807609558e-01,-2.784161865711212158e-01
-5.629850029945373535e-01,1.132360100746154785e-01,-6.272968649864196777e-01,4.178228974342346191e-01,3.642270267009735107e-01,9.689092636108398438e-02,-6.078543663024902344e-01,-3.832012116909027100e-01,-3.755311965942382812e-01,3.557361364364624023e-01,-1.394590437412261963e-01,3.449296057224273682e-01,-5.059892684221267700e-02,-9.671492129564285278e-02
-5.801419019699096680e-01,-9.552291780710220337e-02,-5.704765319824218750e-01,4.060720205307006836e-01,5.774068832397460938e-01,1.667906492948532104e-01,-4.815324246883392334e-01,-3.762405812740325928e-01,-3.880979716777801514e-01,4.728787541389465332e-01,-2.262515872716903687e-01,1.739852875471115112e-01,-1.658973097801208496e-01,-1.003958433866500854e-01
-7.793092131614685059e-01,2.891351580619812012e-01,-4.146079421043395996e-01,8.395040035247802734e-01,4.340681135654449463e-01,9.260873310267925262e-03,-6.111034750938415527e-01,-2.335116416215896606e-01,-2.771306037902832031e-01,2.435021102428436279e-01,1.197869703173637390e-02,1.146604418754577637e-01,-2.835778705775737762e-02,-2.268105447292327881e-01
-6.840325593948364258e-01,2.334348410367965698e-01,-4.296925067901611328e-01,6.627855300903320312e-01,3.302839696407318115e-01,-1.460448652505874634e-01,-5.978853106498718262e-01,-1.251652538776397705e-01,-3.992785215377807617e-01,2.715026140213012695e-01,-2.617472112178802490e-01,2.525900304317474365e-01,-9.725325554609298706e-02,-9.435789287090301514e-02
-7.305080890655517578e-01,9.774024784564971924e-02,-5.591343045234680176e-01,8.733375668525695801e-01,3.333076238632202148e-01,-2.416482865810394287e-01,-5.522309541702270508e-01,-3.019612133502960205e-01,-8.512681350111961365e-03,3.827508985996246338e-01,-4.537023231387138367e-02,2.071509510278701782e-01,-1.060087047517299652e-02,-1.534740775823593140e-01
-5.132309198379516602e-01,3.095969557762145996e-01,-4.816409349441528320e-01,7.964432239532470703e-01,4.834448099136352539e-01,-2.782512903213500977e-01,-4.243539869785308838e-01,-2.266729027032852173e-01,-2.310154736042022705e-01,2.549568712711334229e-01,-1.657163053750991821e-01,4.641705378890037537e-02,-9.495143592357635498e-02,-2.591059207916259766e-01
-5.327982902526855469e-01,2.451476305723190308e-01,-3.650240898132324219e-01,7.403594255447387695e-01,1.950513124465942383e-01,-4.794131815433502197e-01,-3.528321087360382080e-01,-2.176205217838287354e-01,-2.463822513818740845e-01,5.004566162824630737e-02,-8.193325251340866089e-02,1.565272808074951172e-01,-6.535353511571884155e-02,-1.702449917793273926e-01
-6.144959330558776855e-01,2.298221439123153687e-01,-3.174003660678863525e-01,7.726096510887145996e-01,3.186609447002410889e-01,-2.433639764785766602e-01,-3.522193133831024170e-01,-1.198605000972747803e-01,-1.279574632644653320e-01,3.483945131301879883e-01,-9.926389157772064209e-02,1.493690311908721924e-01,-4.499394297599792480e-01,-2.911815941333770752e-01
-5.945925712585449219e-01,1.378655880689620972e-01,-2.280036658048629761e-01,8.757022619247436523e-01,2.843539714813232422e-01,-4.948631227016448975e-01,-5.266897380352020264e-02,-2.440167367458343506e-01,-9.551401436328887939e-02,2.687458992004394531e-01,-5.562072619795799255e-02,2.253952026367187500e-01,-3.504797518253326416e-01,-2.826414704322814941e-01
-5.178522467613220215e-01,1.906390786170959473e-01,-2.158282846212387085e-01,9.036811590194702148e-01,2.089964747428894043e-01,-6.687681674957275391e-01,-1.919428817927837372e-02,-1.320775747299194336e-01,-5.282370746135711670e-02,2.108664214611053467e-01,-8.478698879480361938e-02,3.624807298183441162e-01,-1.896096318960189819e-01,-1.694472581148147583e-01
-4.241111278533935547e-01,-4.503244161605834961e-02,-1.195236742496490479e-01,8.475286364555358887e-01,1.418462842702865601e-01,-7.580443620681762695e-01,-1.596065014600753784e-01,-1.434016972780227661e-01,-4.626377485692501068e-03,2.096046209335327148e-01,-1.509132795035839081e-02,-5.434058979153633118e-02,-3.270173966884613037e-01,-3.338151872158050537e-01
-3.317443728446960449e-01,5.634188652038574219e-02,-1.236670538783073425e-01,9.235278964042663574e-01,2.374098151922225952e-01,-8.388264179229736328e-01,-4.906747862696647644e-02,-2.880922257900238037e-01,-1.224645450711250305e-01,4.077070951461791992e-01,-5.325803533196449280e-02,2.352382242679595947e-01,-1.226187497377395630e-01,-2.667201459407806396e-01
-4.807849526405334473e-01,-7.028250396251678467e-02,-6.902248132973909378e-03,9.410392642021179199e-01,2.045300006866455078e-01,-7.354431152343750000e-01,1.986540853977203369e-01,-2.560481131076812744e-01,3.232759609818458557e-02,2.747440040111541748e-01,3.701103851199150085e-02,8.496013283729553223e-02,-3.055584430694580078e-01,-4.214966893196105957e-01
-3.242565095424652100e-01,-8.685554563999176025e-02,1.601359993219375610e-01,8.704326748847961426e-01,2.906475961208343506e-01,-9.806091785430908203e-01,3.288036212325096130e-02,-2.202051281929016113e-01,-8.575631305575370789e-03,7.930053025484085083e-02,-1.201519221067428589e-01,1.926514357328414917e-01,-1.740449070930480957e-01,-5.562064051628112793e-01
-3.690995573997497559e-01,-1.836497932672500610e-01,2.075351774692535400e-01,7.842007279396057129e-01,7.380164414644241333e-02,-8.639405369758605957e-01,1.095687150955200195e-01,-2.692537903785705566e-01,-8.819860522635281086e-04,1.711118370294570923e-01,-1.764733791351318359e-01,1.545822024345397949e-01,-2.434158623218536377e-01,-4.649301171302795410e-01
-6.000618934631347656e-01,-2.338196188211441040e-01,9.719165414571762085e-02,8.967470526695251465e-01,5.782101154327392578e-01,-8.083364367485046387e-01,2.170960456132888794e-01,-3.076871633529663086e-01,1.596099585294723511e-01,2.712593972682952881e-01,-4.141341522336006165e-02,1.767980605363845825e-01,-3.070038557052612305e-01,-5.066296458244323730e-01
-3.323261141777038574e-01,-9.294790774583816528e-02,1.086073182523250580e-02,7.685551047325134277e-01,3.428633213043212891e-01,-9.336043000221252441e-01,1.869600266218185425e-01,-5.795222148299217224e-02,-6.388258188962936401e-02,2.623451352119445801e-01,-7.856386154890060425e-02,-1.839815638959407806e-02,-3.755406737327575684e-01,-7.302995324134826660e-01
-2.120109200477600098e-01,-4.115129411220550537e-01,2.872456908226013184e-01,7.941431999206542969e-01,3.545398414134979248e-01,-9.767415523529052734e-01,4.909021556377410889e-01,-3.681950867176055908e-01,1.997820883989334106e-01,-1.291343942284584045e-02,-3.534779325127601624e-02,1.759185940027236938e-01,-2.819859683513641357e-01,-5.316732525825500488e-01
-3.059698641300201416e-01,-2.671864628791809082e-01,-6.680902093648910522e-02,8.518894314765930176e-01,5.315734148025512695e-01,-7.853257656097412109e-01,3.402255177497863770e-01,-1.468732953071594238e-01,3.423486649990081787e-01,7.608862966299057007e-02,-8.357730507850646973e-02,5.050452053546905518e-02,-3.411349952220916748e-01,-5.234727263450622559e-01
-1.602521538734436035e-01,-4.535557031631469727e-01,2.263561338186264038e-01,7.743175029754638672e-01,2.788170278072357178e-01,-9.706974029541015625e-01,3.323566019535064697e-01,-1.138686947524547577e-02,2.435522228479385376e-01,-1.476359902881085873e-03,2.018966525793075562e-02,1.483295857906341553e-01,-4.132580757141113281e-01,-6.349642276763916016e-01
-9.462138265371322632e-02,-2.331046313047409058e-01,2.206940948963165283e-01,8.734807372093200684e-01,2.809620201587677002e-01,-8.703728318214416504e-01,3.092533946037292480e-01,-2.046461403369903564e-01,4.508369565010070801e-01,1.581495106220245361e-01,-3.955200314521789551e-02,1.275233924388885498e-01,-4.831877350807189941e-01,-7.036626935005187988e-01
-1.692347414791584015e-02,-3.397710025310516357e-01,1.676329970359802246e-01,6.251106262207031250e-01,3.197078406810760498e-01,-8.145038485527038574e-01,4.102475047111511230e-01,-9.729668498039245605e-02,3.718995451927185059e-01,-1.759314164519309998e-02,-2.097852975130081177e-01,-5.129530280828475952e-02,-3.371574580669403076e-01,-5.160807371139526367e-01
-2.055929601192474365e-01,-5.334197282791137695e-01,1.872832030057907104e-01,4.176424741744995117e-01,5.638521909713745117e-01,-8.694999217987060547e-01,3.644027113914489746e-01,1.393654383718967438e-02,3.214107155799865723e-01,2.046347707509994507e-01,-1.265950947999954224e-01,-2.039933204650878906e-02,-2.483250349760055542e-01,-6.620314717292785645e-01
5.124760419130325317e-02,-3.638302981853485107e-01,-4.086075816303491592e-03,6.919768452644348145e-01,3.238889276981353760e-01,-9.125490188598632812e-01,3.039337992668151855e-01,-3.582474291324615479e-01,3.220289647579193115e-01,1.525849699974060059e-01,-6.202562898397445679e-02,-7.351198792457580566e-02,-3.129522204399108887e-01,-6.887485980987548828e-01
-3.097437135875225067e-02,-4.661553204059600830e-01,-7.279768033185973763e-05,4.891484677791595459e-01,5.881835222244262695e-01,-8.332399129867553711e-01,2.108463644981384277e-01,-3.833245858550071716e-02,4.383664727210998535e-01,-2.899899706244468689e-02,-1.038454994559288025e-01,-7.362522929906845093e-02,-2.569976449012756348e-01,-5.259991884231567383e-01
-1.616016179323196411e-01,-3.690585792064666748e-01,-4.812919721007347107e-02,4.123926758766174316e-01,2.319767177104949951e-01,-7.291597723960876465e-01,3.393795192241668701e-01,-1.714942306280136108e-01,5.102987885475158691e-01,-1.584584563970565796e-01,-1.024954766035079956e-01,-1.231295317411422729e-01,-3.199152946472167969e-01,-5.193549990653991699e-01
-2.160549862310290337e-03,-5.165297985076904297e-01,-6.238938868045806885e-02,2.400982975959777832e-01,-9.191298857331275940e-03,-8.226759433746337891e-01,4.026580452919006348e-01,9.970103204250335693e-02,5.072715282440185547e-01,-1.379092782735824585e-01,1.175104230642318726e-01,-4.068116545677185059e-01,-3.557173609733581543e-01,-8.042902946472167969e-01
1.435065362602472305e-02,-2.499317228794097900e-01,-4.452376812696456909e-02,4.687054082751274109e-02,4.798285290598869324e-02,-6.911965608596801758e-01,5.227439999580383301e-01,-5.907787010073661804e-02,6.424220800399780273e-01,-3.957595303654670715e-02,1.038490310311317444e-01,-3.017168045043945312e-01,-1.600876599550247192e-01,-6.894370317459106445e-01
6.719145458191633224e-03,-5.598570108413696289e-01,-2.032132633030414581e-02,7.256434112787246704e-02,2.359323650598526001e-01,-7.485813498497009277e-01,6.109184622764587402e-01,2.153268903493881226e-01,4.546403884887695312e-01,-2.332275174558162689e-02,2.906278241425752640e-04,-5.063360333442687988e-01,-2.090595066547393799e-01,-5.574855804443359375e-01
-5.227512866258621216e-02,-4.257439672946929932e-01,6.769504398107528687e-02,1.360839158296585083e-01,2.009064555168151855e-01,-7.686339616775512695e-01,5.632493495941162109e-01,-4.114660620689392090e-02,4.858314692974090576e-01,-1.343309581279754639e-01,2.155392915010452271e-01,-4.570367038249969482e-01,-1.223111674189567566e-01,-4.689094126224517822e-01
1.004805639386177063e-01,-4.355739653110504150e-01,1.327035576105117798e-01,-8.815307170152664185e-03,1.310021430253982544e-01,-7.637385129928588867e-01,6.181030869483947754e-01,1.183043122291564941e-01,6.124264001846313477e-01,-4.076064825057983398e-01,2.614945769309997559e-01,-4.903213083744049072e-01,1.126020587980747223e-02,-6.822280287742614746e-01
7.023651897907257080e-02,-2.688547372817993164e-01,-1.784657537937164307e-01,-8.047363907098770142e-02,-4.947770759463310242e-02,-6.485492587089538574e-01,5.354444384574890137e-01,6.822144147008657455e-03,5.095640420913696289e-01,-1.021589115262031555e-01,2.985811233520507812e-01,-4.215851426124572754e-01,8.248299360275268555e-02,-4.469979107379913330e-01
1.651173271238803864e-02,-3.317925333976745605e-01,-1.382129937410354614e-01,-2.652955055236816406e-01,-1.067698746919631958e-01,-5.368850827217102051e-01,6.123955249786376953e-01,9.428903460502624512e-02,5.260761380195617676e-01,-3.916000723838806152e-01,1.438121795654296875e-01,-5.419785380363464355e-01,8.894835412502288818e-02,-5.479184985160827637e-01
-3.198981285095214844e-02,-2.724014818668365479e-01,-1.584846973419189453e-01,4.847162216901779175e-02,-1.723287105560302734e-01,-6.125885248184204102e-01,5.563985109329223633e-01,1.435130387544631958e-01,3.742854595184326172e-01,-4.221293032169342041e-01,3.656342327594757080e-01,-5.748591423034667969e-01,2.377754002809524536e-01,-4.024137556552886963e-01
-1.292024850845336914e-01,-2.845793962478637695e-01,-2.976024448871612549e-01,-1.651640236377716064e-01,-9.928087145090103149e-02,-6.942552328109741211e-01,7.095998525619506836e-01,1.742936372756958008e-01,4.173539876937866211e-01,-1.336512714624404907e-01,2.991612255573272705e-01,-4.997234046459197998e-01,2.718499600887298584e-01,-4.941185116767883301e-01
1.991161108016967773e-01,-3.183668255805969238e-01,-2.976087927818298340e-01,5.838325247168540955e-02,-7.318868488073348999e-02,-4.600322842597961426e-01,8.315311074256896973e-01,3.658772706985473633e-01,3.594806194305419922e-01,-3.792472481727600098e-01,4.173608124256134033e-01,-5.525749325752258301e-01,3.365767896175384521e-01,-6.302819252014160156e-01
1.011455338448286057e-02,-1.599967628717422485e-01,-1.265537887811660767e-01,-1.468880325555801392e-01,-2.050933614373207092e-02,-6.289898753166198730e-01,8.862393498420715332e-01,3.713520169258117676e-01,2.585723996162414551e-01,-2.677902877330780029e-01,5.798113942146301270e-01,-6.528508067131042480e-01,4.709801673889160156e-01,-5.300442576408386230e-01
1.120864972472190857e-01,-2.178486138582229614e-01,-2.212168872356414795e-01,-2.892578952014446259e-02,-9.667826443910598755e-02,-3.393533825874328613e-01,7.682015299797058105e-01,1.797755211591720581e-01,2.907231748104095459e-01,-3.216866552829742432e-01,4.458344578742980957e-01,-6.430512070655822754e-01,4.406606554985046387e-01,-4.182778298854827881e-01
1.451024860143661499e-01,-2.166644483804702759e-01,-2.533912658691406250e-01,-2.507117986679077148e-01,-2.162131071090698242e-01,-5.018950700759887695e-01,9.514179825782775879e-01,2.810817360877990723e-01,7.485025376081466675e-02,-4.556253850460052490e-01,4.764868915081024170e-01,-6.867420077323913574e-01,6.004551053047180176e-01,-3.152303993701934814e-01
1.439262032508850098e-01,8.664520084857940674e-02,-3.723770678043365479e-01,-3.214533030986785889e-01,-1.068610604852437973e-02,-5.500019788742065430e-01,9.957336187362670898e-01,1.765599399805068970e-01,2.527188360691070557e-01,-4.047018289566040039e-01,3.456636071205139160e-01,-5.821574926376342773e-01,3.074432611465454102e-01,-2.061303704977035522e-01
1.199262216687202454e-01,-4.038282111287117004e-02,-3.811408579349517822e-01,-1.775624901056289673e-01,-3.197329342365264893e-01,-3.861789107322692871e-01,9.349632859230041504e-01,1.621527522802352905e-01,6.995943933725357056e-02,-5.358365774154663086e-01,4.841387867927551270e-01,-8.188417553901672363e-01,3.655979037284851074e-01,-2.070655673742294312e-01
9.394194185733795166e-02,2.889346778392791748e-01,-4.621823728084564209e-01,-9.100265055894851685e-02,-5.971177816390991211e-01,-4.570444524288177490e-01,9.630967974662780762e-01,2.336116433143615723e-01,-8.884666860103607178e-02,-5.355035662651062012e-01,5.835719704627990723e-01,-8.827155232429504395e-01,4.125944375991821289e-01,-1.123836115002632141e-01
-7.477326691150665283e-02,3.430466055870056152e-01,-3.639486730098724365e-01,-6.845836341381072998e-02,-5.498653054237365723e-01,-3.694067299365997314e-01,7.448520064353942871e-01,4.571669399738311768e-01,-3.853525221347808838e-01,-6.405069828033447266e-01,6.152141094207763672e-01,-7.854436635971069336e-01,3.496016860008239746e-01,-1.140913367271423340e-01
2.805024683475494385e-01,3.443924486637115479e-01,-8.322654962539672852e-01,-8.503404259681701660e-02,-4.489433169364929199e-01,-3.957705199718475342e-01,6.834822893142700195e-01,9.750926494598388672e-02,5.717884376645088196e-02,-7.136382460594177246e-01,4.561973214149475098e-01,-8.869085311889648438e-01,6.257165670394897461e-01,-2.819968014955520630e-02
3.825864940881729126e-02,1.915594488382339478e-01,-6.571263074874877930e-01,1.144614145159721375e-01,-6.328334212303161621e-01,-5.367650389671325684e-01,9.074069857597351074e-01,2.902366220951080322e-01,-1.367650032043457031e-01,-7.885971665382385254e-01,2.740555703639984131e-01,-8.019479513168334961e-01,5.862632393836975098e-01,9.376048296689987183e-02
3.309459090232849121e-01,5.599742531776428223e-01,-6.929280757904052734e-01,-6.665299087762832642e-02,-4.010992348194122314e-01,-4.010665416717529297e-01,9.400503635406494141e-01,2.345188111066818237e-01,-1.280643641948699951e-01,-8.666244745254516602e-01,3.111138045787811279e-01,-6.808070540428161621e-01,4.800265133380889893e-01,1.782668754458427429e-02
1.790351271629333496e-01,1.476249247789382935e-01,-6.011529564857482910e-01,-1.283751875162124634e-01,-5.354447364807128906e-01,-3.389297127723693848e-01,9.523319005966186523e-01,6.084078177809715271e-02,-2.161396890878677368e-01,-7.382469773292541504e-01,1.633649468421936035e-01,-7.253872156143188477e-01,4.177643060684204102e-01,8.121500909328460693e-02
3.292517960071563721e-01,3.215487003326416016e-01,-5.066761374473571777e-01,-1.119764745235443115e-01,-4.404678642749786377e-01,-3.709557354450225830e-01,5.992168188095092773e-01,1.389340758323669434e-01,-2.321119010448455811e-01,-9.059121608734130859e-01,1.711217314004898071e-01,-6.358500123023986816e-01,2.538641393184661865e-01,9.508161991834640503e-02
3.309243619441986084e-01,5.121923089027404785e-01,-4.979470372200012207e-01,-1.593613922595977783e-01,-5.531319975852966309e-01,-2.462241947650909424e-01,7.479814291000366211e-01,7.257603108882904053e-02,-3.335298299789428711e-01,-9.995586276054382324e-01,1.519343703985214233e-01,-5.701996684074401855e-01,3.793683648109436035e-01,-6.758205126971006393e-03
2.882568240165710449e-01,5.160982608795166016e-01,-5.347490310668945312e-01,-3.794229403138160706e-02,-8.171977400779724121e-01,-3.251991868019104004e-01,6.013162136077880859e-01,-6.379008293151855469e-02,-3.594682514667510986e-01,-9.405276775360107422e-01,-9.196285158395767212e-02,-5.098875164985656738e-01,3.215576112270355225e-01,-1.950311362743377686e-01
2.841777801513671875e-01,3.738316595554351807e-01,-3.946878612041473389e-01,5.481279641389846802e-02,-4.051754772663116455e-01,-3.589712679386138916e-01,6.626663804054260254e-01,-1.437261253595352173e-01,-4.151156246662139893e-01,-9.525019526481628418e-01,6.869049370288848877e-02,-4.962239861488342285e-01,3.694238960742950439e-01,-2.463281154632568359e-02
