AF3,F7,F3,FC5,T7,P7,O1,O2,P8,T8,FC6,F4,F8,AF4
-1.061978340148925781e+00,2.217694669961929321e-01,2.274909168481826782e-01,2.097077295184135437e-02,1.695909053087234497e-01,-1.003325223922729492e+00,8.800955414772033691e-01,2.277053445577621460e-01,-1.328339576721191406e-01,2.733489274978637695e-01,2.729270160198211670e-01,3.134434819221496582e-01,6.497008204460144043e-01,-9.283372759819030762e-02
-9.289509654045104980e-01,2.148071825504302979e-01,4.253613948822021484e-02,-8.776357024908065796e-02,1.714819818735122681e-01,-6.997923254966735840e-01,9.009034633636474609e-01,3.956607729196548462e-02,-3.208061456680297852e-01,2.470363229513168335e-01,5.021208897233009338e-02,3.361273705959320068e-01,8.193257451057434082e-01,1.369110774248838425e-02
-7.105745673179626465e-01,4.968536794185638428e-01,1.569036692380905151e-01,4.631050676107406616e-02,-2.398106642067432404e-02,-7.176084518432617188e-01,9.837601184844970703e-01,1.055698990821838379e-01,-1.252619922161102295e-01,2.521955668926239014e-01,1.081785559654235840e-01,4.077934920787811279e-01,8.723681569099426270e-01,-1.054126024246215820e-01
-9.102943539619445801e-01,2.080413699150085449e-01,1.075173616409301758e-01,-3.334704041481018066e-02,-4.575314372777938843e-02,-7.114403247833251953e-01,9.952360987663269043e-01,3.921146690845489502e-01,-2.585456967353820801e-01,9.491129964590072632e-02,2.769061326980590820e-01,3.095347583293914795e-01,8.456755280494689941e-01,6.741756573319435120e-03
-9.440631866455078125e-01,-2.857694216072559357e-02,2.149089938029646873e-03,-3.145627379417419434e-01,7.347986847162246704e-02,-6.524516940116882324e-01,9.393817782402038574e-01,4.215580821037292480e-01,-1.523742228746414185e-01,-9.956490248441696167e-02,8.083604276180267334e-02,1.792741566896438599e-01,9.754285216331481934e-01,-2.622505128383636475e-01
-1.013566732406616211e+00,-7.460547983646392822e-02,1.711290776729583740e-01,4.531858488917350769e-02,2.801129594445228577e-02,-4.756192862987518311e-01,1.045486688613891602e+00,3.661535680294036865e-01,-1.972656697034835815e-01,7.950841635465621948e-02,1.722219139337539673e-01,2.397621721029281616e-01,7.513430118560791016e-01,-7.233178708702325821e-03
-8.415074944496154785e-01,1.946752667427062988e-01,1.240994632244110107e-01,-1.126015931367874146e-01,4.420152679085731506e-02,-4.846320152282714844e-01,7.724654674530029297e-01,5.323868393898010254e-01,-1.363218575716018677e-01,-2.821066416800022125e-02,2.860491573810577393e-01,-1.341878771781921387e-01,1.042927742004394531e+00,-2.036307752132415771e-01
-7.122603058815002441e-01,3.529016673564910889e-01,1.952252238988876343e-01,-1.832395046949386597e-01,-2.523688599467277527e-02,-3.866660594940185547e-01,1.001019239425659180e+00,3.996866941452026367e-01,-1.260786354541778564e-01,-5.215182900428771973e-02,2.489838153123855591e-01,1.965660229325294495e-02,8.077511191368103027e-01,-2.226134687662124634e-01
-8.399053812026977539e-01,6.033997237682342529e-02,3.830423653125762939e-01,-2.664489746093750000e-01,-3.713644742965698242e-01,-4.604165852069854736e-01,1.043625235557556152e+00,9.019484519958496094e-01,-2.593942044768482447e-04,-1.283101141452789307e-01,2.365078181028366089e-01,-3.178618103265762329e-02,9.691887497901916504e-01,-5.186105966567993164e-01
-6.664820909500122070e-01,3.907446190714836121e-02,2.106078714132308960e-01,-2.140935212373733521e-01,-1.169322282075881958e-01,-5.264346003532409668e-01,8.396397829055786133e-01,7.309388518333435059e-01,-1.288341879844665527e-01,-9.448935836553573608e-02,2.693113684654235840e-01,-8.564680069684982300e-02,9.038662910461425781e-01,-3.021597862243652344e-01
-6.936877965927124023e-01,1.011446341872215271e-01,3.512999415397644043e-01,-2.365047335624694824e-01,-2.687357366085052490e-01,-2.199963629245758057e-01,8.685060143470764160e-01,6.747854351997375488e-01,-1.088507995009422302e-01,-2.338473945856094360e-01,3.064201474189758301e-01,-3.312084674835205078e-01,1.067298889160156250e+00,-6.669729351997375488e-01
-6.500388979911804199e-01,-3.693848475813865662e-02,2.546711266040802002e-01,-2.654433250427246094e-01,-2.115602791309356689e-01,-1.234441101551055908e-01,7.439983487129211426e-01,6.212871074676513672e-01,5.936359614133834839e-02,-1.539678275585174561e-01,3.429483994841575623e-02,-3.214552700519561768e-01,8.354083299636840820e-01,-6.290330886840820312e-01
-5.014309883117675781e-01,-2.267669141292572021e-01,3.379164934158325195e-01,-2.202118486166000366e-01,-3.307799994945526123e-01,-2.107627838850021362e-01,9.383623003959655762e-01,5.418764948844909668e-01,1.284910589456558228e-01,-3.552485108375549316e-01,1.723812967538833618e-01,-2.834550738334655762e-01,8.038786053657531738e-01,-5.355322957038879395e-01
-6.787746548652648926e-01,1.164411678910255432e-01,3.264961242675781250e-01,-2.172884047031402588e-01,-3.958864808082580566e-01,-5.704078078269958496e-02,7.339114546775817871e-01,4.525810480117797852e-01,-1.042531430721282959e-02,-3.668646216392517090e-01,2.154852449893951416e-01,-2.002241760492324829e-01,8.929926753044128418e-01,-6.668168902397155762e-01
-4.484395384788513184e-01,-6.248261407017707825e-02,3.533945381641387939e-01,-1.654629558324813843e-01,-3.366087675094604492e-01,-1.387954503297805786e-01,4.842476248741149902e-01,5.432628393173217773e-01,1.436057090759277344e-01,-1.710635274648666382e-01,1.762672960758209229e-01,-1.633306890726089478e-01,8.541663289070129395e-01,-8.844984769821166992e-01
-2.731176316738128662e-01,9.211104363203048706e-02,3.184520602226257324e-01,-4.693942964076995850e-01,-3.036599755287170410e-01,-7.497733086347579956e-02,6.361960172653198242e-01,4.325454831123352051e-01,3.778997808694839478e-02,-1.846276670694351196e-01,6.555815041065216064e-02,-4.630267024040222168e-01,8.290273547172546387e-01,-6.800301671028137207e-01
-3.373564779758453369e-01,-9.723338484764099121e-02,4.737996160984039307e-01,-4.642087221145629883e-01,-2.833853960037231445e-01,1.481576561927795410e-01,6.866981983184814453e-01,3.968382477760314941e-01,2.442351281642913818e-01,-2.735785841941833496e-01,4.421032592654228210e-02,-5.679819583892822266e-01,7.707542777061462402e-01,-7.811835408210754395e-01
-2.714180648326873779e-01,-1.216489728540182114e-02,3.812538683414459229e-01,-3.941357731819152832e-01,-2.196758389472961426e-01,-1.756842620670795441e-02,3.649779260158538818e-01,2.900744378566741943e-01,3.185389935970306396e-01,-4.309697747230529785e-01,1.357538551092147827e-01,-3.943594694137573242e-01,8.537241816520690918e-01,-8.662728071212768555e-01
-2.461320310831069946e-01,6.451078504323959351e-02,3.115816712379455566e-01,-5.342003107070922852e-01,-4.297013878822326660e-01,1.512830238789319992e-02,3.786813318729400635e-01,4.093486666679382324e-01,2.501575946807861328e-01,-4.512437880039215088e-01,6.528977304697036743e-02,-2.514705359935760498e-01,7.200751304626464844e-01,-9.760477542877197266e-01
-1.067476067692041397e-02,9.744392335414886475e-02,3.664846718311309814e-01,-5.467665195465087891e-01,-4.530912935733795166e-01,-9.852211922407150269e-02,3.765445649623870850e-01,2.984668314456939697e-01,4.369779825210571289e-01,-2.351781427860260010e-01,1.468732506036758423e-01,-4.363954961299896240e-01,8.261471390724182129e-01,-7.637785077095031738e-01
-1.411535292863845825e-01,3.426197916269302368e-02,2.591623663902282715e-01,-4.682574272155761719e-01,-5.251608490943908691e-01,1.949053257703781128e-01,1.099053472280502319e-01,3.415548801422119141e-01,3.429394066333770752e-01,-2.558645606040954590e-01,4.455054551362991333e-02,-6.522251963615417480e-01,6.384257674217224121e-01,-7.983263134956359863e-01
-2.932714521884918213e-01,5.977090075612068176e-02,3.253879547119140625e-01,-4.576719105243682861e-01,-4.133938848972320557e-01,9.065373241901397705e-02,-1.416772790253162384e-02,2.863147556781768799e-01,4.082265198230743408e-01,-4.056683480739593506e-01,-5.872953683137893677e-03,-3.162712454795837402e-01,6.511365771293640137e-01,-7.320640683174133301e-01
-2.457426786422729492e-01,1.440744400024414062e-01,6.167957559227943420e-02,-4.518761932849884033e-01,-5.150144696235656738e-01,2.094380110502243042e-01,1.330161094665527344e-01,2.170094102621078491e-01,4.733577668666839600e-01,-1.816303879022598267e-01,-1.459785848855972290e-01,-5.520304441452026367e-01,5.736237764358520508e-01,-8.649994730949401855e-01
-1.493030637502670288e-01,1.790122687816619873e-01,3.590207993984222412e-01,-6.284036636352539062e-01,-5.037878751754760742e-01,1.925954222679138184e-01,-1.712585240602493286e-02,4.142946302890777588e-01,3.574243485927581787e-01,-3.858736157417297363e-01,6.314624566584825516e-03,-7.100138664245605469e-01,3.849004805088043213e-01,-7.025767564773559570e-01
-3.674232214689254761e-02,6.286200135946273804e-02,1.311504542827606201e-01,-5.884577631950378418e-01,-5.169529318809509277e-01,2.042525410652160645e-01,-8.334414102137088776e-03,1.855589598417282104e-01,3.269984126091003418e-01,-5.569053292274475098e-01,-9.539324790239334106e-02,-4.383034110069274902e-01,3.886978924274444580e-01,-5.648459196090698242e-01
-1.024751439690589905e-01,1.315339803695678711e-01,-2.899823337793350220e-02,-6.300116777420043945e-01,-7.504858970642089844e-01,2.563799619674682617e-01,6.514246761798858643e-02,-6.785695254802703857e-02,4.906837344169616699e-01,-4.857479631900787354e-01,-1.580804586410522461e-01,-7.092213630676269531e-01,5.132161378860473633e-01,-3.777486085891723633e-01
-7.548777759075164795e-02,1.199633851647377014e-01,1.353056281805038452e-01,-6.639429926872253418e-01,-6.828196644783020020e-01,2.775222361087799072e-01,-3.015119396150112152e-02,5.890375748276710510e-02,3.793931901454925537e-01,-4.664922654628753662e-01,-6.589191406965255737e-02,-6.639626026153564453e-01,2.155866473913192749e-01,-5.409784913063049316e-01
-2.918532490730285645e-01,4.826239049434661865e-01,1.696385443210601807e-01,-7.489265203475952148e-01,-6.463302373886108398e-01,4.067323505878448486e-01,-7.764413952827453613e-02,-3.793831169605255127e-02,3.147162497043609619e-01,-4.636569023132324219e-01,8.553884923458099365e-02,-4.979588985443115234e-01,4.265159368515014648e-01,-3.355126380920410156e-01
-1.161448583006858826e-01,4.418707787990570068e-01,-7.760794460773468018e-02,-7.521644234657287598e-01,-7.294079065322875977e-01,4.430798590183258057e-01,-1.894855797290802002e-01,-2.126337885856628418e-01,4.909311830997467041e-01,-3.488367795944213867e-01,-1.507079508155584335e-02,-5.315722227096557617e-01,3.483834564685821533e-01,-3.661439418792724609e-01
-2.481175512075424194e-01,6.366437077522277832e-01,-3.317866474390029907e-02,-5.698372125625610352e-01,-8.239942789077758789e-01,3.532609045505523682e-01,-2.794093787670135498e-01,-2.666428685188293457e-01,5.390528440475463867e-01,-5.675226449966430664e-01,2.104198932647705078e-02,-4.746599793434143066e-01,2.819706499576568604e-01,-3.929284512996673584e-01
-1.753117144107818604e-01,6.633594632148742676e-01,1.086574271321296692e-01,-6.864521503448486328e-01,-8.355923295021057129e-01,4.088295996189117432e-01,-3.182866275310516357e-01,-1.245545670390129089e-01,4.447516500949859619e-01,-6.001844406127929688e-01,6.610444188117980957e-02,-4.162324070930480957e-01,3.200466334819793701e-01,-4.955338537693023682e-01
-6.078843772411346436e-02,5.840696096420288086e-01,6.019232794642448425e-02,-7.360404133796691895e-01,-8.987421989440917969e-01,3.583754897117614746e-01,-9.869930148124694824e-02,-1.439298242330551147e-01,2.127617299556732178e-01,-3.998616933822631836e-01,-6.541851442307233810e-03,-2.449248880147933960e-01,4.970227181911468506e-01,-4.755359292030334473e-01
-1.789193898439407349e-01,7.247930169105529785e-01,-4.094770550727844238e-02,-5.063515305519104004e-01,-1.004120707511901855e+00,3.131281435489654541e-01,-6.581448763608932495e-02,-3.592814803123474121e-01,3.238230645656585693e-01,-5.027900338172912598e-01,-6.928716599941253662e-02,-5.219745635986328125e-01,1.473712474107742310e-01,-3.062865734100341797e-01
-2.369336932897567749e-01,7.337855100631713867e-01,-2.035021968185901642e-02,-2.938184738159179688e-01,-1.047115802764892578e+00,4.009477198123931885e-01,-1.944771111011505127e-01,-1.943382024765014648e-01,2.541168630123138428e-01,-2.017473876476287842e-01,-3.714003041386604309e-02,-1.936304122209548950e-01,1.777957528829574585e-01,-4.144285619258880615e-01
-9.645121544599533081e-02,7.501284480094909668e-01,-1.171716004610061646e-01,-6.484670639038085938e-01,-6.813313364982604980e-01,1.189247071743011475e-01,-3.343108594417572021e-01,-2.937964200973510742e-01,1.843871325254440308e-01,-3.427885174751281738e-01,9.919898957014083862e-02,-1.854816377162933350e-01,8.009165525436401367e-02,-4.198544621467590332e-01
-1.182409934699535370e-02,9.236944317817687988e-01,-8.590880781412124634e-02,-3.233509659767150879e-01,-9.004313945770263672e-01,1.794687211513519287e-01,-4.151487648487091064e-01,-2.264512926340103149e-01,2.690258026123046875e-01,-4.844606518745422363e-01,4.100826382637023926e-02,-1.701570451259613037e-01,1.983051747083663940e-01,-3.742786943912506104e-01
8.064534515142440796e-02,1.094266772270202637e+00,-1.475178897380828857e-01,-1.509751379489898682e-01,-8.628188371658325195e-01,1.685945987701416016e-01,-2.443575486540794373e-02,-2.524415850639343262e-01,2.509590685367584229e-01,-3.077158033847808838e-01,-1.817624866962432861e-01,-1.147947236895561218e-01,1.420301347970962524e-01,-3.705114126205444336e-01
-4.163208231329917908e-02,9.568228125572204590e-01,-5.745840724557638168e-03,-3.257622122764587402e-01,-9.133549332618713379e-01,2.282597869634628296e-01,-2.405934482812881470e-01,-3.833807706832885742e-01,2.375446259975433350e-01,-3.553756773471832275e-01,7.334434986114501953e-02,-2.546553909778594971e-01,1.777646988630294800e-01,-2.608446478843688965e-01
2.360175363719463348e-02,8.369389772415161133e-01,1.093873083591461182e-01,-9.287715703248977661e-02,-8.329978585243225098e-01,3.394028842449188232e-01,-2.306164056062698364e-01,-2.004840075969696045e-01,3.676637113094329834e-01,-3.664097189903259277e-01,2.038328647613525391e-01,-3.051840327680110931e-02,6.687293201684951782e-02,-3.963371515274047852e-01
1.275013685226440430e-01,9.540973901748657227e-01,3.172359988093376160e-02,-1.187576800584793091e-01,-9.098177552223205566e-01,1.756074726581573486e-01,-3.219452202320098877e-01,-4.634701907634735107e-01,4.104526042938232422e-01,-4.444679915904998779e-01,2.154621332883834839e-01,2.104082554578781128e-01,1.102631017565727234e-01,-2.581714689731597900e-01
1.815450191497802734e-01,9.837459325790405273e-01,1.920530647039413452e-01,-4.539536312222480774e-02,-1.169022440910339355e+00,3.562619686126708984e-01,-1.840900480747222900e-01,-9.024125337600708008e-02,2.616914808750152588e-01,-3.925050199031829834e-01,1.441663950681686401e-01,1.888189315795898438e-01,-6.453261524438858032e-02,-2.844401895999908447e-01
1.614756286144256592e-01,6.549471616744995117e-01,4.414608702063560486e-02,6.767766177654266357e-02,-1.030238389968872070e+00,2.669382989406585693e-01,-2.683925032615661621e-01,-3.877836465835571289e-01,2.898215651512145996e-01,-6.454095840454101562e-01,2.208921462297439575e-01,1.039185076951980591e-01,1.732787638902664185e-01,-4.838657379150390625e-01
1.336910128593444824e-01,8.972098827362060547e-01,-4.867041949182748795e-03,4.025733843445777893e-02,-9.068065285682678223e-01,3.093393445014953613e-01,-3.530990779399871826e-01,-2.694531977176666260e-01,2.952346205711364746e-01,-3.004395365715026855e-01,1.476643979549407959e-01,-6.027366966009140015e-03,-2.408493682742118835e-02,-2.736453115940093994e-01
7.463828474283218384e-02,8.321017026901245117e-01,3.029019832611083984e-01,6.874091178178787231e-02,-8.890795111656188965e-01,3.790306746959686279e-01,-2.873290479183197021e-01,-2.822793126106262207e-01,3.806776106357574463e-01,-7.674245834350585938e-01,4.397440850734710693e-01,2.256171703338623047e-01,-8.040376007556915283e-02,-5.559135675430297852e-01
2.311918288469314575e-01,8.548815250396728516e-01,2.751172780990600586e-01,2.129038572311401367e-01,-8.710827231407165527e-01,5.364391803741455078e-01,-2.252471297979354858e-01,-2.225628644227981567e-01,3.672896921634674072e-01,-4.526146054267883301e-01,4.821912646293640137e-01,2.808538675308227539e-01,-1.121791377663612366e-01,-3.650351166725158691e-01
2.522225379943847656e-01,7.991001605987548828e-01,4.195131361484527588e-01,4.644754827022552490e-01,-9.638262987136840820e-01,2.988372743129730225e-01,-1.300275623798370361e-01,1.474334597587585449e-01,2.631074190139770508e-01,-5.440272688865661621e-01,4.328099787235260010e-01,2.596086263656616211e-01,-3.182970583438873291e-01,-2.167940288782119751e-01
5.636854097247123718e-02,6.773106455802917480e-01,3.279502987861633301e-01,3.349497318267822266e-01,-8.693000078201293945e-01,3.546712398529052734e-01,-4.633947610855102539e-01,-1.541155427694320679e-01,3.157036006450653076e-01,-4.010433256626129150e-01,4.266736209392547607e-01,6.709522753953933716e-02,-2.731704711914062500e-01,-2.536899447441101074e-01
4.798683151602745056e-02,8.858096003532409668e-01,5.905208587646484375e-01,3.731645941734313965e-01,-7.414833307266235352e-01,2.372317910194396973e-01,-4.556081295013427734e-01,9.589222259819507599e-03,1.680677533149719238e-01,-3.148351013660430908e-01,3.575937747955322266e-01,8.796576410531997681e-02,-2.997849881649017334e-01,-4.213367998600006104e-01
1.421226710081100464e-01,6.983347535133361816e-01,3.967705070972442627e-01,3.612502515316009521e-01,-7.073962688446044922e-01,2.444944828748703003e-01,-4.015791118144989014e-01,-7.293268293142318726e-02,1.449383348226547241e-01,-3.736555874347686768e-01,4.911856055259704590e-01,3.540631234645843506e-01,-3.541822433471679688e-01,-3.509210646152496338e-01
6.739880144596099854e-02,6.013844609260559082e-01,5.495194196701049805e-01,2.184192091226577759e-01,-5.699378252029418945e-01,1.689671725034713745e-01,-4.789955615997314453e-01,6.330584734678268433e-02,1.642481237649917603e-01,-4.688224494457244873e-01,2.744378447532653809e-01,8.544608950614929199e-02,-3.664452433586120605e-01,-4.966714084148406982e-01
8.496662229299545288e-02,6.736408472061157227e-01,6.911790370941162109e-01,3.236158192157745361e-01,-6.835281848907470703e-01,2.532915174961090088e-01,-4.087470173835754395e-01,-7.309859991073608398e-02,2.343415617942810059e-01,-1.002755314111709595e-01,4.864642024040222168e-01,2.758492529392242432e-01,-2.713674902915954590e-01,-3.685702383518218994e-01
2.947239018976688385e-02,6.956248879432678223e-01,6.714953184127807617e-01,4.045464694499969482e-01,-4.490672349929809570e-01,2.138222604990005493e-01,-4.768594503402709961e-01,1.154190674424171448e-02,2.957339286804199219e-01,1.639546602964401245e-01,4.276553094387054443e-01,7.509512454271316528e-02,-3.810388445854187012e-01,-1.758534014225006104e-01
1.540111377835273743e-02,5.798939466476440430e-01,8.026019930839538574e-01,3.775931298732757568e-01,-4.710532128810882568e-01,1.755479723215103149e-01,-4.272110462188720703e-01,4.724615439772605896e-02,1.304837316274642944e-01,7.808834197930991650e-05,4.401234090328216553e-01,2.499400973320007324e-01,-3.646747767925262451e-01,-2.888175547122955322e-01
-8.907609432935714722e-02,5.783414244651794434e-01,9.573797583580017090e-01,3.115228414535522461e-01,-3.618701696395874023e-01,-3.788790851831436157e-02,-4.268998205661773682e-01,-9.414876252412796021e-02,1.700777411460876465e-01,2.120867669582366943e-01,2.765143215656280518e-01,3.666835129261016846e-01,-5.815615653991699219e-01,-2.141409069299697876e-01
-2.753022015094757080e-01,5.132862329483032227e-01,9.127033948898315430e-01,3.381069004535675049e-01,-2.429685890674591064e-01,1.614324189722537994e-02,-5.741475820541381836e-01,2.443940937519073486e-01,1.789516806602478027e-01,3.459614515304565430e-01,1.643108129501342773e-01,3.331813812255859375e-01,-6.037510037422180176e-01,-2.255114763975143433e-01
-8.531588315963745117e-02,4.012493193149566650e-01,8.881825804710388184e-01,5.224685668945312500e-01,-3.227396607398986816e-01,-9.609013050794601440e-02,-4.456351399421691895e-01,2.615968137979507446e-02,2.857875525951385498e-01,8.077698200941085815e-02,2.029604464769363403e-01,4.151329100131988525e-01,-5.370472073554992676e-01,-2.161592543125152588e-01
-6.741844117641448975e-02,3.461315631866455078e-01,1.047713160514831543e+00,3.456053733825683594e-01,-5.265771970152854919e-02,-1.845685690641403198e-01,-4.818257391452789307e-01,-7.428108155727386475e-02,1.135561689734458923e-01,2.939292788505554199e-01,1.815734207630157471e-01,2.641291022300720215e-01,-2.888810932636260986e-01,-1.058806926012039185e-01
-1.426941901445388794e-01,2.484086006879806519e-01,9.836429953575134277e-01,2.105418592691421509e-01,1.386854350566864014e-01,-3.712866008281707764e-01,-2.574034333229064941e-01,-1.285349428653717041e-01,9.412583708763122559e-02,2.726453840732574463e-01,-6.687904894351959229e-02,3.253453075885772705e-01,-2.572944760322570801e-01,-2.133376151323318481e-01
-2.840788662433624268e-01,5.013492107391357422e-01,9.279469847679138184e-01,2.097512781620025635e-01,-3.842065110802650452e-02,-2.958233654499053955e-01,-4.018179476261138916e-01,-5.261236429214477539e-02,-5.929993931204080582e-04,3.706734776496887207e-01,-1.000412460416555405e-02,4.721789956092834473e-01,-3.589122295379638672e-01,-8.321781456470489502e-02
-3.087746798992156982e-01,2.896688878536224365e-01,9.074583649635314941e-01,8.167146146297454834e-02,3.295829594135284424e-01,-3.514375388622283936e-01,-3.409800529479980469e-01,-1.810716837644577026e-01,2.184863537549972534e-01,6.621124148368835449e-01,-2.537098340690135956e-02,5.062175393104553223e-01,-4.880335032939910889e-01,-4.004350900650024414e-01
-4.928211122751235962e-02,-6.571797281503677368e-02,8.574580550193786621e-01,3.870883882045745850e-01,1.289410293102264404e-01,-4.128867983818054199e-01,-3.366772830486297607e-01,1.270104348659515381e-01,8.443375676870346069e-02,5.442569255828857422e-01,-4.933883994817733765e-02,4.670915007591247559e-01,-3.884005844593048096e-01,-1.839648187160491943e-02
-3.056188821792602539e-01,2.849613428115844727e-01,9.513815641403198242e-01,2.743726372718811035e-01,2.912954986095428467e-01,-4.304805099964141846e-01,-2.019551694393157959e-01,6.244861055165529251e-03,-1.323270052671432495e-01,6.204241514205932617e-01,-1.752123832702636719e-01,5.449121594429016113e-01,-2.773953080177307129e-01,-2.354256659746170044e-01
-6.216937899589538574e-01,2.546940743923187256e-01,9.241343140602111816e-01,8.151250332593917847e-02,1.277694255113601685e-01,-4.430275559425354004e-01,-1.676085889339447021e-01,-2.560026012361049652e-02,9.664939343929290771e-02,5.472368597984313965e-01,-1.168038249015808105e-01,2.867704331874847412e-01,-1.803148239850997925e-01,-1.925057172775268555e-01
-4.890530109405517578e-01,5.651157349348068237e-03,9.297550916671752930e-01,2.496716529130935669e-01,4.935044646263122559e-01,-6.593559384346008301e-01,4.052202031016349792e-02,1.128399148583412170e-01,-1.622063852846622467e-02,4.321798980236053467e-01,-3.138353824615478516e-01,4.061173498630523682e-01,-4.324740767478942871e-01,-1.383657753467559814e-01
-4.946521520614624023e-01,8.706452697515487671e-02,8.133270144462585449e-01,5.418070405721664429e-02,1.802070289850234985e-01,-6.039358973503112793e-01,-6.893924623727798462e-02,-3.500746935606002808e-02,-1.016921550035476685e-01,6.154663562774658203e-01,-5.248488858342170715e-02,6.339600682258605957e-01,-2.389312386512756348e-01,5.196397006511688232e-02
-6.326376795768737793e-01,6.245640665292739868e-02,6.843003630638122559e-01,-9.004857391119003296e-02,3.084658682346343994e-01,-5.595985054969787598e-01,1.066399663686752319e-01,-4.700568690896034241e-02,-9.787531197071075439e-02,6.614837646484375000e-01,-3.522150516510009766e-01,5.783019065856933594e-01,-2.247847020626068115e-01,-1.413973271846771240e-01
-5.501554012298583984e-01,5.606417730450630188e-02,7.425483465194702148e-01,1.019339915364980698e-02,2.305821329355239868e-01,-6.635265946388244629e-01,1.598432064056396484e-01,8.818449825048446655e-02,-8.951304852962493896e-02,5.519434809684753418e-01,-2.837343811988830566e-01,5.112358927726745605e-01,-6.013151630759239197e-02,-1.229549124836921692e-01
-6.055550575256347656e-01,2.306065559387207031e-01,6.267902851104736328e-01,-6.825412809848785400e-02,2.726165354251861572e-01,-5.630349516868591309e-01,4.639959661290049553e-04,1.464046388864517212e-01,-3.163106441497802734e-01,5.495635867118835449e-01,-4.136889278888702393e-01,4.299149215221405029e-01,-3.491913899779319763e-02,-1.681052893400192261e-01
-5.450707077980041504e-01,7.063081115484237671e-02,6.755882501602172852e-01,-4.517264664173126221e-02,2.812556922435760498e-01,-6.689178347587585449e-01,4.436521604657173157e-02,2.178778946399688721e-01,-3.146679997444152832e-01,3.548540771007537842e-01,-3.813733458518981934e-01,5.458033084869384766e-01,-5.928575992584228516e-02,-7.086406648159027100e-02
-5.899108648300170898e-01,1.452570315450429916e-02,7.791066169738769531e-01,-2.793751657009124756e-01,2.306607514619827271e-01,-8.886442184448242188e-01,2.722111530601978302e-02,4.623041301965713501e-02,-3.089296519756317139e-01,5.243858098983764648e-01,-5.299637317657470703e-01,4.806424081325531006e-01,1.607608646154403687e-01,-5.599611252546310425e-02
-6.162704825401306152e-01,1.353798210620880127e-01,7.366203069686889648e-01,-2.297275662422180176e-01,1.907384097576141357e-01,-6.200001239776611328e-01,-1.816126704216003418e-02,1.746284514665603638e-01,-4.510563015937805176e-01,5.614615678787231445e-01,-3.425437510013580322e-01,2.788332104682922363e-01,1.291378289461135864e-01,-2.329802606254816055e-03
-5.533611178398132324e-01,3.172531351447105408e-02,6.900341510772705078e-01,5.710682016797363758e-04,2.525877058506011963e-01,-7.211297750473022461e-01,3.582760691642761230e-01,-6.447234749794006348e-02,-2.667379081249237061e-01,4.380973279476165771e-01,-5.559930205345153809e-01,5.190954208374023438e-01,2.672849893569946289e-01,1.795934326946735382e-02
-3.973121643066406250e-01,-2.402064204216003418e-01,5.778093934059143066e-01,2.694588154554367065e-02,2.525981068611145020e-01,-8.855558037757873535e-01,8.155585080385208130e-02,1.466445475816726685e-01,-3.688847124576568604e-01,1.859638839960098267e-01,-4.851870238780975342e-01,3.164632916450500488e-01,3.365050852298736572e-01,-2.110669463872909546e-01
-4.290089905261993408e-01,-1.833503693342208862e-01,6.487836241722106934e-01,8.927346207201480865e-03,2.975985109806060791e-01,-7.256858348846435547e-01,6.252022087574005127e-02,3.552472293376922607e-01,-3.694727420806884766e-01,4.939281642436981201e-01,-5.126898884773254395e-01,4.557108283042907715e-01,5.591399073600769043e-01,-2.960204184055328369e-01
-4.031987488269805908e-01,-1.516753733158111572e-01,4.719232916831970215e-01,1.010041683912277222e-01,3.223951756954193115e-01,-8.110358119010925293e-01,5.901291966438293457e-02,3.971166014671325684e-01,-3.721013069152832031e-01,1.968261599540710449e-01,-5.824211835861206055e-01,1.866229921579360962e-01,4.674047529697418213e-01,-5.107497572898864746e-01
-2.880238890647888184e-01,-3.447836935520172119e-01,3.637413978576660156e-01,-5.156541615724563599e-02,3.659113049507141113e-01,-5.839353799819946289e-01,1.125838160514831543e-01,2.032270580530166626e-01,-2.755156457424163818e-01,2.868775129318237305e-01,-7.651819586753845215e-01,4.673899114131927490e-01,4.606122374534606934e-01,-2.519661784172058105e-01
-2.624867260456085205e-01,-1.195179224014282227e-01,5.078982114791870117e-01,-4.930141940712928772e-02,3.528366982936859131e-01,-6.290062069892883301e-01,1.516201198101043701e-01,3.011016845703125000e-01,-2.089678198099136353e-01,2.958941757678985596e-01,-3.954651057720184326e-01,2.294787019491195679e-01,5.656456351280212402e-01,-4.704089462757110596e-01
-3.123733699321746826e-01,-3.836308121681213379e-01,4.109460711479187012e-01,-1.862270683050155640e-01,3.215106725692749023e-01,-6.753724217414855957e-01,3.089186847209930420e-01,3.523938059806823730e-01,-6.683923304080963135e-02,2.569415867328643799e-01,-4.703871309757232666e-01,8.568678796291351318e-02,4.187523424625396729e-01,-5.631489157676696777e-01
-7.497383654117584229e-02,-5.416225790977478027e-01,5.921163558959960938e-01,-1.536322087049484253e-01,2.927977144718170166e-01,-4.516672492027282715e-01,3.632653057575225830e-01,4.741851091384887695e-01,2.739968011155724525e-03,-8.621249347925186157e-02,-6.357835531234741211e-01,5.814471468329429626e-02,5.227146744728088379e-01,-5.295521020889282227e-01
-1.524722725152969360e-01,-6.463355422019958496e-01,5.403225421905517578e-01,-3.019737601280212402e-01,1.728089153766632080e-01,-4.301002919673919678e-01,-3.529845550656318665e-02,5.358803272247314453e-01,-1.398656666278839111e-01,4.767828807234764099e-02,-6.247943639755249023e-01,1.555819623172283173e-02,5.745947360992431641e-01,-6.568332910537719727e-01
-7.671534270048141479e-02,-5.029956698417663574e-01,2.706761658191680908e-01,-1.503229141235351562e-01,3.459927141666412354e-01,-4.378832578659057617e-01,3.149626851081848145e-01,4.143438339233398438e-01,9.663636982440948486e-02,-1.816792041063308716e-02,-4.338107705116271973e-01,-3.550655022263526917e-02,5.634058713912963867e-01,-8.423030376434326172e-01
-1.532327681779861450e-01,-7.140157818794250488e-01,3.716232776641845703e-01,-3.464729189872741699e-01,4.405279457569122314e-01,-4.744213521480560303e-01,2.990718185901641846e-01,3.875623345375061035e-01,2.519866824150085449e-01,6.154067814350128174e-02,-3.763124942779541016e-01,8.462990634143352509e-03,4.415657520294189453e-01,-5.572810769081115723e-01
1.135040670633316040e-01,-6.547226309776306152e-01,6.832537055015563965e-02,-6.175784766674041748e-02,2.511816918849945068e-01,-3.691210150718688965e-01,3.582536056637763977e-02,2.811261117458343506e-01,1.840272843837738037e-01,-9.376820176839828491e-02,-3.563375771045684814e-01,-2.065045237541198730e-01,5.191857218742370605e-01,-4.773289859294891357e-01
6.969761103391647339e-02,-8.401057720184326172e-01,2.651582062244415283e-01,-1.658712476491928101e-01,2.543419599533081055e-01,-3.073961138725280762e-01,-3.524673730134963989e-02,4.440191686153411865e-01,2.632801532745361328e-01,-4.859441146254539490e-02,-1.594758182764053345e-01,-5.198476910591125488e-01,5.387534499168395996e-01,-5.451437830924987793e-01
1.049999892711639404e-01,-7.382593750953674316e-01,2.303696423768997192e-01,-4.462092220783233643e-01,4.420275688171386719e-01,-8.773266524076461792e-02,5.824895948171615601e-02,6.427605152130126953e-01,3.094972968101501465e-01,-1.880938708782196045e-01,-4.438214898109436035e-01,-5.113684535026550293e-01,3.688239455223083496e-01,-5.841270685195922852e-01
1.715410202741622925e-01,-8.172140121459960938e-01,6.990543752908706665e-02,-3.035899102687835693e-01,4.629205763339996338e-01,-2.770696282386779785e-01,-1.141692996025085449e-01,5.592551827430725098e-01,4.655282795429229736e-01,-2.917908132076263428e-01,-2.339446246623992920e-01,-1.921970397233963013e-01,3.888306915760040283e-01,-5.592609643936157227e-01
1.816547214984893799e-01,-7.820342779159545898e-01,1.581586152315139771e-01,-1.289459168910980225e-01,2.031541764736175537e-01,-6.765166670083999634e-02,3.808619454503059387e-02,4.344029128551483154e-01,4.958745837211608887e-01,-2.999757528305053711e-01,-1.750921010971069336e-01,-5.257490277290344238e-01,4.083829522132873535e-01,-5.163246393203735352e-01
3.519915044307708740e-02,-8.165080547332763672e-01,2.285486645996570587e-02,-3.774739503860473633e-01,5.284452438354492188e-01,-5.020433664321899414e-02,-1.268172413110733032e-01,4.248204529285430908e-01,6.132542490959167480e-01,-1.942682713270187378e-01,-1.681534647941589355e-01,-5.056741237640380859e-01,6.662215590476989746e-01,-4.891854822635650635e-01
1.113113164901733398e-01,-6.115861535072326660e-01,1.755503118038177490e-01,-5.001991987228393555e-01,3.021498620510101318e-01,1.074873358011245728e-01,-3.160094320774078369e-01,2.937364578247070312e-01,5.453436970710754395e-01,-4.959913790225982666e-01,-1.383151113986968994e-01,-6.821036934852600098e-01,3.518447279930114746e-01,-4.768304824829101562e-01
1.053626686334609985e-01,-7.330065965652465820e-01,8.308923989534378052e-02,-6.091093420982360840e-01,3.408253490924835205e-01,4.795412346720695496e-02,-2.739881277084350586e-01,2.857380807399749756e-01,7.173781394958496094e-01,-2.884557247161865234e-01,-2.183784395456314087e-01,-7.908421754837036133e-01,4.525160789489746094e-01,-4.337107837200164795e-01
9.995328634977340698e-02,-6.621896028518676758e-01,1.859519779682159424e-01,-6.299571990966796875e-01,2.025201469659805298e-01,9.145835787057876587e-02,-3.543878495693206787e-01,2.866473793983459473e-01,6.807856559753417969e-01,-4.488399922847747803e-01,-2.116961479187011719e-01,-7.663803100585937500e-01,3.772032856941223145e-01,-2.444447726011276245e-01
4.233454167842864990e-02,-6.171091794967651367e-01,-1.474020183086395264e-01,-4.176659584045410156e-01,2.538138628005981445e-01,-7.449936587363481522e-03,-6.049740314483642578e-01,2.303522527217864990e-01,7.642124891281127930e-01,-4.732445180416107178e-01,-2.776111066341400146e-01,-7.227757573127746582e-01,3.096072971820831299e-01,-3.144853413105010986e-01
2.708803713321685791e-01,-4.033789634704589844e-01,-1.164558157324790955e-01,-5.242797136306762695e-01,2.613229751586914062e-01,-7.520452141761779785e-02,-5.546723008155822754e-01,2.546364963054656982e-01,6.095722913742065430e-01,-2.873780429363250732e-01,-4.039436578750610352e-01,-7.896651029586791992e-01,4.617004990577697754e-01,-3.106574416160583496e-01
2.359602451324462891e-01,-4.310081005096435547e-01,-1.186518892645835876e-01,-5.187795758247375488e-01,1.191481351852416992e-01,1.581874676048755646e-02,-5.549557209014892578e-01,1.852207630872726440e-01,8.465487360954284668e-01,-4.786163568496704102e-01,-2.263687252998352051e-01,-5.520302057266235352e-01,2.366814613342285156e-01,-2.119051516056060791e-01
1.850837320089340210e-01,-3.956434726715087891e-01,-6.717312335968017578e-02,-5.232122540473937988e-01,3.633313775062561035e-01,1.262786537408828735e-01,-4.739058017730712891e-01,7.625915110111236572e-02,6.536846756935119629e-01,-3.550780713558197021e-01,-3.016662895679473877e-01,-7.996484637260437012e-01,5.051947236061096191e-01,-1.652459502220153809e-01
2.819018661975860596e-01,-5.868687033653259277e-01,-1.406493484973907471e-01,-4.855016469955444336e-01,1.802319884300231934e-01,1.279254406690597534e-01,-4.672803580760955811e-01,-1.381394267082214355e-01,6.770965456962585449e-01,-4.478764533996582031e-01,-3.320756554603576660e-01,-8.332967758178710938e-01,2.374827712774276733e-01,-8.622600138187408447e-02
1.975849717855453491e-01,-4.489046633243560791e-01,-1.815226674079895020e-01,-5.811674594879150391e-01,1.163781732320785522e-01,1.261336449533700943e-02,-4.052627682685852051e-01,-1.918638050556182861e-01,7.067012190818786621e-01,-6.460635066032409668e-01,-2.094547301530838013e-01,-6.339765191078186035e-01,2.535296380519866943e-01,-2.023039311170578003e-01
1.213805526494979858e-01,-2.182562351226806641e-01,-3.487895131111145020e-01,-4.106058180332183838e-01,2.774470858275890350e-02,-2.052054367959499359e-02,-5.894326567649841309e-01,-2.348012626171112061e-01,7.132799625396728516e-01,-3.801662027835845947e-01,-1.814811229705810547e-01,-6.073141694068908691e-01,3.548924028873443604e-01,-1.167400032281875610e-01
1.080619022250175476e-01,-4.074060618877410889e-01,-5.358232855796813965e-01,-5.659880042076110840e-01,1.713259369134902954e-01,-2.479404956102371216e-02,-6.528379321098327637e-01,-1.636848598718643188e-01,9.685081243515014648e-01,-4.394753575325012207e-01,-2.707245647907257080e-01,-6.828073859214782715e-01,3.505887091159820557e-01,-8.892766386270523071e-02
1.838665902614593506e-01,-2.340624630451202393e-01,-4.828695654869079590e-01,-4.792683720588684082e-01,1.060079932212829590e-01,8.822425454854965210e-02,-5.694984197616577148e-01,-4.207077026367187500e-01,8.450238108634948730e-01,-6.737028360366821289e-01,-1.395657658576965332e-01,-7.315703630447387695e-01,2.774151861667633057e-01,1.324931383132934570e-01
-9.480906301178038120e-04,-2.997695207595825195e-01,-3.247283101081848145e-01,-2.814806997776031494e-01,-5.781671032309532166e-02,1.419685482978820801e-01,-5.321071147918701172e-01,-2.384430617094039917e-01,8.531121015548706055e-01,-5.887830853462219238e-01,-1.298141628503799438e-01,-8.474620580673217773e-01,1.817180663347244263e-01,1.920029371976852417e-01
2.118749767541885376e-01,-2.389865815639495850e-01,-5.811176300048828125e-01,-3.228694796562194824e-01,7.764344569295644760e-03,3.067096173763275146e-01,-5.169425010681152344e-01,-1.055094376206398010e-01,6.212145686149597168e-01,-7.401915788650512695e-01,-5.381842330098152161e-02,-5.217221379280090332e-01,5.958795174956321716e-02,5.671925470232963562e-02
-5.188639089465141296e-02,7.775010168552398682e-02,-5.473759174346923828e-01,-2.687298059463500977e-01,-7.551174610853195190e-03,2.062969505786895752e-01,-4.145823717117309570e-01,-1.775846034288406372e-01,9.412236213684082031e-01,-5.295078754425048828e-01,1.058244332671165466e-01,-5.432783365249633789e-01,1.974432617425918579e-01,2.846294343471527100e-01
2.053156346082687378e-01,3.475546836853027344e-02,-5.953922271728515625e-01,-9.753512591123580933e-02,-1.483381837606430054e-01,2.919885516166687012e-01,-3.201797902584075928e-01,-2.676090002059936523e-01,7.061595916748046875e-01,-5.076776146888732910e-01,8.057333528995513916e-02,-6.598087549209594727e-01,1.126610860228538513e-01,4.401313960552215576e-01
1.284012049436569214e-01,1.145140379667282104e-01,-6.081896424293518066e-01,-2.917089760303497314e-01,-1.242986693978309631e-01,1.897407919168472290e-01,-4.117899835109710693e-01,-2.824531495571136475e-01,7.986088395118713379e-01,-6.038265824317932129e-01,1.295883208513259888e-01,-5.942374467849731445e-01,4.335421919822692871e-01,3.308751583099365234e-01
2.582724392414093018e-01,1.470626294612884521e-01,-7.726771235466003418e-01,-2.540373504161834717e-01,-2.119678854942321777e-01,3.081349730491638184e-01,-3.047454655170440674e-01,-1.056787297129631042e-01,7.192301750183105469e-01,-6.285949945449829102e-01,5.990717932581901550e-02,-6.053345203399658203e-01,2.030233442783355713e-01,4.299626946449279785e-01
6.774167716503143311e-02,1.050065085291862488e-01,-5.569167733192443848e-01,-2.497774958610534668e-01,-2.807441055774688721e-01,3.517833352088928223e-01,-2.458796948194503784e-01,-1.246114745736122131e-01,7.968238592147827148e-01,-8.126017451286315918e-01,1.269645988941192627e-01,-3.999491035938262939e-01,5.976587906479835510e-02,5.073215365409851074e-01
1.050159111618995667e-01,9.626039117574691772e-02,-6.353109478950500488e-01,-2.312221825122833252e-01,-3.943433463573455811e-01,3.540688753128051758e-01,-3.354236781597137451e-01,-1.459304541349411011e-01,9.062509536743164062e-01,-7.325045466423034668e-01,2.987595200538635254e-01,-6.443055868148803711e-01,1.545496433973312378e-01,3.288528919219970703e-01
1.027471572160720825e-01,1.663763672113418579e-01,-3.688144683837890625e-01,-2.478076219558715820e-01,-3.091501593589782715e-01,3.920750916004180908e-01,-4.423455893993377686e-01,-1.449280083179473877e-01,6.347020268440246582e-01,-8.064841628074645996e-01,1.364562809467315674e-01,-5.779248476028442383e-01,2.611240744590759277e-01,4.936012625694274902e-01
-5.755366384983062744e-02,2.217946648597717285e-01,-6.006938219070434570e-01,-9.489068388938903809e-02,-5.566675662994384766e-01,4.284443855285644531e-01,-3.525120317935943604e-01,-4.304722696542739868e-02,6.363422870635986328e-01,-7.968612313270568848e-01,2.991918623447418213e-01,-5.612276196479797363e-01,2.958925068378448486e-01,6.144713163375854492e-01
-7.353502511978149414e-02,4.450142383575439453e-01,-4.200488626956939697e-01,-2.180392481386661530e-02,-2.140466123819351196e-01,4.809485375881195068e-01,-2.192182987928390503e-01,-4.644395038485527039e-02,7.003729939460754395e-01,-7.208440303802490234e-01,2.930502593517303467e-01,-4.312396943569183350e-01,1.381871253252029419e-01,4.292141497135162354e-01
-5.432447791099548340e-02,1.513353437185287476e-01,-5.037297010421752930e-01,3.107726015150547028e-02,-2.356141954660415649e-01,5.626001358032226562e-01,-2.544176280498504639e-01,9.559316933155059814e-02,8.236415982246398926e-01,-6.920286417007446289e-01,3.848810493946075439e-01,-4.294917881488800049e-01,1.405573785305023193e-01,5.670037269592285156e-01
4.421461001038551331e-02,2.379987537860870361e-01,-2.151586413383483887e-01,4.346064105629920959e-02,-4.413231015205383301e-01,2.284188419580459595e-01,-4.188924133777618408e-01,1.732641905546188354e-01,6.074502468109130859e-01,-8.341507911682128906e-01,4.028935134410858154e-01,-3.893296420574188232e-01,1.850816756486892700e-01,4.775277674198150635e-01
5.629237368702888489e-02,2.014356702566146851e-01,-2.732301056385040283e-01,1.744737923145294189e-01,-4.561266601085662842e-01,5.728433132171630859e-01,-1.869056671857833862e-01,-5.659655109047889709e-02,5.652109384536743164e-01,-9.152420163154602051e-01,4.590390920639038086e-01,-4.742752611637115479e-01,3.684380091726779938e-03,3.963404595851898193e-01
6.925685703754425049e-02,3.894493579864501953e-01,-4.130724668502807617e-01,1.253582537174224854e-01,-1.588503867387771606e-01,2.948907911777496338e-01,-3.275301158428192139e-01,-1.193520892411470413e-02,6.439358592033386230e-01,-7.674785852432250977e-01,5.106872916221618652e-01,-2.184080481529235840e-01,9.324853122234344482e-02,4.431740641593933105e-01
1.214440166950225830e-01,4.531422257423400879e-01,-8.274165540933609009e-02,1.156585067510604858e-01,-2.478822618722915649e-01,5.000565648078918457e-01,-3.888007700443267822e-01,2.761968374252319336e-01,6.224169731140136719e-01,-7.411586046218872070e-01,5.760495066642761230e-01,-3.977138400077819824e-01,4.174385592341423035e-02,3.912937641143798828e-01
-6.918266299180686474e-04,2.772131264209747314e-01,-8.673947304487228394e-02,8.970755338668823242e-02,-1.748275160789489746e-01,7.071555852890014648e-01,-2.692812979221343994e-01,1.896478086709976196e-01,5.158134102821350098e-01,-6.586652994155883789e-01,5.959259867668151855e-01,-2.242643833160400391e-01,1.589953899383544922e-02,3.498972952365875244e-01
1.526467949151992798e-01,2.605960071086883545e-01,-1.545350104570388794e-01,4.329411312937736511e-02,-1.242287829518318176e-01,4.691661298274993896e-01,-4.012233912944793701e-01,9.310185909271240234e-02,5.755929350852966309e-01,-5.700760483741760254e-01,4.773526191711425781e-01,-2.526867389678955078e-02,-9.545681625604629517e-02,4.131116271018981934e-01
9.909071773290634155e-02,2.045391798019409180e-01,-2.158067822456359863e-01,3.487494885921478271e-01,-2.022817283868789673e-01,4.925428926944732666e-01,-1.652212142944335938e-01,3.397006094455718994e-01,4.165982306003570557e-01,-8.101107478141784668e-01,4.477548599243164062e-01,-4.277738332748413086e-01,-3.034363389015197754e-01,4.509179294109344482e-01
1.925378143787384033e-01,2.139856368303298950e-01,1.155009791254997253e-01,1.253646910190582275e-01,6.294991821050643921e-02,4.434679746627807617e-01,-9.709315001964569092e-02,3.126474320888519287e-01,6.051299571990966797e-01,-6.503950953483581543e-01,4.295190572738647461e-01,-3.117462992668151855e-01,-1.785185188055038452e-01,4.388352334499359131e-01
4.670825228095054626e-02,2.252965122461318970e-01,2.158221602439880371e-01,8.324770629405975342e-02,8.242440968751907349e-02,5.392414331436157227e-01,-2.937216162681579590e-01,5.376529693603515625e-01,4.738484323024749756e-01,-6.437508463859558105e-01,4.721464216709136963e-01,-3.677213788032531738e-01,-3.396947085857391357e-01,4.456342458724975586e-01
-4.326646402478218079e-02,1.728654801845550537e-01,1.999775767326354980e-01,1.031657680869102478e-01,8.911518007516860962e-02,5.038350820541381836e-01,-1.939830780029296875e-01,3.338072597980499268e-01,8.291881680488586426e-01,-3.855031728744506836e-01,3.951712250709533691e-01,-1.614846140146255493e-01,-1.245005279779434204e-01,5.158498287200927734e-01
1.302369087934494019e-01,1.682840287685394287e-01,2.182432711124420166e-01,7.593789696693420410e-02,-9.420887380838394165e-02,3.910786807537078857e-01,-7.562323659658432007e-02,5.084928870201110840e-01,6.135616302490234375e-01,-4.934115111827850342e-01,5.227916240692138672e-01,-4.022723734378814697e-01,-1.588630527257919312e-01,5.703456401824951172e-01
-1.479381918907165527e-01,1.904642283916473389e-01,2.289614081382751465e-01,2.179607897996902466e-01,2.238594144582748413e-01,4.331936836242675781e-01,-2.838233709335327148e-01,2.921979725360870361e-01,5.499481558799743652e-01,-4.840971231460571289e-01,5.513011217117309570e-01,-3.567169010639190674e-01,-4.767064452171325684e-01,4.278316199779510498e-01
-1.705619543790817261e-01,-6.391986459493637085e-02,3.200706541538238525e-01,-3.476338461041450500e-02,2.475609481334686279e-01,3.126683533191680908e-01,-2.630073130130767822e-01,6.141039133071899414e-01,5.337750911712646484e-01,-3.370093405246734619e-01,2.600934505462646484e-01,-3.622453510761260986e-01,-4.653417468070983887e-01,5.411555767059326172e-01
-2.187124341726303101e-01,1.209966763854026794e-01,2.280604392290115356e-01,2.013288736343383789e-01,2.323545962572097778e-01,3.857891261577606201e-01,-1.563538759946823120e-01,6.031007170677185059e-01,3.783859610557556152e-01,-4.056749045848846436e-01,3.671802580356597900e-01,-3.927683532238006592e-01,-6.175463199615478516e-01,3.903456628322601318e-01
-2.319475859403610229e-01,1.630017161369323730e-01,1.117950379848480225e-01,-1.172333508729934692e-01,3.668015897274017334e-01,3.219623863697052002e-01,-1.530957221984863281e-01,6.990175843238830566e-01,3.502300679683685303e-01,-3.009107112884521484e-01,4.656624794006347656e-01,-2.983148694038391113e-01,-3.096537590026855469e-01,5.881249308586120605e-01
-3.771476745605468750e-01,1.890276968479156494e-01,4.065507650375366211e-01,2.134750969707965851e-02,4.087988734245300293e-01,3.370620906352996826e-01,-1.124874204397201538e-01,6.744753718376159668e-01,3.435539007186889648e-01,-6.881267577409744263e-02,9.652243554592132568e-02,-3.483970761299133301e-01,-4.272208511829376221e-01,6.298624277114868164e-01
-1.650777012109756470e-01,1.466452628374099731e-01,4.048510193824768066e-01,-1.527598947286605835e-01,3.529372811317443848e-01,2.059968262910842896e-01,-1.183183714747428894e-01,5.728775858879089355e-01,1.173183470964431763e-01,-2.095588482916355133e-02,3.189732432365417480e-01,-2.861552834510803223e-01,-3.210610747337341309e-01,6.749639511108398438e-01
-5.486052036285400391e-01,1.955133527517318726e-01,2.567271590232849121e-01,-2.591780126094818115e-01,1.900147497653961182e-01,2.045050561428070068e-01,-2.281502336263656616e-01,4.795992970466613770e-01,2.005303353071212769e-01,-1.893472224473953247e-01,5.466933362185955048e-03,-2.829074561595916748e-01,-3.733176290988922119e-01,6.286413669586181641e-01
-3.836262822151184082e-01,1.205511912703514099e-01,2.047101259231567383e-01,-1.847439110279083252e-01,2.352496683597564697e-01,1.729481518268585205e-01,-2.396996617317199707e-01,5.455006361007690430e-01,2.580219805240631104e-01,-1.170042604207992554e-01,-5.333632230758666992e-02,-3.291411995887756348e-01,-4.457155466079711914e-01,6.552121043205261230e-01
-7.108508944511413574e-01,2.376092784106731415e-02,4.533308446407318115e-01,-2.710125446319580078e-01,3.112987279891967773e-01,1.253569573163986206e-01,-1.877196729183197021e-01,4.345953166484832764e-01,-1.853673309087753296e-01,-1.137117817997932434e-01,-1.678237505257129669e-02,-2.561589181423187256e-01,-2.271678745746612549e-01,5.863173007965087891e-01
-6.852666735649108887e-01,3.023897409439086914e-01,4.441695213317871094e-01,-3.538363575935363770e-01,3.739360868930816650e-01,9.210830181837081909e-02,2.258590981364250183e-02,5.209621787071228027e-01,-6.619580090045928955e-02,-2.022132277488708496e-01,-1.130039021372795105e-01,-1.324863284826278687e-01,-8.040845394134521484e-02,4.845980107784271240e-01
-7.547770738601684570e-01,8.655879646539688110e-02,4.428351521492004395e-01,-2.133939862251281738e-01,4.985301792621612549e-01,-1.375905238091945648e-03,1.016250774264335632e-01,6.569190025329589844e-01,-2.786906957626342773e-01,1.294981688261032104e-01,-2.563002109527587891e-01,-9.210178256034851074e-02,-1.729409694671630859e-01,4.068841636180877686e-01
-6.946048736572265625e-01,1.724236607551574707e-01,5.241920351982116699e-01,-5.174701213836669922e-01,4.599505662918090820e-01,-1.046937406063079834e-01,3.740865364670753479e-02,6.115166544914245605e-01,-1.986379623413085938e-01,2.950963377952575684e-01,-3.985488414764404297e-01,1.531191263347864151e-02,-2.346410453319549561e-01,4.536726474761962891e-01
-7.600187659263610840e-01,9.456688910722732544e-02,3.835095763206481934e-01,-5.853843092918395996e-01,4.191654324531555176e-01,-5.120101943612098694e-02,1.617063283920288086e-01,5.982898473739624023e-01,-2.969406247138977051e-01,2.583663538098335266e-02,-5.155243873596191406e-01,1.098721176385879517e-01,-1.103068441152572632e-01,3.612467050552368164e-01
-5.724064111709594727e-01,3.022065162658691406e-01,5.115204453468322754e-01,-5.688854455947875977e-01,5.025210976600646973e-01,-1.003134995698928833e-01,7.719680666923522949e-02,5.496315360069274902e-01,-1.973921209573745728e-01,-5.139888264238834381e-03,-4.587340950965881348e-01,-1.018145754933357239e-01,-9.837587364017963409e-03,3.813654780387878418e-01
-6.529797315597534180e-01,1.034801304340362549e-01,4.910649955272674561e-01,-3.398514091968536377e-01,3.602661192417144775e-01,8.519335649907588959e-03,1.496985107660293579e-01,4.651353061199188232e-01,-2.608691155910491943e-01,4.430005699396133423e-02,-5.223610401153564453e-01,-1.812273077666759491e-02,-4.922250658273696899e-02,2.981373965740203857e-01
-3.874976933002471924e-01,4.346473887562751770e-02,1.298907548189163208e-01,-3.834810853004455566e-01,4.923674464225769043e-01,2.162512578070163727e-02,3.259657323360443115e-01,6.799007654190063477e-01,-6.128484010696411133e-01,6.398098170757293701e-02,-6.202918887138366699e-01,-4.203370586037635803e-02,-1.087457910180091858e-01,3.424363434314727783e-01
-4.598345458507537842e-01,1.088885739445686340e-01,3.607313930988311768e-01,-5.951935052871704102e-01,4.377343952655792236e-01,-2.182903885841369629e-01,3.234955370426177979e-01,7.250011563301086426e-01,-4.205603599548339844e-01,-8.455488830804824829e-02,-5.967990159988403320e-01,-1.340488642454147339e-01,2.316526770591735840e-01,2.582185268402099609e-01
-4.711861610412597656e-01,2.073123604059219360e-01,3.585320115089416504e-01,-7.935112118721008301e-01,4.461283385753631592e-01,4.094204865396022797e-03,3.319076895713806152e-01,6.189915537834167480e-01,-4.440112709999084473e-01,-5.232593044638633728e-02,-5.675279498100280762e-01,2.318204008042812347e-02,-9.415993839502334595e-02,2.505199611186981201e-01
-4.161335229873657227e-01,-1.087426859885454178e-02,3.855132758617401123e-01,-5.955335497856140137e-01,4.514406621456146240e-01,5.737182125449180603e-02,3.284058272838592529e-01,7.005404829978942871e-01,-4.153540730476379395e-01,5.241248756647109985e-02,-4.996066987514495850e-01,2.596205100417137146e-02,3.112185299396514893e-01,2.018953114748001099e-01
-3.402479887008666992e-01,-1.318114250898361206e-01,3.409009277820587158e-01,-6.945728659629821777e-01,3.302772343158721924e-01,-1.177924796938896179e-01,2.459545880556106567e-01,9.469771981239318848e-01,-4.973384439945220947e-01,-8.381015062332153320e-02,-5.954108834266662598e-01,-1.854875534772872925e-01,1.005908995866775513e-01,9.060280770063400269e-02
-2.448912560939788818e-01,-6.569273024797439575e-02,9.086955338716506958e-02,-6.618554592132568359e-01,1.008035019040107727e-01,1.218235269188880920e-01,3.773005306720733643e-01,9.487730860710144043e-01,-4.909713864326477051e-01,-1.938332058489322662e-02,-6.370620131492614746e-01,-1.471347808837890625e-01,2.251054197549819946e-01,4.617144167423248291e-02
-3.700236678123474121e-01,-3.320378959178924561e-01,2.612693905830383301e-01,-7.372893691062927246e-01,1.972785294055938721e-01,2.042335271835327148e-01,3.942705392837524414e-01,7.233664989471435547e-01,-6.563271880149841309e-01,-1.597100645303726196e-01,-7.046006321907043457e-01,-1.930584013462066650e-01,1.814533174037933350e-01,5.564450100064277649e-02
-3.409457206726074219e-01,-2.075066119432449341e-01,2.178621292114257812e-01,-8.114476799964904785e-01,3.049603402614593506e-01,7.193012535572052002e-02,5.660105943679809570e-01,8.988778591156005859e-01,-5.101268887519836426e-01,-3.523586094379425049e-01,-6.993836164474487305e-01,-3.354384899139404297e-01,9.505122900009155273e-02,1.952745616436004639e-01
-1.796484589576721191e-01,-4.823464155197143555e-02,3.497593700885772705e-01,-4.791209697723388672e-01,1.361885070800781250e-01,1.950231641530990601e-01,3.071015477180480957e-01,1.082588315010070801e+00,-5.701555013656616211e-01,-3.437870740890502930e-01,-6.073479056358337402e-01,-2.279906123876571655e-01,3.359456360340118408e-01,-2.053805440664291382e-01
-8.035382255911827087e-03,-2.658188045024871826e-01,1.266325414180755615e-01,-7.501816749572753906e-01,9.619286656379699707e-02,2.868923246860504150e-01,2.367659062147140503e-01,9.373152852058410645e-01,-4.730461239814758301e-01,-2.978625893592834473e-01,-6.083909869194030762e-01,-3.783044517040252686e-01,2.810167074203491211e-01,-1.614947021007537842e-01
-2.402131557464599609e-01,-3.037830293178558350e-01,2.550613880157470703e-01,-5.516656637191772461e-01,1.444271653890609741e-01,3.715033233165740967e-01,2.511446177959442139e-01,9.443105459213256836e-01,-5.400916934013366699e-01,-4.641753733158111572e-01,-6.671532988548278809e-01,-2.859556376934051514e-01,2.210082113742828369e-01,-3.458001911640167236e-01
1.380751375108957291e-03,-3.450134098529815674e-01,3.542610704898834229e-01,-7.225349545478820801e-01,2.298039346933364868e-01,2.576288878917694092e-01,3.094093501567840576e-01,1.081872344017028809e+00,-4.709063172340393066e-01,-4.985363185405731201e-01,-5.669548511505126953e-01,-3.110026419162750244e-01,3.079091906547546387e-01,-2.891210913658142090e-01
1.600982695817947388e-01,-4.191362857818603516e-01,3.560220003128051758e-01,-8.172380328178405762e-01,1.557953953742980957e-01,5.097053050994873047e-01,1.358965784311294556e-01,1.061179280281066895e+00,-4.341560304164886475e-01,-5.061539411544799805e-01,-6.668090224266052246e-01,-3.323577940464019775e-01,2.182054221630096436e-01,-4.139755368232727051e-01
1.652440577745437622e-01,-3.808821439743041992e-01,2.763243913650512695e-01,-6.536118388175964355e-01,2.808516919612884521e-01,2.242495268583297729e-01,1.552751846611499786e-02,1.034288644790649414e+00,-4.070575833320617676e-01,-3.418274819850921631e-01,-7.384963631629943848e-01,-3.589812517166137695e-01,-9.338009840575978160e-05,-4.150278270244598389e-01
2.113963067531585693e-01,-3.677133321762084961e-01,4.183451533317565918e-01,-7.412290573120117188e-01,1.503486931324005127e-01,5.888699293136596680e-01,-1.136880218982696533e-01,8.817659020423889160e-01,-5.140630006790161133e-01,-4.303967356681823730e-01,-7.734202742576599121e-01,-2.794494032859802246e-01,2.778541855514049530e-02,-4.388969540596008301e-01
3.069523870944976807e-01,-5.110788941383361816e-01,2.307568043470382690e-01,-7.185940146446228027e-01,1.553965806961059570e-01,5.376890897750854492e-01,-1.866473555564880371e-01,9.313953518867492676e-01,-1.612766683101654053e-01,-2.711470127105712891e-01,-7.978919148445129395e-01,-5.412259697914123535e-01,1.661621928215026855e-01,-5.476248264312744141e-01
5.063346028327941895e-01,-7.585841417312622070e-01,3.738698959350585938e-01,-6.783916950225830078e-01,1.085275113582611084e-01,4.443452656269073486e-01,-9.168672561645507812e-02,9.630752801895141602e-01,-3.359668254852294922e-01,-4.714364707469940186e-01,-6.939345002174377441e-01,-5.628516674041748047e-01,9.729681164026260376e-02,-7.122378349304199219e-01
4.749905467033386230e-01,-4.923812150955200195e-01,3.794126510620117188e-01,-7.694670557975769043e-01,-8.522544056177139282e-03,6.153340935707092285e-01,-2.621982097625732422e-01,7.501410841941833496e-01,-2.519206404685974121e-01,-6.182670593261718750e-01,-8.177434802055358887e-01,-4.472958743572235107e-01,7.299283146858215332e-02,-4.157219827175140381e-01
3.044113814830780029e-01,-3.514806628227233887e-01,1.332591325044631958e-01,-8.471242189407348633e-01,1.758848577737808228e-01,4.456725418567657471e-01,-9.300349652767181396e-02,6.511466503143310547e-01,-2.596954703330993652e-01,-3.760702311992645264e-01,-7.550814747810363770e-01,-5.511279702186584473e-01,-5.473407451063394547e-03,-4.867306947708129883e-01
5.079503059387207031e-01,-6.231161952018737793e-01,3.723699450492858887e-01,-6.891145110130310059e-01,1.775580942630767822e-01,5.831303000450134277e-01,-3.420993387699127197e-01,7.474513649940490723e-01,-3.252628147602081299e-01,-1.896089315414428711e-01,-8.569308519363403320e-01,-4.496837556362152100e-01,-1.413990855216979980e-01,-5.833293199539184570e-01
5.735763311386108398e-01,-7.465506792068481445e-01,4.128784313797950745e-02,-5.892521739006042480e-01,2.477975934743881226e-01,6.164294481277465820e-01,-3.552004396915435791e-01,7.601421475410461426e-01,-8.519279211759567261e-02,-3.439649939537048340e-01,-7.908567786216735840e-01,-5.290345549583435059e-01,-2.274405360221862793e-01,-6.464661955833435059e-01
7.064974904060363770e-01,-5.374060869216918945e-01,2.006742805242538452e-01,-7.801736593246459961e-01,2.141510695219039917e-01,6.366951465606689453e-01,-5.100651979446411133e-01,6.977782845497131348e-01,-8.787839859724044800e-02,-4.797800779342651367e-01,-7.776814699172973633e-01,-4.142760634422302246e-01,-2.335481345653533936e-01,-5.228270292282104492e-01
6.417049765586853027e-01,-4.270375370979309082e-01,6.810717284679412842e-02,-6.812556385993957520e-01,2.058669030666351318e-01,5.486621260643005371e-01,-5.852026939392089844e-01,3.800179362297058105e-01,1.874773018062114716e-02,-5.022281408309936523e-01,-5.303785800933837891e-01,-6.328982114791870117e-01,-1.309019923210144043e-01,-4.583173394203186035e-01
6.551108956336975098e-01,-5.345147252082824707e-01,1.641459316015243530e-01,-5.540710091590881348e-01,2.802479267120361328e-01,6.008601784706115723e-01,-4.730990827083587646e-01,3.223840892314910889e-01,-9.805954247713088989e-02,-2.189387530088424683e-01,-8.892921209335327148e-01,-7.851176261901855469e-01,-3.409242331981658936e-01,-3.709347248077392578e-01
6.694366335868835449e-01,-3.904824852943420410e-01,4.186856001615524292e-02,-7.215235829353332520e-01,1.207998245954513550e-01,6.783239841461181641e-01,-4.750384688377380371e-01,1.805807352066040039e-01,-3.377198800444602966e-02,-4.194214642047882080e-01,-6.675971746444702148e-01,-6.100298762321472168e-01,-2.017157375812530518e-01,-3.077841103076934814e-01
6.937227845191955566e-01,-4.488485455513000488e-01,1.338039636611938477e-01,-7.100872397422790527e-01,2.040428519248962402e-01,6.045181155204772949e-01,-7.378831505775451660e-01,2.303645461797714233e-01,4.866331443190574646e-02,-1.845978647470474243e-01,-8.141784667968750000e-01,-6.510651111602783203e-01,-4.489662349224090576e-01,-2.299630194902420044e-01
6.596618294715881348e-01,-4.134529232978820801e-01,1.567640341818332672e-02,-7.155907750129699707e-01,2.164419591426849365e-01,7.113291621208190918e-01,-7.545778155326843262e-01,4.731716588139533997e-02,3.998127207159996033e-02,-2.726801037788391113e-01,-5.909574627876281738e-01,-5.816200375556945801e-01,-2.582158744335174561e-01,-4.476114809513092041e-01
6.231008768081665039e-01,-4.839929044246673584e-01,-1.347298026084899902e-01,-7.859968543052673340e-01,-4.714642185717821121e-03,6.244951486587524414e-01,-7.877885699272155762e-01,3.899749740958213806e-02,1.073805242776870728e-02,-4.126902520656585693e-01,-7.846474051475524902e-01,-5.504026412963867188e-01,-4.517760574817657471e-01,-2.424071580171585083e-01
6.451528072357177734e-01,-3.458091914653778076e-01,-7.356498390436172485e-02,-8.060489296913146973e-01,-2.968670427799224854e-02,7.819517850875854492e-01,-6.925715208053588867e-01,9.914293140172958374e-02,6.202241033315658569e-02,-2.142891287803649902e-01,-6.006771326065063477e-01,-6.416149735450744629e-01,-4.471891820430755615e-01,-5.318965017795562744e-02
6.863172054290771484e-01,-3.159030973911285400e-01,-2.462028712034225464e-01,-7.852207422256469727e-01,-1.058721542358398438e-01,8.285556435585021973e-01,-7.589435577392578125e-01,5.645326804369688034e-03,1.667058318853378296e-01,-4.158494770526885986e-01,-6.719964742660522461e-01,-6.504528522491455078e-01,-4.563126266002655029e-01,-1.893953233957290649e-01
7.165480256080627441e-01,-2.569545209407806396e-01,-3.821144700050354004e-01,-6.184318065643310547e-01,-2.037817388772964478e-01,6.275631785392761230e-01,-8.353499770164489746e-01,-2.765137553215026855e-01,5.258463695645332336e-02,-4.577294290065765381e-01,-8.170787096023559570e-01,-5.159904360771179199e-01,-3.735401034355163574e-01,7.504260540008544922e-02
9.310329556465148926e-01,-2.152295857667922974e-01,-3.519029319286346436e-01,-5.370738506317138672e-01,8.030632883310317993e-02,7.298640012741088867e-01,-9.279814958572387695e-01,1.379279274260625243e-04,1.036774739623069763e-01,-3.865278065204620361e-01,-6.528729200363159180e-01,-6.829311251640319824e-01,-4.091481566429138184e-01,1.781957000494003296e-01
5.325322747230529785e-01,-1.106690317392349243e-01,-3.466982245445251465e-01,-4.785156250000000000e-01,1.827246546745300293e-01,5.938380360603332520e-01,-7.069643139839172363e-01,-3.257219791412353516e-01,-5.214951559901237488e-02,-2.077319920063018799e-01,-6.078732609748840332e-01,-3.733703792095184326e-01,-4.222240447998046875e-01,1.540071815252304077e-01
7.377496361732482910e-01,-2.125661820173263550e-01,-6.717345714569091797e-01,-5.321359038352966309e-01,-1.410681903362274170e-01,4.968427419662475586e-01,-7.801081538200378418e-01,-3.709275126457214355e-01,-5.078861117362976074e-02,-1.542989611625671387e-01,-5.839101076126098633e-01,-3.540748357772827148e-01,-4.470929801464080811e-01,1.327743232250213623e-01
8.454606533050537109e-01,4.047878086566925049e-02,-2.456032037734985352e-01,-3.104718029499053955e-01,-2.155211269855499268e-01,5.231710076332092285e-01,-1.079357862472534180e+00,-4.529493749141693115e-01,-4.994205012917518616e-02,-2.909432053565979004e-01,-6.447992324829101562e-01,-1.566758304834365845e-01,-5.015625953674316406e-01,4.839739203453063965e-02
6.438613533973693848e-01,-9.548611938953399658e-02,-4.144977629184722900e-01,-3.065729439258575439e-01,-2.282975055277347565e-02,5.510714054107666016e-01,-7.878513932228088379e-01,-4.443723857402801514e-01,-1.321839541196823120e-01,-4.222428202629089355e-01,-3.340019881725311279e-01,-3.710376322269439697e-01,-3.446345627307891846e-01,1.437789350748062134e-01
8.162028193473815918e-01,-9.602547623217105865e-03,-3.273620307445526123e-01,-2.418882846832275391e-01,-1.446790248155593872e-01,3.436483740806579590e-01,-8.882330060005187988e-01,-5.105696320533752441e-01,-7.032429426908493042e-02,-3.769800066947937012e-01,-3.641386926174163818e-01,-1.039585098624229431e-01,-4.603871107101440430e-01,7.494004676118493080e-04
7.393330931663513184e-01,6.180143356323242188e-02,-4.248847067356109619e-01,-4.911483228206634521e-01,-2.828488051891326904e-01,5.690597295761108398e-01,-8.983647823333740234e-01,-5.428086519241333008e-01,5.994521826505661011e-02,-3.165663480758666992e-01,-4.825229048728942871e-01,1.161429360508918762e-01,-4.315468072891235352e-01,7.566326111555099487e-02
7.519744038581848145e-01,-5.986959487199783325e-02,-6.101845502853393555e-01,-1.463716328144073486e-01,-2.930628061294555664e-01,5.044174790382385254e-01,-7.347533106803894043e-01,-7.274941802024841309e-01,8.271093666553497314e-02,-3.307705521583557129e-01,-5.977202057838439941e-01,8.258733898401260376e-02,-4.941051006317138672e-01,1.010855957865715027e-01
7.559004426002502441e-01,-1.677886545658111572e-01,-4.606089890003204346e-01,-1.258430480957031250e-01,-1.170653253793716431e-01,5.907058715820312500e-01,-7.454132437705993652e-01,-4.835469126701354980e-01,5.688029155135154724e-02,-1.695229411125183105e-01,-5.085216164588928223e-01,1.617143005132675171e-01,-5.859780311584472656e-01,1.978143006563186646e-01
8.417490720748901367e-01,-2.009802684187889099e-02,-4.895673096179962158e-01,1.758889257907867432e-01,-1.509440690279006958e-01,5.515965819358825684e-01,-7.386240363121032715e-01,-4.783812463283538818e-01,-3.402936086058616638e-02,3.254251205362379551e-04,-3.713985085487365723e-01,1.375387310981750488e-01,-3.375133872032165527e-01,1.736738234758377075e-01
8.540632724761962891e-01,-1.405270993709564209e-01,-5.506793856620788574e-01,2.036780118942260742e-01,-6.444858759641647339e-02,5.074165463447570801e-01,-8.043259978294372559e-01,-2.719055712223052979e-01,-1.169121637940406799e-01,-1.131932809948921204e-01,-2.852858901023864746e-01,-3.148563578724861145e-02,-4.894953966140747070e-01,2.625341713428497314e-01
9.515542387962341309e-01,5.495204031467437744e-02,-5.200401544570922852e-01,1.605714410543441772e-01,-9.112674742937088013e-02,4.676731228828430176e-01,-5.815560817718505859e-01,-4.328738451004028320e-01,2.211771309375762939e-01,-3.054670393466949463e-01,-2.866656780242919922e-01,1.740773916244506836e-01,-7.027579545974731445e-01,3.498367369174957275e-01
7.336874604225158691e-01,-1.520906686782836914e-01,-4.705579280853271484e-01,3.634512722492218018e-01,-2.657690942287445068e-01,6.648302078247070312e-01,-7.787408828735351562e-01,-5.079619288444519043e-01,-5.334338545799255371e-02,-2.609383463859558105e-01,-1.863339394330978394e-01,2.136930972337722778e-01,-4.790547788143157959e-01,2.185794860124588013e-01
9.572494029998779297e-01,9.111984819173812866e-02,-7.032418847084045410e-01,2.471427321434020996e-01,-2.003294378519058228e-01,7.382273077964782715e-01,-5.544884204864501953e-01,-5.485019683837890625e-01,1.703881323337554932e-01,-2.374627590179443359e-01,-2.608250677585601807e-01,7.454233616590499878e-02,-6.251396536827087402e-01,3.330489099025726318e-01
9.416314959526062012e-01,-7.775630801916122437e-02,-3.982505202293395996e-01,3.329072296619415283e-01,-1.864665150642395020e-01,4.932457804679870605e-01,-6.052529215812683105e-01,-4.035744965076446533e-01,7.123483717441558838e-02,-1.399620324373245239e-01,-2.126653045415878296e-01,1.750561296939849854e-01,-8.576540350914001465e-01,3.054843544960021973e-01
8.694043159484863281e-01,-8.950040489435195923e-02,-3.419799208641052246e-01,4.058729410171508789e-01,-4.835041612386703491e-02,6.323859095573425293e-01,-6.058639287948608398e-01,-3.122484087944030762e-01,-5.643181130290031433e-02,-6.677947938442230225e-03,6.325431168079376221e-02,-9.937187284231185913e-02,-6.867839694023132324e-01,3.942794799804687500e-01
1.040903210639953613e+00,-3.099365532398223877e-01,-3.124483525753021240e-01,5.631583929061889648e-01,-4.849769547581672668e-02,4.516112506389617920e-01,-6.508453488349914551e-01,-3.706008195877075195e-01,-9.439612925052642822e-02,-1.875621974468231201e-01,2.705011665821075439e-01,1.598362624645233154e-01,-7.557356953620910645e-01,4.704272747039794922e-01
9.041255712509155273e-01,-1.122094541788101196e-01,-3.437703847885131836e-01,6.749770045280456543e-01,-4.172981530427932739e-02,4.492055475711822510e-01,-5.771219134330749512e-01,-2.794666588306427002e-01,1.940456926822662354e-01,4.498903825879096985e-02,-5.057339090853929520e-03,1.532207429409027100e-01,-7.988601922988891602e-01,5.180806517601013184e-01
6.955609917640686035e-01,-1.483853757381439209e-01,-6.663308292627334595e-02,4.970030188560485840e-01,1.959635317325592041e-02,4.455133676528930664e-01,-7.319933772087097168e-01,-6.518458575010299683e-02,-6.880394183099269867e-03,1.429039090871810913e-01,1.559240072965621948e-01,3.430828154087066650e-01,-7.279738187789916992e-01,5.142293572425842285e-01
5.888643264770507812e-01,-2.835123538970947266e-01,-1.555787473917007446e-01,7.040626406669616699e-01,1.722345203161239624e-01,5.187427401542663574e-01,-4.729655086994171143e-01,-2.681896090507507324e-01,-8.514086157083511353e-02,-5.170042812824249268e-02,1.906871497631072998e-01,1.517898589372634888e-01,-8.058683872222900391e-01,5.067552328109741211e-01
5.994075536727905273e-01,-1.585047841072082520e-01,-1.905304938554763794e-01,5.891756415367126465e-01,1.481960415840148926e-01,2.990070581436157227e-01,-6.378337740898132324e-01,-3.997383713722229004e-01,-1.959325454663485289e-04,5.155233200639486313e-03,2.334334701299667358e-01,1.983727365732192993e-01,-1.048557996749877930e+00,3.385860621929168701e-01
5.693281292915344238e-01,-2.218570113182067871e-01,-2.155798524618148804e-01,6.175640225410461426e-01,1.665182560682296753e-01,5.085247159004211426e-01,-6.646109819412231445e-01,-1.117340251803398132e-01,8.471072651445865631e-03,7.341125607490539551e-02,1.379615962505340576e-01,2.335363626480102539e-01,-9.883032441139221191e-01,3.853445649147033691e-01
4.030520319938659668e-01,-2.204579710960388184e-01,-1.745084375143051147e-01,5.941594243049621582e-01,1.783664524555206299e-01,3.864121139049530029e-01,-6.084139943122863770e-01,-1.621178537607192993e-01,2.587912976741790771e-02,1.879454702138900757e-01,6.240933015942573547e-02,2.019065022468566895e-01,-9.422208666801452637e-01,4.223389625549316406e-01
5.929716229438781738e-01,-2.152245938777923584e-01,4.990503564476966858e-02,5.843421220779418945e-01,2.973546087741851807e-01,2.916377186775207520e-01,-6.124846935272216797e-01,-3.644994795322418213e-01,-1.007360173389315605e-03,2.213118970394134521e-01,2.127557992935180664e-01,3.545432090759277344e-01,-6.594501733779907227e-01,5.513332486152648926e-01
3.687962591648101807e-01,-2.864378392696380615e-01,1.222167536616325378e-01,6.480852961540222168e-01,5.758128166198730469e-01,1.247288808226585388e-01,-4.291586279869079590e-01,-1.551277786493301392e-01,-1.285692155361175537e-01,4.216793477535247803e-01,-7.720553129911422729e-02,1.059708520770072937e-01,-7.948536276817321777e-01,3.976013064384460449e-01
4.786145687103271484e-01,-2.383545935153961182e-01,9.311626106500625610e-02,6.742357015609741211e-01,4.838859736919403076e-01,1.635882705450057983e-01,-6.964204311370849609e-01,-3.045196831226348877e-01,-7.767058908939361572e-02,2.526180744171142578e-01,1.226971521973609924e-01,4.412953853607177734e-01,-8.052689433097839355e-01,5.732349753379821777e-01
5.021356344223022461e-01,-2.970368862152099609e-01,9.515638649463653564e-02,5.030959844589233398e-01,8.117132186889648438e-01,-2.845369577407836914e-01,-4.910907149314880371e-01,-1.681035161018371582e-01,7.155518233776092529e-02,4.238938391208648682e-01,-3.137216717004776001e-02,3.474431633949279785e-01,-8.456178903579711914e-01,5.811077952384948730e-01
4.986652135848999023e-01,-2.673157751560211182e-01,7.603654265403747559e-02,5.586648583412170410e-01,7.683681845664978027e-01,-2.016091346740722656e-02,-2.773524224758148193e-01,-2.775695919990539551e-02,-2.277368754148483276e-01,5.735145807266235352e-01,3.776255249977111816e-02,4.972875118255615234e-01,-9.422429800033569336e-01,3.792042434215545654e-01
2.808350920677185059e-01,-3.934557139873504639e-01,1.575453877449035645e-01,7.247848510742187500e-01,6.919190883636474609e-01,-1.160330623388290405e-01,-3.730299174785614014e-01,-2.393937557935714722e-01,-9.795899689197540283e-02,6.824075579643249512e-01,9.496749192476272583e-02,1.075757890939712524e-01,-9.845508337020874023e-01,4.851903021335601807e-01
1.783122420310974121e-01,-4.717241823673248291e-01,1.902194321155548096e-02,5.498733520507812500e-01,7.714867591857910156e-01,-3.835224509239196777e-01,-2.988675534725189209e-01,-1.120545789599418640e-01,-2.739058136940002441e-01,8.599718809127807617e-01,-1.220815703272819519e-01,1.500466316938400269e-01,-7.227472066879272461e-01,7.222459912300109863e-01
3.244149982929229736e-01,-4.583134055137634277e-01,7.434069365262985229e-02,5.293179750442504883e-01,6.704608201980590820e-01,-2.113432884216308594e-01,-2.536822259426116943e-01,-3.362938463687896729e-01,-2.347506135702133179e-01,5.460726022720336914e-01,-1.200422272086143494e-01,3.719024658203125000e-01,-6.317886114120483398e-01,7.134218215942382812e-01
2.796989679336547852e-01,-2.619762718677520752e-01,5.831252783536911011e-02,5.806287527084350586e-01,8.742906451225280762e-01,-2.437469959259033203e-01,-2.460741996765136719e-01,-3.522146046161651611e-01,-1.077972799539566040e-01,6.336078047752380371e-01,-1.523853242397308350e-01,4.553939700126647949e-01,-6.976224184036254883e-01,5.851131677627563477e-01
1.340674459934234619e-01,-3.254395425319671631e-01,7.457032799720764160e-02,3.727577626705169678e-01,1.137960195541381836e+00,-5.328622460365295410e-01,-5.648306757211685181e-02,2.097788266837596893e-02,-4.548434317111968994e-01,4.856634736061096191e-01,9.284847974777221680e-02,3.497878313064575195e-01,-7.722280025482177734e-01,5.921501517295837402e-01
-6.674430519342422485e-02,-3.102097213268280029e-01,-9.992704540491104126e-02,3.755287230014801025e-01,1.119391918182373047e+00,-5.049098134040832520e-01,-5.979940667748451233e-02,-1.245097219944000244e-01,-7.558847963809967041e-02,6.052644252777099609e-01,-1.705262660980224609e-01,4.616344869136810303e-01,-7.118408679962158203e-01,4.732060432434082031e-01
-1.909379363059997559e-01,-3.096819221973419189e-01,-1.543386429548263550e-01,4.153371155261993408e-01,1.118827104568481445e+00,-2.131489068269729614e-01,4.100147634744644165e-02,-6.101898476481437683e-02,-4.521022140979766846e-01,5.348945856094360352e-01,-1.965046972036361694e-01,4.976509809494018555e-01,-5.394792556762695312e-01,8.830981850624084473e-01
-5.615466274321079254e-03,-4.875157177448272705e-01,-8.377328515052795410e-02,4.127517640590667725e-01,1.011148452758789062e+00,-4.668039083480834961e-01,1.458815634250640869e-01,2.510981261730194092e-02,-5.642086267471313477e-01,6.481117010116577148e-01,-2.084178328514099121e-01,4.614765644073486328e-01,-5.489561557769775391e-01,7.509860396385192871e-01
-1.756002455949783325e-01,-4.118116796016693115e-01,-1.005190461874008179e-01,9.866219013929367065e-03,9.167666435241699219e-01,-3.749965429306030273e-01,1.949329376220703125e-01,-1.056482046842575073e-01,-4.041341841220855713e-01,6.601599454879760742e-01,-8.486326783895492554e-02,4.002832174301147461e-01,-4.733943045139312744e-01,9.376373887062072754e-01
-8.980169892311096191e-02,-4.332969486713409424e-01,-1.508644968271255493e-01,1.342536211013793945e-01,9.228167533874511719e-01,-3.805217444896697998e-01,2.154930830001831055e-01,6.807699799537658691e-02,-4.928322136402130127e-01,7.082952857017517090e-01,-3.043168187141418457e-01,3.946997225284576416e-01,-4.254628717899322510e-01,7.226226925849914551e-01
-3.149577677249908447e-01,-3.750276565551757812e-01,-4.469944536685943604e-01,7.508891075849533081e-02,9.422615170478820801e-01,-4.709156155586242676e-01,3.460128009319305420e-01,9.119927138090133667e-02,-5.550377368927001953e-01,6.065384745597839355e-01,-1.814992725849151611e-01,3.189888298511505127e-01,-3.476826250553131104e-01,7.518907189369201660e-01
-1.610797345638275146e-01,-4.723352789878845215e-01,-1.638059765100479126e-01,1.360586583614349365e-01,8.592455983161926270e-01,-4.220849871635437012e-01,4.032250642776489258e-01,-6.867972016334533691e-02,-4.697403013706207275e-01,6.559481024742126465e-01,-3.566273152828216553e-01,3.700661361217498779e-01,-2.014227062463760376e-01,7.836940884590148926e-01
-1.426214724779129028e-01,-4.405487775802612305e-01,4.173606261610984802e-02,3.674690425395965576e-02,7.554968595504760742e-01,-7.446190714836120605e-01,4.224438071250915527e-01,2.468427121639251709e-01,-6.625005602836608887e-01,5.909076333045959473e-01,-3.823722302913665771e-01,2.673985362052917480e-01,-2.567932307720184326e-01,8.188822269439697266e-01
-3.065487444400787354e-01,-4.544625580310821533e-01,-1.387002170085906982e-01,1.830420643091201782e-01,8.017382025718688965e-01,-5.612824559211730957e-01,4.879696965217590332e-01,2.582122385501861572e-01,-5.422382950782775879e-01,4.448541402816772461e-01,-2.792449891567230225e-01,2.835846245288848877e-01,5.081440880894660950e-02,6.560726761817932129e-01
-2.383017539978027344e-01,-4.267715513706207275e-01,-4.399174749851226807e-01,1.279492080211639404e-01,6.510728597640991211e-01,-8.457182049751281738e-01,5.535401701927185059e-01,2.818269468843936920e-02,-5.370560288429260254e-01,3.462440371513366699e-01,-2.085880488157272339e-01,4.024255871772766113e-01,-1.166771501302719116e-01,5.493252277374267578e-01
-3.608636558055877686e-01,-4.397522509098052979e-01,-2.980890870094299316e-01,1.990434527397155762e-01,8.263098597526550293e-01,-7.052710056304931641e-01,3.302546739578247070e-01,2.027959078550338745e-01,-7.672230601310729980e-01,5.375649333000183105e-01,-3.777698576450347900e-01,2.888672351837158203e-01,2.494549751281738281e-01,4.891962409019470215e-01
-3.241994678974151611e-01,-5.282798409461975098e-01,-2.908209264278411865e-01,2.086116969585418701e-01,6.594884991645812988e-01,-5.709007978439331055e-01,7.570911645889282227e-01,1.834615916013717651e-01,-5.260764956474304199e-01,6.053406596183776855e-01,-3.825704455375671387e-01,2.393426746129989624e-01,1.531098186969757080e-01,3.157097697257995605e-01
-1.369791030883789062e-01,-5.639392733573913574e-01,-3.184932470321655273e-01,1.862827688455581665e-01,7.934590578079223633e-01,-5.603158473968505859e-01,5.247006416320800781e-01,3.703678548336029053e-01,-5.380283594131469727e-01,6.524232029914855957e-01,-2.779100239276885986e-01,3.284421265125274658e-01,2.459642291069030762e-01,3.150968849658966064e-01
-1.754080802202224731e-01,-5.975918769836425781e-01,-4.273785650730133057e-01,8.967346698045730591e-02,6.163314580917358398e-01,-4.584337174892425537e-01,5.092653036117553711e-01,1.082397401332855225e-01,-4.346902072429656982e-01,4.469818174839019775e-01,-3.336584866046905518e-01,2.834106385707855225e-01,3.542334437370300293e-01,2.929918766021728516e-01
-4.706876352429389954e-02,-5.027862191200256348e-01,-4.121146500110626221e-01,1.363157927989959717e-01,6.962321400642395020e-01,-4.246169626712799072e-01,5.709398984909057617e-01,6.296659708023071289e-01,-5.526436567306518555e-01,4.499856233596801758e-01,-2.488849312067031860e-01,1.767141222953796387e-01,2.990001738071441650e-01,3.645335733890533447e-01
-4.046772606670856476e-03,-8.889766335487365723e-01,-2.509045600891113281e-01,7.831243425607681274e-02,7.283287048339843750e-01,-3.606550693511962891e-01,4.219687283039093018e-01,2.718386948108673096e-01,-5.898697972297668457e-01,2.976283133029937744e-01,-4.571838676929473877e-01,1.270696520805358887e-01,2.728695869445800781e-01,1.276554465293884277e-01
9.368236362934112549e-02,-8.603589534759521484e-01,-2.927748560905456543e-01,-1.923057809472084045e-02,6.706933379173278809e-01,-3.003550469875335693e-01,6.021912097930908203e-01,3.828322291374206543e-01,-3.259977996349334717e-01,2.259512692689895630e-01,-3.706340789794921875e-01,1.187363788485527039e-01,3.850766122341156006e-01,2.285754829645156860e-01
1.264591068029403687e-01,-7.398329973220825195e-01,-4.028790891170501709e-01,1.987178027629852295e-01,7.346299290657043457e-01,-2.219602763652801514e-01,5.013567805290222168e-01,4.670290052890777588e-01,-3.855850398540496826e-01,1.490804105997085571e-01,-2.404699176549911499e-01,1.018355488777160645e-01,5.783699154853820801e-01,7.407535612583160400e-02
2.052851915359497070e-01,-8.180375099182128906e-01,-3.212589919567108154e-01,7.376024127006530762e-02,6.955307126045227051e-01,-2.839618921279907227e-01,5.814247727394104004e-01,3.269421756267547607e-01,-1.437132507562637329e-01,6.887178122997283936e-02,-1.539159864187240601e-01,-5.281919986009597778e-02,4.335715770721435547e-01,1.752753704786300659e-01
1.693860590457916260e-01,-8.484312891960144043e-01,-5.052734613418579102e-01,-9.645652025938034058e-02,5.848522186279296875e-01,-1.908091157674789429e-01,5.729990601539611816e-01,3.513080179691314697e-01,-1.896524876356124878e-01,8.241819590330123901e-02,-1.759351640939712524e-01,-2.734878659248352051e-01,2.711926698684692383e-01,9.584927558898925781e-02
2.041766345500946045e-01,-8.277997374534606934e-01,-4.956521689891815186e-01,7.261813431978225708e-02,5.404317378997802734e-01,-5.205490812659263611e-02,4.741150438785552979e-01,3.255077004432678223e-01,-1.992236375808715820e-01,-8.561084419488906860e-02,-1.198518723249435425e-01,-2.587658464908599854e-01,3.015781342983245850e-01,7.438045740127563477e-02
1.934513449668884277e-01,-8.819411396980285645e-01,-5.171356797218322754e-01,-4.366903379559516907e-02,5.021679997444152832e-01,1.734908297657966614e-02,3.185040056705474854e-01,2.954971492290496826e-01,-2.244389802217483521e-01,-9.936352074146270752e-02,-3.502014279365539551e-02,-3.579827845096588135e-01,2.778477370738983154e-01,1.037317067384719849e-01
3.129159212112426758e-01,-9.563866257667541504e-01,-6.521672010421752930e-01,-2.711327970027923584e-01,4.537486433982849121e-01,-2.520100399851799011e-02,4.830275475978851318e-01,4.132164418697357178e-01,-9.173441678285598755e-02,-2.477055490016937256e-01,-1.928278952836990356e-01,-4.988502562046051025e-01,2.112496942281723022e-01,8.751334249973297119e-02
4.013366997241973877e-01,-8.230010271072387695e-01,-5.359221696853637695e-01,-2.481545656919479370e-01,7.078567743301391602e-01,2.483656257390975952e-01,4.048292636871337891e-01,3.667745888233184814e-01,6.083798408508300781e-02,-1.206134706735610962e-01,1.402819063514471054e-02,-4.132016301155090332e-01,3.639034032821655273e-01,1.136613190174102783e-01
2.979287207126617432e-01,-8.580682873725891113e-01,-3.571020960807800293e-01,-2.261554151773452759e-01,3.979074060916900635e-01,2.620950043201446533e-01,3.676362335681915283e-01,3.146998882293701172e-01,-1.425804793834686279e-01,-2.942035794258117676e-01,7.320523262023925781e-02,-4.659830629825592041e-01,2.616867721080780029e-01,2.271017730236053467e-01
2.760255336761474609e-01,-8.690759539604187012e-01,-3.764916658401489258e-01,-1.779976785182952881e-01,5.328731536865234375e-01,1.442514210939407349e-01,2.460125535726547241e-01,2.960951328277587891e-01,1.429889933206140995e-03,-2.166728973388671875e-01,-5.844800919294357300e-02,-5.007064938545227051e-01,3.171193599700927734e-01,1.848244071006774902e-01
2.068022638559341431e-01,-7.107387185096740723e-01,-5.249930024147033691e-01,-1.589833348989486694e-01,4.034093618392944336e-01,2.408196032047271729e-01,1.609121114015579224e-01,3.642265796661376953e-01,-9.288225322961807251e-02,-1.834408491849899292e-01,-1.093067228794097900e-01,-7.105976343154907227e-01,1.508347783237695694e-02,8.081490546464920044e-02
2.551422119140625000e-01,-6.630675792694091797e-01,-5.661122202873229980e-01,-1.953806877136230469e-01,3.161211907863616943e-01,4.851160049438476562e-01,1.447207182645797729e-01,1.823206096887588501e-01,-1.522132661193609238e-02,-1.807114630937576294e-01,6.085234507918357849e-02,-6.218194961547851562e-01,3.362437784671783447e-01,2.441561548039317131e-03
1.945280581712722778e-01,-6.497600674629211426e-01,-3.764020800590515137e-01,-2.365459352731704712e-01,3.371907174587249756e-01,3.146391212940216064e-01,1.234133467078208923e-01,1.837189197540283203e-01,4.280147328972816467e-02,-1.615227907896041870e-01,1.347225457429885864e-01,-6.523087024688720703e-01,1.973563730716705322e-01,9.701071679592132568e-02
1.769674718379974365e-01,-4.389296472072601318e-01,-5.898972153663635254e-01,-3.187812268733978271e-01,3.107272684574127197e-01,3.458352982997894287e-01,1.260081082582473755e-01,2.368693947792053223e-01,8.782815933227539062e-02,-2.545601725578308105e-01,-3.419955074787139893e-02,-6.238606572151184082e-01,1.432148367166519165e-01,-1.169937252998352051e-01
2.249028533697128296e-01,-4.151841104030609131e-01,-6.330903768539428711e-01,-1.538880169391632080e-01,7.785329967737197876e-02,2.480650842189788818e-01,-6.550771743059158325e-02,1.044603213667869568e-01,1.583238542079925537e-01,-1.762888133525848389e-01,-1.494823694229125977e-01,-6.345635056495666504e-01,9.440970420837402344e-02,1.757041066884994507e-01
4.306261241436004639e-01,-3.839215934276580811e-01,-5.064857006072998047e-01,-2.594042718410491943e-01,2.143001705408096313e-01,2.773213386535644531e-01,6.056260317564010620e-02,-9.603258222341537476e-02,1.994267553091049194e-01,-2.643957734107971191e-01,-7.229589670896530151e-02,-6.332900524139404297e-01,1.175199672579765320e-01,6.447498220950365067e-03
2.509374916553497314e-01,-1.635753363370895386e-01,-7.996507287025451660e-01,-3.036056756973266602e-01,1.901468187570571899e-01,4.584601819515228271e-01,2.258221246302127838e-02,-6.526897102594375610e-02,2.728505134582519531e-01,-4.048729836940765381e-01,-1.618462353944778442e-01,-6.231046319007873535e-01,1.448967456817626953e-01,2.473612427711486816e-01
4.293348789215087891e-01,-3.713121712207794189e-01,-6.712998151779174805e-01,-2.596223652362823486e-01,1.218470931053161621e-01,3.183040022850036621e-01,-5.071849562227725983e-03,-8.933153003454208374e-02,2.995761334896087646e-01,-1.498639732599258423e-01,-8.055582642555236816e-03,-4.720028042793273926e-01,2.518841326236724854e-01,3.592593669891357422e-01
1.763251870870590210e-01,-3.400971889495849609e-01,-7.031211853027343750e-01,-3.417251706123352051e-01,-9.566326439380645752e-02,3.021445870399475098e-01,1.209634095430374146e-01,-1.000548973679542542e-01,2.621734142303466797e-01,-1.727013289928436279e-01,-7.894892990589141846e-02,-6.384196877479553223e-01,9.175883978605270386e-02,4.592251405119895935e-02
2.921021282672882080e-01,-1.449048072099685669e-01,-6.848807334899902344e-01,-2.892073690891265869e-01,4.088249057531356812e-02,3.161466717720031738e-01,-2.346104830503463745e-01,-3.339819014072418213e-01,1.095404550433158875e-01,-1.064277961850166321e-01,-1.530339568853378296e-01,-5.371952056884765625e-01,2.062099575996398926e-01,2.193372696638107300e-01
3.523771464824676514e-01,-1.935987919569015503e-01,-8.373242616653442383e-01,-4.703940153121948242e-01,1.877538859844207764e-01,5.807250738143920898e-01,1.465650349855422974e-01,-3.654072284698486328e-01,1.736475080251693726e-01,-2.214967310428619385e-01,-1.843876764178276062e-02,-3.785213828086853027e-01,1.087375432252883911e-01,1.543703228235244751e-01
3.566208779811859131e-01,-1.042412817478179932e-01,-8.365367054939270020e-01,-2.773647010326385498e-01,2.828573994338512421e-02,3.458722531795501709e-01,-9.875193983316421509e-02,-4.204976260662078857e-01,9.506570547819137573e-02,-3.963291347026824951e-01,-7.409919053316116333e-02,-5.343466401100158691e-01,2.339702397584915161e-01,1.266531050205230713e-01
1.670864075422286987e-01,-1.405201405286788940e-01,-8.490360975265502930e-01,-3.740911558270454407e-02,-1.905200034379959106e-01,2.791985571384429932e-01,8.813625201582908630e-03,-4.465529024600982666e-01,1.748169660568237305e-01,-2.673081159591674805e-01,-1.030657589435577393e-01,-4.959003329277038574e-01,-2.352076210081577301e-02,3.285264372825622559e-01
1.469233334064483643e-01,8.298832178115844727e-02,-9.177014231681823730e-01,-1.716159284114837646e-01,-5.904258787631988525e-02,3.208242952823638916e-01,8.061172440648078918e-03,-3.620136678218841553e-01,1.287833452224731445e-01,-1.954312771558761597e-01,1.473145335912704468e-01,-3.131224513053894043e-01,4.539328068494796753e-02,4.418306648731231689e-01
3.212958872318267822e-01,-5.990386009216308594e-02,-9.373438954353332520e-01,-1.470157057046890259e-01,-3.255534172058105469e-01,4.912662804126739502e-01,-1.120150387287139893e-01,-3.535723984241485596e-01,2.170982584357261658e-02,-2.645492255687713623e-01,1.485663801431655884e-01,-4.951308667659759521e-01,1.098565831780433655e-01,4.906800389289855957e-01
1.935305595397949219e-01,1.426100879907608032e-01,-8.526669740676879883e-01,-2.683394029736518860e-02,-2.560746371746063232e-01,2.984264791011810303e-01,9.052366018295288086e-02,-3.094528615474700928e-01,2.678088545799255371e-01,-3.550404310226440430e-01,1.217037215828895569e-01,-2.519414722919464111e-01,3.266953676939010620e-02,4.635626375675201416e-01
3.015905320644378662e-01,2.151746302843093872e-01,-8.839468955993652344e-01,-5.711419135332107544e-02,-3.229033350944519043e-01,5.141209959983825684e-01,1.364220678806304932e-01,-4.176223278045654297e-01,2.756032049655914307e-01,-5.330015420913696289e-01,3.465250134468078613e-01,-3.306611478328704834e-01,-5.926983803510665894e-02,3.090057075023651123e-01
3.720377981662750244e-01,2.358578443527221680e-01,-8.841853141784667969e-01,-1.343278139829635620e-01,-4.521928131580352783e-01,4.226485192775726318e-01,1.007127314805984497e-01,-5.371236801147460938e-01,6.977157667279243469e-03,-4.915633499622344971e-01,1.944122165441513062e-01,-2.022700905799865723e-01,-1.000992581248283386e-01,5.079190731048583984e-01
1.553967446088790894e-01,1.634248495101928711e-01,-1.081611156463623047e+00,-1.213722117245197296e-02,-3.708661198616027832e-01,3.319355547428131104e-01,-8.481367677450180054e-02,-3.136427402496337891e-01,1.093297526240348816e-01,-3.577714860439300537e-01,2.729692459106445312e-01,-3.244252800941467285e-01,-2.531186342239379883e-01,3.583115935325622559e-01
1.646144986152648926e-01,2.177791595458984375e-01,-8.430343270301818848e-01,-8.255122601985931396e-02,-4.517310261726379395e-01,4.383107721805572510e-01,-6.046571582555770874e-02,-3.463169038295745850e-01,-4.227233678102493286e-02,-5.812900662422180176e-01,3.977157771587371826e-01,-4.033324867486953735e-02,-8.984663337469100952e-02,3.681074082851409912e-01
1.407137233763933182e-02,3.685763180255889893e-01,-9.270687103271484375e-01,9.913049638271331787e-02,-6.469624638557434082e-01,5.525614023208618164e-01,-8.447933010756969452e-03,-3.370531499385833740e-01,-7.993840612471103668e-03,-4.475960731506347656e-01,4.872534871101379395e-01,-2.346840351819992065e-01,-1.666115820407867432e-01,4.055918455123901367e-01
3.010265529155731201e-01,5.384548902511596680e-01,-5.904055237770080566e-01,5.075383186340332031e-02,-6.294329762458801270e-01,6.974521279335021973e-01,1.843568086624145508e-01,-4.526102244853973389e-01,-8.234889060258865356e-02,-4.041195213794708252e-01,4.733992218971252441e-01,7.221053354442119598e-03,-1.400241851806640625e-01,5.964977741241455078e-01
4.424266219139099121e-01,5.459995269775390625e-01,-7.283237576484680176e-01,2.842788696289062500e-01,-7.046388387680053711e-01,6.520726680755615234e-01,6.172628700733184814e-02,-3.263118565082550049e-01,-1.194218248128890991e-01,-2.763366997241973877e-01,4.078246355056762695e-01,-1.342087686061859131e-01,-9.672790020704269409e-02,5.251553058624267578e-01
1.167820319533348083e-01,5.383908152580261230e-01,-6.782105565071105957e-01,1.992705166339874268e-01,-6.819050908088684082e-01,5.292321443557739258e-01,-1.525200307369232178e-01,-4.102111458778381348e-01,-6.232761591672897339e-02,-3.048880994319915771e-01,4.659293293952941895e-01,2.125735282897949219e-01,-2.799113094806671143e-01,4.764401614665985107e-01
3.804430365562438965e-01,4.645152986049652100e-01,-4.334174692630767822e-01,2.269661426544189453e-01,-5.523436665534973145e-01,6.493771076202392578e-01,2.508508563041687012e-01,-2.284423708915710449e-01,-2.836153209209442139e-01,-2.375562936067581177e-01,4.465893805027008057e-01,7.152353972196578979e-02,-2.517460286617279053e-01,3.278323709964752197e-01
4.051408171653747559e-01,5.902175307273864746e-01,-3.888433277606964111e-01,3.556611537933349609e-01,-5.994964241981506348e-01,5.065225958824157715e-01,1.935556530952453613e-01,-3.067664802074432373e-01,-1.705696135759353638e-01,-2.647877037525177002e-01,4.959247410297393799e-01,3.178668916225433350e-01,-1.495305895805358887e-01,3.437187075614929199e-01
3.646754622459411621e-01,3.702520728111267090e-01,-4.574384391307830811e-01,4.572477638721466064e-01,-4.653362631797790527e-01,3.828946948051452637e-01,-6.330139189958572388e-02,-3.036259412765502930e-01,2.717760801315307617e-01,-3.355838060379028320e-01,5.186513066291809082e-01,8.100676536560058594e-02,-3.575105965137481689e-01,2.145401686429977417e-01
2.375392168760299683e-01,2.967224121093750000e-01,-4.766932129859924316e-01,3.478585481643676758e-01,-6.876143813133239746e-01,5.170282721519470215e-01,9.145591408014297485e-03,-3.933106958866119385e-01,-2.910584807395935059e-01,-2.647325098514556885e-01,5.986025929450988770e-01,1.537689864635467529e-01,-2.844193875789642334e-01,4.597176909446716309e-01
2.806951403617858887e-01,4.921575486660003662e-01,-4.632714986801147461e-01,4.564642608165740967e-01,-4.564368724822998047e-01,3.482522368431091309e-01,2.878004871308803558e-02,-1.240892484784126282e-01,-1.786803603172302246e-01,-2.464246749877929688e-01,4.982867240905761719e-01,3.486475646495819092e-01,-4.737376570701599121e-01,5.191506743431091309e-01
3.605200946331024170e-01,4.378279447555541992e-01,-3.229413926601409912e-01,5.495142340660095215e-01,-3.508710861206054688e-01,5.607053041458129883e-01,1.191726475954055786e-01,-2.385008037090301514e-01,-1.134159415960311890e-01,-4.234375432133674622e-02,6.705852746963500977e-01,1.087138727307319641e-01,-3.375407159328460693e-01,3.369073569774627686e-01
3.496358096599578857e-01,5.677875876426696777e-01,-1.212001293897628784e-01,6.923795342445373535e-01,-3.714656233787536621e-01,5.435733199119567871e-01,9.753442555665969849e-02,-1.880082488059997559e-01,-1.613382101058959961e-01,-1.182642430067062378e-01,5.774516463279724121e-01,1.996739804744720459e-01,-3.817867636680603027e-01,3.426735699176788330e-01
2.550817728042602539e-01,4.565663635730743408e-01,-1.070086881518363953e-01,3.136328160762786865e-01,-4.652000665664672852e-01,3.546828031539916992e-01,2.076748386025428772e-02,-2.524015307426452637e-01,-2.224285006523132324e-01,-3.530373424291610718e-02,4.956647157669067383e-01,3.326576948165893555e-01,-3.796279430389404297e-01,2.484292685985565186e-01
2.992858886718750000e-01,5.824216604232788086e-01,-1.284278631210327148e-01,6.242986321449279785e-01,-3.826011419296264648e-01,4.344784319400787354e-01,2.308348566293716431e-01,-3.243438601493835449e-01,-5.541744083166122437e-02,5.965295806527137756e-02,6.162778735160827637e-01,1.913141459226608276e-01,-4.300694465637207031e-01,1.033349111676216125e-01
1.807140409946441650e-01,3.430835902690887451e-01,-1.952654123306274414e-02,5.095603466033935547e-01,-1.381399482488632202e-01,4.073528945446014404e-01,2.837654650211334229e-01,-1.917107254266738892e-01,-1.488887518644332886e-01,2.753706872463226318e-01,5.558799505233764648e-01,3.534590601921081543e-01,-5.721779465675354004e-01,1.869679838418960571e-01
1.604063957929611206e-01,4.323489069938659668e-01,2.432916164398193359e-01,4.735985994338989258e-01,-2.372292131185531616e-01,4.502942562103271484e-01,1.123554036021232605e-01,-1.546290963888168335e-01,-2.448482215404510498e-01,2.316915690898895264e-01,5.053194761276245117e-01,3.262171149253845215e-01,-8.122983574867248535e-01,2.345854789018630981e-01
9.885422885417938232e-02,3.500973582267761230e-01,2.334270477294921875e-01,4.217804670333862305e-01,-2.207651883363723755e-01,2.024075984954833984e-01,6.594861298799514771e-02,-6.784626096487045288e-02,-1.237497106194496155e-01,1.447883993387222290e-01,6.683411002159118652e-01,1.673619747161865234e-01,-6.624331474304199219e-01,2.542530298233032227e-01
1.706032007932662964e-01,5.111114978790283203e-01,3.449110090732574463e-01,4.141193330287933350e-01,-1.394889503717422485e-01,3.442480862140655518e-01,2.871086299419403076e-01,-1.141593754291534424e-01,-2.981742620468139648e-01,2.951224446296691895e-01,4.619449675083160400e-01,4.284415841102600098e-01,-6.323260068893432617e-01,2.428382188081741333e-01
-1.430185586214065552e-01,3.555855154991149902e-01,1.472232788801193237e-01,4.693340361118316650e-01,-9.728406369686126709e-02,1.029688417911529541e-01,-8.875737339258193970e-02,-1.350616365671157837e-01,-3.779706358909606934e-01,5.049498081207275391e-01,4.050957858562469482e-01,2.232260853052139282e-01,-6.700507998466491699e-01,3.187388777732849121e-01
2.684390638023614883e-03,4.688502848148345947e-01,3.416361510753631592e-01,3.088708221912384033e-01,7.733526825904846191e-02,2.554728388786315918e-01,4.406892508268356323e-02,-2.021705061197280884e-01,-2.852775454521179199e-01,4.632135033607482910e-01,4.947344958782196045e-01,4.503441751003265381e-01,-5.086337924003601074e-01,2.347155213356018066e-01
-8.692224323749542236e-02,2.859227359294891357e-01,3.736478388309478760e-01,4.845891296863555908e-01,-1.874140202999114990e-01,2.201851010322570801e-01,2.351697087287902832e-01,-4.037183523178100586e-02,-5.357267260551452637e-01,3.053720593452453613e-01,3.887079060077667236e-01,4.163141548633575439e-01,-5.273914337158203125e-01,5.369456410408020020e-01
-4.064167141914367676e-01,3.634754419326782227e-01,4.893848896026611328e-01,3.402487337589263916e-01,7.144600152969360352e-02,-2.300396189093589783e-02,2.823830246925354004e-01,-1.233844161033630371e-01,-2.959155142307281494e-01,4.380342960357666016e-01,3.460907936096191406e-01,3.946969807147979736e-01,-6.274819970130920410e-01,1.776386350393295288e-01
-1.431560218334197998e-01,4.069759249687194824e-01,3.787615299224853516e-01,2.614112496376037598e-01,1.855831444263458252e-01,9.114050865173339844e-02,1.209247559309005737e-01,8.479005098342895508e-02,-3.904048204421997070e-01,4.944233000278472900e-01,1.410212814807891846e-01,3.722446560859680176e-01,-5.207167863845825195e-01,3.898302912712097168e-01
-1.739734858274459839e-01,5.492338538169860840e-01,3.290935754776000977e-01,1.945478618144989014e-01,1.588600128889083862e-01,-2.658408284187316895e-01,3.954784572124481201e-01,-4.034428671002388000e-02,-5.589341521263122559e-01,7.999314665794372559e-01,1.424624025821685791e-01,5.629547834396362305e-01,-7.011263966560363770e-01,2.546057403087615967e-01
-3.488286733627319336e-01,2.060557305812835693e-01,3.405631184577941895e-01,3.060778677463531494e-01,3.206752538681030273e-01,-7.687539607286453247e-02,-5.650994554162025452e-02,-1.073298323899507523e-02,-7.423206567764282227e-01,8.401287198066711426e-01,-9.616129845380783081e-02,4.929834306240081787e-01,-4.905560612678527832e-01,2.998444736003875732e-01
-2.855115830898284912e-01,3.893318176269531250e-01,4.454226493835449219e-01,3.030847012996673584e-01,6.535865366458892822e-02,-1.196686923503875732e-01,3.244602084159851074e-01,-1.055523082613945007e-01,-8.578847050666809082e-01,7.051092386245727539e-01,-2.261469066143035889e-01,7.521436214447021484e-01,-5.883346199989318848e-01,2.709423303604125977e-01
-3.238269388675689697e-01,3.757143020629882812e-01,4.624596834182739258e-01,4.172152653336524963e-02,2.213030755519866943e-01,-3.013737499713897705e-01,2.573249638080596924e-01,-7.477742433547973633e-02,-1.069796681404113770e+00,7.486049532890319824e-01,-1.658389419317245483e-01,8.055335283279418945e-01,-4.313011169433593750e-01,1.972025483846664429e-01
-1.353750377893447876e-01,1.868817508220672607e-01,4.816060960292816162e-01,8.113992214202880859e-02,1.418351829051971436e-01,-4.212831258773803711e-01,2.399357110261917114e-01,-1.969305723905563354e-01,-7.050168514251708984e-01,8.541418313980102539e-01,-1.684236824512481689e-01,8.913397789001464844e-01,-4.328270852565765381e-01,2.551245130598545074e-02
-3.085049688816070557e-01,3.228704333305358887e-01,3.061398565769195557e-01,2.121538221836090088e-01,1.132669523358345032e-01,-4.274423420429229736e-01,4.215136170387268066e-01,-2.355966717004776001e-01,-1.009056687355041504e+00,8.828390836715698242e-01,8.692208677530288696e-03,7.953924536705017090e-01,-3.825350999832153320e-01,6.020531803369522095e-02
-3.416370451450347900e-01,1.829002499580383301e-01,5.589095354080200195e-01,2.422433048486709595e-01,-4.675984010100364685e-02,-5.654606819152832031e-01,3.435363471508026123e-01,-1.215630918741226196e-01,-9.128481745719909668e-01,7.931033372879028320e-01,-1.548740416765213013e-01,7.592596411705017090e-01,-3.524269461631774902e-01,6.322608143091201782e-02
-2.306596636772155762e-01,6.553273648023605347e-02,2.715211808681488037e-01,1.195648014545440674e-01,1.333409845829010010e-01,-2.772842049598693848e-01,3.243845403194427490e-01,-6.548270583152770996e-02,-9.549096822738647461e-01,8.661743402481079102e-01,-4.271918535232543945e-01,7.931404709815979004e-01,-2.663471698760986328e-01,9.159012697637081146e-03
-1.629672646522521973e-01,2.291949242353439331e-01,5.081447362899780273e-01,7.625848799943923950e-02,2.847226858139038086e-01,-6.207638382911682129e-01,4.945807754993438721e-01,-3.099142611026763916e-01,-1.159243464469909668e+00,7.354021668434143066e-01,-2.575065791606903076e-01,7.987687587738037109e-01,-2.398363351821899414e-01,-1.516367346048355103e-01
-9.678111225366592407e-02,1.792748868465423584e-01,3.158691525459289551e-01,1.581360399723052979e-01,-1.444619614630937576e-03,-4.405323565006256104e-01,5.245298743247985840e-01,-1.511949896812438965e-01,-1.060875773429870605e+00,9.863558411598205566e-01,-4.964749515056610107e-01,8.629605174064636230e-01,-7.643155753612518311e-02,3.227364644408226013e-02
-3.414309620857238770e-01,1.359803378582000732e-01,5.006080269813537598e-01,2.959049642086029053e-01,3.654071092605590820e-01,-6.450842618942260742e-01,4.933347404003143311e-01,1.034621819853782654e-01,-1.114329814910888672e+00,6.514913439750671387e-01,-2.160687148571014404e-01,8.738433122634887695e-01,-1.236767396330833435e-01,-3.933777809143066406e-01
-2.143199294805526733e-01,1.368692517280578613e-01,1.101909652352333069e-01,1.481925398111343384e-01,1.763157695531845093e-01,-3.997881412506103516e-01,5.478019714355468750e-01,-6.772952154278755188e-03,-9.155040383338928223e-01,6.106790900230407715e-01,-4.193916320800781250e-01,9.357348680496215820e-01,-5.926621332764625549e-02,-2.160952687263488770e-01
-2.931369245052337646e-01,-2.453397028148174286e-02,3.737652003765106201e-01,1.153130270540714264e-02,-3.407937765587121248e-04,-3.382999002933502197e-01,5.879361629486083984e-01,1.291398853063583374e-01,-8.991336226463317871e-01,7.857606410980224609e-01,-4.196097254753112793e-01,7.885320782661437988e-01,1.711833477020263672e-02,-3.306070268154144287e-01
2.939636819064617157e-02,1.959289759397506714e-01,1.288761198520660400e-01,1.411408632993698120e-01,1.045187860727310181e-01,-4.745921194553375244e-01,4.797400534152984619e-01,-5.587836727499961853e-02,-9.904904365539550781e-01,5.695951581001281738e-01,-2.491728812456130981e-01,6.131731867790222168e-01,5.963271483778953552e-02,-2.685166597366333008e-01
-1.673100590705871582e-01,-3.087366931140422821e-02,1.029145494103431702e-01,1.998454183340072632e-01,1.200686469674110413e-01,-4.539519250392913818e-01,4.746142327785491943e-01,-6.263865157961845398e-03,-1.029523134231567383e+00,5.933071374893188477e-01,-3.938388526439666748e-01,6.744294166564941406e-01,-3.347793966531753540e-02,-2.346941381692886353e-01
-4.278943687677383423e-02,5.909633636474609375e-02,3.660441935062408447e-01,1.028290390968322754e-01,-2.759229950606822968e-02,-5.456097126007080078e-01,7.263322472572326660e-01,1.656925976276397705e-01,-9.019997715950012207e-01,6.013059616088867188e-01,-1.493100076913833618e-01,8.288233876228332520e-01,8.854650706052780151e-02,-5.284325480461120605e-01
-1.181133762001991272e-01,-2.772577404975891113e-01,2.691146731376647949e-01,2.311107516288757324e-01,-6.912142038345336914e-02,-5.247094035148620605e-01,4.684734642505645752e-01,1.560468971729278564e-01,-7.821680307388305664e-01,6.176400780677795410e-01,-3.683211207389831543e-01,4.736178815364837646e-01,1.782597899436950684e-01,-2.055769264698028564e-01
-1.096372585743665695e-02,-2.305071800947189331e-01,4.498162120580673218e-02,1.859817653894424438e-01,1.665134131908416748e-01,-3.560253083705902100e-01,5.764289498329162598e-01,1.020266264677047729e-01,-1.009526252746582031e+00,4.882971346378326416e-01,-2.117732167243957520e-01,6.585494279861450195e-01,1.027366071939468384e-01,-4.755331873893737793e-01
-1.967759877443313599e-01,-1.147633492946624756e-01,2.163370847702026367e-01,8.975098282098770142e-02,-8.374479413032531738e-02,-2.113640904426574707e-01,3.496989309787750244e-01,-5.637582857161760330e-03,-6.146251559257507324e-01,6.548975706100463867e-01,-2.807875871658325195e-01,5.012932419776916504e-01,1.230862885713577271e-01,-5.132455229759216309e-01
1.363708823919296265e-01,-2.414596825838088989e-01,3.428691923618316650e-01,9.956682473421096802e-02,-7.659049332141876221e-02,-3.868032097816467285e-01,6.386044025421142578e-01,2.356024086475372314e-01,-8.103078603744506836e-01,4.503138065338134766e-01,-2.191394418478012085e-01,4.087552130222320557e-01,1.307657808065414429e-01,-7.509350180625915527e-01
2.145328819751739502e-01,-3.610140681266784668e-01,2.654382288455963135e-01,-8.677503466606140137e-02,6.455253064632415771e-02,-8.969068527221679688e-02,4.074017405509948730e-01,3.597410619258880615e-01,-7.528134584426879883e-01,5.495563149452209473e-01,-3.848627805709838867e-01,4.947662353515625000e-01,2.866206169128417969e-01,-6.655375957489013672e-01
7.940523326396942139e-02,-4.721442461013793945e-01,2.187859266996383667e-01,2.230642139911651611e-01,-7.376519590616226196e-02,-3.535366952419281006e-01,4.896450042724609375e-01,-7.023027539253234863e-02,-5.301685929298400879e-01,4.445988833904266357e-01,-4.662250876426696777e-01,5.707537531852722168e-01,2.471209466457366943e-01,-6.142438650131225586e-01
1.327086333185434341e-02,-2.491481006145477295e-01,3.337069153785705566e-01,7.555837929248809814e-02,1.750184781849384308e-02,-2.546460330486297607e-01,5.319313406944274902e-01,1.955062747001647949e-01,-6.397625207901000977e-01,6.212427020072937012e-01,-3.762625157833099365e-01,4.092599153518676758e-01,2.626286745071411133e-01,-7.355951666831970215e-01
3.977481722831726074e-01,-2.906534671783447266e-01,2.533484101295471191e-01,7.587926834821701050e-02,-9.356661885976791382e-02,-2.417189478874206543e-01,1.350646018981933594e-01,-3.252987563610076904e-02,-5.827435255050659180e-01,5.090988874435424805e-01,-3.218579590320587158e-01,3.102350831031799316e-01,9.208037704229354858e-02,-7.803748846054077148e-01
4.380534887313842773e-01,-3.631716668605804443e-01,4.176525771617889404e-02,6.805144995450973511e-02,-1.002057641744613647e-01,-2.638188004493713379e-01,1.415369361639022827e-01,-6.750712543725967407e-02,-5.963599681854248047e-01,4.049972295761108398e-01,-2.989540398120880127e-01,1.684658825397491455e-01,2.610366642475128174e-01,-8.281126618385314941e-01
4.304253756999969482e-01,-4.659754335880279541e-01,2.008578181266784668e-01,1.745232790708541870e-01,2.502699568867683411e-02,-4.473609924316406250e-01,2.456379532814025879e-01,-6.159459426999092102e-02,-4.910992085933685303e-01,4.616416394710540771e-01,-3.222309052944183350e-01,2.497608512639999390e-01,2.423426806926727295e-01,-9.783456921577453613e-01
3.757121562957763672e-01,-5.523424148559570312e-01,2.149218171834945679e-01,1.940707862377166748e-02,-9.450810402631759644e-02,-2.940684258937835693e-01,4.764154180884361267e-02,-2.676544189453125000e-01,-4.292407035827636719e-01,3.701155483722686768e-01,-4.789077043533325195e-01,8.788796514272689819e-02,2.269279211759567261e-01,-9.843970537185668945e-01
4.015140235424041748e-01,-4.651622474193572998e-01,1.557368040084838867e-01,3.406729176640510559e-02,5.810319632291793823e-02,-2.007937729358673096e-01,9.624272584915161133e-02,-2.117466926574707031e-01,-4.589243829250335693e-01,3.647467792034149170e-01,-3.166136443614959717e-01,1.516222506761550903e-01,3.109389543533325195e-01,-7.217414975166320801e-01
5.893240571022033691e-01,-6.027962565422058105e-01,5.230695381760597229e-02,1.237506940960884094e-01,-6.538785248994827271e-02,-2.182173281908035278e-01,3.728836774826049805e-02,-4.308863580226898193e-01,-4.145042300224304199e-01,2.545605599880218506e-01,-2.322028875350952148e-01,1.383781880140304565e-01,5.488758161664009094e-02,-7.301762104034423828e-01
4.405404627323150635e-01,-5.489029884338378906e-01,9.124901145696640015e-02,5.914104357361793518e-02,6.871242076158523560e-02,-1.323075741529464722e-01,-2.443480193614959717e-01,-2.833630144596099854e-01,-1.561982333660125732e-01,2.941941618919372559e-01,-2.400558441877365112e-01,-1.279036104679107666e-01,1.440365165472030640e-01,-6.827466487884521484e-01
4.950908720493316650e-01,-3.399624228477478027e-01,1.138175651431083679e-02,1.448204219341278076e-01,1.474543809890747070e-01,-1.075004935264587402e-01,4.972419887781143188e-02,-1.673208028078079224e-01,-2.021792978048324585e-01,5.683295130729675293e-01,-2.294010221958160400e-01,2.129866629838943481e-01,9.560613334178924561e-02,-8.242383003234863281e-01
4.759137630462646484e-01,-6.325678229331970215e-01,-2.620018422603607178e-01,3.946236148476600647e-02,-1.885735690593719482e-01,-1.951539665460586548e-01,-9.100766479969024658e-02,-5.122808218002319336e-01,6.380593776702880859e-02,2.265479564666748047e-01,-2.116816490888595581e-01,-7.979303598403930664e-02,7.908584177494049072e-02,-7.044340372085571289e-01
4.976066946983337402e-01,-3.498893380165100098e-01,-2.528137266635894775e-01,2.441382557153701782e-01,-5.171289294958114624e-02,-2.569844722747802734e-01,-2.278570383787155151e-01,-5.205075144767761230e-01,3.116527199745178223e-02,2.643386423587799072e-01,-1.321142017841339111e-01,7.452424615621566772e-04,-1.995169371366500854e-02,-5.049160718917846680e-01
4.351481795310974121e-01,-2.274333238601684570e-01,-1.462479382753372192e-01,1.409291177988052368e-01,-2.355604320764541626e-01,1.879671704955399036e-03,1.633674092590808868e-02,-5.686159133911132812e-01,-6.065784022212028503e-02,3.025754690170288086e-01,-2.138676196336746216e-01,5.484039708971977234e-02,7.224074006080627441e-02,-6.855220198631286621e-01
4.224554300308227539e-01,-2.443887293338775635e-01,-1.578188091516494751e-01,1.293519884347915649e-01,-1.044577732682228088e-01,-2.842355966567993164e-01,-2.371929287910461426e-01,-5.090561509132385254e-01,2.874528765678405762e-01,2.880632877349853516e-01,-1.051915436983108521e-01,1.225546821951866150e-01,-8.442246168851852417e-02,-3.819269537925720215e-01
5.728725790977478027e-01,-2.267819344997406006e-01,-3.620010018348693848e-01,-4.780807998031377792e-03,-8.208573609590530396e-02,-2.082009166479110718e-01,-2.695266306400299072e-01,-6.165527105331420898e-01,1.188211664557456970e-01,3.156499564647674561e-01,-9.366105496883392334e-02,-8.815628290176391602e-02,-5.807742476463317871e-02,-4.860150218009948730e-01
4.172599315643310547e-01,-2.469515055418014526e-01,-2.580120861530303955e-01,2.974542677402496338e-01,-1.935673356056213379e-01,-2.383061349391937256e-01,-3.982683420181274414e-01,-6.132076978683471680e-01,2.304997295141220093e-01,2.153007686138153076e-01,-1.510400772094726562e-01,-2.508174479007720947e-01,-2.214420773088932037e-02,-4.477784335613250732e-01
3.750647604465484619e-01,-1.949314624071121216e-01,-3.242672383785247803e-01,2.256051264703273773e-02,-4.188805222511291504e-01,-8.799830824136734009e-02,-1.797936558723449707e-01,-8.029431104660034180e-01,3.531581759452819824e-01,2.939273416996002197e-01,-1.847499608993530273e-02,1.267446577548980713e-01,-1.317632757127285004e-02,-3.046556413173675537e-01
3.938124179840087891e-01,-2.832418382167816162e-01,-4.306952059268951416e-01,1.433303114026784897e-02,-1.596110016107559204e-01,-4.458238929510116577e-02,-2.517601251602172852e-01,-7.549728751182556152e-01,1.889902800321578979e-01,3.531974852085113525e-01,-1.735617518424987793e-01,-7.806875556707382202e-02,6.481085717678070068e-02,-3.580695390701293945e-01
1.788953393697738647e-01,1.621690206229686737e-02,-4.016157984733581543e-01,1.860567927360534668e-01,-4.379462003707885742e-01,-2.107929587364196777e-01,-4.410199522972106934e-01,-1.179741501808166504e+00,1.932553946971893311e-01,3.573846518993377686e-01,-1.708896458148956299e-02,1.189789921045303345e-01,7.357045263051986694e-02,-3.874807953834533691e-01
3.769625723361968994e-01,3.976508602499961853e-02,-4.317708313465118408e-01,1.751152575016021729e-01,-2.472460716962814331e-01,-1.899009346961975098e-01,-2.472890168428421021e-01,-8.188239336013793945e-01,3.331589698791503906e-01,1.973974108695983887e-01,1.117287501692771912e-01,1.679091602563858032e-01,9.492421150207519531e-02,-1.483722031116485596e-01
2.955973446369171143e-01,7.198018580675125122e-02,-4.085143506526947021e-01,1.239864453673362732e-01,-4.396352469921112061e-01,-1.903029531240463257e-01,-1.864060759544372559e-01,-1.046973943710327148e+00,1.576019227504730225e-01,2.795774936676025391e-01,1.492449045181274414e-01,-1.521879285573959351e-01,2.191806435585021973e-01,-6.719693541526794434e-02
1.992080211639404297e-01,1.941258162260055542e-01,-4.242710471153259277e-01,4.845225512981414795e-01,-4.808273315429687500e-01,-7.229326665401458740e-02,-2.124456763267517090e-01,-9.933634996414184570e-01,2.940882444381713867e-01,9.802091866731643677e-02,1.434892266988754272e-01,6.104349344968795776e-02,8.192080259323120117e-02,3.055286779999732971e-02
2.516372501850128174e-01,2.480579465627670288e-01,-6.384856104850769043e-01,4.287973940372467041e-01,-4.160320758819580078e-01,-4.471216797828674316e-01,-1.078355684876441956e-01,-9.158668518066406250e-01,1.829108595848083496e-01,1.335257440805435181e-01,2.040947824716567993e-01,2.257741987705230713e-01,2.194188982248306274e-01,-5.227540154010057449e-03
3.184392154216766357e-01,2.146769016981124878e-01,-6.225970983505249023e-01,4.029938876628875732e-01,-3.284719288349151611e-01,-2.084491550922393799e-01,-2.749646604061126709e-01,-1.166703343391418457e+00,2.158497124910354614e-01,7.931249588727951050e-02,2.893465757369995117e-01,6.020034849643707275e-02,1.288414467126131058e-02,1.523853391408920288e-01
2.795266509056091309e-01,4.666807651519775391e-01,-4.141123890876770020e-01,7.166985273361206055e-01,-2.526411712169647217e-01,-2.531247437000274658e-01,-5.472987890243530273e-03,-9.183846712112426758e-01,2.285431325435638428e-01,1.802869439125061035e-01,2.904542386531829834e-01,2.268271595239639282e-01,1.061000823974609375e-01,1.118157804012298584e-01
3.854248821735382080e-01,3.968800604343414307e-01,-4.831339418888092041e-01,6.317613124847412109e-01,-4.980998635292053223e-01,-3.297414779663085938e-01,-1.444289237260818481e-01,-1.044361233711242676e+00,1.956623643636703491e-01,8.388644456863403320e-02,4.572527408599853516e-01,4.084066152572631836e-01,1.059780940413475037e-01,6.875339895486831665e-02
2.058169394731521606e-01,4.242678880691528320e-01,-5.138263702392578125e-01,6.212099790573120117e-01,-5.926648378372192383e-01,-2.555751204490661621e-01,-2.383047714829444885e-02,-8.807822465896606445e-01,2.040304839611053467e-01,-5.496671656146645546e-04,1.935715377330780029e-01,4.149302542209625244e-01,-2.964263409376144409e-02,6.148312985897064209e-02
1.691257059574127197e-01,3.289327323436737061e-01,-5.002495646476745605e-01,9.176213145256042480e-01,-4.304360151290893555e-01,-2.035652399063110352e-01,6.632063537836074829e-02,-1.099751949310302734e+00,2.212285250425338745e-01,9.184417873620986938e-02,5.598153471946716309e-01,4.731679260730743408e-01,8.992468565702438354e-02,1.584923416376113892e-01
2.010949552059173584e-01,3.904566168785095215e-01,-4.626154899597167969e-01,8.159143328666687012e-01,-5.991603136062622070e-01,-2.035125494003295898e-01,2.454593330621719360e-01,-1.163512110710144043e+00,1.885977536439895630e-01,-6.536626815795898438e-02,3.353915512561798096e-01,4.983227849006652832e-01,7.823950797319412231e-02,-1.634043902158737183e-01
2.258566170930862427e-01,2.469796389341354370e-01,-5.533735752105712891e-01,8.641042113304138184e-01,-3.890106976032257080e-01,-2.623562328517436981e-02,-8.811829984188079834e-02,-9.480262398719787598e-01,3.061777651309967041e-01,2.167055457830429077e-01,5.675799250602722168e-01,2.876040935516357422e-01,1.060475409030914307e-01,3.383898362517356873e-02
2.629266083240509033e-01,3.991413414478302002e-01,-5.874794721603393555e-01,8.076236248016357422e-01,-4.150505363941192627e-01,-2.074500173330307007e-01,-1.859352737665176392e-02,-8.407322168350219727e-01,3.561885654926300049e-01,5.826844833791255951e-03,7.801883220672607422e-01,3.226280510425567627e-01,7.401813566684722900e-02,-7.891476154327392578e-02
1.919815838336944580e-01,3.081560432910919189e-01,-4.679235816001892090e-01,8.856191039085388184e-01,-3.174719810485839844e-01,-1.955570578575134277e-01,1.042150780558586121e-01,-7.798115015029907227e-01,4.528225958347320557e-01,1.406571269035339355e-01,8.430009484291076660e-01,5.169941782951354980e-01,-1.213128566741943359e-01,1.987854987382888794e-01
7.518994808197021484e-02,2.236228436231613159e-01,-4.921810626983642578e-01,8.648954033851623535e-01,-3.380262851715087891e-01,-1.965866088867187500e-01,7.172597944736480713e-02,-9.031810164451599121e-01,4.280873835086822510e-01,-2.167566865682601929e-02,7.522351145744323730e-01,5.792194008827209473e-01,1.088557094335556030e-01,8.330725878477096558e-02
2.116590179502964020e-02,3.225390017032623291e-01,-2.910482287406921387e-01,1.066643595695495605e+00,-4.159038364887237549e-01,-1.077174767851829529e-01,4.566783085465431213e-02,-8.924008607864379883e-01,5.649604797363281250e-01,-9.990573674440383911e-02,9.046724438667297363e-01,3.140481412410736084e-01,-7.121749967336654663e-02,4.832527041435241699e-01
-1.407414674758911133e-02,2.965770363807678223e-01,-2.402378767728805542e-01,7.707166671752929688e-01,-4.083376228809356689e-01,-1.571119725704193115e-01,-1.580542139708995819e-02,-7.014155387878417969e-01,5.741829872131347656e-01,1.373649835586547852e-01,9.001451730728149414e-01,4.206033647060394287e-01,-9.636441618204116821e-02,1.508686840534210205e-01
3.807567432522773743e-02,5.608335733413696289e-01,-2.444629520177841187e-01,1.070563077926635742e+00,-4.759718477725982666e-01,-1.514262109994888306e-01,1.548181176185607910e-01,-5.609580278396606445e-01,6.126060485839843750e-01,3.816970810294151306e-02,1.082997918128967285e+00,4.609160721302032471e-01,5.586855113506317139e-03,2.315786629915237427e-01
-6.401360780000686646e-02,3.760612010955810547e-01,-3.947296738624572754e-01,8.429818153381347656e-01,-4.471959769725799561e-01,-1.588811129331588745e-01,2.234699726104736328e-01,-5.125564336776733398e-01,4.584555029869079590e-01,2.372976392507553101e-01,1.016500473022460938e+00,3.923502862453460693e-01,3.717359527945518494e-02,1.954023241996765137e-01
-7.293885201215744019e-02,4.949799180030822754e-01,-3.055317401885986328e-01,9.170929789543151855e-01,-3.227940201759338379e-01,-1.916651427745819092e-01,1.787785887718200684e-01,-3.540728092193603516e-01,4.221095740795135498e-01,3.103153407573699951e-02,9.724288582801818848e-01,3.358935713768005371e-01,-9.709769487380981445e-02,1.976654827594757080e-01
4.563926160335540771e-02,4.542416632175445557e-01,-2.542574405670166016e-01,8.817736506462097168e-01,-3.814674317836761475e-01,-2.661654949188232422e-01,-1.983081363141536713e-02,-5.073620080947875977e-01,3.256603181362152100e-01,7.135362178087234497e-02,1.075753688812255859e+00,2.930898070335388184e-01,-5.438362807035446167e-02,1.292348504066467285e-01
-2.568563520908355713e-01,3.477555811405181885e-01,-3.102114424109458923e-02,8.444706201553344727e-01,-2.488929182291030884e-01,-1.994619816541671753e-01,-1.578385010361671448e-02,-6.201792359352111816e-01,5.780948996543884277e-01,2.622847557067871094e-01,1.084007740020751953e+00,5.562152862548828125e-01,4.232574999332427979e-02,1.301605403423309326e-01
-1.625665426254272461e-01,3.005074560642242432e-01,1.129726916551589966e-01,9.476622939109802246e-01,-2.117142379283905029e-01,-3.134175240993499756e-01,1.566645652055740356e-01,-2.883885204792022705e-01,3.133485019207000732e-01,3.149186670780181885e-01,9.846680164337158203e-01,3.714919090270996094e-01,-1.400174796581268311e-01,4.228689521551132202e-02
-3.634612560272216797e-01,1.693118363618850708e-01,5.511755123734474182e-02,8.572881817817687988e-01,-4.354458674788475037e-02,-2.731989920139312744e-01,1.381234675645828247e-01,-3.667747378349304199e-01,3.179315030574798584e-01,2.847782969474792480e-01,1.038915157318115234e+00,4.077390730381011963e-01,-3.246392607688903809e-01,3.156381249427795410e-01
-4.309908449649810791e-01,2.520751655101776123e-01,7.927009463310241699e-02,7.667381763458251953e-01,-4.061814770102500916e-02,-3.772065937519073486e-01,1.487252414226531982e-01,-3.408891260623931885e-01,4.084115922451019287e-01,6.599298119544982910e-01,1.092408657073974609e+00,4.099379777908325195e-01,1.147957891225814819e-02,2.193831950426101685e-01
-3.134058117866516113e-01,3.988312780857086182e-01,2.033958286046981812e-01,8.206526637077331543e-01,1.259247213602066040e-01,-4.826238155364990234e-01,1.790603846311569214e-01,-2.781359255313873291e-01,3.318918049335479736e-01,3.540313243865966797e-01,6.861569881439208984e-01,3.053934872150421143e-01,5.232750251889228821e-02,4.569215178489685059e-01
-3.371723592281341553e-01,2.937895059585571289e-01,1.537391096353530884e-01,7.028199434280395508e-01,5.903122946619987488e-02,-3.430535197257995605e-01,1.913249045610427856e-01,-2.152927517890930176e-01,4.838781058788299561e-01,3.070791363716125488e-01,9.699805378913879395e-01,4.001165032386779785e-01,-1.941661089658737183e-01,1.426795572042465210e-01
