AF3,F7,F3,FC5,T7,P7,O1,O2,P8,T8,FC6,F4,F8,AF4
5.238405466079711914e-01,-8.771931529045104980e-01,-2.343654930591583252e-01,2.439381778240203857e-01,-3.336389064788818359e-01,8.485196530818939209e-02,5.076388716697692871e-01,1.941864639520645142e-01,4.032281339168548584e-01,-2.931238114833831787e-01,2.780474722385406494e-01,2.569548189640045166e-01,5.703576207160949707e-01,-2.581949532032012939e-01
4.411709010601043701e-01,-8.387023210525512695e-01,-1.847857832908630371e-01,2.914391160011291504e-01,-2.337701618671417236e-01,1.000825241208076477e-01,4.108819365501403809e-01,1.875563859939575195e-01,1.975510120391845703e-01,-1.968583166599273682e-01,1.846178323030471802e-01,2.068964838981628418e-01,6.384484171867370605e-01,-1.582532674074172974e-01
5.713844299316406250e-01,-7.213295698165893555e-01,-2.610377669334411621e-01,1.792216747999191284e-01,-1.351663321256637573e-01,-1.073308214545249939e-01,2.436621487140655518e-01,2.744024097919464111e-01,2.367832809686660767e-01,-2.607996463775634766e-01,2.346231043338775635e-01,1.995210647583007812e-01,5.218768119812011719e-01,-1.579088717699050903e-01
4.816308021545410156e-01,-6.403910517692565918e-01,-3.779802024364471436e-01,2.342025935649871826e-01,-2.531696259975433350e-01,1.238657981157302856e-01,2.472028285264968872e-01,3.128504753112792969e-01,3.399073481559753418e-01,-2.587595283985137939e-01,1.313687264919281006e-01,4.734036028385162354e-01,4.333649873733520508e-01,-1.195808202028274536e-01
6.563629508018493652e-01,-4.530018866062164307e-01,-2.924230396747589111e-01,2.004065811634063721e-01,-1.060713082551956177e-01,-2.165394602343440056e-03,1.036837399005889893e-01,5.022115707397460938e-01,2.884941697120666504e-01,-3.081439137458801270e-01,2.567133307456970215e-01,3.754281103610992432e-01,5.579277873039245605e-01,-4.276532679796218872e-02
4.115550518035888672e-01,-5.578060746192932129e-01,-3.000410199165344238e-01,1.911027431488037109e-01,-2.587925493717193604e-01,1.383316516876220703e-01,2.697721123695373535e-01,3.713938593864440918e-01,3.132150471210479736e-01,-2.971414029598236084e-01,1.992457062005996704e-01,2.423453778028488159e-01,3.673636317253112793e-01,5.060701631009578705e-03
5.094542503356933594e-01,-4.225386083126068115e-01,-2.569346427917480469e-01,1.540743708610534668e-01,-1.034658104181289673e-01,-2.516105305403470993e-03,2.215226888656616211e-01,2.789814472198486328e-01,3.882499635219573975e-01,-4.451715946197509766e-01,2.987053990364074707e-01,3.125602006912231445e-01,3.135533630847930908e-01,-1.256311833858489990e-01
4.326037168502807617e-01,-2.429414838552474976e-01,-4.776217043399810791e-01,1.653753519058227539e-01,-1.135618537664413452e-01,-4.855773597955703735e-02,1.063021868467330933e-01,2.593267560005187988e-01,2.872114777565002441e-01,-4.526633918285369873e-01,8.926935493946075439e-02,2.667681276798248291e-01,3.380849063396453857e-01,-1.668695956468582153e-01
3.939865529537200928e-01,-2.765774130821228027e-01,-3.406555056571960449e-01,-1.385325193405151367e-01,-4.271906614303588867e-01,-6.270548701286315918e-02,2.170214056968688965e-01,1.523701548576354980e-01,4.313341677188873291e-01,-5.067317485809326172e-01,1.678664386272430420e-01,1.838642060756683350e-01,1.658350378274917603e-01,5.065080896019935608e-02
3.992002606391906738e-01,-2.599432170391082764e-01,-5.697088241577148438e-01,-2.313028834760189056e-02,-4.199011921882629395e-01,-2.315351665019989014e-01,2.936958074569702148e-01,1.105804070830345154e-01,4.531352221965789795e-01,-5.860229730606079102e-01,1.082565188407897949e-01,1.907271146774291992e-01,2.877480983734130859e-01,1.530730277299880981e-01
4.358809888362884521e-01,-2.097162157297134399e-01,-4.495561420917510986e-01,-2.312464565038681030e-01,-4.151723682880401611e-01,-2.087442278861999512e-01,3.913927972316741943e-01,1.885007768869400024e-01,2.462843805551528931e-01,-4.622437953948974609e-01,-1.636047498323023319e-03,2.066195197403430939e-02,4.896488785743713379e-02,-5.786731839179992676e-02
1.506117880344390869e-01,-3.348194062709808350e-01,-4.679287075996398926e-01,-4.192929863929748535e-01,-5.482976436614990234e-01,-1.764745861291885376e-01,2.382016554474830627e-02,-2.589060738682746887e-02,4.039058685302734375e-01,-4.710975587368011475e-01,1.007778942584991455e-01,1.483917534351348877e-01,4.013910144567489624e-02,1.477850675582885742e-01
3.161613941192626953e-01,-3.374913036823272705e-01,-5.628538131713867188e-01,-4.318248033523559570e-01,-3.303300738334655762e-01,-2.404253780841827393e-01,4.394806548953056335e-02,-1.138459742069244385e-01,3.634841740131378174e-01,-4.399048686027526855e-01,4.009833931922912598e-02,1.255921460688114166e-02,-4.895607382059097290e-02,2.941315472126007080e-01
1.968037635087966919e-01,-3.934079408645629883e-01,-5.643582940101623535e-01,-3.652511537075042725e-01,-3.211806118488311768e-01,-2.803904414176940918e-01,1.223386675119400024e-01,-1.842097938060760498e-01,3.390217125415802002e-01,-6.099059581756591797e-01,1.323463469743728638e-01,-1.884446591138839722e-01,1.215880215167999268e-01,2.078720480203628540e-01
1.663856655359268188e-01,-2.330146431922912598e-01,-5.113906264305114746e-01,-3.716938495635986328e-01,-3.209252357482910156e-01,-2.539661228656768799e-01,1.181920766830444336e-01,-2.638022303581237793e-01,2.491738796234130859e-01,-4.545948207378387451e-01,5.734841898083686829e-02,-8.215334266424179077e-02,1.422254443168640137e-01,4.054626226425170898e-01
2.199625521898269653e-01,-1.853533983230590820e-01,-6.456563472747802734e-01,-5.651684403419494629e-01,-4.240698218345642090e-01,-2.135559469461441040e-01,2.141100317239761353e-01,-1.334703564643859863e-01,2.076319158077239990e-01,-3.211836814880371094e-01,-4.876826703548431396e-02,-1.432308256626129150e-01,-3.615700453519821167e-02,4.138913154602050781e-01
2.507790327072143555e-01,-2.254629731178283691e-01,-5.586038231849670410e-01,-5.477159023284912109e-01,-9.082749485969543457e-02,3.278638795018196106e-02,1.076826080679893494e-01,-2.737340331077575684e-01,1.380964219570159912e-01,-2.080199271440505981e-01,6.582117825746536255e-02,-3.937025964260101318e-01,-4.410298541188240051e-03,2.806338965892791748e-01
2.313517630100250244e-01,-2.106646597385406494e-01,-6.240969896316528320e-01,-5.226038694381713867e-01,-3.731958270072937012e-01,-2.021468877792358398e-01,-2.946568727493286133e-01,-3.427239656448364258e-01,5.840862169861793518e-02,-4.275459647178649902e-01,-2.240590192377567291e-02,-1.150513440370559692e-01,-4.231320694088935852e-02,2.701414227485656738e-01
-5.601641163229942322e-02,-1.983194649219512939e-01,-4.327586293220520020e-01,-5.462028980255126953e-01,-2.426340281963348389e-01,-1.987329423427581787e-01,-2.106055319309234619e-01,-3.220447003841400146e-01,5.680845119059085846e-03,-1.896836161613464355e-01,-1.389274001121520996e-01,5.881200078874826431e-03,-8.167952299118041992e-02,2.686677277088165283e-01
-3.652134239673614502e-01,-3.418719470500946045e-01,-5.328344702720642090e-01,-6.337781548500061035e-01,6.027957797050476074e-02,-1.008468419313430786e-01,-4.071541726589202881e-01,-2.982225716114044189e-01,6.515567004680633545e-02,-1.194175556302070618e-01,-3.562214598059654236e-02,-1.025634035468101501e-01,-2.619504034519195557e-01,3.023726642131805420e-01
-1.622494608163833618e-01,-3.682522475719451904e-01,-6.925002932548522949e-01,-6.516569852828979492e-01,8.859551697969436646e-02,1.137310341000556946e-01,-4.749437272548675537e-01,-3.757789134979248047e-01,-3.687205491587519646e-03,1.451801806688308716e-01,-9.444890171289443970e-02,-1.289462205022573471e-02,-2.483224272727966309e-01,1.463004797697067261e-01
-4.435778558254241943e-01,-2.123263627290725708e-01,-4.090134203433990479e-01,-4.523670077323913574e-01,7.998754084110260010e-02,1.701836436986923218e-01,-3.731860518455505371e-01,-4.097966253757476807e-01,-1.770539134740829468e-01,-1.540379375219345093e-01,-3.287695348262786865e-01,-7.488541305065155029e-02,-1.438589841127395630e-01,9.388925880193710327e-02
-3.101969063282012939e-01,-4.214294552803039551e-01,-4.946620762348175049e-01,-3.758963048458099365e-01,2.259231209754943848e-01,2.534542381763458252e-01,-4.982754886150360107e-01,-9.874156862497329712e-02,-2.424318194389343262e-01,3.437658771872520447e-02,-3.724766373634338379e-01,-1.152848079800605774e-01,-1.336229294538497925e-01,-3.733665496110916138e-02
-5.329741835594177246e-01,-4.550997316837310791e-01,-7.196894884109497070e-01,-3.262085020542144775e-01,3.027918934822082520e-01,1.029875874519348145e-01,-4.164282381534576416e-01,-9.120100736618041992e-02,-4.981100186705589294e-02,3.440984189510345459e-01,-3.498846292495727539e-01,-1.398358345031738281e-01,-1.916192322969436646e-01,1.451802700757980347e-01
-4.897250533103942871e-01,-3.532468676567077637e-01,-7.542756795883178711e-01,-5.229460597038269043e-01,4.638370573520660400e-01,1.887989044189453125e-01,-7.790101170539855957e-01,-1.090715453028678894e-01,7.236690074205398560e-02,2.040060013532638550e-01,-4.579705893993377686e-01,-1.956462115049362183e-01,-3.093687593936920166e-01,3.098831474781036377e-01
-6.785882115364074707e-01,-3.451179265975952148e-01,-7.232587933540344238e-01,-5.202646851539611816e-01,2.645593881607055664e-01,3.423348441720008850e-02,-6.793684959411621094e-01,-1.477169338613748550e-02,-1.232238113880157471e-01,1.594831943511962891e-01,-5.091411471366882324e-01,2.102582901716232300e-02,-2.459015846252441406e-01,-1.291897743940353394e-01
-7.641320824623107910e-01,-2.747865021228790283e-01,-6.913387775421142578e-01,-4.407426714897155762e-01,4.376104176044464111e-01,1.037312224507331848e-01,-7.504327893257141113e-01,1.188704222440719604e-01,-2.126280777156352997e-02,4.687842726707458496e-01,-6.006425619125366211e-01,-5.312371999025344849e-03,-4.832728505134582520e-01,2.423885650932788849e-02
-7.988623380661010742e-01,-3.461024761199951172e-01,-5.622186660766601562e-01,-3.916628360748291016e-01,5.200425982475280762e-01,1.216208748519420624e-02,-5.387143492698669434e-01,-1.003283411264419556e-01,-4.498651996254920959e-02,1.931709945201873779e-01,-5.349339842796325684e-01,-1.143227443099021912e-01,-5.215817689895629883e-01,6.195868831127882004e-03
-6.637364625930786133e-01,-2.080211043357849121e-01,-5.429781079292297363e-01,-2.953371107578277588e-01,2.982306778430938721e-01,1.410453021526336670e-01,-7.663457393646240234e-01,-1.427930295467376709e-01,1.051427498459815979e-01,4.501279890537261963e-01,-5.446228384971618652e-01,-2.965648472309112549e-01,-4.330346286296844482e-01,1.198311429470777512e-02
-8.353230357170104980e-01,-2.885686159133911133e-01,-4.399146139621734619e-01,-3.271380662918090820e-01,3.626432418823242188e-01,5.491348728537559509e-02,-6.178355813026428223e-01,4.108281806111335754e-02,-8.037055283784866333e-02,1.984461694955825806e-01,-7.064908146858215332e-01,-5.227165296673774719e-02,2.478252910077571869e-02,1.684769988059997559e-01
-6.304022073745727539e-01,-9.791062772274017334e-02,-4.945294559001922607e-01,-4.353865087032318115e-01,3.183170855045318604e-01,2.121939510107040405e-02,-7.266811728477478027e-01,-1.759081184864044189e-01,1.284552067518234253e-01,2.138443142175674438e-01,-5.792450308799743652e-01,-1.913030445575714111e-01,1.411906443536281586e-03,-1.413881499320268631e-02
-4.734215736389160156e-01,-3.306191861629486084e-01,-4.279341399669647217e-01,-3.582464158535003662e-01,1.094295606017112732e-01,-1.446435153484344482e-01,-3.795579373836517334e-01,-3.828665241599082947e-02,3.097240030765533447e-01,3.805993497371673584e-01,-5.554074048995971680e-01,-8.248961716890335083e-02,-3.045386075973510742e-01,-7.265794277191162109e-02
-4.376039505004882812e-01,-2.152576595544815063e-01,-3.189006447792053223e-01,-4.698309302330017090e-01,2.406979054212570190e-01,-3.553993627429008484e-02,-2.701066732406616211e-01,-9.172914177179336548e-02,1.966905593872070312e-01,2.783706486225128174e-01,-4.125604331493377686e-01,-2.410763949155807495e-01,-9.790472686290740967e-02,1.290916651487350464e-01
-7.091843485832214355e-01,-2.226136326789855957e-01,-1.381814479827880859e-01,-3.651431798934936523e-01,1.855665445327758789e-01,-4.194897711277008057e-01,-4.499408006668090820e-01,-1.914510317146778107e-02,3.746368288993835449e-01,3.937985301017761230e-01,-3.095419704914093018e-01,-6.192502751946449280e-02,-4.589445143938064575e-02,1.865205764770507812e-01
-6.246365308761596680e-01,-1.492823511362075806e-01,-3.562843501567840576e-01,-3.629015684127807617e-01,2.409890741109848022e-01,-2.555485367774963379e-01,-3.892755508422851562e-01,-1.620826423168182373e-01,3.931758999824523926e-01,5.508016347885131836e-01,-2.096188962459564209e-01,-6.344693899154663086e-02,1.993207186460494995e-01,1.074329689145088196e-01
-3.820967674255371094e-01,-5.625394731760025024e-02,-1.084777861833572388e-01,-1.990934908390045166e-01,3.567756339907646179e-02,-2.822241485118865967e-01,-2.129838317632675171e-01,-2.188591286540031433e-02,4.079105257987976074e-01,3.590568900108337402e-01,-2.272615134716033936e-01,-2.672392129898071289e-01,2.032874077558517456e-01,4.344962537288665771e-01
-4.813995063304901123e-01,-9.039329737424850464e-02,1.294501274824142456e-01,-2.741831839084625244e-01,3.613818064332008362e-02,-5.016291141510009766e-01,-2.603026628494262695e-01,-2.436713427305221558e-01,2.957657575607299805e-01,5.399441123008728027e-01,-4.253125935792922974e-02,1.603442132472991943e-01,1.594417542219161987e-01,3.686372935771942139e-01
-2.646579146385192871e-01,-8.834951370954513550e-02,7.677288353443145752e-02,-3.885018229484558105e-01,1.039775013923645020e-01,-2.736743092536926270e-01,-1.230309903621673584e-02,-1.236452460289001465e-01,4.088375568389892578e-01,4.092065393924713135e-01,-1.539736241102218628e-01,-1.144781615585088730e-02,3.009135723114013672e-01,5.499895215034484863e-01
-4.598787128925323486e-01,4.510846734046936035e-02,1.010375544428825378e-01,-3.820393681526184082e-01,-1.324208974838256836e-01,-3.258491456508636475e-01,-3.998892009258270264e-02,-2.839222550392150879e-01,4.944985210895538330e-01,4.672166705131530762e-01,2.151419669389724731e-01,1.222433149814605713e-02,3.549872338771820068e-01,5.832988619804382324e-01
-2.704053223133087158e-01,1.211005821824073792e-01,9.448361396789550781e-02,-3.431330025196075439e-01,-2.009164392948150635e-01,-2.328884154558181763e-01,7.224480807781219482e-02,-1.836899816989898682e-01,2.320034503936767578e-01,1.247666403651237488e-01,8.854032307863235474e-02,9.980886429548263550e-02,1.085601150989532471e-01,5.609489083290100098e-01
-1.559735387563705444e-01,1.322845518589019775e-01,2.942050993442535400e-01,-4.815034568309783936e-01,-7.582380622625350952e-02,-5.480261519551277161e-02,-1.406748592853546143e-01,-3.604624867439270020e-01,1.821806281805038452e-01,4.045435190200805664e-01,8.692428469657897949e-02,3.764081746339797974e-02,3.488904237747192383e-01,7.919175028800964355e-01
-4.050162136554718018e-01,2.179225832223892212e-01,1.652223616838455200e-01,-3.760537505149841309e-01,-1.052585840225219727e-01,-1.755612194538116455e-01,-1.559283435344696045e-01,-2.825634181499481201e-01,1.992581635713577271e-01,3.617354929447174072e-01,2.023547738790512085e-01,6.127616390585899353e-02,2.794796228408813477e-01,6.942833662033081055e-01
-2.718259394168853760e-01,3.195571303367614746e-01,1.552435308694839478e-01,-4.086014628410339355e-01,-8.652239292860031128e-02,-5.423831194639205933e-02,2.687085047364234924e-02,-1.715374290943145752e-01,2.118626683950424194e-01,2.418512552976608276e-01,4.509194493293762207e-01,-1.230936199426651001e-01,1.393586099147796631e-01,7.329086065292358398e-01
-2.921750843524932861e-01,1.643066257238388062e-01,3.139972388744354248e-01,-4.013234972953796387e-01,-1.082946211099624634e-01,4.971234127879142761e-02,1.647540479898452759e-01,-3.200457692146301270e-01,5.160291120409965515e-02,4.246505200862884521e-01,3.908062875270843506e-01,-7.256884872913360596e-02,1.570572555065155029e-01,7.780305147171020508e-01
-2.434518635272979736e-01,3.613781034946441650e-01,3.138096630573272705e-02,-4.513449966907501221e-01,-1.372980028390884399e-01,2.732207812368869781e-02,-9.334913641214370728e-02,-2.467630058526992798e-01,8.223529160022735596e-02,1.377005130052566528e-01,5.148867964744567871e-01,-3.144470751285552979e-01,2.003215402364730835e-01,7.291710376739501953e-01
-3.988966643810272217e-01,4.917317330837249756e-01,2.458965480327606201e-01,-5.753609538078308105e-01,5.227288976311683655e-02,-4.158492758870124817e-02,5.167838186025619507e-02,-4.079758524894714355e-01,2.489476948976516724e-01,-2.464620396494865417e-02,3.642256259918212891e-01,-2.260698229074478149e-01,1.376931667327880859e-01,6.874807476997375488e-01
-5.027573704719543457e-01,4.688145220279693604e-01,3.850640729069709778e-02,-8.254895210266113281e-01,-3.274955973029136658e-02,-5.427873507142066956e-02,-5.306383222341537476e-02,-5.032185912132263184e-01,1.945275217294692993e-01,1.641557216644287109e-01,4.605602025985717773e-01,-1.473153382539749146e-01,6.106047704815864563e-02,5.579127669334411621e-01
-6.377267837524414062e-01,4.962692260742187500e-01,-4.071711376309394836e-02,-8.622069358825683594e-01,2.020404040813446045e-01,2.078934460878372192e-01,1.296671628952026367e-01,-4.894704222679138184e-01,-3.998832777142524719e-02,-1.026398763060569763e-01,2.751243412494659424e-01,-5.389046072959899902e-01,9.992404840886592865e-03,4.940759837627410889e-01
-2.734686434268951416e-01,5.709021091461181641e-01,-7.878226041793823242e-02,-8.741397261619567871e-01,-1.203618273138999939e-01,1.860281676054000854e-01,-5.103747919201850891e-02,-5.039882063865661621e-01,2.229178696870803833e-01,8.807522244751453400e-03,1.644377708435058594e-01,-5.224757790565490723e-01,1.438554935157299042e-02,5.862877368927001953e-01
-3.371842503547668457e-01,5.618342757225036621e-01,-1.648762226104736328e-01,-8.134297132492065430e-01,1.891984790563583374e-01,4.045817852020263672e-01,8.072614669799804688e-02,-8.185064196586608887e-01,-3.189292550086975098e-02,1.075549945235252380e-01,3.165135681629180908e-01,-7.968696951866149902e-01,-1.721627712249755859e-01,4.418295621871948242e-01
-4.312200546264648438e-01,5.380929708480834961e-01,-2.715938091278076172e-01,-8.693145513534545898e-01,2.289208769798278809e-02,2.738604843616485596e-01,1.821072995662689209e-01,-6.378468275070190430e-01,1.564485952258110046e-02,9.616128169000148773e-03,2.744960486888885498e-01,-6.741786599159240723e-01,1.518158316612243652e-01,5.886875987052917480e-01
-4.356612563133239746e-01,3.636751472949981689e-01,-2.259700000286102295e-01,-9.927727580070495605e-01,2.427487168461084366e-03,3.610728383064270020e-01,-4.827382043004035950e-02,-8.426904678344726562e-01,-4.735092073678970337e-02,-6.304030120372772217e-02,3.076927661895751953e-01,-7.081247568130493164e-01,-5.135967954993247986e-02,4.718356430530548096e-01
-3.843521475791931152e-01,2.374438196420669556e-01,-3.392862677574157715e-01,-7.503031492233276367e-01,-9.891599416732788086e-02,2.850873768329620361e-01,1.599410027265548706e-01,-9.189478158950805664e-01,1.917810644954442978e-03,-5.483667925000190735e-02,3.352949619293212891e-01,-7.820009589195251465e-01,5.226349830627441406e-02,5.293827652931213379e-01
-3.226043879985809326e-01,3.843124210834503174e-01,-2.652976810932159424e-01,-8.291154503822326660e-01,-3.925327584147453308e-02,4.039551317691802979e-01,7.319487631320953369e-02,-7.867197990417480469e-01,-2.469519823789596558e-01,1.417991071939468384e-01,2.900998592376708984e-01,-9.294998645782470703e-01,1.909021735191345215e-01,3.490623831748962402e-01
-6.109430193901062012e-01,1.467183083295822144e-01,-8.309727907180786133e-02,-8.408021926879882812e-01,1.752118021249771118e-01,3.816637694835662842e-01,1.971797496080398560e-01,-7.329605221748352051e-01,-2.308598607778549194e-01,-5.673604831099510193e-02,2.405396401882171631e-01,-1.114686369895935059e+00,1.786169856786727905e-01,3.187306821346282959e-01
-5.767393112182617188e-01,5.372724309563636780e-02,-2.444202303886413574e-01,-8.559470176696777344e-01,-1.877729296684265137e-01,4.297029972076416016e-01,1.462165713310241699e-01,-8.545188307762145996e-01,-3.161139786243438721e-01,2.052483111619949341e-01,2.461816966533660889e-01,-1.037181138992309570e+00,1.374329775571823120e-01,5.864757299423217773e-01
-5.819159746170043945e-01,-4.020112007856369019e-02,-3.172637820243835449e-01,-8.253196477890014648e-01,-6.440859287977218628e-02,5.502757430076599121e-01,5.767286941409111023e-02,-1.002442717552185059e+00,-3.744142353534698486e-01,4.186615049839019775e-01,2.995137870311737061e-01,-7.828752398490905762e-01,1.418648362159729004e-01,3.883176743984222412e-01
-4.167015552520751953e-01,8.530256897211074829e-02,-2.550749480724334717e-01,-7.648335099220275879e-01,-3.859547199681401253e-03,5.371769070625305176e-01,7.409498840570449829e-02,-9.054751992225646973e-01,-3.823430538177490234e-01,3.301788568496704102e-01,1.028624102473258972e-01,-8.008068799972534180e-01,1.970862150192260742e-01,4.768390953540802002e-01
-3.594093620777130127e-01,-7.995194196701049805e-02,-2.916261851787567139e-01,-9.068764448165893555e-01,3.206727802753448486e-01,9.038046598434448242e-01,-1.208484843373298645e-01,-8.331094980239868164e-01,-4.226221144199371338e-01,3.290955126285552979e-01,1.730883121490478516e-01,-8.654333949089050293e-01,8.203013986349105835e-02,2.232448458671569824e-01
-2.743874490261077881e-01,-1.274320334196090698e-01,-2.561317682266235352e-01,-7.492382526397705078e-01,3.193308413028717041e-01,7.665831446647644043e-01,1.269253939390182495e-01,-7.076351642608642578e-01,-2.945456504821777344e-01,4.100181460380554199e-01,4.426805377006530762e-01,-7.983174920082092285e-01,1.657150387763977051e-01,3.114332556724548340e-01
-6.663844585418701172e-01,-1.410468518733978271e-01,-2.280274927616119385e-01,-5.827547907829284668e-01,1.959760487079620361e-01,8.305015563964843750e-01,2.073170989751815796e-01,-6.563143730163574219e-01,-4.031545817852020264e-01,4.430457353591918945e-01,1.698365211486816406e-01,-8.696544170379638672e-01,3.511341512203216553e-01,4.420893490314483643e-01
-5.087701678276062012e-01,-2.500095069408416748e-01,-1.507378369569778442e-01,-4.664644300937652588e-01,2.910723686218261719e-01,7.443768382072448730e-01,-5.612464621663093567e-02,-5.110921859741210938e-01,-3.797928094863891602e-01,4.794770777225494385e-01,2.658728361129760742e-01,-5.876164436340332031e-01,3.251935839653015137e-01,1.255073994398117065e-01
-3.595420122146606445e-01,-1.683851331472396851e-01,-9.190270304679870605e-02,-4.156514108180999756e-01,3.837189674377441406e-01,7.911804318428039551e-01,-1.805202476680278778e-02,-3.659926056861877441e-01,-5.112965106964111328e-01,5.956965088844299316e-01,1.364320069551467896e-01,-7.387813329696655273e-01,2.461480498313903809e-01,4.794724881649017334e-01
-3.402568399906158447e-01,-4.028311967849731445e-01,4.124147072434425354e-02,-3.073253333568572998e-01,4.936811327934265137e-01,7.519720792770385742e-01,1.399770528078079224e-01,-3.353204429149627686e-01,-1.859156340360641479e-01,6.755123138427734375e-01,1.321682184934616089e-01,-5.760688185691833496e-01,4.560596644878387451e-01,2.443999499082565308e-01
-3.718144595623016357e-01,-3.969568908214569092e-01,-9.392958134412765503e-02,-4.848495423793792725e-01,2.974044382572174072e-01,1.058790922164916992e+00,-1.878850013017654419e-01,-1.866867989301681519e-01,-3.978765308856964111e-01,7.762076854705810547e-01,-8.623951673507690430e-02,-7.098330259323120117e-01,5.333576798439025879e-01,1.193754300475120544e-01
-4.412707090377807617e-01,-4.019634723663330078e-01,-2.582504749298095703e-01,-1.728249490261077881e-01,4.034574031829833984e-01,7.725782394409179688e-01,6.407250463962554932e-02,-2.171105891466140747e-01,-1.463031172752380371e-01,4.117034971714019775e-01,1.758548170328140259e-01,-5.571587085723876953e-01,6.063198447227478027e-01,2.212269604206085205e-01
-3.646666109561920166e-01,-2.420306205749511719e-01,-2.655338943004608154e-01,-1.743763834238052368e-01,3.310131132602691650e-01,6.953746676445007324e-01,2.170693278312683105e-01,2.155213356018066406e-01,5.711906403303146362e-02,3.420873582363128662e-01,4.920573532581329346e-02,-3.817491829395294189e-01,5.775026679039001465e-01,2.918234169483184814e-01
-2.623910903930664062e-01,-2.290657311677932739e-01,-1.304199993610382080e-01,-1.635734140872955322e-01,3.149225711822509766e-01,6.383063197135925293e-01,3.594993054866790771e-02,4.632909316569566727e-03,1.633984893560409546e-01,7.165960073471069336e-01,-1.016049236059188843e-01,-5.726960897445678711e-01,4.993909001350402832e-01,1.052926182746887207e-01
-3.623393774032592773e-01,-3.236168026924133301e-01,-5.821971222758293152e-03,-2.159778401255607605e-02,1.815524101257324219e-01,6.924213171005249023e-01,1.054958030581474304e-01,6.709747016429901123e-02,-4.235171154141426086e-02,5.189579129219055176e-01,-2.924557961523532867e-02,-3.772887587547302246e-01,6.730739474296569824e-01,1.398206651210784912e-01
-2.068870067596435547e-01,-2.987203001976013184e-01,-1.036288961768150330e-01,-1.916354000568389893e-01,2.271292805671691895e-01,7.359347343444824219e-01,3.620824217796325684e-01,2.096409350633621216e-01,1.608626395463943481e-01,4.792544841766357422e-01,1.436920315027236938e-01,-5.356820225715637207e-01,6.785989403724670410e-01,2.665692865848541260e-01
-1.814611405134201050e-01,-1.508606672286987305e-01,-7.339715212583541870e-02,-8.480343967676162720e-02,5.541564151644706726e-02,6.306264400482177734e-01,1.948385387659072876e-01,6.455810368061065674e-02,3.308774530887603760e-01,4.721762537956237793e-01,9.758263826370239258e-02,-4.926297664642333984e-01,6.063306331634521484e-01,3.342167139053344727e-01
9.119667112827301025e-02,-3.522461056709289551e-01,6.987807154655456543e-02,-6.296655163168907166e-03,6.746222823858261108e-02,3.715397119522094727e-01,4.658790528774261475e-01,1.560112228617072105e-03,2.772355079650878906e-01,3.587200045585632324e-01,1.294848769903182983e-01,-3.761140108108520508e-01,6.519924998283386230e-01,3.250616788864135742e-01
3.644580394029617310e-02,-2.605396211147308350e-01,1.551555469632148743e-02,-9.206622838973999023e-02,1.395784765481948853e-01,2.957669496536254883e-01,4.894973635673522949e-01,1.981556415557861328e-01,4.758009314537048340e-01,5.342448353767395020e-01,2.207765132188796997e-01,-2.476908713579177856e-01,8.797986507415771484e-01,4.499987363815307617e-01
8.240011334419250488e-02,-3.667600154876708984e-01,1.623311638832092285e-01,-1.769766658544540405e-01,1.860160753130912781e-02,4.309080839157104492e-01,6.298889517784118652e-01,1.994224190711975098e-01,1.984687894582748413e-01,3.507950901985168457e-01,9.745809249579906464e-03,-3.406833410263061523e-01,8.683208823204040527e-01,5.641941428184509277e-01
2.406384497880935669e-01,-1.958843767642974854e-01,-5.101447924971580505e-02,-5.982581898570060730e-02,-6.510509178042411804e-03,4.584965109825134277e-01,5.561763048171997070e-01,7.074968516826629639e-02,4.360889196395874023e-01,2.280565798282623291e-01,2.228829264640808105e-01,-2.115937471389770508e-01,8.965567946434020996e-01,5.652744770050048828e-01
4.367408156394958496e-01,-2.474094033241271973e-01,1.846296787261962891e-01,8.229032158851623535e-02,-1.610309034585952759e-01,1.888485699892044067e-01,7.599689960479736328e-01,2.238873541355133057e-01,4.692946970462799072e-01,2.144584059715270996e-01,5.077169537544250488e-01,-1.191164180636405945e-01,8.995608091354370117e-01,5.435265302658081055e-01
4.143714308738708496e-01,-4.508605003356933594e-01,-9.412581101059913635e-03,9.689630568027496338e-02,-1.118373274803161621e-01,2.942405939102172852e-01,5.879442095756530762e-01,3.466922417283058167e-02,3.000753819942474365e-01,2.188399881124496460e-01,5.483734011650085449e-01,-2.697723805904388428e-01,9.616380929946899414e-01,6.666519045829772949e-01
5.652799010276794434e-01,-3.325974643230438232e-01,2.168275713920593262e-01,1.509446501731872559e-01,-4.219799637794494629e-01,1.364982128143310547e-02,4.805378913879394531e-01,1.357245445251464844e-01,4.744294881820678711e-01,1.424901485443115234e-01,5.959108471870422363e-01,-3.054000735282897949e-01,8.421744108200073242e-01,8.879535198211669922e-01
5.696338415145874023e-01,-5.042970776557922363e-01,2.902292013168334961e-01,1.137645989656448364e-01,-4.121345281600952148e-01,7.904562354087829590e-02,4.566674232482910156e-01,1.990816295146942139e-01,2.643513083457946777e-01,3.785403072834014893e-01,6.301889419555664062e-01,-1.520889550447463989e-01,8.549677133560180664e-01,7.736616134643554688e-01
3.999955654144287109e-01,-1.907965689897537231e-01,3.341664746403694153e-02,6.942810863256454468e-02,-3.295906782150268555e-01,8.085239678621292114e-02,4.670410156250000000e-01,6.821954250335693359e-02,4.980010688304901123e-01,2.119633853435516357e-01,6.264900565147399902e-01,4.133584722876548767e-02,8.988281488418579102e-01,8.747712373733520508e-01
4.697306752204895020e-01,-5.614776536822319031e-02,-5.223459005355834961e-02,2.277915179729461670e-01,-2.967955768108367920e-01,2.544571161270141602e-01,5.940757989883422852e-01,1.202689111232757568e-01,2.722685337066650391e-01,7.144621759653091431e-02,7.222391963005065918e-01,-1.445618122816085815e-01,7.679002881050109863e-01,6.911588311195373535e-01
5.300399661064147949e-01,-4.563221931457519531e-01,2.284109294414520264e-01,2.023515701293945312e-01,-6.315597146749496460e-02,2.366257607936859131e-01,3.893807232379913330e-01,1.976049095392227173e-01,2.608817517757415771e-01,2.156615704298019409e-01,6.161636114120483398e-01,5.139108002185821533e-02,6.145462989807128906e-01,7.424557209014892578e-01
3.214102983474731445e-01,-3.581450283527374268e-01,1.403300315141677856e-01,2.789287567138671875e-01,-2.776540517807006836e-01,3.257309496402740479e-01,3.920085728168487549e-01,8.141917735338211060e-02,1.518569290637969971e-01,3.027472794055938721e-01,5.201659202575683594e-01,-7.351376116275787354e-02,5.343905687332153320e-01,7.524551749229431152e-01
3.320673704147338867e-01,-1.784351468086242676e-01,-7.416243106126785278e-02,1.283513158559799194e-01,-2.189763188362121582e-01,4.732981324195861816e-01,3.275507688522338867e-01,6.046170741319656372e-02,2.066873162984848022e-01,2.457102239131927490e-01,6.157938838005065918e-01,1.208660751581192017e-01,5.137605667114257812e-01,7.653830051422119141e-01
1.491967141628265381e-01,-1.823023408651351929e-01,-8.223156444728374481e-03,-1.767987012863159180e-02,-5.316353216767311096e-02,3.335999846458435059e-01,1.644283533096313477e-01,2.980368435382843018e-01,1.666413843631744385e-01,4.226096719503402710e-02,4.483451843261718750e-01,1.529484242200851440e-01,1.536137759685516357e-01,6.700357794761657715e-01
1.453479677438735962e-01,-2.152459472417831421e-01,-1.599669903516769409e-01,-9.916473180055618286e-02,1.086200401186943054e-02,4.502723813056945801e-01,1.831557154655456543e-01,2.157970666885375977e-01,2.724815607070922852e-01,-1.482082251459360123e-02,3.767983913421630859e-01,7.299400866031646729e-03,4.914090335369110107e-01,3.599708378314971924e-01
7.186742871999740601e-02,-3.524849414825439453e-01,-1.974311619997024536e-01,9.652371704578399658e-02,1.162240803241729736e-01,3.404629826545715332e-01,1.921323984861373901e-01,1.514526009559631348e-01,2.817312180995941162e-01,2.178182452917098999e-01,1.894154548645019531e-01,-2.894024550914764404e-01,2.088766694068908691e-01,5.087268352508544922e-01
9.504716098308563232e-02,-1.635515093803405762e-01,-2.761814892292022705e-01,1.266997307538986206e-01,2.537369728088378906e-02,6.132935285568237305e-01,3.891540691256523132e-02,2.244577556848526001e-01,2.678299844264984131e-01,-1.049488782882690430e-01,1.625879853963851929e-01,-3.951856195926666260e-01,1.944416612386703491e-01,4.847593009471893311e-01
-6.358402967453002930e-02,-1.377832442522048950e-01,-4.442330002784729004e-01,7.322823256254196167e-02,4.836542159318923950e-02,6.173129677772521973e-01,7.229864597320556641e-02,2.754341661930084229e-01,3.197517096996307373e-01,8.267214149236679077e-02,-3.105852007865905762e-02,-1.762930005788803101e-01,1.420514583587646484e-01,1.857831329107284546e-01
-5.145719647407531738e-02,1.424965169280767441e-02,-2.712527811527252197e-01,3.108888119459152222e-02,1.611529737710952759e-01,5.425417423248291016e-01,-1.042050421237945557e-01,7.475868612527847290e-02,2.226663976907730103e-01,-1.537413895130157471e-02,-1.378000825643539429e-01,-1.128523796796798706e-01,5.092104151844978333e-02,8.827294409275054932e-02
-7.184978574514389038e-02,-1.956274211406707764e-01,-5.031065344810485840e-01,-6.900516152381896973e-02,-1.960323564708232880e-02,5.057201385498046875e-01,-7.957410812377929688e-02,3.096639513969421387e-01,2.591107487678527832e-01,1.781647950410842896e-01,-2.177918404340744019e-01,-1.644705086946487427e-01,-1.475807875394821167e-01,1.190287619829177856e-01
-2.149901688098907471e-01,-5.217992067337036133e-01,-4.077065885066986084e-01,-8.286446332931518555e-02,7.420966029167175293e-02,4.204380810260772705e-01,-1.300262808799743652e-01,2.867030799388885498e-01,5.125583410263061523e-01,-4.300589114427566528e-02,-1.162580773234367371e-01,-2.848947346210479736e-01,-1.386695951223373413e-01,9.349070489406585693e-02
-1.924843639135360718e-01,-4.651199877262115479e-01,-3.549397885799407959e-01,1.731893569231033325e-01,1.058748513460159302e-01,3.018139004707336426e-01,-6.160117313265800476e-02,4.229532182216644287e-01,3.448997139930725098e-01,8.880089968442916870e-03,6.536584813147783279e-03,-3.438182175159454346e-01,-1.875376701354980469e-01,4.967713728547096252e-03
-1.137154921889305115e-01,-4.792499840259552002e-01,-4.903820157051086426e-01,1.584665030241012573e-01,-3.995198756456375122e-03,4.367809891700744629e-01,-1.531794369220733643e-01,2.532501518726348877e-01,4.738147556781768799e-01,1.857653707265853882e-01,-1.111711636185646057e-01,-6.851097941398620605e-02,7.638624310493469238e-02,-1.047225967049598694e-01
2.231393940746784210e-02,-6.800431013107299805e-01,-4.079052209854125977e-01,2.027775496244430542e-01,1.021723076701164246e-01,4.440365135669708252e-01,-2.856124937534332275e-01,4.386971890926361084e-01,2.355310767889022827e-01,2.467463910579681396e-01,-8.161164075136184692e-02,7.447164505720138550e-02,-1.728211641311645508e-01,1.431864202022552490e-01
-2.848170697689056396e-01,-5.998649001121520996e-01,-3.928426802158355713e-01,1.536583006381988525e-01,-8.635225892066955566e-02,5.321353077888488770e-01,-1.988147646188735962e-01,3.319157958030700684e-01,5.279521346092224121e-01,3.511360585689544678e-01,-2.598556876182556152e-01,-1.131578162312507629e-01,-6.465662270784378052e-02,-1.020321100950241089e-01
-1.024388372898101807e-01,-6.640161871910095215e-01,-1.229443550109863281e-01,2.874321341514587402e-01,1.396212130784988403e-01,2.540195882320404053e-01,-3.706176578998565674e-01,3.958854377269744873e-01,6.201988458633422852e-01,3.118672370910644531e-01,-1.413993984460830688e-01,1.143845692276954651e-01,1.546828001737594604e-01,-7.488963007926940918e-02
-2.972433716058731079e-02,-6.535058617591857910e-01,-1.529675573110580444e-01,4.683278203010559082e-01,-6.317330151796340942e-02,2.861414551734924316e-01,-2.633069157600402832e-01,4.655379951000213623e-01,5.353394150733947754e-01,3.464752435684204102e-01,3.741776198148727417e-02,3.796561658382415771e-01,-6.791920959949493408e-02,-1.976090297102928162e-02
-1.394749879837036133e-01,-7.237510085105895996e-01,-1.169905662536621094e-01,5.711866021156311035e-01,-9.051554650068283081e-02,3.393477499485015869e-01,-3.362063169479370117e-01,7.108252048492431641e-01,5.620886683464050293e-01,4.569591581821441650e-01,-7.839399576187133789e-02,1.933917403221130371e-01,7.682857662439346313e-02,-1.845342069864273071e-01
-2.397811263799667358e-01,-7.845672965049743652e-01,7.651834189891815186e-02,5.999057888984680176e-01,-2.087421268224716187e-01,3.139234781265258789e-01,-3.471271097660064697e-01,4.479200839996337891e-01,7.280653715133666992e-01,2.452963590621948242e-01,-1.881617903709411621e-01,2.895594835281372070e-01,1.482678800821304321e-01,-2.002244591712951660e-01
-1.577577888965606689e-01,-8.680693507194519043e-01,-6.692346930503845215e-02,8.183866143226623535e-01,-1.936139315366744995e-01,1.106692627072334290e-01,-3.928947150707244873e-01,6.949520111083984375e-01,6.315703392028808594e-01,3.112402260303497314e-01,-3.140277266502380371e-01,4.533734917640686035e-01,6.915277987718582153e-02,-9.863127022981643677e-02
-2.542949020862579346e-01,-9.077752828598022461e-01,-1.017012819647789001e-01,6.740007400512695312e-01,-1.866494119167327881e-01,1.189504861831665039e-01,-4.722958803176879883e-01,7.227188944816589355e-01,5.733181238174438477e-01,2.714760303497314453e-01,-2.720837891101837158e-01,4.525100290775299072e-01,8.506918698549270630e-02,1.496434025466442108e-02
-2.137310355901718140e-01,-7.157604694366455078e-01,-1.878345310688018799e-01,8.955780267715454102e-01,-2.491477578878402710e-01,6.715510040521621704e-02,-5.008322596549987793e-01,7.840947508811950684e-01,6.432018280029296875e-01,1.152404323220252991e-01,-7.327337563037872314e-02,6.875751614570617676e-01,1.094346567988395691e-01,-6.218887120485305786e-02
-1.300187110900878906e-01,-7.251630425453186035e-01,-9.981305152177810669e-02,8.065217137336730957e-01,-2.942221462726593018e-01,-5.303472280502319336e-04,-3.273485004901885986e-01,9.050044417381286621e-01,6.776805520057678223e-01,4.341576695442199707e-01,-1.164711415767669678e-01,5.724785327911376953e-01,2.146745920181274414e-01,-3.002487421035766602e-01
-1.771738380193710327e-01,-6.541135907173156738e-01,-9.811196476221084595e-03,7.957002520561218262e-01,-2.212160825729370117e-01,2.025435119867324829e-01,-2.452892959117889404e-01,1.004573225975036621e+00,8.917068839073181152e-01,4.425131082534790039e-01,4.128736630082130432e-02,6.538967490196228027e-01,-8.247680962085723877e-02,3.310530632734298706e-02
-1.498582959175109863e-01,-4.452470242977142334e-01,6.279988586902618408e-02,8.609532713890075684e-01,-2.256604880094528198e-01,2.213373780250549316e-02,-3.939768970012664795e-01,9.787594676017761230e-01,9.808093905448913574e-01,2.903610765933990479e-01,-1.304241716861724854e-01,5.412361025810241699e-01,-6.111814454197883606e-02,-3.397559374570846558e-02
-2.791319787502288818e-01,-3.539269268512725830e-01,-1.073574870824813843e-01,6.725695133209228516e-01,-3.281664848327636719e-01,-3.663338348269462585e-02,-3.949321210384368896e-01,1.062829613685607910e+00,1.015123128890991211e+00,1.967391818761825562e-01,-2.808550000190734863e-01,6.752806305885314941e-01,1.690351404249668121e-02,-9.705069661140441895e-02
-2.096500098705291748e-01,-5.507594943046569824e-01,9.974447637796401978e-02,6.563790440559387207e-01,-7.550210952758789062e-01,-5.461103841662406921e-02,-4.884386360645294189e-01,9.088476896286010742e-01,8.872344493865966797e-01,8.384353667497634888e-02,-1.461623758077621460e-01,5.977857708930969238e-01,-9.441450238227844238e-02,-9.530287235975265503e-02
-6.711108982563018799e-02,-3.907589018344879150e-01,-2.322139441967010498e-01,5.114767551422119141e-01,-6.252921223640441895e-01,-1.280117183923721313e-01,-5.014992356300354004e-01,9.046816229820251465e-01,1.010443568229675293e+00,-5.534145515412092209e-03,-1.045344471931457520e-01,7.214145660400390625e-01,-1.569856405258178711e-01,-3.223105520009994507e-02
-2.699919044971466064e-01,-3.639164268970489502e-01,-1.365793794393539429e-01,6.655902266502380371e-01,-4.967789053916931152e-01,-2.112931162118911743e-01,-4.413965940475463867e-01,7.672501206398010254e-01,1.104324698448181152e+00,7.352522015571594238e-02,-1.265737861394882202e-01,4.999139904975891113e-01,-2.097912319004535675e-02,1.530424505472183228e-01
-2.050044387578964233e-01,-2.497574239969253540e-01,-7.917577773332595825e-02,5.410605669021606445e-01,-8.340405225753784180e-01,-3.203024864196777344e-01,-1.810844689607620239e-01,1.008004069328308105e+00,9.332473874092102051e-01,-2.034526877105236053e-02,-6.180611252784729004e-02,7.380302548408508301e-01,-3.667410612106323242e-01,3.555982932448387146e-02
-7.085189223289489746e-02,-4.787352383136749268e-01,-1.258996427059173584e-01,5.531405806541442871e-01,-7.967562079429626465e-01,-1.386426836252212524e-01,-3.674976825714111328e-01,7.212957739830017090e-01,1.139059305191040039e+00,-3.036527931690216064e-01,7.175350561738014221e-03,5.236306190490722656e-01,-4.899751394987106323e-02,9.774071164429187775e-03
-6.087030842900276184e-02,-3.787948191165924072e-01,-1.096207424998283386e-01,4.027772545814514160e-01,-9.709531664848327637e-01,-3.960771858692169189e-01,-8.605284243822097778e-02,6.323488354682922363e-01,1.112474560737609863e+00,-1.918697208166122437e-01,-1.984619051218032837e-01,7.593492865562438965e-01,-1.943925954401493073e-02,-1.066677272319793701e-01
9.488312900066375732e-02,-2.335867434740066528e-01,-1.620910018682479858e-01,4.365489780902862549e-01,-7.953911423683166504e-01,-4.657707810401916504e-01,-2.333142608404159546e-01,6.410188078880310059e-01,1.047323465347290039e+00,-2.231913208961486816e-01,-2.831836789846420288e-02,6.896036863327026367e-01,-2.156718224287033081e-01,6.870663911104202271e-02
-2.018271386623382568e-01,-1.390992403030395508e-01,-1.282989978790283203e-01,2.016155272722244263e-01,-1.054694533348083496e+00,-4.016232788562774658e-01,-9.215341508388519287e-02,6.098695993423461914e-01,1.011210560798645020e+00,-3.093968331813812256e-01,1.969093233346939087e-01,5.803079009056091309e-01,-3.460710644721984863e-01,1.628651916980743408e-01
3.875103965401649475e-02,-2.107235640287399292e-01,-2.378242611885070801e-01,3.315993845462799072e-01,-9.381580352783203125e-01,-1.839572638273239136e-01,-1.485096663236618042e-01,3.533256351947784424e-01,8.464692234992980957e-01,-3.490895926952362061e-01,2.577933073043823242e-01,3.502470850944519043e-01,-2.205931395292282104e-01,1.010344699025154114e-01
1.806220263242721558e-01,-1.541977822780609131e-01,-2.677562832832336426e-01,1.555811613798141479e-01,-1.092216849327087402e+00,-4.723596870899200439e-01,-2.297563403844833374e-01,4.725680053234100342e-01,6.838772296905517578e-01,-3.521890640258789062e-01,-1.462681591510772705e-02,4.213832318782806396e-01,-2.201659679412841797e-01,7.794640213251113892e-02
5.826991796493530273e-02,-2.053751945495605469e-01,-3.502129614353179932e-01,1.629767864942550659e-01,-1.256294369697570801e+00,-2.942333817481994629e-01,-2.944643497467041016e-01,2.655206322669982910e-01,7.882035374641418457e-01,-5.235658884048461914e-01,-1.028399728238582611e-02,3.766130805015563965e-01,-4.697984755039215088e-01,1.913688778877258301e-01
-1.609062850475311279e-01,-1.004463508725166321e-01,-8.762048184871673584e-02,2.063159793615341187e-01,-9.427880644798278809e-01,-3.506023585796356201e-01,-3.759043514728546143e-01,3.930557966232299805e-01,5.749167203903198242e-01,-5.109133720397949219e-01,1.830795258283615112e-01,3.718289434909820557e-01,-3.428110182285308838e-01,2.934296987950801849e-02
1.874108910560607910e-01,-8.082015812397003174e-02,-3.583503961563110352e-01,3.387918174266815186e-01,-1.142498135566711426e+00,-2.504139840602874756e-01,-3.723517060279846191e-01,1.627993285655975342e-01,4.173604846000671387e-01,-2.473336905241012573e-01,2.828984856605529785e-01,5.884290933609008789e-01,-2.089169025421142578e-01,1.927164345979690552e-01
-1.709676682949066162e-01,-3.049920797348022461e-01,-3.609332144260406494e-01,1.607933491468429565e-01,-9.903409481048583984e-01,-1.230630576610565186e-01,-1.120924428105354309e-01,2.696429193019866943e-01,3.860706686973571777e-01,-4.035254120826721191e-01,5.921132862567901611e-02,3.949293792247772217e-01,-3.367845714092254639e-01,2.614469453692436218e-02
-4.311415553092956543e-01,-1.388459354639053345e-01,-4.874624609947204590e-01,1.420829147100448608e-01,-6.524978876113891602e-01,-3.231159150600433350e-01,-2.802855372428894043e-01,1.905723065137863159e-01,2.973825037479400635e-01,-3.986164629459381104e-01,-1.053901668637990952e-02,3.203012049198150635e-01,-4.739071130752563477e-01,-1.912300884723663330e-01
-1.849737167358398438e-01,-1.745161414146423340e-01,-3.753174245357513428e-01,-3.358779847621917725e-02,-4.620926082134246826e-01,-1.765571683645248413e-01,-4.702676832675933838e-01,7.287407666444778442e-02,1.624273955821990967e-01,-4.336614608764648438e-01,-1.647375375032424927e-01,2.829625904560089111e-01,-5.500345230102539062e-01,-8.302259445190429688e-02
-4.283609092235565186e-01,2.560196816921234131e-02,-6.077554821968078613e-01,5.413794424384832382e-03,-7.092431783676147461e-01,6.368517130613327026e-02,-6.000465750694274902e-01,4.972956702113151550e-02,2.002489268779754639e-01,-2.415190339088439941e-01,-7.590328156948089600e-02,2.719924449920654297e-01,-6.494211554527282715e-01,-1.082253530621528625e-01
-2.402806878089904785e-01,-3.073940575122833252e-01,-6.468565464019775391e-01,-5.192194879055023193e-02,-7.407912015914916992e-01,3.378135338425636292e-02,-6.901259422302246094e-01,1.269092559814453125e-01,2.891610860824584961e-01,-1.262005567550659180e-01,-2.978921234607696533e-01,3.423483967781066895e-01,-6.946952342987060547e-01,-1.145196035504341125e-01
-4.291976392269134521e-01,-2.470005601644515991e-01,-8.370369672775268555e-01,6.695577502250671387e-02,-5.970417261123657227e-01,8.407738059759140015e-02,-6.781591773033142090e-01,3.120056688785552979e-01,-6.054705008864402771e-02,-8.940612524747848511e-02,-2.038850784301757812e-01,8.825056999921798706e-02,-7.661073207855224609e-01,-1.911747008562088013e-01
-3.523438274860382080e-01,-3.527162969112396240e-01,-6.373197436332702637e-01,-1.173808053135871887e-01,-6.891537308692932129e-01,1.578066945075988770e-01,-7.908490300178527832e-01,2.963705547153949738e-02,-7.856469601392745972e-02,-2.179098688066005707e-02,-4.163606762886047363e-01,2.227450609207153320e-01,-7.700073122978210449e-01,-4.224728941917419434e-01
-7.216894626617431641e-01,-3.683390617370605469e-01,-8.448300957679748535e-01,5.859329830855131149e-03,-5.697430372238159180e-01,4.702031612396240234e-03,-8.215010762214660645e-01,2.667753100395202637e-01,1.578459143638610840e-01,-1.173074841499328613e-01,-5.119564533233642578e-01,2.199628949165344238e-01,-9.718193411827087402e-01,-3.291463553905487061e-01
-5.238875746726989746e-01,-2.616722285747528076e-01,-7.262275815010070801e-01,-2.742285132408142090e-01,-3.491665124893188477e-01,1.888448148965835571e-01,-7.298781871795654297e-01,2.649865150451660156e-01,1.128517985343933105e-01,-3.653872758150100708e-02,-6.954425573348999023e-01,-2.566020004451274872e-02,-1.025871396064758301e+00,-4.286788702011108398e-01
-7.515139579772949219e-01,-3.158762753009796143e-01,-9.889127016067504883e-01,-1.191907655447721481e-02,-4.818572103977203369e-01,1.383222639560699463e-01,-8.796803951263427734e-01,7.646324485540390015e-02,2.065160423517227173e-01,7.192625850439071655e-02,-7.539594173431396484e-01,-1.516835391521453857e-02,-8.670427799224853516e-01,-4.287580251693725586e-01
-6.374219059944152832e-01,-3.240196406841278076e-01,-9.777626991271972656e-01,-2.345776855945587158e-01,-6.484417319297790527e-01,3.825399279594421387e-02,-1.013916611671447754e+00,1.675403118133544922e-01,2.365874797105789185e-01,7.331536710262298584e-02,-7.836341857910156250e-01,1.115032956004142761e-01,-6.536287665367126465e-01,-4.921907186508178711e-01
-6.402777433395385742e-01,-3.711418807506561279e-01,-9.721783995628356934e-01,-4.752229526638984680e-02,-4.767184853553771973e-01,7.037352770566940308e-03,-8.007537722587585449e-01,1.692334711551666260e-01,1.330250352621078491e-01,1.370687037706375122e-02,-7.610572576522827148e-01,2.629966735839843750e-01,-6.464100480079650879e-01,-3.790804445743560791e-01
-4.907833337783813477e-01,-4.918514490127563477e-01,-9.154744148254394531e-01,-1.914378404617309570e-01,-7.047504782676696777e-01,1.355598121881484985e-02,-5.655711889266967773e-01,2.571556866168975830e-01,-5.337525531649589539e-02,1.532104909420013428e-01,-6.546355485916137695e-01,2.558593451976776123e-01,-5.568473935127258301e-01,-2.533089555799961090e-02
-5.096796154975891113e-01,-5.344601869583129883e-01,-7.711816430091857910e-01,-3.645055694505572319e-03,-7.396871447563171387e-01,-2.307915836572647095e-01,-8.373191356658935547e-01,4.038401544094085693e-01,9.847307205200195312e-02,-1.903929561376571655e-02,-6.809991598129272461e-01,1.056272163987159729e-01,-5.580339431762695312e-01,-1.024852097034454346e-01
-5.909547805786132812e-01,-6.422910690307617188e-01,-9.804773330688476562e-01,-1.123429387807846069e-01,-4.932732880115509033e-01,-1.753324568271636963e-01,-7.602970004081726074e-01,3.740729689598083496e-01,2.493597939610481262e-02,2.391553670167922974e-01,-7.950157523155212402e-01,3.515483438968658447e-01,-3.667895793914794922e-01,-3.253666162490844727e-01
-3.857495486736297607e-01,-6.398727893829345703e-01,-7.078040838241577148e-01,1.441698968410491943e-01,-6.611254811286926270e-01,-1.352472305297851562e-01,-6.630321741104125977e-01,2.450811266899108887e-01,1.018051728606224060e-01,2.385221868753433228e-01,-9.318113327026367188e-01,2.340511232614517212e-01,-2.749314606189727783e-01,-1.474867612123489380e-01
-4.539393484592437744e-01,-5.864112377166748047e-01,-7.024974822998046875e-01,1.854583621025085449e-01,-4.375675618648529053e-01,-3.090827763080596924e-01,-7.251724600791931152e-01,2.183924615383148193e-01,-3.368603810667991638e-02,5.122002959251403809e-01,-7.627886533737182617e-01,2.968690693378448486e-01,-2.122264206409454346e-01,-1.089515537023544312e-01
-3.287511169910430908e-01,-5.560362339019775391e-01,-6.332492232322692871e-01,1.011778190732002258e-01,-7.047184705734252930e-01,-4.519239366054534912e-01,-3.855471014976501465e-01,1.711945235729217529e-01,7.928615808486938477e-02,3.183507025241851807e-01,-6.392911672592163086e-01,4.073201715946197510e-01,-3.310829699039459229e-01,1.467539556324481964e-02
-3.277816474437713623e-01,-4.822661280632019043e-01,-4.205214977264404297e-01,2.751619517803192139e-01,-4.748072028160095215e-01,-2.461663782596588135e-01,-5.017840266227722168e-01,3.193365037441253662e-01,8.108810335397720337e-02,4.761732220649719238e-01,-5.958794951438903809e-01,5.504271388053894043e-01,-1.996683180332183838e-01,1.683557480573654175e-01
-3.456153869628906250e-01,-4.523414373397827148e-01,-3.670229613780975342e-01,3.600183427333831787e-01,-4.260541796684265137e-01,-4.945457875728607178e-01,-6.700744032859802246e-01,3.001727759838104248e-01,2.143073268234729767e-02,4.599626958370208740e-01,-4.031148850917816162e-01,4.700853228569030762e-01,-2.072689980268478394e-01,1.355890631675720215e-01
-4.322860538959503174e-01,-3.005418777465820312e-01,-2.503302395343780518e-01,2.091545164585113525e-01,-5.627667307853698730e-01,-4.091503620147705078e-01,-4.898503720760345459e-01,4.195411801338195801e-01,2.137700654566287994e-02,4.730190634727478027e-01,-4.159879386425018311e-01,5.474067330360412598e-01,1.592528633773326874e-02,1.427206844091415405e-01
-2.639401257038116455e-01,-4.816924333572387695e-01,-2.496564537286758423e-01,2.198136001825332642e-01,-5.937051177024841309e-01,-6.153795719146728516e-01,-4.686292707920074463e-01,4.537777006626129150e-01,4.204514622688293457e-02,5.787591338157653809e-01,-4.589786827564239502e-01,5.066254138946533203e-01,-5.084436386823654175e-03,3.875761926174163818e-01
-3.441220223903656006e-01,-3.240388929843902588e-01,-2.354505062103271484e-01,2.215428203344345093e-01,-6.073573827743530273e-01,-4.850735366344451904e-01,-4.777110219001770020e-01,4.307095110416412354e-01,-1.130695194005966187e-01,4.970840811729431152e-01,-5.899893045425415039e-01,6.958565711975097656e-01,-7.171084731817245483e-02,1.988590508699417114e-01
-3.985972106456756592e-01,-2.976791858673095703e-01,-2.875960767269134521e-01,1.959270089864730835e-01,-5.854261517524719238e-01,-6.613464355468750000e-01,-4.585616290569305420e-01,4.486314952373504639e-01,-9.284159168601036072e-03,7.082550525665283203e-01,-4.905183613300323486e-01,7.665806412696838379e-01,-6.116282567381858826e-02,3.844322860240936279e-01
-1.963401138782501221e-01,1.386145316064357758e-02,-3.149798214435577393e-01,1.818376481533050537e-01,-6.780415177345275879e-01,-5.872256159782409668e-01,-4.414795935153961182e-01,4.290221035480499268e-01,-4.679574444890022278e-02,2.976814806461334229e-01,-4.670086801052093506e-01,7.676465511322021484e-01,-1.235801354050636292e-01,2.541930079460144043e-01
-3.491707146167755127e-01,-6.969955563545227051e-02,-1.632279753684997559e-01,3.395504355430603027e-01,-4.427919983863830566e-01,-6.926224231719970703e-01,-3.812331557273864746e-01,4.379003643989562988e-01,7.626242935657501221e-02,5.209263563156127930e-01,-3.905788958072662354e-01,5.093779563903808594e-01,-2.758761942386627197e-01,3.330976665019989014e-01
-4.743664264678955078e-01,1.852511167526245117e-01,-2.572445571422576904e-01,2.486551403999328613e-01,-4.383851587772369385e-01,-4.547748565673828125e-01,-3.552671074867248535e-01,6.087705492973327637e-01,4.621957242488861084e-02,4.060414433479309082e-01,-6.277962327003479004e-01,5.701307058334350586e-01,-1.092364490032196045e-01,5.403538346290588379e-01
-3.009414374828338623e-01,2.951614558696746826e-01,-2.049185782670974731e-01,-3.918417915701866150e-02,-5.165696740150451660e-01,-6.809096932411193848e-01,-5.197506546974182129e-01,4.781574308872222900e-01,-8.903494477272033691e-02,3.642533421516418457e-01,-4.468225538730621338e-01,6.824946999549865723e-01,-4.965371266007423401e-02,4.269150495529174805e-01
-3.222925961017608643e-01,2.592224180698394775e-01,-2.600141465663909912e-01,1.278021093457937241e-02,-4.866855144500732422e-01,-7.841711640357971191e-01,-3.395773768424987793e-01,4.268707334995269775e-01,3.438321128487586975e-02,3.565599322319030762e-01,-4.821600317955017090e-01,5.212041735649108887e-01,-2.344019412994384766e-01,3.361669480800628662e-01
-3.174848854541778564e-01,3.009599447250366211e-01,-4.772732257843017578e-01,-1.184989288449287415e-01,-5.306450724601745605e-01,-6.781553626060485840e-01,-3.028105795383453369e-01,4.105309844017028809e-01,9.092061221599578857e-02,3.896284103393554688e-01,-5.957778692245483398e-01,4.357814788818359375e-01,-3.271268308162689209e-01,4.811479747295379639e-01
-3.204979896545410156e-01,3.141043186187744141e-01,-2.340822517871856689e-01,2.114959806203842163e-02,-5.996322631835937500e-01,-6.464090347290039062e-01,-3.593689799308776855e-01,3.285748362541198730e-01,-2.737893909215927124e-02,2.900142967700958252e-01,-4.143010675907135010e-01,3.661245703697204590e-01,-4.133363068103790283e-01,5.006322264671325684e-01
-4.174199402332305908e-01,3.020935356616973877e-01,-3.489060103893280029e-01,-1.643880307674407959e-01,-5.957095623016357422e-01,-7.114412784576416016e-01,-1.096742823719978333e-01,3.006641268730163574e-01,-1.313346624374389648e-01,3.504082858562469482e-01,-7.306419610977172852e-01,3.540200591087341309e-01,-3.869061768054962158e-01,4.874400496482849121e-01
-3.606349229812622070e-01,2.998392581939697266e-01,-1.971311420202255249e-01,-3.175157308578491211e-01,-5.014685988426208496e-01,-7.928608655929565430e-01,-2.775995731353759766e-01,1.383379101753234863e-01,-2.490534633398056030e-01,2.567841708660125732e-01,-3.171524107456207275e-01,2.686751484870910645e-01,-5.046146512031555176e-01,6.972576975822448730e-01
-2.238248437643051147e-01,3.269479274749755859e-01,-4.598135650157928467e-01,-1.769707798957824707e-01,-4.529582262039184570e-01,-6.025884747505187988e-01,-2.172645330429077148e-01,2.506904862821102142e-02,-3.913136422634124756e-01,1.665505319833755493e-01,-3.946900367736816406e-01,1.307408064603805542e-01,-4.808947443962097168e-01,5.127601623535156250e-01
-2.544432878494262695e-01,5.133681893348693848e-01,-6.810036301612854004e-02,-1.505970954895019531e-01,-2.553012073040008545e-01,-5.655462145805358887e-01,-3.220639526844024658e-01,-1.215082406997680664e-01,-1.437105089426040649e-01,2.944639325141906738e-01,-5.377901792526245117e-01,2.342595160007476807e-01,-4.161085784435272217e-01,6.282593607902526855e-01
-3.944262862205505371e-01,2.102813422679901123e-01,-2.965847849845886230e-01,-3.103550672531127930e-01,-2.483701258897781372e-01,-8.306573033332824707e-01,-3.291985988616943359e-01,-2.002011090517044067e-01,-4.577146172523498535e-01,4.661805331707000732e-01,-5.549255609512329102e-01,-5.854148883372545242e-03,-3.770279586315155029e-01,7.121551036834716797e-01
-3.280074000358581543e-01,3.159976899623870850e-01,-1.653745472431182861e-01,-2.328016608953475952e-01,-9.288319945335388184e-02,-7.168983221054077148e-01,-2.983276844024658203e-01,-7.042533904314041138e-02,-4.942679405212402344e-01,3.688971698284149170e-01,-5.145608186721801758e-01,2.251177430152893066e-01,-5.663914084434509277e-01,6.663769483566284180e-01
-4.136939644813537598e-01,3.482821583747863770e-01,-2.576145231723785400e-01,-2.773685753345489502e-01,-9.810911118984222412e-02,-5.979951620101928711e-01,-5.160455107688903809e-01,-1.943062841892242432e-01,-4.514720439910888672e-01,3.690083920955657959e-01,-5.908601284027099609e-01,-9.082433767616748810e-03,-4.119046926498413086e-01,6.505535840988159180e-01
-5.013500452041625977e-01,2.333997488021850586e-01,-2.180052548646926880e-01,-3.551350533962249756e-02,-2.365466952323913574e-01,-5.790463685989379883e-01,-3.573099672794342041e-01,-3.267582952976226807e-01,-4.946192800998687744e-01,6.109701991081237793e-01,-5.502283573150634766e-01,1.303396970033645630e-01,-2.880599796772003174e-01,5.965818166732788086e-01
-3.969564735889434814e-01,2.930446267127990723e-01,-6.737221777439117432e-02,-1.705823242664337158e-01,-1.312822401523590088e-01,-4.107034206390380859e-01,-6.154296398162841797e-01,-3.911880850791931152e-01,-4.338066875934600830e-01,6.548091769218444824e-01,-4.654155671596527100e-01,5.942083522677421570e-02,-4.209138453006744385e-01,5.123690366744995117e-01
-6.702642440795898438e-01,9.652762115001678467e-02,-1.341975480318069458e-01,-1.646706759929656982e-01,8.669933304190635681e-03,-2.132673859596252441e-01,-4.673016667366027832e-01,5.657531321048736572e-02,-5.863282084465026855e-01,6.126808524131774902e-01,-6.459845304489135742e-01,3.164669126272201538e-02,-4.353928565979003906e-01,5.243915915489196777e-01
-6.124085187911987305e-01,3.812003433704376221e-01,-1.081732288002967834e-01,-6.267663091421127319e-02,1.749207228422164917e-01,-3.694230020046234131e-01,-6.438443064689636230e-01,-2.208674103021621704e-01,-6.766403913497924805e-01,7.281264662742614746e-01,-5.153493881225585938e-01,2.193248718976974487e-01,-4.657853245735168457e-01,5.979366898536682129e-01
-8.713766932487487793e-01,3.691032528877258301e-01,6.709573324769735336e-03,-4.537994787096977234e-02,2.216283529996871948e-01,-1.118224039673805237e-01,-4.666531980037689209e-01,-1.460738033056259155e-01,-6.855026483535766602e-01,7.852085232734680176e-01,-6.727742552757263184e-01,1.612581759691238403e-01,-6.868518590927124023e-01,4.259187281131744385e-01
-7.268154621124267578e-01,2.578101754188537598e-01,-4.393242672085762024e-02,7.377596944570541382e-02,4.468459784984588623e-01,-3.622828125953674316e-01,-6.201434135437011719e-01,9.537103027105331421e-02,-8.009471297264099121e-01,8.443391919136047363e-01,-5.790852904319763184e-01,8.236575126647949219e-02,-6.950354576110839844e-01,4.196128845214843750e-01
-8.786244392395019531e-01,1.940557807683944702e-01,-2.123964950442314148e-03,1.521201282739639282e-01,5.595552325248718262e-01,-1.269386857748031616e-01,-6.516878008842468262e-01,-9.690607339143753052e-02,-4.776798784732818604e-01,9.361250996589660645e-01,-5.906525254249572754e-01,2.614188194274902344e-01,-4.949748516082763672e-01,4.485482275485992432e-01
-8.887585997581481934e-01,3.765931725502014160e-01,-9.092316031455993652e-02,1.746547967195510864e-01,3.677559792995452881e-01,-2.027854621410369873e-01,-7.515161633491516113e-01,1.262645423412322998e-01,-4.890671372413635254e-01,8.461732268333435059e-01,-8.598102927207946777e-01,1.810335367918014526e-01,-4.860732257366180420e-01,3.350481390953063965e-01
-9.027140140533447266e-01,1.968505382537841797e-01,6.166919693350791931e-02,3.287854418158531189e-02,3.522081673145294189e-01,-8.174461871385574341e-02,-6.622336506843566895e-01,2.991929948329925537e-01,-4.921630024909973145e-01,9.600777626037597656e-01,-9.945151209831237793e-01,-2.980574732646346092e-03,-4.440493583679199219e-01,9.379234910011291504e-02
-1.101156949996948242e+00,2.231785356998443604e-01,3.687037900090217590e-02,1.186684966087341309e-01,6.892830729484558105e-01,-3.072421848773956299e-01,-6.653670668601989746e-01,3.645960688591003418e-01,-3.082534372806549072e-01,8.303675055503845215e-01,-7.778296470642089844e-01,-1.542330980300903320e-01,-3.924337029457092285e-01,2.239833772182464600e-01
-1.027805805206298828e+00,3.269126117229461670e-01,1.085775122046470642e-01,2.540012001991271973e-01,5.373847484588623047e-01,-2.774319350719451904e-01,-8.948067426681518555e-01,1.355547159910202026e-01,-2.694238424301147461e-01,1.035743355751037598e+00,-7.639715671539306641e-01,7.816818356513977051e-02,-5.447328686714172363e-01,2.556320428848266602e-01
-7.517188787460327148e-01,4.890521764755249023e-01,1.521588265895843506e-01,2.763825654983520508e-01,4.329403042793273926e-01,-1.321381479501724243e-01,-7.312821745872497559e-01,1.965063512325286865e-01,-2.463887780904769897e-01,1.017455697059631348e+00,-8.896445631980895996e-01,2.047845721244812012e-01,-3.484936058521270752e-01,7.971075177192687988e-02
-7.749154567718505859e-01,4.030273556709289551e-01,2.898589074611663818e-01,5.757599696516990662e-02,6.024702787399291992e-01,-2.840576469898223877e-01,-6.663702726364135742e-01,1.661572605371475220e-01,-2.293168455362319946e-01,7.389065027236938477e-01,-5.598565340042114258e-01,1.313999444246292114e-01,-2.904625833034515381e-01,-1.785786449909210205e-02
-5.746981501579284668e-01,2.738387882709503174e-01,2.988837063312530518e-01,2.297973483800888062e-01,5.158074498176574707e-01,-3.017312586307525635e-01,-5.698958039283752441e-01,2.038860768079757690e-01,-1.538813263177871704e-01,6.760335564613342285e-01,-7.041383981704711914e-01,2.378536909818649292e-01,-1.634210199117660522e-01,1.142397224903106689e-01
-7.801851034164428711e-01,1.694381535053253174e-01,2.127696424722671509e-01,2.425660789012908936e-01,2.722176611423492432e-01,-1.369718015193939209e-01,-4.302709102630615234e-01,3.288987874984741211e-01,-2.463850826025009155e-01,8.699262142181396484e-01,-5.287464261054992676e-01,3.763208910822868347e-02,-8.103495836257934570e-02,2.075362056493759155e-01
-4.727510213851928711e-01,3.425547480583190918e-01,3.560725748538970947e-01,3.264306783676147461e-01,3.557468652725219727e-01,-3.565012514591217041e-01,-2.632996439933776855e-01,4.807932674884796143e-02,5.644484236836433411e-02,7.715794444084167480e-01,-5.769188404083251953e-01,1.095248833298683167e-01,-2.018150091171264648e-01,2.882159650325775146e-01
-4.222428798675537109e-01,3.682258129119873047e-01,5.280004143714904785e-01,3.944152593612670898e-01,3.223908543586730957e-01,-3.240574896335601807e-01,-1.097991615533828735e-01,2.394100129604339600e-01,-3.552003577351570129e-02,7.747908830642700195e-01,-5.535875558853149414e-01,1.415665596723556519e-01,-9.366954118013381958e-02,2.232362776994705200e-01
-2.627018392086029053e-01,3.466019332408905029e-01,6.342440843582153320e-01,2.030670940876007080e-01,2.340234965085983276e-01,-5.246779322624206543e-01,-8.455736935138702393e-02,1.412627100944519043e-01,1.128377616405487061e-01,6.274524927139282227e-01,-1.821069419384002686e-01,2.086472511291503906e-01,6.602760870009660721e-03,1.200200542807579041e-01
-3.053375780582427979e-01,5.532550215721130371e-01,5.459165573120117188e-01,2.736276388168334961e-01,2.272104471921920776e-01,-6.050639748573303223e-01,5.266253650188446045e-02,2.849706709384918213e-01,8.958517014980316162e-02,6.512387990951538086e-01,-2.845554351806640625e-01,2.964785099029541016e-01,-3.494092449545860291e-02,2.418382465839385986e-01
-2.067465186119079590e-01,3.873080015182495117e-01,6.539277434349060059e-01,4.646257460117340088e-01,-3.532871976494789124e-02,-4.868926703929901123e-01,-1.136847659945487976e-01,2.690111398696899414e-01,2.586986310780048370e-02,5.982334017753601074e-01,-9.512382559478282928e-03,4.166751801967620850e-01,2.075739204883575439e-01,4.450017809867858887e-01
-2.405911535024642944e-01,2.097173184156417847e-01,9.241743683815002441e-01,4.126088023185729980e-01,3.126313164830207825e-02,-6.205461621284484863e-01,-6.369540933519601822e-03,8.839374780654907227e-02,9.089619666337966919e-02,6.263473629951477051e-01,-7.421168684959411621e-02,4.665639996528625488e-01,1.090925708413124084e-01,6.377474069595336914e-01
-1.273254752159118652e-01,4.436406195163726807e-01,1.056734085083007812e+00,1.891307979822158813e-01,1.718784123659133911e-01,-5.190779566764831543e-01,5.872832238674163818e-02,1.115089654922485352e-01,-8.599713444709777832e-02,4.279785156250000000e-01,7.237573713064193726e-02,4.696193635463714600e-01,2.638446092605590820e-01,4.536239504814147949e-01
-1.103151887655258179e-01,5.837113857269287109e-01,7.214640378952026367e-01,2.472121715545654297e-01,-4.430562257766723633e-02,-3.894764482975006104e-01,4.840931296348571777e-02,2.061155140399932861e-01,-1.736294478178024292e-01,4.914745390415191650e-01,1.508235186338424683e-01,3.793200254440307617e-01,2.976734340190887451e-01,5.900330543518066406e-01
-1.677486747503280640e-01,6.358387470245361328e-01,9.196814894676208496e-01,4.685938060283660889e-01,-7.546846568584442139e-02,-3.768725693225860596e-01,2.452023886144161224e-02,2.086500227451324463e-01,-6.062256917357444763e-02,3.163494765758514404e-01,2.213894426822662354e-01,2.739999592304229736e-01,1.013840734958648682e-01,3.411655128002166748e-01
-7.343550678342580795e-03,6.401537656784057617e-01,8.859075903892517090e-01,4.607718586921691895e-01,-5.047708400525152683e-04,-2.760412096977233887e-01,1.907784491777420044e-01,-1.460363417863845825e-01,-2.011599764227867126e-02,3.227496147155761719e-01,2.014185190200805664e-01,3.114240169525146484e-01,-7.586684823036193848e-02,3.558762073516845703e-01
7.788446545600891113e-02,6.822489500045776367e-01,9.510648250579833984e-01,2.030431926250457764e-01,-1.677865982055664062e-01,-1.876121163368225098e-01,9.208709746599197388e-02,1.766517907381057739e-01,5.547374021261930466e-03,2.898637056350708008e-01,3.642654716968536377e-01,3.192607462406158447e-01,5.372754111886024475e-02,1.474996954202651978e-01
9.944353252649307251e-02,5.690743327140808105e-01,8.522900938987731934e-01,3.973115086555480957e-01,2.599589526653289795e-02,-3.029864132404327393e-01,2.516383230686187744e-01,2.328375726938247681e-01,-8.507232367992401123e-02,2.704595923423767090e-01,3.996376097202301025e-01,2.170770913362503052e-01,1.407389044761657715e-01,3.687222898006439209e-01
-1.057947948575019836e-01,8.200946450233459473e-01,8.255117535591125488e-01,2.080320566892623901e-01,-1.713749766349792480e-01,-2.139867693185806274e-01,5.708685889840126038e-02,6.716195493936538696e-02,-1.961430758237838745e-01,1.963689625263214111e-01,4.292856752872467041e-01,4.874148592352867126e-02,8.643461018800735474e-02,1.847377717494964600e-01
-3.560214489698410034e-02,8.064393401145935059e-01,4.456329941749572754e-01,6.032468378543853760e-02,1.216214746236801147e-01,-2.771563231945037842e-01,2.752805650234222412e-01,1.025546640157699585e-01,1.424014009535312653e-02,1.318208128213882446e-01,2.556878030300140381e-01,1.999267935752868652e-02,-1.083546057343482971e-01,2.714935243129730225e-01
-5.111002922058105469e-02,8.773989081382751465e-01,5.995631814002990723e-01,3.996473923325538635e-02,-1.700347512960433960e-01,-4.083340242505073547e-02,2.219324856996536255e-01,9.431126713752746582e-02,-1.619918048381805420e-01,-1.697707176208496094e-01,1.759745478630065918e-01,7.240314781665802002e-02,-1.339741945266723633e-01,9.696488827466964722e-02
1.076996698975563049e-01,8.952009081840515137e-01,4.359426498413085938e-01,-8.984352648258209229e-02,7.178577780723571777e-02,1.193507835268974304e-01,2.354362607002258301e-01,-5.821654200553894043e-02,-9.890989214181900024e-02,3.575065359473228455e-02,2.938825786113739014e-01,-1.221257224678993225e-01,-2.015686333179473877e-01,2.857998311519622803e-01
1.416551172733306885e-01,9.443719387054443359e-01,3.684557080268859863e-01,-8.533687889575958252e-02,-9.277775883674621582e-02,2.379101067781448364e-01,2.530569732189178467e-01,-4.929308593273162842e-02,-1.016845926642417908e-01,-2.128415703773498535e-01,2.937425374984741211e-01,-1.760067939758300781e-01,-2.757104635238647461e-01,2.023122161626815796e-01
-1.592426449060440063e-01,6.798839569091796875e-01,2.708601355552673340e-01,-2.554374635219573975e-01,-1.322729140520095825e-01,1.450287401676177979e-01,2.353001683950424194e-01,-1.804053485393524170e-01,-1.639958173036575317e-01,-2.489392906427383423e-01,2.799006104469299316e-01,-2.605901956558227539e-01,-4.063713848590850830e-01,-2.635720968246459961e-01
3.330361843109130859e-02,5.837901830673217773e-01,3.627398014068603516e-01,-1.060675233602523804e-01,-2.883272245526313782e-02,2.956177294254302979e-01,2.501601278781890869e-01,-2.350310385227203369e-01,-3.892666399478912354e-01,-1.919686645269393921e-01,3.837269246578216553e-01,-4.055802226066589355e-01,-1.892876327037811279e-01,-2.526448294520378113e-02
5.544168502092361450e-02,5.787901282310485840e-01,3.306739330291748047e-01,-5.310564488172531128e-02,-2.889056457206606865e-03,2.255145013332366943e-01,2.391738295555114746e-01,-3.376003801822662354e-01,-2.917782366275787354e-01,-2.623371183872222900e-01,2.324287891387939453e-01,-3.830152750015258789e-01,-2.845881283283233643e-01,-2.048717737197875977e-01
2.774873049929738045e-03,4.744362533092498779e-01,3.293244540691375732e-01,-2.414811402559280396e-01,-1.970019377768039703e-02,2.247820347547531128e-01,3.005555570125579834e-01,-2.856295704841613770e-01,-2.124840766191482544e-01,-1.851379424333572388e-01,4.246783554553985596e-01,-4.446964859962463379e-01,-1.996689438819885254e-01,-1.077616438269615173e-01
-8.188622444868087769e-02,3.702388405799865723e-01,2.057943344116210938e-01,-8.174726366996765137e-02,1.556492317467927933e-02,1.793131530284881592e-01,3.237156569957733154e-01,-1.323176622390747070e-01,-1.399874091148376465e-01,-1.435107737779617310e-01,2.977548837661743164e-01,-4.833166301250457764e-01,-1.302381306886672974e-01,-3.457272052764892578e-01
1.358339041471481323e-01,4.994768798351287842e-01,3.740204870700836182e-01,-1.236067712306976318e-01,6.836274266242980957e-02,2.891213074326515198e-02,2.137883454561233521e-01,-4.133123457431793213e-01,-2.692781388759613037e-01,-2.381962984800338745e-01,2.958723306655883789e-01,-5.172522068023681641e-01,-7.898394018411636353e-02,-1.046421378850936890e-01
2.055330872535705566e-01,2.738443315029144287e-01,1.395685821771621704e-01,7.880117744207382202e-02,-1.770659089088439941e-01,4.178500175476074219e-01,3.808590173721313477e-01,-2.457460463047027588e-01,-3.271303772926330566e-01,-1.339561939239501953e-01,2.070358991622924805e-01,-4.018351137638092041e-01,-2.064973115921020508e-01,-1.831623464822769165e-01
4.442441463470458984e-02,3.660707473754882812e-01,9.200118482112884521e-02,-1.528305560350418091e-01,6.847740709781646729e-02,3.192907273769378662e-01,1.816304475069046021e-01,-2.414419651031494141e-01,-6.091030240058898926e-01,-7.882317155599594116e-02,1.574102640151977539e-01,-2.953831255435943604e-01,-2.031172960996627808e-01,-4.664435386657714844e-01
2.300448268651962280e-01,8.749692142009735107e-02,2.625030577182769775e-01,2.243944853544235229e-01,-4.619633406400680542e-02,4.926422834396362305e-01,1.189766228199005127e-01,-7.450369000434875488e-02,-3.316317200660705566e-01,8.605994284152984619e-02,1.133463531732559204e-01,-1.984278112649917603e-01,-1.581657119095325470e-02,-3.842759132385253906e-01
1.183519065380096436e-01,-9.882289916276931763e-02,1.781582236289978027e-01,4.993542656302452087e-02,4.037108737975358963e-04,2.866157889366149902e-01,1.420381665229797363e-01,1.172036956995725632e-02,-3.616333305835723877e-01,-5.588243715465068817e-03,1.732622534036636353e-01,-3.943459391593933105e-01,1.927959360182285309e-02,-3.934701085090637207e-01
2.648720145225524902e-01,-1.188784241676330566e-01,3.045523464679718018e-01,2.891872525215148926e-01,5.303935706615447998e-02,6.486763954162597656e-01,4.840609803795814514e-02,-1.665675789117813110e-01,-4.007731974124908447e-01,3.371026366949081421e-02,2.177511304616928101e-01,-3.339973837137222290e-02,-7.901719212532043457e-02,-3.833576142787933350e-01
2.681909799575805664e-01,2.134216018021106720e-02,1.878985762596130371e-01,3.141393065452575684e-01,-2.955676987767219543e-03,3.990870118141174316e-01,1.424112170934677124e-01,-4.183938354253768921e-02,-4.197211563587188721e-01,1.556891109794378281e-02,8.091475814580917358e-02,-1.019180268049240112e-01,9.727853536605834961e-02,-5.028652548789978027e-01
1.282785087823867798e-01,-2.247738540172576904e-01,1.950783580541610718e-01,4.172289967536926270e-01,2.164982855319976807e-01,3.642551600933074951e-01,5.863413214683532715e-02,5.833172798156738281e-02,-3.694998621940612793e-01,4.686286672949790955e-02,3.060712851583957672e-02,-1.821649521589279175e-01,1.139769330620765686e-02,-4.683310091495513916e-01
1.801709532737731934e-01,-7.460455596446990967e-02,1.834371685981750488e-01,3.599033653736114502e-01,5.325516313314437866e-02,4.104002714157104492e-01,1.322320103645324707e-01,1.569955497980117798e-01,-2.551800012588500977e-01,8.267510682344436646e-03,-6.973998248577117920e-02,-5.155605077743530273e-02,-4.359430819749832153e-02,-5.958543419837951660e-01
8.185525238513946533e-02,-1.758962720632553101e-01,1.707647442817687988e-01,7.284580469131469727e-01,2.695044577121734619e-01,4.341129064559936523e-01,5.038839578628540039e-02,2.566264271736145020e-01,-3.271338045597076416e-01,6.360621750354766846e-02,5.139582231640815735e-02,-1.457488536834716797e-01,-5.245094746351242065e-02,-5.632154941558837891e-01
1.153835933655500412e-02,-2.363314479589462280e-01,2.376739233732223511e-01,4.731756150722503662e-01,3.650161325931549072e-01,3.807822763919830322e-01,5.777980387210845947e-02,4.140959084033966064e-01,-2.164210677146911621e-01,2.696864008903503418e-01,-1.359601765871047974e-01,-7.289215922355651855e-02,1.110768169164657593e-01,-7.878578305244445801e-01
2.306560575962066650e-01,-3.679753281176090240e-03,2.567567825317382812e-01,5.108352899551391602e-01,3.383772075176239014e-01,2.919783890247344971e-01,5.064804852008819580e-02,3.656760752201080322e-01,-2.086985111236572266e-01,1.434372961521148682e-01,-1.204985193908214569e-02,3.028791248798370361e-01,1.053839549422264099e-01,-6.689225435256958008e-01
1.015690565109252930e-01,-1.983881741762161255e-01,1.572431772947311401e-01,8.325399160385131836e-01,2.680354192852973938e-02,1.044992357492446899e-01,2.115536779165267944e-01,4.372546970844268799e-01,-9.612035006284713745e-02,1.562677919864654541e-01,-3.725837543606758118e-02,9.717743843793869019e-02,1.422310769557952881e-01,-5.531780123710632324e-01
5.111473202705383301e-01,-2.196343690156936646e-01,1.157259345054626465e-01,7.002744078636169434e-01,-4.178253561258316040e-02,1.329482942819595337e-01,1.534073799848556519e-01,4.715595543384552002e-01,-6.008451338857412338e-03,-1.190138533711433411e-01,-8.239389955997467041e-02,2.533855438232421875e-01,2.079027146100997925e-02,-5.143792629241943359e-01
4.794418811798095703e-01,-1.435740888118743896e-01,2.903386056423187256e-01,5.530507564544677734e-01,8.592499792575836182e-02,2.391738146543502808e-01,2.618137598037719727e-01,6.267351508140563965e-01,1.195106804370880127e-01,-2.746696770191192627e-01,6.094285845756530762e-02,2.189956754446029663e-01,-6.001736596226692200e-02,-6.106854677200317383e-01
4.223642349243164062e-01,-1.873780488967895508e-01,2.929739356040954590e-01,6.735990047454833984e-01,-6.221002712845802307e-02,-4.463383182883262634e-02,4.028241038322448730e-01,5.834025144577026367e-01,7.544499635696411133e-02,-1.042354926466941833e-01,1.202296763658523560e-01,2.618127763271331787e-01,2.576054036617279053e-01,-5.964384078979492188e-01
7.814857959747314453e-01,8.214575052261352539e-02,3.451561331748962402e-01,6.701548099517822266e-01,-1.532814651727676392e-01,-2.194347381591796875e-01,3.533802628517150879e-01,5.652266740798950195e-01,1.680109500885009766e-01,-3.635154804214835167e-03,-2.177156060934066772e-01,3.277223706245422363e-01,3.516872525215148926e-01,-3.961858153343200684e-01
5.306449532508850098e-01,-3.724724426865577698e-02,1.936191767454147339e-01,5.326878428459167480e-01,-3.525328338146209717e-01,-2.426888644695281982e-01,4.128446877002716064e-01,4.945497512817382812e-01,2.529834508895874023e-01,-2.854471206665039062e-01,-1.151735112071037292e-01,1.154278516769409180e-01,1.033107191324234009e-01,-4.803443253040313721e-01
6.309328079223632812e-01,-2.060972154140472412e-01,2.424733042716979980e-01,6.344175338745117188e-01,-2.790901064872741699e-01,-2.293775677680969238e-01,4.528223276138305664e-01,4.004896581172943115e-01,2.303989827632904053e-01,-2.678562700748443604e-01,1.385712176561355591e-01,4.910763502120971680e-01,2.523377239704132080e-01,-2.875209450721740723e-01
6.995052695274353027e-01,-1.964913755655288696e-01,4.351465702056884766e-01,7.173523902893066406e-01,-2.636090815067291260e-01,-3.697962760925292969e-01,5.363342165946960449e-01,7.020949721336364746e-01,2.655995786190032959e-01,-4.685677587985992432e-01,2.983542382717132568e-01,3.869937956333160400e-01,5.798956155776977539e-01,-3.430172204971313477e-01
7.924845814704895020e-01,-3.493164181709289551e-01,4.676491320133209229e-01,8.565453290939331055e-01,-4.727768003940582275e-01,-3.818892836570739746e-01,6.247333884239196777e-01,4.869599640369415283e-01,1.215677037835121155e-01,-3.348987400531768799e-01,4.010799154639244080e-02,3.853909671306610107e-01,3.830993771553039551e-01,-2.618090212345123291e-01
8.122969269752502441e-01,-1.270126104354858398e-01,3.567969799041748047e-01,7.197352051734924316e-01,-3.787459433078765869e-01,-4.780667126178741455e-01,6.314617395401000977e-01,7.651499509811401367e-01,2.721480727195739746e-01,-3.696660101413726807e-01,2.598266005516052246e-01,5.213086605072021484e-01,4.548650383949279785e-01,-3.171168267726898193e-01
9.159945845603942871e-01,-2.027114331722259521e-01,3.135382235050201416e-01,7.330049276351928711e-01,-4.218649864196777344e-01,-3.245761990547180176e-01,5.944107174873352051e-01,5.529246330261230469e-01,1.213036328554153442e-01,-5.806452631950378418e-01,7.476446777582168579e-02,4.387536942958831787e-01,4.688147008419036865e-01,-2.836404442787170410e-01
7.782727479934692383e-01,-9.984582662582397461e-02,3.385535478591918945e-01,6.637035608291625977e-01,-4.990045428276062012e-01,-3.867422640323638916e-01,6.397497653961181641e-01,6.445267796516418457e-01,1.238089171238243580e-03,-4.857028722763061523e-01,8.252025395631790161e-02,5.633699297904968262e-01,2.224395871162414551e-01,-2.729428559541702271e-02
8.788490295410156250e-01,-2.795650959014892578e-01,2.989289760589599609e-01,8.489068150520324707e-01,-4.191239476203918457e-01,-2.083831578493118286e-01,4.836487770080566406e-01,5.516387820243835449e-01,1.207952275872230530e-01,-5.025478601455688477e-01,4.775159060955047607e-01,5.506537556648254395e-01,4.531362652778625488e-01,6.435040384531021118e-02
7.803580760955810547e-01,-5.460420250892639160e-02,4.478704631328582764e-01,8.153831362724304199e-01,-4.855391085147857666e-01,-4.489887654781341553e-01,5.578697323799133301e-01,4.631130397319793701e-01,7.762955129146575928e-02,-5.576902031898498535e-01,2.952461540699005127e-01,6.537890434265136719e-01,-2.245397865772247314e-02,-9.756149351596832275e-02
7.918103933334350586e-01,1.524456292390823364e-01,3.978014588356018066e-01,7.807143926620483398e-01,-2.516928017139434814e-01,-4.093196988105773926e-01,4.528889358043670654e-01,3.856526613235473633e-01,4.207469895482063293e-02,-4.822496175765991211e-01,7.087206840515136719e-02,5.660368800163269043e-01,1.208813488483428955e-01,-1.420627385377883911e-01
6.133282184600830078e-01,2.357001788914203644e-02,2.800277769565582275e-01,6.802025437355041504e-01,-3.896110951900482178e-01,-2.255763560533523560e-01,2.051011323928833008e-01,3.475233018398284912e-01,3.708809381350874901e-03,-3.708308339118957520e-01,1.548010110855102539e-01,4.775550961494445801e-01,1.263370551168918610e-02,-5.615798756480216980e-02
5.599648356437683105e-01,-2.551744692027568817e-02,1.386507451534271240e-01,4.676729440689086914e-01,-2.923722267150878906e-01,-2.649949193000793457e-01,2.676999866962432861e-01,5.568191409111022949e-01,-3.137789666652679443e-02,-4.988756477832794189e-01,3.558034449815750122e-02,5.983232855796813965e-01,-2.307409495115280151e-01,-1.708537340164184570e-01
7.765429019927978516e-01,7.889556884765625000e-02,4.514021053910255432e-02,6.875234842300415039e-01,-8.831106871366500854e-02,-3.594440817832946777e-01,-7.854238897562026978e-02,4.691234230995178223e-01,4.944136366248130798e-02,-3.357589840888977051e-01,-3.219963982701301575e-03,5.059577226638793945e-01,-2.952846288681030273e-01,-5.004882216453552246e-01
3.866052031517028809e-01,9.580597281455993652e-02,-5.331477150321006775e-03,5.310733914375305176e-01,-1.799928098917007446e-01,-1.754713207483291626e-01,1.485134512186050415e-01,4.986992478370666504e-01,-2.876014634966850281e-02,-5.017737746238708496e-01,-7.376532256603240967e-02,3.131911456584930420e-01,-3.806553483009338379e-01,-2.234326153993606567e-01
4.469972252845764160e-01,3.325153887271881104e-01,-1.092043742537498474e-01,4.391109049320220947e-01,-1.758239269256591797e-01,-1.648602485656738281e-01,-5.188625305891036987e-02,5.086417794227600098e-01,-2.517541125416755676e-02,-4.457247555255889893e-01,-1.068234294652938843e-01,4.714562594890594482e-01,-5.551648736000061035e-01,-5.206875801086425781e-01
2.618002891540527344e-01,7.916046679019927979e-02,-6.940197199583053589e-02,4.609924554824829102e-01,-2.555409073829650879e-02,-3.669832050800323486e-01,-1.878035217523574829e-01,4.482937753200531006e-01,-6.160724535584449768e-02,-4.372115135192871094e-01,-1.678751856088638306e-01,3.519087135791778564e-01,-6.324956417083740234e-01,-4.505195617675781250e-01
1.424497663974761963e-01,-2.166250906884670258e-02,-7.852632552385330200e-02,3.898189365863800049e-01,1.660942286252975464e-01,-2.466564327478408813e-01,-3.414440751075744629e-01,3.468244969844818115e-01,-2.721522562205791473e-02,-3.356913626194000244e-01,-3.616786897182464600e-01,3.955727815628051758e-01,-5.897756218910217285e-01,-5.505295991897583008e-01
1.892394125461578369e-01,7.428325712680816650e-02,-1.254547387361526489e-01,2.201586812734603882e-01,1.257505267858505249e-01,-1.673852652311325073e-01,-2.278800159692764282e-01,4.735194444656372070e-01,-1.487256586551666260e-01,-5.542700290679931641e-01,-4.389666616916656494e-01,2.361104041337966919e-01,-6.565636992454528809e-01,-6.193791031837463379e-01
4.560400918126106262e-02,5.364012718200683594e-02,-3.279847204685211182e-01,2.659604251384735107e-01,8.628362417221069336e-02,-5.685223639011383057e-02,-1.321918815374374390e-01,3.293475210666656494e-01,-3.198273479938507080e-02,-4.218907058238983154e-01,-3.863013386726379395e-01,1.705092191696166992e-01,-7.069118022918701172e-01,-5.895345807075500488e-01
1.450668722391128540e-01,4.301916807889938354e-02,-3.169572651386260986e-01,9.196793287992477417e-02,1.351768374443054199e-01,-1.553253829479217529e-01,-2.617673575878143311e-01,3.360268473625183105e-01,2.740577049553394318e-02,-5.332781672477722168e-01,-5.408663749694824219e-01,3.906736969947814941e-01,-5.743408203125000000e-01,-5.328101515769958496e-01
5.185690522193908691e-02,8.998220786452293396e-03,-3.125326037406921387e-01,2.898013293743133545e-01,9.419252723455429077e-02,-3.115946054458618164e-01,-3.525451421737670898e-01,3.798335790634155273e-01,-1.040640771389007568e-01,-2.279241979122161865e-01,-5.775324106216430664e-01,3.526948690414428711e-01,-7.333055734634399414e-01,-6.360247135162353516e-01
1.777520775794982910e-01,7.338742911815643311e-02,-1.383902579545974731e-01,4.275074005126953125e-01,7.034207135438919067e-02,-3.600205481052398682e-01,-3.551891148090362549e-01,2.890360057353973389e-01,5.737938359379768372e-02,-4.556238353252410889e-01,-5.241687297821044922e-01,2.788169384002685547e-01,-6.187491416931152344e-01,-5.050730705261230469e-01
-9.989355504512786865e-02,-2.353059649467468262e-01,-3.416372835636138916e-01,1.415334641933441162e-01,1.435387134552001953e-01,-2.448739558458328247e-01,-2.244802266359329224e-01,1.077712699770927429e-01,-1.136014461517333984e-01,-2.567490637302398682e-01,-5.429830551147460938e-01,3.497207760810852051e-01,-6.226105093955993652e-01,-4.910749793052673340e-01
4.924114421010017395e-02,-2.916738390922546387e-01,-1.639642715454101562e-01,3.715915679931640625e-01,9.247925132513046265e-02,-6.018875837326049805e-01,-3.082084357738494873e-01,3.975175917148590088e-01,-3.458171710371971130e-02,-7.737974077463150024e-02,-5.918475389480590820e-01,4.276334047317504883e-01,-6.241124272346496582e-01,-4.839647710323333740e-01
5.185336247086524963e-02,-4.454264938831329346e-01,-1.975309848785400391e-01,4.710280299186706543e-01,5.968938767910003662e-02,-4.719665944576263428e-01,-4.029785096645355225e-01,4.328331947326660156e-01,-1.859871298074722290e-01,-2.894274294376373291e-01,-4.359044134616851807e-01,3.980902433395385742e-01,-6.961097717285156250e-01,-6.298425793647766113e-01
-9.134266525506973267e-02,-2.171792984008789062e-01,-7.027292251586914062e-02,5.351636409759521484e-01,9.246369451284408569e-02,-2.783905863761901855e-01,-3.263102173805236816e-01,1.478495746850967407e-01,-6.335190497338771820e-03,-4.887868836522102356e-02,-4.801737070083618164e-01,3.393974304199218750e-01,-5.431528687477111816e-01,-6.579148769378662109e-01
-6.568821519613265991e-02,-3.792538642883300781e-01,7.863546162843704224e-02,4.278287589550018311e-01,1.166952773928642273e-01,-4.134436845779418945e-01,-3.610072433948516846e-01,2.587541341781616211e-01,3.701005503535270691e-02,-1.524903625249862671e-01,-3.131726980209350586e-01,5.560233592987060547e-01,-5.599533319473266602e-01,-5.992114543914794922e-01
-1.510819643735885620e-01,-1.909600049257278442e-01,3.516671806573867798e-02,4.363271296024322510e-01,1.232649013400077820e-01,-5.387411713600158691e-01,-5.482751131057739258e-01,6.038919091224670410e-01,-8.229562640190124512e-02,2.247481048107147217e-01,-5.241543054580688477e-01,6.925106048583984375e-01,-3.745331168174743652e-01,-4.703351557254791260e-01
-1.760799288749694824e-01,-3.011286854743957520e-01,4.516042023897171021e-02,5.230198502540588379e-01,1.359348744153976440e-01,-5.996758341789245605e-01,-5.097150802612304688e-01,4.663877487182617188e-01,-2.009312063455581665e-01,-1.654660105705261230e-01,-4.133972227573394775e-01,7.138618230819702148e-01,-3.882710337638854980e-01,-4.653403460979461670e-01
-4.451319947838783264e-02,-3.438476845622062683e-02,2.407311499118804932e-01,7.235473394393920898e-01,3.119223518297076225e-03,-4.103136956691741943e-01,-3.435542881488800049e-01,4.848167598247528076e-01,-4.507570341229438782e-02,-1.121628358960151672e-01,-3.237371742725372314e-01,7.147338390350341797e-01,-4.994120001792907715e-01,-8.223835229873657227e-01
3.543556854128837585e-02,-2.906032502651214600e-01,2.154382318258285522e-01,4.411520957946777344e-01,7.697611302137374878e-02,-5.012116432189941406e-01,-4.208373129367828369e-01,4.786899983882904053e-01,-1.108369380235671997e-01,-7.401017099618911743e-02,-5.453457236289978027e-01,8.081645965576171875e-01,-5.251049399375915527e-01,-5.245501995086669922e-01
-6.938932090997695923e-02,2.652897685766220093e-02,2.776357531547546387e-01,4.814762473106384277e-01,-4.153800383210182190e-02,-5.471409559249877930e-01,-3.048316240310668945e-01,4.466824233531951904e-01,1.989648491144180298e-02,-8.982449769973754883e-02,-4.787040650844573975e-01,7.581344246864318848e-01,-5.259236097335815430e-01,-7.842323780059814453e-01
-7.277666032314300537e-02,9.423439949750900269e-02,2.736668586730957031e-01,5.310355424880981445e-01,8.921551704406738281e-02,-5.071776509284973145e-01,-4.050069451332092285e-01,5.465709567070007324e-01,1.323642581701278687e-01,3.548194840550422668e-02,-3.061064779758453369e-01,8.981273174285888672e-01,-4.658016264438629150e-01,-5.400043725967407227e-01
-1.960607320070266724e-01,1.402629911899566650e-01,1.354491859674453735e-01,4.367637038230895996e-01,6.489629298448562622e-02,-5.514442324638366699e-01,-5.072004795074462891e-01,6.644551753997802734e-01,1.367978751659393311e-01,1.130569204688072205e-01,-3.448109030723571777e-01,9.256308078765869141e-01,-3.429217338562011719e-01,-5.782211422920227051e-01
-2.723027765750885010e-01,5.977165326476097107e-02,3.907532393932342529e-01,4.729131162166595459e-01,1.198528856039047241e-01,-5.868070125579833984e-01,-3.981075882911682129e-01,5.489861369132995605e-01,-2.531147189438343048e-02,-1.321773044764995575e-02,-3.937305510044097900e-01,6.430369019508361816e-01,-3.364016711711883545e-01,-5.910752415657043457e-01
-1.649644970893859863e-02,3.049340844154357910e-01,2.391946762800216675e-01,5.492273569107055664e-01,-3.307969123125076294e-02,-7.596452832221984863e-01,-2.666287422180175781e-01,5.765596628189086914e-01,1.337520033121109009e-01,-1.748389154672622681e-01,-5.033103823661804199e-01,8.520625233650207520e-01,-7.258984446525573730e-01,-3.979906737804412842e-01
-9.786771237850189209e-02,3.381175696849822998e-01,3.397133052349090576e-01,2.092527747154235840e-01,-1.578253209590911865e-01,-7.641934752464294434e-01,-2.870680987834930420e-01,6.386142373085021973e-01,2.156434506177902222e-01,-2.701613903045654297e-01,-4.619705379009246826e-01,9.203622937202453613e-01,-3.090848624706268311e-01,-5.158510208129882812e-01
-1.862280368804931641e-01,2.069508135318756104e-01,2.161535471677780151e-01,2.315550595521926880e-01,-2.241380214691162109e-01,-6.217429041862487793e-01,-2.151844799518585205e-01,3.333526551723480225e-01,3.511081933975219727e-01,-4.036347568035125732e-01,-3.373689949512481689e-01,6.964801549911499023e-01,-4.705106317996978760e-01,-4.128939807415008545e-01
-2.964971959590911865e-02,5.998440980911254883e-01,3.040966093540191650e-01,1.601537317037582397e-01,-1.785259842872619629e-01,-6.737489104270935059e-01,4.954263195395469666e-02,3.363169431686401367e-01,2.010750621557235718e-01,-3.705769479274749756e-01,-3.253351449966430664e-01,6.836849451065063477e-01,-5.900986194610595703e-01,-4.593901336193084717e-01
8.353995531797409058e-02,4.525013267993927002e-01,3.463726639747619629e-01,4.377817735075950623e-02,-3.682171106338500977e-01,-7.195848822593688965e-01,-1.118585914373397827e-01,3.097285330295562744e-01,2.523326575756072998e-01,-4.884098768234252930e-01,-2.702346742153167725e-01,4.589822590351104736e-01,-4.482530355453491211e-01,-3.079921603202819824e-01
1.328280121088027954e-01,6.676453351974487305e-01,3.327803015708923340e-01,-1.601781994104385376e-01,-3.336866497993469238e-01,-8.364440202713012695e-01,4.489408340305089951e-03,1.191700529307126999e-02,1.889603435993194580e-01,-4.947376251220703125e-01,-3.189656734466552734e-01,4.112461805343627930e-01,-5.143869519233703613e-01,-1.659711450338363647e-01
1.433463394641876221e-01,5.358052849769592285e-01,2.551802396774291992e-01,-1.395482718944549561e-01,-2.907148003578186035e-01,-7.101114988327026367e-01,4.973166435956954956e-02,1.597151719033718109e-02,6.336592882871627808e-02,-6.203393340110778809e-01,-2.134671956300735474e-01,3.801214098930358887e-01,-2.548627853393554688e-01,-2.966359257698059082e-01
7.846231758594512939e-02,6.561658978462219238e-01,2.104384899139404297e-01,-2.053912431001663208e-01,-2.056942135095596313e-01,-8.188188076019287109e-01,1.542141735553741455e-01,7.979709655046463013e-02,1.032474916428327560e-02,-6.846019625663757324e-01,-1.099367290735244751e-01,3.031015396118164062e-01,-4.682307541370391846e-01,-9.538855403661727905e-02
2.226802110671997070e-01,4.816896617412567139e-01,1.012867838144302368e-01,-1.371047645807266235e-01,-2.974911630153656006e-01,-6.311441063880920410e-01,1.136937215924263000e-01,-2.415377795696258545e-01,-4.469211772084236145e-02,-5.658766627311706543e-01,4.063955694437026978e-02,1.577868610620498657e-01,-4.999816715717315674e-01,-1.112673208117485046e-01
1.646092087030410767e-01,5.952125787734985352e-01,1.121668666601181030e-01,-2.099081426858901978e-01,-4.520483314990997314e-01,-7.990828156471252441e-01,1.095300316810607910e-01,-1.917550116777420044e-01,8.649347350001335144e-03,-5.591134428977966309e-01,3.663959726691246033e-02,2.204764634370803833e-01,-1.941246241331100464e-01,-7.984410226345062256e-02
6.896640360355377197e-02,5.925596952438354492e-01,3.356509506702423096e-01,-4.523985683917999268e-01,-4.422057569026947021e-01,-7.237821221351623535e-01,2.912132441997528076e-01,-3.921438157558441162e-01,-2.970517277717590332e-01,-5.990526080131530762e-01,1.074291616678237915e-01,2.724905014038085938e-01,-3.706836104393005371e-01,-9.998665004968643188e-02
2.066296711564064026e-02,5.498831272125244141e-01,1.223600208759307861e-01,-3.766648173332214355e-01,-2.554328441619873047e-01,-6.183391213417053223e-01,5.770735815167427063e-02,-2.642295360565185547e-01,-3.413196802139282227e-01,-5.875891447067260742e-01,1.196576282382011414e-01,1.119550783187150955e-02,-4.757981300354003906e-01,1.753868907690048218e-02
1.140615940093994141e-01,4.998920261859893799e-01,2.575192749500274658e-01,-4.257365465164184570e-01,-2.758724093437194824e-01,-4.379199743270874023e-01,1.069379895925521851e-01,-6.610112190246582031e-01,-4.859800934791564941e-01,-4.207830727100372314e-01,-5.078114569187164307e-02,1.107854470610618591e-01,-2.608532607555389404e-01,-2.822592156007885933e-03
1.312176734209060669e-01,2.853274047374725342e-01,2.322186380624771118e-01,-2.165327817201614380e-01,-3.268451690673828125e-01,-4.364973604679107666e-01,-1.388705968856811523e-01,-5.287702679634094238e-01,-3.924603760242462158e-01,-3.937197625637054443e-01,2.108717262744903564e-01,5.775675922632217407e-02,-3.426288366317749023e-01,-1.082722172141075134e-01
4.400473833084106445e-02,5.126928687095642090e-01,1.418786644935607910e-01,-4.187667667865753174e-01,1.634196490049362183e-01,-3.345239758491516113e-01,-5.933028832077980042e-02,-7.097628712654113770e-01,-5.718634128570556641e-01,-2.134507596492767334e-01,1.478317379951477051e-01,-4.008916392922401428e-02,-5.663099288940429688e-01,-1.130782142281532288e-01
-6.482855230569839478e-02,6.714978218078613281e-01,8.437292277812957764e-02,-5.920839309692382812e-01,7.913146167993545532e-03,-2.822101414203643799e-01,-1.199263483285903931e-01,-6.483461260795593262e-01,-5.476192235946655273e-01,-2.260773628950119019e-01,3.547134622931480408e-02,-1.670328713953495026e-02,-6.177973747253417969e-01,-1.083037927746772766e-01
-8.562722802162170410e-02,4.634295403957366943e-01,-1.267329603433609009e-01,-5.986940860748291016e-01,2.008944153785705566e-01,-1.250271797180175781e-01,-1.653069555759429932e-01,-6.574694514274597168e-01,-1.010800123214721680e+00,-4.489936828613281250e-01,-7.557335495948791504e-02,-8.597625046968460083e-02,-5.575605034828186035e-01,-1.850856542587280273e-01
2.271664887666702271e-02,4.811626374721527100e-01,-2.018448263406753540e-01,-5.951608419418334961e-01,1.228485777974128723e-01,-7.602363079786300659e-02,-3.709981143474578857e-01,-6.166777610778808594e-01,-6.949784159660339355e-01,-3.169665336608886719e-01,5.274189636111259460e-02,-2.260747849941253662e-01,-6.078891754150390625e-01,-3.298221826553344727e-01
-2.444112002849578857e-01,4.472528100013732910e-01,-1.872323453426361084e-01,-5.556061267852783203e-01,2.247320711612701416e-01,-7.653356343507766724e-02,-2.648217380046844482e-01,-7.090503573417663574e-01,-9.054343700408935547e-01,-4.052102267742156982e-01,-2.480724006891250610e-01,-1.465072482824325562e-01,-6.775069832801818848e-01,-2.413701564073562622e-01
-3.055661916732788086e-01,5.946428179740905762e-01,-4.472717177122831345e-03,-5.742234587669372559e-01,3.035508096218109131e-01,7.059161365032196045e-02,-3.336889445781707764e-01,-5.966734290122985840e-01,-8.874057531356811523e-01,-4.252010583877563477e-01,-1.099183037877082825e-01,-2.592943310737609863e-01,-6.101569533348083496e-01,-3.247626423835754395e-01
-3.010385334491729736e-01,4.587212800979614258e-01,-7.089405506849288940e-02,-6.276260018348693848e-01,3.089234530925750732e-01,1.122513934969902039e-01,-1.411287337541580200e-01,-5.431902408599853516e-01,-8.476535677909851074e-01,5.359569564461708069e-03,-3.497973978519439697e-01,-2.170948982238769531e-01,-4.196851849555969238e-01,-2.436895072460174561e-01
-2.984045445919036865e-01,6.354588866233825684e-01,-2.301715463399887085e-01,-6.853495836257934570e-01,2.948781251907348633e-01,3.541996777057647705e-01,-3.242291212081909180e-01,-7.433525323867797852e-01,-8.208116888999938965e-01,-3.788946568965911865e-02,-1.762806773185729980e-01,-4.335819482803344727e-01,-4.589899480342864990e-01,-6.424258947372436523e-01
-5.074877142906188965e-01,5.439091324806213379e-01,-1.142482906579971313e-01,-6.842409968376159668e-01,6.124986410140991211e-01,6.348906457424163818e-02,-1.485093981027603149e-01,-6.557741761207580566e-01,-8.038048148155212402e-01,-2.179248183965682983e-01,-2.931697368621826172e-01,-5.021268725395202637e-01,-4.761260151863098145e-01,-4.304836392402648926e-01
-3.391386866569519043e-01,4.406294524669647217e-01,-3.295689821243286133e-01,-6.776480674743652344e-01,4.390029907226562500e-01,3.102269396185874939e-02,-1.046391576528549194e-01,-3.408294916152954102e-01,-8.523601293563842773e-01,4.317977465689182281e-03,-2.663990259170532227e-01,-5.217422842979431152e-01,-4.830639660358428955e-01,-3.838788568973541260e-01
-2.230230569839477539e-01,3.966473042964935303e-01,-2.474180907011032104e-01,-8.239517211914062500e-01,2.474946826696395874e-01,1.208129450678825378e-01,-1.822532415390014648e-01,-5.639808177947998047e-01,-7.697645425796508789e-01,5.877553299069404602e-02,-3.345190882682800293e-01,-3.999539315700531006e-01,-3.802079260349273682e-01,-3.799777030944824219e-01
-1.011624634265899658e-01,2.340664863586425781e-01,-8.787955157458782196e-03,-6.193227767944335938e-01,4.109384417533874512e-01,-3.760218247771263123e-02,-1.508015841245651245e-01,-7.784410119056701660e-01,-7.479182481765747070e-01,-2.280380427837371826e-01,-2.945162951946258545e-01,-5.343276262283325195e-01,-2.048674821853637695e-01,-4.711338877677917480e-01
-2.147566378116607666e-01,1.801553964614868164e-01,1.012450158596038818e-01,-6.258731484413146973e-01,2.489037364721298218e-01,-8.242858946323394775e-02,-3.280159085988998413e-02,-7.326186895370483398e-01,-8.855611085891723633e-01,9.757884591817855835e-02,-3.045080602169036865e-01,-5.145112276077270508e-01,-1.097084581851959229e-01,-5.335014462471008301e-01
-1.955082565546035767e-01,2.792218923568725586e-01,3.946569561958312988e-02,-6.775954365730285645e-01,2.994957566261291504e-01,-1.575546115636825562e-01,1.799742504954338074e-02,-5.605376958847045898e-01,-6.714060902595520020e-01,1.452134363353252411e-02,-3.648661971092224121e-01,-2.814700007438659668e-01,-5.558145046234130859e-02,-1.833218634128570557e-01
-6.291352957487106323e-02,2.603473961353302002e-01,-1.163071319460868835e-01,-2.066025137901306152e-01,3.876491189002990723e-01,-1.286243200302124023e-01,2.026052400469779968e-02,-5.571697950363159180e-01,-6.937526464462280273e-01,1.536817550659179688e-01,-9.953191131353378296e-02,-5.713523030281066895e-01,1.545323729515075684e-01,-3.177275359630584717e-01
-7.284571230411529541e-02,2.124528586864471436e-01,2.627343535423278809e-01,-3.487025201320648193e-01,4.272018671035766602e-01,-1.591759920120239258e-01,1.460093855857849121e-01,-6.031385660171508789e-01,-6.682263612747192383e-01,4.658856987953186035e-01,-1.748728156089782715e-01,-3.510233163833618164e-01,3.319585695862770081e-02,-2.271715700626373291e-01
2.163983434438705444e-01,8.313427865505218506e-02,1.864818632602691650e-01,-3.092813789844512939e-01,1.217131242156028748e-01,-2.391432374715805054e-01,2.585178315639495850e-01,-2.955046296119689941e-01,-7.313749790191650391e-01,3.678208291530609131e-01,-7.505874335765838623e-02,-3.368273973464965820e-01,3.432900309562683105e-01,8.155709505081176758e-02
1.697489023208618164e-01,9.523860365152359009e-02,3.669809401035308838e-01,-2.819363772869110107e-01,5.510932803153991699e-01,-1.548320651054382324e-01,1.540053933858871460e-01,-2.177227139472961426e-01,-6.735396981239318848e-01,2.326875925064086914e-01,-1.806578636169433594e-01,-2.981011569499969482e-01,3.902451694011688232e-01,-1.825174838304519653e-01
1.709627509117126465e-01,6.193764880299568176e-02,3.781523108482360840e-01,-1.135375201702117920e-01,3.233574628829956055e-01,-3.773795068264007568e-01,2.934863567352294922e-01,-4.669191539287567139e-01,-8.859269022941589355e-01,4.129789471626281738e-01,1.943102106451988220e-02,-3.134976625442504883e-01,2.543552219867706299e-01,9.128798544406890869e-02
3.334895372390747070e-01,2.684172391891479492e-01,5.312842130661010742e-01,-2.556086778640747070e-01,3.796776533126831055e-01,-9.503512829542160034e-02,2.953304648399353027e-01,-3.126666247844696045e-01,-7.128407359123229980e-01,9.076411277055740356e-02,1.300683170557022095e-01,-2.366510629653930664e-01,3.843714594841003418e-01,-8.543149568140506744e-03
1.439269483089447021e-01,4.568562656641006470e-02,4.843259751796722412e-01,-1.373794078826904297e-01,5.700041055679321289e-01,-1.969222873449325562e-01,3.881960809230804443e-01,-2.686659991741180420e-01,-6.894547939300537109e-01,3.309291899204254150e-01,3.086245656013488770e-01,-1.738575398921966553e-01,6.367323398590087891e-01,3.850409388542175293e-02
8.110800385475158691e-02,8.241718262434005737e-02,7.870593070983886719e-01,-1.838084906339645386e-01,6.021925806999206543e-01,-1.744826883077621460e-01,5.961174368858337402e-01,-2.211176902055740356e-01,-6.302557587623596191e-01,3.158957660198211670e-01,1.671076565980911255e-01,-5.987863987684249878e-02,5.610646605491638184e-01,1.737199574708938599e-01
3.527189493179321289e-01,1.703488826751708984e-01,6.306490898132324219e-01,-1.536481082439422607e-02,3.816550374031066895e-01,-6.417209655046463013e-02,2.843019068241119385e-01,-3.642331063747406006e-01,-6.039942502975463867e-01,3.018958270549774170e-01,1.689978241920471191e-01,-1.613187976181507111e-02,5.048401355743408203e-01,2.577033340930938721e-01
4.351149797439575195e-01,2.272514104843139648e-01,4.147897064685821533e-01,-1.850599348545074463e-01,5.592552423477172852e-01,-7.397046685218811035e-02,4.541804790496826172e-01,-9.032473713159561157e-02,-4.772062897682189941e-01,1.359645277261734009e-01,1.600792109966278076e-01,-2.874432504177093506e-01,5.459979176521301270e-01,3.116336464881896973e-01
3.274601995944976807e-01,6.461434364318847656e-01,3.676248490810394287e-01,-2.137321606278419495e-02,4.739835262298583984e-01,-1.629113852977752686e-01,5.234366655349731445e-01,-2.877824902534484863e-01,-6.526930332183837891e-01,1.705045551061630249e-01,1.798879951238632202e-01,-2.537088990211486816e-01,5.027759671211242676e-01,3.463317751884460449e-01
2.863288521766662598e-01,6.519448757171630859e-01,3.547801077365875244e-01,-1.821008473634719849e-01,7.243407368659973145e-01,-4.508539661765098572e-02,4.772848486900329590e-01,-2.491897940635681152e-01,-4.376688599586486816e-01,1.569155156612396240e-01,4.356913566589355469e-01,-1.169539317488670349e-01,5.207518935203552246e-01,1.858380287885665894e-01
2.711183130741119385e-01,5.063670277595520020e-01,5.608171820640563965e-01,-1.434262841939926147e-01,3.884344100952148438e-01,7.226607203483581543e-02,5.995813608169555664e-01,-3.156313300132751465e-01,-2.794311940670013428e-01,-2.243879735469818115e-01,1.628540903329849243e-01,-1.583144962787628174e-01,5.592131018638610840e-01,1.587908864021301270e-01
2.568185627460479736e-01,6.557056307792663574e-01,5.746641159057617188e-01,-2.335998415946960449e-01,6.149539947509765625e-01,-1.779652386903762817e-01,4.520182013511657715e-01,-3.672890365123748779e-01,-5.029463171958923340e-01,-8.523986488580703735e-02,2.402320057153701782e-01,-4.259635210037231445e-01,6.277642250061035156e-01,2.550947666168212891e-01
4.614083468914031982e-01,8.380351066589355469e-01,1.943928301334381104e-01,-2.201697677373886108e-01,3.849093019962310791e-01,3.674765815958380699e-03,5.970299839973449707e-01,-3.739765584468841553e-01,-3.620135784149169922e-01,-1.994042396545410156e-01,4.378204941749572754e-01,-2.546768784523010254e-01,3.322958350181579590e-01,3.405819535255432129e-01
4.920243918895721436e-01,7.508078217506408691e-01,5.574299097061157227e-01,-4.678629934787750244e-01,3.311132192611694336e-01,-1.772876977920532227e-01,3.959802091121673584e-01,-5.769267678260803223e-01,-2.819492816925048828e-01,-8.846697211265563965e-02,4.267384409904479980e-01,-4.065173566341400146e-01,5.328935980796813965e-01,3.020348548889160156e-01
5.169938206672668457e-01,9.059607982635498047e-01,4.544381201267242432e-01,-3.241939544677734375e-01,4.074178338050842285e-01,5.989420413970947266e-02,6.634000539779663086e-01,-7.162624597549438477e-01,-2.847384512424468994e-01,-4.963718727231025696e-02,5.613219738006591797e-01,-3.901780247688293457e-01,3.694662451744079590e-01,-2.416640706360340118e-02
4.388698935508728027e-01,6.625278592109680176e-01,5.705734491348266602e-01,-6.307445764541625977e-01,2.798023521900177002e-01,-1.158085986971855164e-01,5.809222459793090820e-01,-6.013766527175903320e-01,-4.652106165885925293e-01,-2.664325237274169922e-01,4.568333625793457031e-01,-6.033040881156921387e-01,2.773005366325378418e-01,1.709716618061065674e-01
3.315508067607879639e-01,5.757581591606140137e-01,3.070972263813018799e-01,-4.573166072368621826e-01,3.659980297088623047e-01,-9.987296909093856812e-02,7.412177920341491699e-01,-7.247085571289062500e-01,-3.487137556076049805e-01,-3.161193430423736572e-01,3.941788673400878906e-01,-7.013142704963684082e-01,5.269690752029418945e-01,3.408327698707580566e-01
3.787063956260681152e-01,4.912260472774505615e-01,4.330807328224182129e-01,-5.199189186096191406e-01,4.531691074371337891e-01,1.182099729776382446e-01,8.445733189582824707e-01,-6.301336884498596191e-01,-4.004673957824707031e-01,-1.820004880428314209e-01,4.503218531608581543e-01,-6.266422271728515625e-01,3.238285481929779053e-01,4.559386372566223145e-01
5.052697062492370605e-01,5.537400245666503906e-01,4.363218843936920166e-01,-5.962260365486145020e-01,4.977043867111206055e-01,1.130744665861129761e-01,7.105121612548828125e-01,-6.777012348175048828e-01,-4.015751183032989502e-01,-2.814128994941711426e-01,3.023300170898437500e-01,-6.442662477493286133e-01,4.889540374279022217e-01,2.776319384574890137e-01
3.276333510875701904e-01,5.943000316619873047e-01,3.369368910789489746e-01,-5.234808325767517090e-01,6.641659140586853027e-01,2.041837945580482483e-02,6.417269706726074219e-01,-7.411102056503295898e-01,-4.917956590652465820e-01,-1.494800448417663574e-01,4.030281603336334229e-01,-6.607758402824401855e-01,4.911007285118103027e-01,4.292136132717132568e-01
3.971319794654846191e-01,4.602818191051483154e-01,2.941773831844329834e-01,-4.664269089698791504e-01,7.147732377052307129e-01,1.576630920171737671e-01,5.507748126983642578e-01,-5.990977883338928223e-01,-4.816509485244750977e-01,-1.123982295393943787e-01,3.186782598495483398e-01,-6.686545610427856445e-01,5.681657791137695312e-01,1.826941519975662231e-01
2.715869843959808350e-01,3.671765327453613281e-01,5.197472572326660156e-01,-3.826564252376556396e-01,6.974912881851196289e-01,1.381902247667312622e-01,5.178387165069580078e-01,-7.354928851127624512e-01,-6.542242765426635742e-01,3.102854080498218536e-02,5.516391396522521973e-01,-4.529356062412261963e-01,4.838164448738098145e-01,3.219971358776092529e-01
2.607351839542388916e-01,4.861354827880859375e-01,4.523869156837463379e-01,-3.713554143905639648e-01,6.010975241661071777e-01,1.194306313991546631e-01,4.547322392463684082e-01,-8.517065048217773438e-01,-7.015323042869567871e-01,5.740579962730407715e-02,2.458572238683700562e-01,-7.786800861358642578e-01,4.728193581104278564e-01,2.746127247810363770e-01
1.652889400720596313e-01,3.768272697925567627e-01,4.681491255760192871e-01,-2.647909224033355713e-01,6.366127729415893555e-01,3.692860007286071777e-01,4.142659008502960205e-01,-6.843901872634887695e-01,-8.852872848510742188e-01,9.170629829168319702e-02,3.431183993816375732e-01,-6.758675575256347656e-01,4.390670955181121826e-01,2.358102202415466309e-01
2.278964668512344360e-01,2.822879552841186523e-01,5.604730844497680664e-01,-3.103407919406890869e-01,8.696677088737487793e-01,3.848783671855926514e-01,3.919685482978820801e-01,-4.888351857662200928e-01,-7.058845162391662598e-01,2.823539376258850098e-01,2.297703027725219727e-01,-6.143245697021484375e-01,3.200652897357940674e-01,1.936732232570648193e-02
2.487832307815551758e-02,1.923992782831192017e-01,4.123073518276214600e-01,-2.322049289941787720e-01,9.045549035072326660e-01,3.907729089260101318e-01,2.036187648773193359e-01,-7.294044494628906250e-01,-6.737550497055053711e-01,1.794635653495788574e-01,3.968314230442047119e-01,-5.513948798179626465e-01,4.092195630073547363e-01,-1.098624467849731445e-01
4.299768060445785522e-02,2.236285209655761719e-01,4.376595616340637207e-01,-1.746717691421508789e-01,9.831141233444213867e-01,6.716025471687316895e-01,3.400149345397949219e-01,-4.803534448146820068e-01,-7.842463850975036621e-01,1.334117203950881958e-01,2.711936831474304199e-01,-4.655409753322601318e-01,2.258418053388595581e-01,3.914188593626022339e-02
1.588329523801803589e-01,2.793653607368469238e-01,4.309010803699493408e-01,-9.349182993173599243e-02,1.243794202804565430e+00,4.933345615863800049e-01,1.610245704650878906e-01,-3.421740233898162842e-01,-5.430420637130737305e-01,1.563849002122879028e-01,2.099261581897735596e-01,-4.350819289684295654e-01,1.730647385120391846e-01,-2.635924220085144043e-01
1.438110768795013428e-01,1.382971256971359253e-01,4.248531758785247803e-01,2.667370950803160667e-03,1.042510747909545898e+00,6.273817420005798340e-01,1.564277708530426025e-01,-6.571730226278305054e-02,-3.679699301719665527e-01,1.082597151398658752e-01,5.770856887102127075e-02,-4.009597897529602051e-01,2.857374846935272217e-01,-2.606760859489440918e-01
8.488576114177703857e-02,7.671309262514114380e-02,2.415701001882553101e-01,2.882693521678447723e-02,1.018965363502502441e+00,7.328344583511352539e-01,2.732087969779968262e-01,-1.469316780567169189e-01,-4.809886813163757324e-01,7.062553614377975464e-02,2.894468605518341064e-01,-4.487046003341674805e-01,3.507998287677764893e-01,-1.082604378461837769e-01
1.542273610830307007e-01,1.339013725519180298e-01,3.824740946292877197e-01,-9.642943739891052246e-03,1.087509393692016602e+00,5.940014123916625977e-01,-6.083619967103004456e-02,-1.993178576231002808e-01,-1.072988510131835938e-01,1.199114695191383362e-02,3.642836213111877441e-02,-6.580211520195007324e-01,2.218398600816726685e-01,-2.821722030639648438e-01
-1.070996075868606567e-01,1.560213416814804077e-01,5.108051896095275879e-01,3.181480243802070618e-02,9.989871978759765625e-01,5.245398283004760742e-01,-7.784476131200790405e-02,-1.148653775453567505e-01,-1.567106246948242188e-01,2.355064302682876587e-01,8.566677570343017578e-02,-6.378986239433288574e-01,2.238439470529556274e-01,-2.993595600128173828e-01
4.532536491751670837e-02,2.732319831848144531e-01,4.024901688098907471e-01,4.279164224863052368e-02,1.056413531303405762e+00,5.915101170539855957e-01,2.559067010879516602e-01,-3.212119638919830322e-01,-7.465657778084278107e-03,1.641259528696537018e-02,1.389004141092300415e-01,-3.396856486797332764e-01,1.562526822090148926e-01,-2.946501374244689941e-01
1.079629883170127869e-01,-5.742592271417379379e-03,3.986966311931610107e-01,4.979409743100404739e-03,9.524522423744201660e-01,5.593781471252441406e-01,2.709021270275115967e-01,-2.107569277286529541e-01,2.032606629654765129e-03,8.320551365613937378e-02,2.233998328447341919e-01,-3.240025937557220459e-01,2.651191949844360352e-01,-3.025478720664978027e-01
3.556937873363494873e-01,1.048487722873687744e-01,5.833974480628967285e-01,1.543103307485580444e-01,1.033495664596557617e+00,5.455070734024047852e-01,4.810689091682434082e-01,-2.379881963133811951e-02,9.821870364248752594e-03,-1.590236835181713104e-02,1.881054937839508057e-01,-3.401995599269866943e-01,3.340535759925842285e-01,-3.522042036056518555e-01
2.078113257884979248e-01,2.663061767816543579e-02,5.369592905044555664e-01,3.906127763912081718e-03,7.322794198989868164e-01,5.851796269416809082e-01,2.877307832241058350e-01,-6.299839168787002563e-02,2.347772568464279175e-01,-2.589703537523746490e-02,4.232453405857086182e-01,-4.504524171352386475e-01,5.883721709251403809e-01,-4.150857627391815186e-01
3.897789418697357178e-01,6.264675408601760864e-03,5.277242660522460938e-01,-7.547400146722793579e-02,8.651623129844665527e-01,2.930860519409179688e-01,5.177170038223266602e-01,-4.557605087757110596e-02,3.258158564567565918e-01,5.654000490903854370e-02,3.605055809020996094e-01,-3.585568368434906006e-01,4.894413352012634277e-01,-2.061064727604389191e-02
5.597987174987792969e-01,1.624538153409957886e-01,5.624651312828063965e-01,6.088984012603759766e-02,6.537023782730102539e-01,3.039354681968688965e-01,4.992510378360748291e-01,-6.941585242748260498e-02,2.882846891880035400e-01,-7.582216709852218628e-02,6.062253713607788086e-01,-3.183361291885375977e-01,6.400907039642333984e-01,-2.752525508403778076e-01
4.825319945812225342e-01,3.120278008282184601e-03,7.001156210899353027e-01,3.408851921558380127e-01,5.535323619842529297e-01,1.114884242415428162e-01,6.897345185279846191e-01,-7.286779582500457764e-02,3.726638555526733398e-01,-2.198232263326644897e-01,4.373365044593811035e-01,-3.291732072830200195e-01,4.976769983768463135e-01,-1.668912619352340698e-01
4.957554936408996582e-01,-1.009827852249145508e-01,6.910714507102966309e-01,2.039632499217987061e-01,2.256671488285064697e-01,2.706289887428283691e-01,4.269042015075683594e-01,-6.127475947141647339e-02,3.749795258045196533e-01,-2.186384499073028564e-01,6.724281311035156250e-01,-1.477175056934356689e-01,8.233975172042846680e-01,-1.112614199519157410e-01
5.680764317512512207e-01,8.476356416940689087e-02,8.897881507873535156e-01,2.884675562381744385e-01,1.439000666141510010e-01,2.014784812927246094e-01,6.584211587905883789e-01,-1.751638799905776978e-01,3.274073302745819092e-01,-1.130506247282028198e-01,6.320893168449401855e-01,9.322142601013183594e-02,7.490150332450866699e-01,-1.691254824399948120e-01
4.865743815898895264e-01,9.350509196519851685e-02,7.528510689735412598e-01,2.529550790786743164e-01,1.403012871742248535e-01,1.588215082883834839e-01,7.851613163948059082e-01,-8.901383727788925171e-02,4.325668513774871826e-01,-1.913611739873886108e-01,7.686542272567749023e-01,-1.257727146148681641e-01,6.064372062683105469e-01,-1.276852041482925415e-01
6.491403579711914062e-01,-6.197962164878845215e-02,8.698148727416992188e-01,3.448994457721710205e-01,2.761956453323364258e-01,1.227560639381408691e-01,6.484777927398681641e-01,-1.861377954483032227e-01,3.294636905193328857e-01,-1.934257149696350098e-01,7.177364826202392578e-01,9.100417047739028931e-02,6.886087059974670410e-01,8.304147422313690186e-02
5.755426287651062012e-01,-4.643224924802780151e-02,8.785499334335327148e-01,2.911091148853302002e-01,2.929444909095764160e-01,1.706624031066894531e-01,7.271183729171752930e-01,-1.194364577531814575e-01,4.721189737319946289e-01,-3.620147705078125000e-01,1.040960907936096191e+00,-1.013336032629013062e-01,6.442202925682067871e-01,-1.333856433629989624e-01
8.042186498641967773e-01,1.547767966985702515e-01,8.748676180839538574e-01,2.579899728298187256e-01,2.412148863077163696e-01,2.610621750354766846e-01,7.329877018928527832e-01,6.465113908052444458e-02,6.210624575614929199e-01,-5.373284816741943359e-01,1.077661752700805664e+00,-1.547297984361648560e-01,7.096742987632751465e-01,-2.557475306093692780e-02
5.651921629905700684e-01,1.542178392410278320e-01,9.241042137145996094e-01,2.920757830142974854e-01,1.673323959112167358e-01,1.809852570295333862e-01,7.500102519989013672e-01,-7.402185350656509399e-02,4.921915829181671143e-01,-4.134665131568908691e-01,1.083369374275207520e+00,9.367450326681137085e-02,6.011579036712646484e-01,2.301038242876529694e-03
7.453268170356750488e-01,1.534020006656646729e-01,5.693120360374450684e-01,1.356117725372314453e-01,2.331022024154663086e-01,2.922217547893524170e-01,5.911390781402587891e-01,-2.759036142379045486e-03,3.575941920280456543e-01,-5.110365748405456543e-01,1.061902523040771484e+00,-4.727523401379585266e-02,5.461370348930358887e-01,-1.408471018075942993e-01
7.965835928916931152e-01,3.441509008407592773e-01,6.871134638786315918e-01,1.581865251064300537e-01,2.428230494260787964e-01,3.719369471073150635e-01,6.329045891761779785e-01,-6.419452279806137085e-02,4.062093794345855713e-01,-5.844634175300598145e-01,1.231246829032897949e+00,6.569629162549972534e-02,4.236824810504913330e-01,-1.704134196043014526e-01
7.274278402328491211e-01,2.084837257862091064e-01,5.980521440505981445e-01,3.232415020465850830e-02,7.290641963481903076e-02,2.627182900905609131e-01,7.117645144462585449e-01,-1.356794983148574829e-01,4.808444678783416748e-01,-8.277589678764343262e-01,9.570232033729553223e-01,3.565372154116630554e-02,3.125719428062438965e-01,-1.135960295796394348e-01
5.758996605873107910e-01,3.265896141529083252e-01,3.282305002212524414e-01,-3.855993598699569702e-02,1.385670304298400879e-01,3.545840680599212646e-01,7.187030315399169922e-01,-2.280014306306838989e-01,3.543777763843536377e-01,-8.287293910980224609e-01,1.074766755104064941e+00,-2.004574239253997803e-01,4.461272954940795898e-01,-2.749262750148773193e-01
6.708388328552246094e-01,4.032446146011352539e-01,3.600721359252929688e-01,-1.895687878131866455e-01,9.838356822729110718e-02,4.315783381462097168e-01,6.453737616539001465e-01,-2.051583975553512573e-01,4.153552353382110596e-01,-9.279562830924987793e-01,8.694494366645812988e-01,-1.070076450705528259e-01,3.969471752643585205e-01,-5.214753150939941406e-01
5.683405995368957520e-01,2.358827143907546997e-01,1.895582228899002075e-01,-2.070246487855911255e-01,1.163564473390579224e-01,6.860793232917785645e-01,5.795824527740478516e-01,-1.915712058544158936e-01,4.241864681243896484e-01,-8.542188405990600586e-01,8.926513195037841797e-01,-4.008597731590270996e-01,1.717601865530014038e-01,-2.139167189598083496e-01
4.986015856266021729e-01,5.274203419685363770e-02,2.735797762870788574e-01,-3.106936514377593994e-01,4.366694390773773193e-02,4.714476466178894043e-01,6.103850007057189941e-01,-2.011540234088897705e-01,3.672905266284942627e-01,-8.980362415313720703e-01,8.745434284210205078e-01,-4.730957150459289551e-01,2.396262288093566895e-01,-5.082594156265258789e-01
4.895811676979064941e-01,1.434279531240463257e-01,-1.384835410863161087e-02,-2.041120678186416626e-01,1.340514793992042542e-02,5.682940483093261719e-01,6.724812388420104980e-01,-2.978432774543762207e-01,3.432584404945373535e-01,-9.774172306060791016e-01,5.727682113647460938e-01,-3.415991663932800293e-01,6.364256888628005981e-02,-4.299942255020141602e-01
5.562475919723510742e-01,1.345584094524383545e-01,-5.861191824078559875e-02,-5.321087837219238281e-01,-9.465535730123519897e-02,4.843463003635406494e-01,5.941198468208312988e-01,-2.942194640636444092e-01,4.061318337917327881e-01,-8.903598189353942871e-01,7.071464657783508301e-01,-6.587082743644714355e-01,2.070244401693344116e-01,-6.179141998291015625e-01
3.459015190601348877e-01,1.343083679676055908e-01,-1.433716714382171631e-01,-3.050546944141387939e-01,-3.028626181185245514e-02,5.219361186027526855e-01,4.384398460388183594e-01,-5.547549724578857422e-01,4.444391727447509766e-01,-8.335373401641845703e-01,6.634939312934875488e-01,-5.460270047187805176e-01,1.023796796798706055e-01,-5.656871199607849121e-01
4.429605603218078613e-01,-1.096995249390602112e-01,-2.450204193592071533e-01,-5.811122059822082520e-01,-9.516347199678421021e-02,4.649000465869903564e-01,4.217438697814941406e-01,-3.504681289196014404e-01,2.263478338718414307e-01,-9.244346022605895996e-01,6.530269384384155273e-01,-4.472967088222503662e-01,3.987447917461395264e-02,-5.813500285148620605e-01
5.231580734252929688e-01,1.731605082750320435e-02,-3.600949645042419434e-01,-3.480508625507354736e-01,-1.708418577909469604e-01,6.851974129676818848e-01,5.092408061027526855e-01,-5.718957185745239258e-01,3.186839222908020020e-01,-8.527868390083312988e-01,5.552381873130798340e-01,-4.501359164714813232e-01,1.802288368344306946e-02,-5.392959713935852051e-01
4.255342185497283936e-01,-3.836752772331237793e-01,-3.217522501945495605e-01,-4.641533493995666504e-01,-2.842484600841999054e-02,4.956601560115814209e-01,3.041464090347290039e-01,-3.675745129585266113e-01,2.719987416639924049e-03,-9.197058081626892090e-01,6.153337955474853516e-01,-6.176815629005432129e-01,2.418696880340576172e-01,-6.608956456184387207e-01
