AF3,F7,F3,FC5,T7,P7,O1,O2,P8,T8,FC6,F4,F8,AF4
-2.472934126853942871e-01,-7.073794603347778320e-01,1.328106522560119629e-01,-4.940701425075531006e-01,-4.908475279808044434e-01,7.179578542709350586e-01,2.085554301738739014e-01,-8.335437774658203125e-01,-9.512928724288940430e-01,1.061847805976867676e-01,5.856341719627380371e-01,4.419741630554199219e-01,-1.027305424213409424e-01,2.758345901966094971e-01
-3.353034555912017822e-01,-8.537498116493225098e-01,1.534887999296188354e-01,-2.898366153240203857e-01,-1.733321249485015869e-01,6.816728115081787109e-01,3.460596799850463867e-01,-1.095021843910217285e+00,-9.090573191642761230e-01,1.064847111701965332e-01,4.159728884696960449e-01,2.491646558046340942e-01,-1.959560811519622803e-02,2.397880554199218750e-01
-3.851944804191589355e-01,-7.625496983528137207e-01,-2.448580600321292877e-02,-2.038457095623016357e-01,-2.653101682662963867e-01,4.241618514060974121e-01,5.645720362663269043e-01,-7.506116628646850586e-01,-7.603065371513366699e-01,1.349391639232635498e-01,6.095867156982421875e-01,2.752155959606170654e-01,-2.425156980752944946e-01,3.872385919094085693e-01
-4.634866416454315186e-01,-7.348757386207580566e-01,1.636660471558570862e-02,-2.001326233148574829e-01,-3.225665986537933350e-01,3.733581900596618652e-01,2.220544368028640747e-01,-6.332736611366271973e-01,-6.712305545806884766e-01,3.427509367465972900e-01,7.174321413040161133e-01,4.199533537030220032e-02,-6.167987734079360962e-02,3.622302114963531494e-01
-4.487116038799285889e-01,-8.149259090423583984e-01,1.449917852878570557e-01,-2.526680529117584229e-01,-3.622705340385437012e-01,3.701344430446624756e-01,1.651579737663269043e-01,-7.811480760574340820e-01,-7.019763588905334473e-01,4.657484292984008789e-01,4.226413369178771973e-01,3.914262652397155762e-01,9.973958879709243774e-02,3.300931155681610107e-01
-4.837142229080200195e-01,-4.522630870342254639e-01,3.900032863020896912e-02,-2.869460880756378174e-01,-4.460415542125701904e-01,6.133878231048583984e-01,3.802580237388610840e-01,-6.566230058670043945e-01,-7.289445996284484863e-01,5.399265289306640625e-01,3.510270714759826660e-01,4.071871191263198853e-02,3.543547540903091431e-02,4.192340373992919922e-01
-6.026358604431152344e-01,-7.834958434104919434e-01,1.798194497823715210e-01,-1.320605725049972534e-01,-2.956189513206481934e-01,4.373240470886230469e-01,3.838439583778381348e-01,-5.821957588195800781e-01,-7.067661881446838379e-01,5.728553533554077148e-01,4.662128090858459473e-01,2.459866255521774292e-01,5.296119302511215210e-02,5.619408488273620605e-01
-6.657538414001464844e-01,-7.273269891738891602e-01,7.251807302236557007e-02,2.509071677923202515e-02,-1.592958718538284302e-01,3.901194632053375244e-01,3.002309203147888184e-01,-5.095553994178771973e-01,-5.388882160186767578e-01,5.143676400184631348e-01,4.603230059146881104e-01,1.933612674474716187e-02,-1.598733216524124146e-01,4.053259491920471191e-01
-7.305922508239746094e-01,-4.194570183753967285e-01,6.038026139140129089e-02,6.669606268405914307e-02,-2.520133554935455322e-01,5.038101673126220703e-01,3.208338618278503418e-01,-4.360941052436828613e-01,-5.105052590370178223e-01,6.712313890457153320e-01,5.591531991958618164e-01,2.563386037945747375e-02,1.780640683136880398e-03,5.292122364044189453e-01
-7.679604291915893555e-01,-4.345462322235107422e-01,3.193224072456359863e-01,5.469232052564620972e-02,-8.609364926815032959e-02,5.599731802940368652e-01,1.161039918661117554e-01,-3.267379701137542725e-01,-5.399674177169799805e-01,6.522798538208007812e-01,5.249271392822265625e-01,1.274151057004928589e-01,4.514488205313682556e-02,5.006350874900817871e-01
-7.359614372253417969e-01,-5.682585239410400391e-01,3.603428900241851807e-01,-1.614800542593002319e-01,-1.391193121671676636e-01,6.494860053062438965e-01,1.073389649391174316e-01,-2.385082244873046875e-01,-5.133867263793945312e-01,6.423119306564331055e-01,4.808493554592132568e-01,1.041518971323966980e-01,2.474137693643569946e-01,5.587174296379089355e-01
-7.906593084335327148e-01,-3.725372850894927979e-01,1.966511309146881104e-01,-2.204851508140563965e-01,-8.377715013921260834e-03,6.851539611816406250e-01,1.936369538307189941e-01,-2.003845572471618652e-01,-4.157928526401519775e-01,5.622624158859252930e-01,5.272817611694335938e-01,-1.806387901306152344e-01,5.232163891196250916e-02,4.465637803077697754e-01
-8.482567071914672852e-01,-2.644749879837036133e-01,9.949968010187149048e-02,-8.790341019630432129e-02,-6.438909471035003662e-02,6.103551983833312988e-01,3.446094095706939697e-01,-3.828813433647155762e-01,-4.205145835876464844e-01,5.571017861366271973e-01,4.109711349010467529e-01,-5.860103759914636612e-03,1.291907578706741333e-01,5.055542588233947754e-01
-8.758169412612915039e-01,-4.045310020446777344e-01,1.267491932958364487e-02,-1.107303574681282043e-01,-4.573743045330047607e-02,7.882635593414306641e-01,2.209830284118652344e-01,-3.787618875503540039e-01,-2.886065840721130371e-01,5.888726115226745605e-01,6.071759462356567383e-01,-7.616022229194641113e-02,2.313843071460723877e-01,5.740948915481567383e-01
-7.838026881217956543e-01,-1.450508832931518555e-01,3.910337388515472412e-01,-1.715092658996582031e-01,1.510873287916183472e-01,6.741967797279357910e-01,2.298261076211929321e-01,-1.599532961845397949e-01,-2.488163858652114868e-01,7.943421602249145508e-01,6.826937794685363770e-01,-3.416768312454223633e-01,7.839062064886093140e-02,3.255418837070465088e-01
-6.661253571510314941e-01,-5.938187241554260254e-01,1.844245344400405884e-01,-4.468984603881835938e-01,6.452515721321105957e-02,7.321320772171020508e-01,7.278444617986679077e-02,-2.238440662622451782e-01,-1.402457356452941895e-01,5.464197993278503418e-01,3.935338258743286133e-01,-1.532828062772750854e-01,1.929554492235183716e-01,2.312763184309005737e-01
-7.787246704101562500e-01,-3.803164958953857422e-01,7.417343556880950928e-02,-3.588900268077850342e-01,6.913246959447860718e-02,8.174715638160705566e-01,2.385201603174209595e-01,-2.751189172267913818e-01,-1.134967207908630371e-01,4.208551645278930664e-01,3.444222211837768555e-01,-5.184280276298522949e-01,1.905841976404190063e-01,1.719623357057571411e-01
-7.415146827697753906e-01,-3.708370327949523926e-01,5.767589807510375977e-02,-2.910133302211761475e-01,4.145761206746101379e-02,6.779363751411437988e-01,9.719219058752059937e-02,-2.276725471019744873e-01,3.520134463906288147e-02,3.663500249385833740e-01,4.494211077690124512e-01,-4.854481816291809082e-01,2.761501371860504150e-01,1.165051236748695374e-01
-7.669057846069335938e-01,-4.424402415752410889e-01,-1.387867033481597900e-01,-2.413269877433776855e-01,3.586068153381347656e-01,6.722565889358520508e-01,4.121879637241363525e-01,-2.658452391624450684e-01,1.015743389725685120e-01,3.715129792690277100e-01,3.550855815410614014e-01,-4.125758409500122070e-01,2.689195871353149414e-01,2.253185808658599854e-01
-6.204652190208435059e-01,-5.985017418861389160e-01,7.395980507135391235e-02,-1.994134485721588135e-01,1.255969554185867310e-01,7.709730863571166992e-01,1.531973183155059814e-01,-1.948033422231674194e-01,2.570842858403921127e-03,6.138026714324951172e-01,3.399361670017242432e-01,-5.678949356079101562e-01,2.812787592411041260e-01,-3.844451531767845154e-02
-3.920208513736724854e-01,-6.517428159713745117e-01,1.733177751302719116e-01,-2.309272140264511108e-01,1.145060285925865173e-01,6.060604453086853027e-01,1.912284493446350098e-01,-2.627383768558502197e-01,-3.705786541104316711e-02,3.358435034751892090e-01,3.228602111339569092e-01,-4.609500169754028320e-01,2.534407377243041992e-01,1.710679009556770325e-02
-3.121463358402252197e-01,-6.167480945587158203e-01,-1.414332985877990723e-01,-1.648100018501281738e-01,-5.458654463291168213e-02,6.324911713600158691e-01,1.367067247629165649e-01,-1.830257624387741089e-01,1.016998738050460815e-01,4.497956335544586182e-01,4.466177821159362793e-01,-4.500028192996978760e-01,7.771757990121841431e-02,6.567437201738357544e-02
-2.202294766902923584e-01,-6.078721880912780762e-01,1.405097395181655884e-01,-1.266715675592422485e-01,5.666460841894149780e-02,7.060838341712951660e-01,3.022251427173614502e-01,-3.423546850681304932e-01,1.946167461574077606e-02,3.072796165943145752e-01,4.369041919708251953e-01,-4.620105624198913574e-01,2.658810317516326904e-01,1.768374443054199219e-02
-1.254721730947494507e-01,-6.439156532287597656e-01,-1.434045732021331787e-01,8.903079666197299957e-03,-2.918887324631214142e-02,8.365762233734130859e-01,3.046874403953552246e-01,-2.438420355319976807e-01,-7.886263728141784668e-02,3.576166331768035889e-01,5.376086235046386719e-01,-3.132727742195129395e-01,2.561404705047607422e-01,-7.311794906854629517e-02
-8.281853795051574707e-02,-5.988010168075561523e-01,2.234024286735802889e-04,5.650160834193229675e-02,-9.311272203922271729e-02,6.735156178474426270e-01,4.565026462078094482e-01,-2.304306626319885254e-01,4.186093434691429138e-02,3.964982032775878906e-01,4.765048623085021973e-01,-3.592489957809448242e-01,3.157094120979309082e-01,-7.937839254736900330e-03
-3.270143177360296249e-03,-7.858467102050781250e-01,-1.729500591754913330e-01,1.220137402415275574e-01,1.734364777803421021e-01,6.425265669822692871e-01,3.875371515750885010e-01,-1.928201913833618164e-01,-2.120279222726821899e-01,2.436505556106567383e-01,4.530830383300781250e-01,-2.433986365795135498e-01,1.731037646532058716e-01,8.972796611487865448e-03
5.139138549566268921e-02,-6.701634526252746582e-01,-2.145972698926925659e-01,1.798443794250488281e-01,3.555940836668014526e-02,6.297971010208129883e-01,2.372811585664749146e-01,-2.461192756891250610e-01,-4.165599942207336426e-01,2.168204486370086670e-01,6.225612759590148926e-01,-7.644024491310119629e-02,1.826975643634796143e-01,1.734839007258415222e-02
4.039008915424346924e-02,-6.880376935005187988e-01,-1.082100942730903625e-01,3.027620017528533936e-01,2.914976328611373901e-02,4.482098519802093506e-01,4.138080477714538574e-01,-2.100432962179183960e-01,-3.472341299057006836e-01,4.229466319084167480e-01,5.727093815803527832e-01,-3.538767993450164795e-02,1.355581283569335938e-01,7.386308163404464722e-02
1.292441785335540771e-01,-5.645558238029479980e-01,-2.686189413070678711e-01,4.238069355487823486e-01,-1.224652305245399475e-01,5.411611199378967285e-01,2.175224125385284424e-01,-3.154002726078033447e-01,-1.669966280460357666e-01,3.278561234474182129e-01,7.854549288749694824e-01,3.756316751241683960e-02,-5.914276931434869766e-03,3.839469850063323975e-01
1.648271381855010986e-01,-3.445227742195129395e-01,-3.709265887737274170e-01,4.722776412963867188e-01,-1.569869816303253174e-01,4.938273727893829346e-01,2.918835580348968506e-01,-1.185916364192962646e-01,-4.026145040988922119e-01,2.779366374015808105e-01,6.207404732704162598e-01,-8.973494172096252441e-02,-1.235796883702278137e-01,3.131775856018066406e-01
2.136789858341217041e-01,-3.471108675003051758e-01,-6.708062887191772461e-01,5.408447980880737305e-01,-4.413753002882003784e-02,4.874031841754913330e-01,4.042916297912597656e-01,-1.910399943590164185e-01,-4.512586891651153564e-01,2.458447813987731934e-01,6.174042224884033203e-01,1.333998292684555054e-01,-5.147125571966171265e-02,5.544396638870239258e-01
1.542899757623672485e-01,-4.757354035973548889e-03,-7.010048031806945801e-01,6.799210309982299805e-01,-1.086130663752555847e-01,4.151838719844818115e-01,3.144724965095520020e-01,-3.596698045730590820e-01,-4.110793173313140869e-01,1.823256313800811768e-01,7.089945077896118164e-01,3.596557676792144775e-02,-7.468576729297637939e-02,3.291232585906982422e-01
3.383744359016418457e-01,-1.532229781150817871e-01,-5.811430811882019043e-01,6.003832221031188965e-01,-7.358036469668149948e-03,3.789746761322021484e-01,5.745514631271362305e-01,-2.731166779994964600e-01,-3.112457394599914551e-01,3.110170364379882812e-01,8.504272103309631348e-01,2.444672957062721252e-02,-3.238025605678558350e-01,4.375508725643157959e-01
-1.645359955728054047e-02,-7.691918313503265381e-02,-5.570593476295471191e-01,5.232174992561340332e-01,-2.178264968097209930e-02,2.367377281188964844e-01,7.395241856575012207e-01,-1.478459835052490234e-01,-4.044096171855926514e-01,9.287486970424652100e-02,8.695058822631835938e-01,1.599216759204864502e-01,-3.646739125251770020e-01,3.720008134841918945e-01
1.532901823520660400e-01,1.114987954497337341e-02,-7.644514441490173340e-01,6.783499121665954590e-01,-1.064584478735923767e-01,1.912288516759872437e-01,5.258883833885192871e-01,-2.167949974536895752e-01,-3.075068593025207520e-01,1.344323903322219849e-01,9.000382423400878906e-01,7.783865928649902344e-02,-3.329974114894866943e-01,4.733850359916687012e-01
4.712135344743728638e-02,1.163534726947546005e-02,-9.027449488639831543e-01,4.451284110546112061e-01,-5.358308926224708557e-02,-2.717096172273159027e-02,5.308101177215576172e-01,-2.007374912500381470e-01,-3.452869951725006104e-01,-6.901540607213973999e-02,7.998277544975280762e-01,2.370663434267044067e-01,-3.839848935604095459e-01,7.826102972030639648e-01
2.797857858240604401e-02,1.345940232276916504e-01,-1.083000421524047852e+00,4.579335749149322510e-01,-1.377732157707214355e-01,-3.036078065633773804e-02,6.169629693031311035e-01,-9.399373084306716919e-02,-2.183853387832641602e-01,5.574015434831380844e-03,7.243058681488037109e-01,2.203751057386398315e-01,-4.987920224666595459e-01,5.671885609626770020e-01
-7.148304581642150879e-02,3.077293634414672852e-01,-1.018725752830505371e+00,5.793627500534057617e-01,-2.595522999763488770e-01,4.618525877594947815e-02,5.979191064834594727e-01,4.964059684425592422e-03,-2.077765017747879028e-01,-6.814786698669195175e-03,8.896771669387817383e-01,-7.616487145423889160e-02,-5.082885622978210449e-01,8.280038833618164062e-01
1.007790490984916687e-01,2.509281337261199951e-01,-9.517039060592651367e-01,5.751519799232482910e-01,-1.991983056068420410e-01,-1.520076543092727661e-01,6.902301311492919922e-01,-1.047781854867935181e-01,-2.119558602571487427e-01,2.786235511302947998e-01,7.883929610252380371e-01,3.938396461308002472e-03,-5.058485269546508789e-01,5.196456909179687500e-01
6.094276905059814453e-02,1.958881318569183350e-01,-1.056293368339538574e+00,3.770238161087036133e-01,-1.620138287544250488e-01,-2.692562937736511230e-01,5.264424681663513184e-01,1.706988811492919922e-01,-9.456017613410949707e-02,-5.485054105520248413e-02,6.868271231651306152e-01,-8.595315366983413696e-02,-4.791628420352935791e-01,5.397416353225708008e-01
8.339922875165939331e-02,2.111770957708358765e-01,-1.053712725639343262e+00,4.432006180286407471e-01,-6.627972424030303955e-02,-1.491737812757492065e-01,6.678722500801086426e-01,1.176610589027404785e-01,-1.271410435438156128e-01,2.180689424276351929e-01,5.315921902656555176e-01,-9.719358757138252258e-03,-6.319726109504699707e-01,6.074520349502563477e-01
2.795932814478874207e-02,2.817525565624237061e-01,-9.303320050239562988e-01,4.037035703659057617e-01,-1.066196858882904053e-01,-5.314583182334899902e-01,7.868537306785583496e-01,2.790539264678955078e-01,-1.692559123039245605e-01,2.215316705405712128e-02,4.522134363651275635e-01,6.388249993324279785e-02,-2.935620248317718506e-01,6.291766166687011719e-01
-5.354890599846839905e-03,3.537666499614715576e-01,-7.314026355743408203e-01,4.015409946441650391e-01,-1.425572633743286133e-01,-5.453386902809143066e-01,3.381574153900146484e-01,3.572686016559600830e-01,1.109556993469595909e-03,3.029413819313049316e-01,2.498281747102737427e-01,-1.747296936810016632e-02,-4.075918793678283691e-01,7.211177945137023926e-01
3.980684652924537659e-02,4.834982156753540039e-01,-7.446785569190979004e-01,5.330278873443603516e-01,6.747336685657501221e-02,-2.830917239189147949e-01,3.492181599140167236e-01,3.805461823940277100e-01,-9.827861934900283813e-02,3.985140323638916016e-01,2.697334289550781250e-01,-5.682584270834922791e-02,-3.048916161060333252e-01,6.676949858665466309e-01
1.104036644101142883e-01,2.471690624952316284e-01,-7.110348343849182129e-01,4.992736279964447021e-01,7.562872022390365601e-02,-4.503999948501586914e-01,3.372621238231658936e-01,3.918338418006896973e-01,1.116830855607986450e-01,6.403055787086486816e-01,9.708782285451889038e-02,1.341993659734725952e-01,-3.942512273788452148e-01,5.759627223014831543e-01
-1.134361773729324341e-01,3.661877512931823730e-01,-6.410858035087585449e-01,4.167270958423614502e-01,2.661706805229187012e-01,-4.614856839179992676e-01,3.434213697910308838e-01,5.117802619934082031e-01,6.448465585708618164e-02,5.843886733055114746e-01,3.425783663988113403e-02,-2.186845391988754272e-01,-2.782008945941925049e-01,6.003152132034301758e-01
1.925519257783889771e-01,4.292995333671569824e-01,-5.235152244567871094e-01,3.525567650794982910e-01,1.979297548532485962e-01,-5.230647325515747070e-01,2.818709611892700195e-01,7.318612933158874512e-01,2.235401868820190430e-01,4.897088408470153809e-01,-6.005845963954925537e-02,1.471478044986724854e-01,-1.684058606624603271e-01,5.781033635139465332e-01
3.632667064666748047e-01,2.471439838409423828e-01,-5.111994147300720215e-01,2.577586174011230469e-01,1.623609811067581177e-01,-3.110524117946624756e-01,1.781440377235412598e-01,4.437121450901031494e-01,5.964944884181022644e-02,6.909269094467163086e-01,1.178209111094474792e-01,-1.708172075450420380e-02,-3.409168124198913574e-01,5.138919949531555176e-01
1.811830997467041016e-01,3.603787422180175781e-01,-4.697602093219757080e-01,5.162929892539978027e-01,4.555955529212951660e-01,-2.446306496858596802e-01,-1.625265777111053467e-01,7.411786913871765137e-01,1.022918000817298889e-01,5.791686177253723145e-01,8.140762150287628174e-02,4.382745549082756042e-02,-2.148900330066680908e-01,5.091913938522338867e-01
1.152414306998252869e-01,3.847802579402923584e-01,-2.935616672039031982e-01,4.105054140090942383e-01,3.427696228027343750e-01,-3.466089963912963867e-01,-1.421206146478652954e-01,5.206935405731201172e-01,-2.957620844244956970e-02,5.558915734291076660e-01,3.301091492176055908e-02,1.201626565307378769e-02,-1.726036667823791504e-01,6.888428330421447754e-01
1.362923234701156616e-01,3.760620951652526855e-01,-3.413281440734863281e-01,2.533080279827117920e-01,4.796699583530426025e-01,-1.884486079216003418e-01,-2.336144149303436279e-01,5.097838044166564941e-01,2.229834161698818207e-02,3.894626796245574951e-01,2.622341737151145935e-02,2.298547327518463135e-01,-2.143201082944869995e-01,3.850074410438537598e-01
2.328695058822631836e-01,4.697320759296417236e-01,-4.030700922012329102e-01,3.652358651161193848e-01,5.027180910110473633e-01,-1.485244333744049072e-01,-2.042802125215530396e-01,3.451093733310699463e-01,-1.753003150224685669e-02,3.534157872200012207e-01,-1.016815230250358582e-01,-3.952469676733016968e-02,-7.249049097299575806e-02,7.036634683609008789e-01
1.486240327358245850e-01,4.198426008224487305e-01,-1.195254251360893250e-01,2.538735568523406982e-01,5.053288340568542480e-01,-3.678246587514877319e-02,-2.342101931571960449e-01,3.158389329910278320e-01,2.774065136909484863e-01,3.008334636688232422e-01,1.215337216854095459e-01,9.014842659235000610e-02,-9.584946930408477783e-02,4.732841253280639648e-01
2.783679962158203125e-01,3.552548885345458984e-01,-4.438507556915283203e-01,2.004515379667282104e-01,4.824422299861907959e-01,-1.313353627920150757e-01,-3.953025937080383301e-01,2.775067985057830811e-01,1.433910578489303589e-01,3.109317421913146973e-01,7.946939021348953247e-02,1.454235464334487915e-01,4.196009412407875061e-02,3.875113129615783691e-01
1.977004706859588623e-01,4.178202152252197266e-01,-1.095886677503585815e-01,2.443640977144241333e-01,3.155525326728820801e-01,1.373353004455566406e-01,-3.097879886627197266e-01,1.576705873012542725e-01,3.402656018733978271e-01,2.331281006336212158e-01,2.145632803440093994e-01,-6.487793475389480591e-02,-2.287545204162597656e-01,4.882525205612182617e-01
4.180989265441894531e-01,5.016376376152038574e-01,-2.243897020816802979e-01,1.047459095716476440e-01,3.463649451732635498e-01,1.231112778186798096e-01,-2.023238241672515869e-01,1.790227144956588745e-01,-4.597399011254310608e-02,2.989960908889770508e-01,1.512467861175537109e-01,9.612489491701126099e-03,-1.115037053823471069e-01,5.063080787658691406e-01
4.555549621582031250e-01,4.392525553703308105e-01,-3.916682004928588867e-01,1.318100094795227051e-01,5.118137001991271973e-01,2.730407053604722023e-03,-3.075275719165802002e-01,1.031316593289375305e-01,3.854344785213470459e-01,1.062843129038810730e-01,2.162293642759323120e-01,9.624346345663070679e-02,-2.412883192300796509e-01,4.094744920730590820e-01
3.025943934917449951e-01,2.321497164666652679e-02,-3.150618970394134521e-01,1.773369759321212769e-01,3.861996829509735107e-01,1.427750755101442337e-02,-2.419250756502151489e-01,2.812774181365966797e-01,2.242340892553329468e-01,-2.726955115795135498e-01,1.516641676425933838e-01,3.815415129065513611e-02,-3.417953848838806152e-01,2.872456908226013184e-01
3.836590349674224854e-01,2.107140570878982544e-01,-3.831934332847595215e-01,1.277853250503540039e-01,4.725674688816070557e-01,1.046282332390546799e-02,-2.554636821150779724e-02,-5.830659717321395874e-02,2.555943429470062256e-01,-3.597120195627212524e-02,1.759559363126754761e-01,6.924622505903244019e-02,-1.257415413856506348e-01,2.878795862197875977e-01
4.511369764804840088e-01,7.372532039880752563e-02,-2.799298167228698730e-01,2.716490030288696289e-01,1.147914826869964600e-01,-7.177116721868515015e-02,3.124182857573032379e-02,4.070723056793212891e-02,9.501988440752029419e-02,-2.567210793495178223e-01,2.563413083553314209e-01,1.493979692459106445e-01,-1.293903738260269165e-01,-4.411898553371429443e-02
5.167832374572753906e-01,5.041823908686637878e-02,-2.979987859725952148e-01,4.330286085605621338e-01,1.548135876655578613e-01,-5.989280715584754944e-02,-3.582453131675720215e-01,3.687702491879463196e-02,2.227001637220382690e-01,-2.465690672397613525e-01,1.510503292083740234e-01,2.931103110313415527e-01,-1.511969268321990967e-01,3.306464850902557373e-02
4.865623414516448975e-01,-5.297259986400604248e-02,-3.413192033767700195e-01,2.252473533153533936e-01,2.191860824823379517e-01,-6.515744328498840332e-02,-1.088789030909538269e-01,-1.050564274191856384e-01,9.096801280975341797e-02,-2.587020993232727051e-01,2.276855260133743286e-01,2.475080937147140503e-01,-3.471809327602386475e-01,-3.614527359604835510e-02
5.318040251731872559e-01,-3.757347166538238525e-02,-3.177420794963836670e-01,1.996307224035263062e-01,-5.213505355641245842e-04,1.018626913428306580e-01,1.882447302341461182e-01,6.697846949100494385e-02,-4.116623476147651672e-02,-2.618515491485595703e-01,1.507409363985061646e-01,4.517898559570312500e-01,-2.170112431049346924e-01,1.609847992658615112e-01
8.165702819824218750e-01,-5.597300827503204346e-02,-4.035015106201171875e-01,2.391484677791595459e-01,-2.943204343318939209e-02,1.694061979651451111e-02,-4.420141130685806274e-02,-4.083142429590225220e-02,-9.854477643966674805e-02,-3.433982431888580322e-01,2.016740888357162476e-01,3.125945627689361572e-01,-1.779341548681259155e-01,-1.643333933316171169e-03
8.399994969367980957e-01,-1.348048597574234009e-01,-2.112941592931747437e-01,5.012521147727966309e-01,-3.664997965097427368e-02,1.463096123188734055e-03,-8.394439518451690674e-02,-2.471891641616821289e-01,-1.588349044322967529e-01,-1.903467476367950439e-01,3.989605009555816650e-01,3.587301671504974365e-01,-1.589015424251556396e-01,1.337479352951049805e-01
8.631755709648132324e-01,-1.559041887521743774e-01,-2.578919529914855957e-01,5.264072418212890625e-01,-6.797514110803604126e-02,-6.500651687383651733e-02,4.768344014883041382e-02,7.164558023214340210e-02,-5.547359585762023926e-02,-3.531735241413116455e-01,3.328746855258941650e-01,7.474745512008666992e-01,-2.132551819086074829e-01,1.281566470861434937e-01
7.573400139808654785e-01,-8.479353785514831543e-02,-4.198472499847412109e-01,6.849301457405090332e-01,2.286409586668014526e-02,-2.198991179466247559e-01,-6.221418082714080811e-02,-1.031678393483161926e-01,-2.089203298091888428e-01,-1.763202100992202759e-01,2.467674762010574341e-01,5.552014112472534180e-01,-2.078919112682342529e-01,2.404399961233139038e-02
9.443209171295166016e-01,2.365738339722156525e-02,-2.837714552879333496e-01,7.396063208580017090e-01,-2.076272368431091309e-01,-1.157228201627731323e-01,-1.454921904951334000e-02,-9.481696784496307373e-02,-3.520261645317077637e-01,1.186562981456518173e-02,3.759506344795227051e-01,5.471330285072326660e-01,-2.324633151292800903e-01,9.421478211879730225e-02
7.264127731323242188e-01,1.111930087208747864e-01,-2.874532341957092285e-01,6.153625249862670898e-01,1.409207731485366821e-01,-1.667666621506214142e-02,-1.073381453752517700e-01,7.875854521989822388e-02,-1.811621636152267456e-01,-3.454055488109588623e-01,2.363097518682479858e-01,5.484355092048645020e-01,-3.692949116230010986e-01,3.278202116489410400e-01
7.725849747657775879e-01,1.948982030153274536e-01,-3.839118480682373047e-01,6.278695464134216309e-01,-1.096669062972068787e-01,-2.421599328517913818e-01,-6.490341573953628540e-02,-2.548602782189846039e-02,-4.502428770065307617e-01,-2.425002157688140869e-01,3.676860630512237549e-01,8.584864735603332520e-01,-3.747729063034057617e-01,1.649495065212249756e-01
4.916728436946868896e-01,1.214214488863945007e-01,-3.933331966400146484e-01,8.552206754684448242e-01,-2.143624573945999146e-01,-5.740864947438240051e-02,-3.883665427565574646e-02,1.007805839180946350e-01,-9.813442826271057129e-02,-4.683712422847747803e-01,3.117272257804870605e-01,7.267122268676757812e-01,-3.714928627014160156e-01,2.932368218898773193e-01
5.418234467506408691e-01,2.591385245323181152e-01,-2.426273822784423828e-01,8.374742865562438965e-01,7.185634691268205643e-03,1.029715985059738159e-01,1.166898757219314575e-02,1.319682449102401733e-01,-1.321439072489738464e-02,-2.473418265581130981e-01,4.584819078445434570e-01,7.255713939666748047e-01,-4.784021675586700439e-01,2.309655845165252686e-01
4.775879979133605957e-01,3.813579678535461426e-01,-3.719511032104492188e-01,7.623281478881835938e-01,-1.991390995681285858e-02,-3.568816557526588440e-02,-1.091487556695938110e-01,-4.757328703999519348e-02,-3.074144721031188965e-01,-1.518509536981582642e-01,3.873268663883209229e-01,7.052623629570007324e-01,-4.393516182899475098e-01,2.932091057300567627e-01
4.135405123233795166e-01,4.467639625072479248e-01,-3.509123325347900391e-01,6.046090722084045410e-01,8.040737360715866089e-03,-1.758800633251667023e-02,-1.019225865602493286e-01,1.080040186643600464e-01,-2.067374438047409058e-02,-1.387629359960556030e-01,4.127628803253173828e-01,7.739868760108947754e-01,-5.061972737312316895e-01,3.199097514152526855e-01
2.174451947212219238e-01,3.572413623332977295e-01,-2.410711944103240967e-01,7.700194120407104492e-01,6.383297592401504517e-02,-1.582401841878890991e-01,-2.396700084209442139e-01,-2.788083255290985107e-02,-2.913510240614414215e-02,-1.918269991874694824e-01,4.248493611812591553e-01,5.897856354713439941e-01,-6.807404756546020508e-01,2.294151932001113892e-01
3.573831617832183838e-01,3.598380982875823975e-01,-1.274443417787551880e-01,7.931783795356750488e-01,1.034791916608810425e-01,-1.069794446229934692e-01,-7.965400815010070801e-02,2.980685234069824219e-01,-4.429606720805168152e-02,-9.188991785049438477e-02,2.499016672372817993e-01,7.639499306678771973e-01,-7.588071823120117188e-01,1.779754608869552612e-01
3.374191522598266602e-01,4.048988223075866699e-01,-4.259715378284454346e-01,6.312522292137145996e-01,2.152119278907775879e-01,-2.998406887054443359e-01,5.473065003752708435e-02,4.078660160303115845e-02,3.376213088631629944e-02,1.010187566280364990e-01,1.892024278640747070e-01,4.554106593132019043e-01,-6.220436096191406250e-01,2.531424462795257568e-01
1.208832412958145142e-01,2.599985301494598389e-01,-3.787821233272552490e-01,4.544093012809753418e-01,-1.204883772879838943e-02,-1.707842946052551270e-01,-1.914223306812345982e-03,2.555243968963623047e-01,2.171719968318939209e-01,5.364963784813880920e-02,1.536878049373626709e-01,4.557005763053894043e-01,-7.220875024795532227e-01,7.677187025547027588e-02
5.593112483620643616e-02,3.314357399940490723e-01,-3.220344781875610352e-01,4.811861217021942139e-01,1.494554877281188965e-01,-2.024387419223785400e-01,-1.656645834445953369e-01,2.860311567783355713e-01,2.153561860322952271e-01,-1.255806982517242432e-01,-9.294480085372924805e-03,3.368960022926330566e-01,-5.601806640625000000e-01,6.024285219609737396e-03
8.427168428897857666e-02,3.899141848087310791e-01,-2.811754345893859863e-01,2.826707959175109863e-01,1.641816198825836182e-01,-2.487293779850006104e-01,-2.856651246547698975e-01,2.854834198951721191e-01,1.882160454988479614e-02,-1.673292517662048340e-01,-7.196233142167329788e-03,1.630229353904724121e-01,-5.196929574012756348e-01,-8.842717856168746948e-02
2.156517356634140015e-01,3.359596431255340576e-01,-2.035612314939498901e-01,4.749607741832733154e-01,-1.422348469495773315e-01,-1.457217037677764893e-01,-1.509735733270645142e-01,2.394535690546035767e-01,5.327213406562805176e-01,-7.059529889374971390e-03,-8.250065892934799194e-02,2.521497942507266998e-02,-3.277478814125061035e-01,-8.770503848791122437e-02
1.241781115531921387e-01,1.958656609058380127e-01,-2.307680845260620117e-01,3.360223174095153809e-01,7.479821890592575073e-02,-3.185448348522186279e-01,-9.763476997613906860e-02,3.409076333045959473e-01,4.021768867969512939e-01,-3.558258526027202606e-03,-1.377382874488830566e-01,4.398587346076965332e-02,-3.380294442176818848e-01,-7.110774517059326172e-02
1.985706537961959839e-01,1.938241273164749146e-01,-2.413771748542785645e-01,1.189988851547241211e-01,7.302410155534744263e-02,-2.572427988052368164e-01,-3.016627728939056396e-01,1.834841370582580566e-01,3.723942637443542480e-01,1.923701912164688110e-01,-1.821088343858718872e-01,1.753070864651817828e-05,-2.172824740409851074e-01,-9.730859100818634033e-02
1.402708739042282104e-01,3.975038975477218628e-02,1.320661902427673340e-01,2.426342219114303589e-01,2.961857020854949951e-01,-1.891521811485290527e-01,-4.701829850673675537e-01,4.538527429103851318e-01,3.098850548267364502e-01,8.025348931550979614e-02,-4.340518116950988770e-01,-1.580252796411514282e-01,-2.907947301864624023e-01,-3.973053693771362305e-01
4.855754971504211426e-01,1.462073475122451782e-01,9.005243331193923950e-02,3.036571741104125977e-01,3.388171195983886719e-01,-2.489478737115859985e-01,-4.615566134452819824e-01,4.857065081596374512e-01,3.534377217292785645e-01,2.339358329772949219e-01,-4.359309375286102295e-01,-1.222422420978546143e-01,-2.022409252822399139e-02,-1.788240075111389160e-01
3.363620638847351074e-01,2.699183672666549683e-02,5.578387156128883362e-02,2.146323621273040771e-01,3.955961167812347412e-01,-5.961603671312332153e-02,-4.481228291988372803e-01,4.679494500160217285e-01,4.782188236713409424e-01,3.566805720329284668e-01,-4.407052099704742432e-01,-4.292996227741241455e-02,-2.381550893187522888e-02,-5.548368692398071289e-01
4.841062724590301514e-01,-2.763055451214313507e-02,2.026550918817520142e-01,2.148536741733551025e-01,3.817819356918334961e-01,-1.824370622634887695e-01,-4.317289590835571289e-01,1.443810909986495972e-01,3.472452461719512939e-01,2.811164855957031250e-01,-3.142639696598052979e-01,2.128641866147518158e-02,-2.244289033114910126e-02,-3.977293372154235840e-01
4.551485776901245117e-01,-6.455379724502563477e-02,3.922397494316101074e-01,1.162497997283935547e-01,4.385446608066558838e-01,1.703447252511978149e-01,-6.498471498489379883e-01,2.853834629058837891e-01,3.219737410545349121e-01,2.002843469381332397e-01,-3.357071578502655029e-01,-1.132679134607315063e-01,-2.123376876115798950e-01,-6.217809319496154785e-01
4.335744380950927734e-01,-5.711138248443603516e-02,1.656380742788314819e-01,2.913718223571777344e-01,4.933917224407196045e-01,1.467584073543548584e-01,-5.760546922683715820e-01,2.915404140949249268e-01,1.192018464207649231e-01,4.014210999011993408e-01,-5.042519569396972656e-01,-2.177477441728115082e-02,1.038271337747573853e-01,-6.732429862022399902e-01
4.549766182899475098e-01,-1.133047267794609070e-01,2.842341959476470947e-01,1.641443371772766113e-01,4.806783497333526611e-01,1.623274981975555420e-01,-6.304922103881835938e-01,3.362562060356140137e-01,1.676650941371917725e-01,7.138075679540634155e-02,-4.251214489340782166e-02,-2.790702283382415771e-01,1.648445874452590942e-01,-6.917598843574523926e-01
4.132245779037475586e-01,-1.720763556659221649e-02,1.247770190238952637e-01,4.927397239953279495e-03,6.077663898468017578e-01,1.949443519115447998e-01,-8.696275353431701660e-01,2.662545144557952881e-01,1.670751124620437622e-01,1.902788132429122925e-01,-3.889632523059844971e-01,-1.547745168209075928e-01,-2.492817305028438568e-02,-6.499646902084350586e-01
4.577627778053283691e-01,-1.355725973844528198e-01,2.345136106014251709e-01,1.720893532037734985e-01,4.153652787208557129e-01,3.067734837532043457e-01,-6.364864706993103027e-01,1.439157426357269287e-01,1.931542605161666870e-01,1.741989403963088989e-01,-1.367789357900619507e-01,-1.021280139684677124e-01,-4.958057031035423279e-02,-6.120378971099853516e-01
4.160456657409667969e-01,5.010883882641792297e-02,2.737179696559906006e-01,2.934983372688293457e-01,4.188431501388549805e-01,4.358072876930236816e-01,-7.241889834403991699e-01,1.458137631416320801e-01,4.624804109334945679e-02,1.306098550558090210e-01,-3.382208943367004395e-02,-3.395600318908691406e-01,-1.414137333631515503e-01,-6.274579167366027832e-01
4.176619648933410645e-01,2.280772291123867035e-02,5.172403901815414429e-02,1.414822936058044434e-01,4.668112993240356445e-01,4.414286911487579346e-01,-8.502701520919799805e-01,-9.679138660430908203e-02,1.476418077945709229e-01,9.732935577630996704e-02,-1.163241043686866760e-01,-3.153661787509918213e-01,-2.967853248119354248e-01,-8.130162358283996582e-01
7.505590915679931641e-01,-2.294989824295043945e-01,8.427277207374572754e-02,3.389748930931091309e-01,3.602153956890106201e-01,3.178787827491760254e-01,-5.154876112937927246e-01,-3.180528525263071060e-03,-9.061342477798461914e-02,9.455498307943344116e-02,5.901244655251502991e-02,-1.121427565813064575e-01,-2.368735224008560181e-01,-8.415293097496032715e-01
5.837279558181762695e-01,-1.521642506122589111e-01,1.153412833809852600e-01,1.951470673084259033e-01,2.158963531255722046e-01,2.881010174751281738e-01,-6.553784012794494629e-01,-7.667454332113265991e-02,4.547863791231065989e-04,-7.704569492489099503e-03,-7.466018944978713989e-02,-4.035600423812866211e-01,-6.131773442029953003e-02,-8.572620749473571777e-01
7.184883356094360352e-01,-2.444798797369003296e-01,2.343978732824325562e-02,1.771658658981323242e-01,3.007849156856536865e-01,4.067119061946868896e-01,-7.815496325492858887e-01,-1.333987116813659668e-01,-4.735882952809333801e-02,-6.699185818433761597e-02,6.534268707036972046e-02,-4.596410691738128662e-01,-1.621972769498825073e-01,-7.975345253944396973e-01
5.109463334083557129e-01,-2.324897944927215576e-01,-2.209809571504592896e-01,1.271186769008636475e-01,1.064252555370330811e-01,2.237127572298049927e-01,-5.995270609855651855e-01,-2.215994149446487427e-01,-2.225292176008224487e-01,-8.259565383195877075e-02,-1.567398160696029663e-01,-1.897997260093688965e-01,-3.837466835975646973e-01,-8.241521716117858887e-01
4.854560494422912598e-01,-1.819455623626708984e-02,-1.325215250253677368e-01,1.366154402494430542e-01,-5.067023448646068573e-03,2.468212097883224487e-01,-5.673142075538635254e-01,-3.710055351257324219e-02,-1.126723289489746094e-01,-9.858989715576171875e-02,1.836254894733428955e-01,-2.359291017055511475e-01,-3.923048377037048340e-01,-9.086936712265014648e-01
5.336780548095703125e-01,-2.636967897415161133e-01,-1.702906787395477295e-01,1.279172301292419434e-01,-1.823762059211730957e-02,1.918908655643463135e-01,-4.887049794197082520e-01,-1.726097762584686279e-01,-2.074331194162368774e-01,6.228911504149436951e-02,6.483500450849533081e-02,-3.200444281101226807e-01,-1.395135223865509033e-01,-7.888655066490173340e-01
6.087695956230163574e-01,-2.048612087965011597e-01,-2.606832385063171387e-01,1.418796628713607788e-01,-1.623566895723342896e-01,1.472283601760864258e-01,-4.219958782196044922e-01,-3.069707751274108887e-01,-5.357176065444946289e-02,-4.420769214630126953e-02,-1.008450463414192200e-01,-3.693963289260864258e-01,-4.639969170093536377e-01,-5.813492536544799805e-01
6.704540848731994629e-01,-1.858269423246383667e-01,-1.953799724578857422e-01,2.489078193902969360e-01,-1.375029087066650391e-01,1.400448232889175415e-01,-3.709815442562103271e-01,-1.623096913099288940e-01,-2.856677770614624023e-01,1.562573462724685669e-01,1.129548996686935425e-01,-4.041561186313629150e-01,-4.335323870182037354e-01,-8.379833102226257324e-01
6.612142920494079590e-01,-3.283317387104034424e-01,-3.831003606319427490e-01,1.298263967037200928e-01,-2.176743894815444946e-01,-1.287779211997985840e-01,-3.546650409698486328e-01,-8.064731210470199585e-02,-2.618031501770019531e-01,1.362293809652328491e-01,2.043612599372863770e-01,-3.222781121730804443e-01,-3.972972929477691650e-01,-7.980915904045104980e-01
5.995527505874633789e-01,-2.900900840759277344e-01,-2.902548611164093018e-01,1.445843279361724854e-01,-2.659917175769805908e-01,-2.424734830856323242e-01,-3.272857666015625000e-01,-1.784951090812683105e-01,-4.727278947830200195e-01,1.533071398735046387e-01,-5.912074074149131775e-02,-1.789087951183319092e-01,-4.765523672103881836e-01,-6.533948183059692383e-01
6.749480366706848145e-01,-2.891250252723693848e-01,-4.442436695098876953e-01,1.665959656238555908e-01,-2.837932407855987549e-01,-1.473054736852645874e-01,-2.629181444644927979e-01,2.712392807006835938e-02,-3.765546381473541260e-01,3.431154787540435791e-01,7.337165530771017075e-03,-2.979255318641662598e-01,-3.768767416477203369e-01,-7.082847356796264648e-01
6.600096225738525391e-01,-2.093048095703125000e-01,-4.749133586883544922e-01,5.047682523727416992e-01,-1.385018229484558105e-01,6.095835193991661072e-02,-4.106072783470153809e-01,-7.070011924952268600e-03,-4.871835410594940186e-01,2.854542732238769531e-01,-2.532980032265186310e-02,-9.117564558982849121e-02,-3.555091023445129395e-01,-5.189601182937622070e-01
6.750304102897644043e-01,-3.477671444416046143e-01,-2.172235399484634399e-01,3.657076060771942139e-01,-1.945505142211914062e-01,6.491285562515258789e-02,-2.401442825794219971e-01,-2.468348443508148193e-01,-5.606027245521545410e-01,4.966298341751098633e-01,-5.033412948250770569e-02,-3.879201114177703857e-01,-3.729271292686462402e-01,-5.844308733940124512e-01
7.002258896827697754e-01,5.718315020203590393e-02,-2.696886956691741943e-01,3.437963724136352539e-01,-3.870598375797271729e-01,3.733815997838973999e-02,-5.084165930747985840e-01,4.444521293044090271e-02,-2.258761078119277954e-01,5.235095024108886719e-01,-5.847472324967384338e-02,-2.974448204040527344e-01,-1.295765340328216553e-01,-2.528903186321258545e-01
4.522763788700103760e-01,2.777960002422332764e-01,-2.928685843944549561e-01,1.941670477390289307e-01,-1.069699004292488098e-01,-1.654729396104812622e-01,-3.547052443027496338e-01,-5.638669244945049286e-03,-5.575639605522155762e-01,5.046918988227844238e-01,-3.273724019527435303e-02,-3.398287296295166016e-01,-3.593076765537261963e-01,-3.259244859218597412e-01
5.348865389823913574e-01,1.570255607366561890e-01,-3.282394409179687500e-01,3.333329558372497559e-01,-1.205454617738723755e-01,-3.186909854412078857e-01,-2.823361456394195557e-01,1.024690568447113037e-01,-5.414592623710632324e-01,6.706256866455078125e-01,-2.584873884916305542e-02,-4.297646880149841309e-01,-2.372885644435882568e-01,-3.515710532665252686e-01
3.368030488491058350e-01,6.648185104131698608e-02,-1.160944700241088867e-01,2.146286964416503906e-01,-1.043693199753761292e-01,-3.651565909385681152e-01,-4.928490519523620605e-01,1.509047895669937134e-01,-4.125844538211822510e-01,7.167663574218750000e-01,-4.018174484372138977e-03,-3.681072592735290527e-01,-2.904747724533081055e-01,-2.863616943359375000e-01
9.027974307537078857e-02,2.015382498502731323e-01,-3.293458819389343262e-01,1.880608797073364258e-01,-4.298474639654159546e-02,-1.807599961757659912e-01,-4.806991517543792725e-01,7.893774658441543579e-02,-5.470724701881408691e-01,8.134773969650268555e-01,-1.803383231163024902e-02,-3.555613756179809570e-01,-2.011122703552246094e-01,-2.289191782474517822e-01
3.342619836330413818e-01,2.657154500484466553e-01,-6.170539930462837219e-02,-3.578922012820839882e-03,-1.177600249648094177e-01,-1.275193840265274048e-01,-6.174488067626953125e-01,2.257572114467620850e-01,-3.838201165199279785e-01,8.222641348838806152e-01,8.789080381393432617e-02,-4.013487100601196289e-01,-2.455734610557556152e-01,-4.991764668375253677e-03
3.005603551864624023e-01,2.406534403562545776e-01,-1.004310622811317444e-01,2.766622230410575867e-02,-5.187714844942092896e-02,3.295264020562171936e-02,-5.880409479141235352e-01,3.986860066652297974e-02,-3.160658180713653564e-01,7.965028285980224609e-01,5.878288671374320984e-02,-3.031475841999053955e-01,-1.125275790691375732e-01,-2.500793933868408203e-01
6.116476282477378845e-02,4.421598315238952637e-01,-2.767797112464904785e-01,-1.192178353667259216e-01,-1.625448316335678101e-01,-1.303473603911697865e-03,-3.925243020057678223e-01,1.191512569785118103e-01,-2.780209481716156006e-01,6.518586277961730957e-01,-1.889604032039642334e-01,-5.471148490905761719e-01,-4.680517315864562988e-02,-1.875101029872894287e-01
-5.364073067903518677e-02,4.328522384166717529e-01,-1.033096462488174438e-01,-2.435112744569778442e-01,-4.078151285648345947e-02,-5.773117020726203918e-02,-4.842485189437866211e-01,1.379051357507705688e-01,-4.701906349509954453e-03,1.023909330368041992e+00,-1.282804906368255615e-01,-5.551154017448425293e-01,1.118996888399124146e-01,-1.901277601718902588e-01
-1.366712749004364014e-01,2.141729146242141724e-01,1.667242348194122314e-01,-1.807021349668502808e-01,-1.193439736962318420e-01,-1.624418944120407104e-01,-5.259233713150024414e-01,5.108435079455375671e-02,-2.473616451025009155e-01,6.517024636268615723e-01,1.850820146501064301e-02,-7.390598654747009277e-01,-2.631845138967037201e-02,-1.625294089317321777e-01
-1.861254125833511353e-01,3.637769222259521484e-01,4.115967452526092529e-02,-4.876380562782287598e-01,-2.990764081478118896e-01,-1.617754101753234863e-01,-7.707388997077941895e-01,1.449635326862335205e-01,4.921460151672363281e-02,8.994873166084289551e-01,-1.165192648768424988e-01,-6.479980349540710449e-01,2.653416693210601807e-01,-2.258611172437667847e-01
-3.157154843211174011e-02,3.916923105716705322e-01,-1.350579112768173218e-01,-3.457548022270202637e-01,-8.073712140321731567e-02,-3.009824268519878387e-02,-6.596918106079101562e-01,1.622385904192924500e-02,-3.828542539849877357e-03,8.599447607994079590e-01,-1.504317075014114380e-01,-6.364985108375549316e-01,1.030436158180236816e-01,-3.927510976791381836e-01
-1.506222337484359741e-01,3.666064441204071045e-01,5.005989223718643188e-02,-3.875436186790466309e-01,-2.211760729551315308e-01,2.858725003898143768e-02,-4.282563626766204834e-01,4.317763447761535645e-02,8.133652061223983765e-02,7.110005021095275879e-01,-1.930042803287506104e-01,-8.705132007598876953e-01,2.473571598529815674e-01,-3.314383327960968018e-01
3.713012114167213440e-02,3.938103318214416504e-01,-1.277187764644622803e-01,-5.808840394020080566e-01,-2.583001255989074707e-01,1.829161308705806732e-02,-5.786724686622619629e-01,-3.669279813766479492e-02,5.164208635687828064e-02,8.258426189422607422e-01,-2.675859630107879639e-01,-1.054048180580139160e+00,5.395044088363647461e-01,-3.479484617710113525e-01
-9.601723402738571167e-02,-5.409770086407661438e-02,-8.401262015104293823e-02,-5.939459204673767090e-01,-2.970776557922363281e-01,-9.709534794092178345e-02,-5.870433449745178223e-01,1.250662952661514282e-01,2.170438319444656372e-01,8.368698358535766602e-01,-2.582257390022277832e-01,-1.022883057594299316e+00,7.461874485015869141e-01,-4.420478343963623047e-01
-1.013432368636131287e-01,2.494211494922637939e-01,8.755135536193847656e-02,-5.353376269340515137e-01,-3.086315095424652100e-01,1.063166335225105286e-01,-6.466198563575744629e-01,1.348088532686233521e-01,-6.454181391745805740e-03,9.763619899749755859e-01,-2.926525175571441650e-01,-9.344348907470703125e-01,7.144429683685302734e-01,-3.430595397949218750e-01
-7.614428550004959106e-02,-1.316136121749877930e-01,1.900238841772079468e-01,-4.692479372024536133e-01,-2.653155326843261719e-01,1.261512339115142822e-01,-7.485015392303466797e-01,2.144408971071243286e-01,5.749013647437095642e-02,7.679403424263000488e-01,-1.483660787343978882e-01,-8.935599327087402344e-01,6.065033078193664551e-01,-3.409025371074676514e-01
-4.563762247562408447e-02,-2.095596492290496826e-01,2.530134618282318115e-01,-4.825644195079803467e-01,-4.021599590778350830e-01,2.516396902501583099e-02,-6.755284070968627930e-01,1.610286831855773926e-01,1.086875870823860168e-01,7.968925833702087402e-01,-2.377669364213943481e-01,-8.295937776565551758e-01,7.525697946548461914e-01,-4.487337768077850342e-01
1.217246353626251221e-01,-1.603658199310302734e-01,2.846845090389251709e-01,-3.819991946220397949e-01,-4.753824174404144287e-01,1.069073155522346497e-01,-8.785981535911560059e-01,2.895645983517169952e-02,-1.160995438694953918e-01,5.619666576385498047e-01,-1.569064855575561523e-01,-7.999573945999145508e-01,8.274273872375488281e-01,-4.122492969036102295e-01
-2.404183521866798401e-02,-2.813878655433654785e-01,2.720874249935150146e-01,-1.986621320247650146e-01,-4.419981837272644043e-01,3.090551495552062988e-01,-8.951089382171630859e-01,-9.494362771511077881e-02,-3.582495730370283127e-03,9.291576147079467773e-01,-3.856142982840538025e-03,-7.815445065498352051e-01,8.350959420204162598e-01,-6.326481699943542480e-01
4.964925348758697510e-02,-2.004698961973190308e-01,6.909420341253280640e-02,-3.702777028083801270e-01,-3.184729516506195068e-01,2.701199948787689209e-01,-8.063554167747497559e-01,2.226715162396430969e-02,-1.500422060489654541e-01,5.961334705352783203e-01,-2.899775467813014984e-02,-7.757110595703125000e-01,7.229309678077697754e-01,-4.281558990478515625e-01
2.793707251548767090e-01,-3.773543238639831543e-01,2.176473289728164673e-01,-4.337567090988159180e-01,-4.001208543777465820e-01,5.007640719413757324e-01,-6.986421346664428711e-01,3.856763616204261780e-02,-3.135316967964172363e-01,6.714704632759094238e-01,8.730503171682357788e-02,-5.993901491165161133e-01,8.517323732376098633e-01,-2.455365359783172607e-01
5.566135793924331665e-02,-2.634794116020202637e-01,2.980437278747558594e-01,-1.233746409416198730e-01,-3.079083263874053955e-01,4.315369129180908203e-01,-8.447893261909484863e-01,-5.343370884656906128e-02,-3.709442615509033203e-01,5.540174841880798340e-01,1.543709337711334229e-01,-3.827683627605438232e-01,7.644755840301513672e-01,-3.415368497371673584e-01
2.307099252939224243e-01,-9.668488800525665283e-02,2.070000171661376953e-01,1.547925546765327454e-02,-4.703124761581420898e-01,3.602969646453857422e-01,-6.290848851203918457e-01,-7.851244509220123291e-02,-2.617039680480957031e-01,4.721059799194335938e-01,2.777149379253387451e-01,-3.996880948543548584e-01,6.892157793045043945e-01,-3.222676813602447510e-01
-7.816014438867568970e-02,-2.103927880525588989e-01,1.274328082799911499e-01,-6.499680131673812866e-02,-4.339634478092193604e-01,4.206880033016204834e-01,-6.793432235717773438e-01,-2.638202905654907227e-01,-1.695261001586914062e-01,4.763551652431488037e-01,3.467185795307159424e-01,-3.888574242591857910e-01,7.131110429763793945e-01,3.078348375856876373e-02
2.491657435894012451e-01,-1.662448495626449585e-01,7.584501802921295166e-02,-1.695565283298492432e-01,-6.512827277183532715e-01,4.241070449352264404e-01,-5.893462300300598145e-01,-3.385150134563446045e-01,-4.806693494319915771e-01,4.755453765392303467e-01,4.098302125930786133e-01,-2.889603376388549805e-01,7.249124050140380859e-01,3.478266671299934387e-02
-5.215660110116004944e-02,-1.071178913116455078e-01,-1.909121638163924217e-03,-3.452925756573677063e-02,-6.973118782043457031e-01,3.234459757804870605e-01,-2.845919132232666016e-01,-4.043188691139221191e-01,-2.450187802314758301e-01,2.503141164779663086e-01,4.649963974952697754e-01,-3.883254528045654297e-01,7.377997636795043945e-01,-5.425821617245674133e-02
-4.482147470116615295e-02,-1.213337201625108719e-02,-3.116880357265472412e-01,-9.930285811424255371e-02,-7.303230166435241699e-01,2.662993967533111572e-01,-3.130049705505371094e-01,-3.609961569309234619e-01,-1.570987552404403687e-01,2.151344865560531616e-01,5.762656331062316895e-01,-3.709193468093872070e-01,5.560403466224670410e-01,5.387845635414123535e-02
7.848652452230453491e-02,-2.707682847976684570e-01,-8.338899910449981689e-02,1.089408695697784424e-01,-8.259828686714172363e-01,3.731978833675384521e-01,-3.043157458305358887e-01,-3.712395727634429932e-01,-3.459518253803253174e-01,1.183006614446640015e-01,7.366886138916015625e-01,-3.723783493041992188e-01,5.209588408470153809e-01,-2.472916543483734131e-01
6.894767284393310547e-03,-2.479246072471141815e-02,-2.907894551753997803e-01,-5.934982001781463623e-02,-9.141013622283935547e-01,3.198677599430084229e-01,-9.193805605173110962e-02,-3.320664465427398682e-01,-2.459841817617416382e-01,1.371637582778930664e-01,7.216556072235107422e-01,-2.947198748588562012e-01,5.638093948364257812e-01,-7.365164160728454590e-02
4.205008596181869507e-02,-8.975583314895629883e-02,-2.827405631542205811e-01,7.748757302761077881e-02,-1.050726413726806641e+00,2.182364165782928467e-01,-1.583396792411804199e-01,-3.357349336147308350e-01,-8.469044417142868042e-02,-4.473767802119255066e-02,5.094091296195983887e-01,-3.141468763351440430e-01,4.551104605197906494e-01,-1.676834933459758759e-02
-1.984375864267349243e-01,-2.678099647164344788e-02,-6.469799280166625977e-01,4.069508984684944153e-02,-1.186072587966918945e+00,2.262423634529113770e-01,1.176719665527343750e-01,-2.875170111656188965e-01,-1.358626782894134521e-02,9.218043833971023560e-02,6.176344156265258789e-01,-1.440096795558929443e-01,4.626120626926422119e-01,2.839983440935611725e-02
-1.182000339031219482e-01,8.261653035879135132e-02,-2.994416952133178711e-01,1.901763975620269775e-01,-1.015160918235778809e+00,-6.385429948568344116e-02,2.687612473964691162e-01,-2.862023711204528809e-01,1.063054278492927551e-01,9.531775861978530884e-02,5.774882435798645020e-01,-3.065226376056671143e-01,4.212493598461151123e-01,2.301072143018245697e-02
-1.664556562900543213e-01,-1.205163821578025818e-01,-6.145989298820495605e-01,1.801582574844360352e-01,-1.060648798942565918e+00,7.653324306011199951e-02,2.876065969467163086e-01,-3.459011018276214600e-02,-6.903818249702453613e-02,1.071033477783203125e-01,4.563338160514831543e-01,-3.331907093524932861e-01,4.349372386932373047e-01,-1.631470024585723877e-01
-2.284578979015350342e-01,-7.619811594486236572e-02,-2.617689669132232666e-01,2.761881947517395020e-01,-1.189559578895568848e+00,-2.549769580364227295e-01,4.835148155689239502e-01,-3.081001900136470795e-02,-4.974424093961715698e-02,-4.026348143815994263e-02,6.049844622611999512e-01,-5.144079029560089111e-02,3.188578784465789795e-01,1.515237987041473389e-01
-6.952607631683349609e-02,-1.369913071393966675e-01,-3.048748075962066650e-01,3.036742508411407471e-01,-1.085985064506530762e+00,-3.295256793498992920e-01,1.023843362927436829e-01,4.068974032998085022e-02,2.376688867807388306e-01,4.466563835740089417e-02,5.295112729072570801e-01,-2.822135090827941895e-01,4.598373472690582275e-01,1.904824376106262207e-01
-4.714197292923927307e-02,3.941593691706657410e-02,-6.356732845306396484e-01,2.450865507125854492e-01,-1.116346478462219238e+00,-4.545225501060485840e-01,3.200317025184631348e-01,8.186487108469009399e-02,3.639136254787445068e-02,1.260135024785995483e-01,7.026491761207580566e-01,-2.121349871158599854e-01,6.172863841056823730e-01,3.219194114208221436e-01
-1.896800994873046875e-01,2.717712819576263428e-01,-3.958350419998168945e-01,4.458790421485900879e-01,-9.462836384773254395e-01,-3.588630259037017822e-01,1.683057099580764771e-01,1.194554567337036133e-01,2.020983994007110596e-01,6.115694530308246613e-03,4.299936294555664062e-01,-1.728666871786117554e-01,5.213732719421386719e-01,1.104876324534416199e-01
-2.168890647590160370e-02,1.772309541702270508e-01,-5.447883009910583496e-01,4.124086797237396240e-01,-1.129064559936523438e+00,-3.856335580348968506e-01,2.673893272876739502e-01,4.731722772121429443e-01,4.106613397598266602e-01,3.402520418167114258e-01,3.521353900432586670e-01,-3.238303959369659424e-01,4.511990547180175781e-01,1.306848078966140747e-01
-2.745539546012878418e-01,1.107437163591384888e-01,-4.673204720020294189e-01,3.447658419609069824e-01,-9.384976029396057129e-01,-2.897137701511383057e-01,2.568817436695098877e-01,4.780952930450439453e-01,3.117612004280090332e-01,2.098204344511032104e-01,3.128391802310943604e-01,-8.225978910923004150e-02,7.097992300987243652e-01,-2.297553606331348419e-02
-7.213336229324340820e-02,2.545403242111206055e-01,-4.238694310188293457e-01,6.841990351676940918e-01,-8.655033707618713379e-01,-3.128682971000671387e-01,4.503161013126373291e-01,3.287729024887084961e-01,3.636960983276367188e-01,2.594765126705169678e-01,3.292886614799499512e-01,-1.430988758802413940e-01,6.572056412696838379e-01,2.395546436309814453e-01
-1.948397308588027954e-01,2.129175812005996704e-01,-2.781829535961151123e-01,5.128912925720214844e-01,-7.431514263153076172e-01,-4.420247077941894531e-01,1.792557388544082642e-01,6.230714917182922363e-01,4.680286347866058350e-01,1.811140179634094238e-01,4.109427034854888916e-01,-5.897653475403785706e-02,6.786806583404541016e-01,3.768073618412017822e-01
-4.039157032966613770e-01,3.049705624580383301e-01,-2.562751173973083496e-01,4.430138170719146729e-01,-5.197323560714721680e-01,-3.411195278167724609e-01,1.410658806562423706e-01,6.814889311790466309e-01,4.542033672332763672e-01,1.005498170852661133e-01,4.016895592212677002e-01,-2.989162206649780273e-01,6.861084699630737305e-01,2.345002293586730957e-01
-1.129454299807548523e-01,5.061468482017517090e-01,-3.818992078304290771e-01,5.811329483985900879e-01,-6.038393974304199219e-01,-3.151030242443084717e-01,2.168370634317398071e-01,6.318586468696594238e-01,5.485849976539611816e-01,1.540221869945526123e-01,6.033167243003845215e-01,-2.459280937910079956e-01,5.029909014701843262e-01,5.077550411224365234e-01
-3.812460005283355713e-01,3.905943930149078369e-01,-1.993825733661651611e-01,5.944699048995971680e-01,-4.424781799316406250e-01,-4.319005608558654785e-01,8.442009985446929932e-02,7.987284064292907715e-01,5.092299580574035645e-01,2.053736001253128052e-01,1.680657118558883667e-01,-2.850862145423889160e-01,6.782526373863220215e-01,2.523304522037506104e-01
-2.349974960088729858e-01,6.483007073402404785e-01,-2.545371055603027344e-01,3.580068647861480713e-01,-4.668207466602325439e-01,-3.318452835083007812e-01,2.535289227962493896e-01,6.716067194938659668e-01,7.370722889900207520e-01,2.095857858657836914e-01,2.724106311798095703e-01,-3.029256463050842285e-01,7.454239130020141602e-01,2.629864215850830078e-01
-3.495338261127471924e-01,5.454342961311340332e-01,-4.156297743320465088e-01,3.641079664230346680e-01,-2.917457520961761475e-01,-2.956402301788330078e-01,1.258685141801834106e-01,5.133112072944641113e-01,7.413346171379089355e-01,1.095123142004013062e-01,1.664021611213684082e-01,-5.200930237770080566e-01,5.497615933418273926e-01,6.782299280166625977e-02
-3.223126828670501709e-01,5.621145367622375488e-01,-2.839518487453460693e-01,1.855688542127609253e-01,-2.824707329273223877e-01,-6.685172021389007568e-02,1.375776976346969604e-01,6.931601166725158691e-01,6.292433142662048340e-01,7.427876442670822144e-02,2.364423274993896484e-01,-4.110540747642517090e-01,3.948276937007904053e-01,1.751385629177093506e-01
-2.501649260520935059e-01,5.123415589332580566e-01,-8.726214617490768433e-02,2.267539501190185547e-01,-3.616774976253509521e-01,-1.902133822441101074e-01,-1.300397962331771851e-01,6.816803216934204102e-01,8.730102777481079102e-01,-4.970601946115493774e-02,3.020329773426055908e-01,-6.110938787460327148e-01,6.148077845573425293e-01,-1.208451688289642334e-01
-2.197616398334503174e-01,5.909323096275329590e-01,-3.097999095916748047e-01,1.847105175256729126e-01,-3.497981429100036621e-01,-1.495858728885650635e-01,2.616598606109619141e-01,5.981392860412597656e-01,6.943723559379577637e-01,-2.116635069251060486e-02,2.089882642030715942e-01,-4.740545749664306641e-01,5.738935470581054688e-01,6.843287497758865356e-02
-2.858565151691436768e-01,5.545685291290283203e-01,-4.713689386844635010e-01,1.958957612514495850e-01,-2.497963905334472656e-01,-3.784917891025543213e-01,6.313742604106664658e-03,7.190259099006652832e-01,1.032876133918762207e+00,2.575932815670967102e-02,-4.055131226778030396e-02,-7.556680440902709961e-01,4.105885326862335205e-01,-1.150770112872123718e-02
-1.298397928476333618e-01,4.647032320499420166e-01,-2.240503877401351929e-01,1.961168050765991211e-01,-3.590987324714660645e-01,-1.269380450248718262e-01,8.013412356376647949e-02,5.004884600639343262e-01,9.728998541831970215e-01,-9.914212673902511597e-02,1.066374406218528748e-01,-7.490299344062805176e-01,6.228313446044921875e-01,-3.179522231221199036e-02
-5.474657937884330750e-02,4.388453960418701172e-01,-4.140522181987762451e-01,2.189632952213287354e-01,-2.727926373481750488e-01,-1.370807439088821411e-01,2.345725521445274353e-02,7.740086317062377930e-01,1.204098582267761230e+00,-1.303030550479888916e-01,-2.122015357017517090e-01,-4.885507822036743164e-01,6.135904788970947266e-01,-3.498138189315795898e-01
1.451861485838890076e-02,3.128152489662170410e-01,-3.128605782985687256e-01,2.025880217552185059e-01,-3.264904916286468506e-01,-4.890758693218231201e-01,-9.014725685119628906e-03,5.960263013839721680e-01,1.061222195625305176e+00,-2.179768234491348267e-01,-2.723751068115234375e-01,-6.152943968772888184e-01,4.119724035263061523e-01,-3.038583099842071533e-01
7.353930175304412842e-02,3.447041809558868408e-01,-3.614659011363983154e-01,8.909893035888671875e-02,-2.518245577812194824e-01,-3.813401758670806885e-01,-2.586388029158115387e-02,5.940037965774536133e-01,1.084876298904418945e+00,-4.289472997188568115e-01,-8.498533815145492554e-02,-6.325519084930419922e-01,7.431926727294921875e-01,-3.237848579883575439e-01
2.184799015522003174e-01,2.219749540090560913e-01,-1.754880100488662720e-01,1.617959290742874146e-01,-2.996262609958648682e-01,-2.810196280479431152e-01,1.017758995294570923e-01,6.878536343574523926e-01,8.504567742347717285e-01,-4.106848239898681641e-01,-1.508473698049783707e-02,-3.632405698299407959e-01,6.202634572982788086e-01,-3.812582492828369141e-01
4.956345260143280029e-01,2.334848940372467041e-01,-3.746839165687561035e-01,2.581178843975067139e-01,-3.440441787242889404e-01,-2.834511101245880127e-01,-1.116812601685523987e-01,7.456207871437072754e-01,9.718376398086547852e-01,-2.861978411674499512e-01,-4.670197144150733948e-02,-3.991480171680450439e-01,3.397200107574462891e-01,-5.403209328651428223e-01
3.645012080669403076e-01,1.980322152376174927e-01,-4.779926538467407227e-01,3.499296903610229492e-01,-1.518446803092956543e-01,-4.305108487606048584e-01,5.287138372659683228e-02,7.166458964347839355e-01,7.757128477096557617e-01,-3.577782809734344482e-01,1.145728155970573425e-01,-2.740040719509124756e-01,5.846349596977233887e-01,-7.033545970916748047e-01
5.992543101310729980e-01,1.881820708513259888e-01,-4.183037877082824707e-01,5.529118776321411133e-01,-2.229961007833480835e-01,-4.061400592327117920e-01,1.744590550661087036e-01,6.177056431770324707e-01,8.776597976684570312e-01,-3.387309014797210693e-01,-4.948157072067260742e-02,-2.984196245670318604e-01,5.443326234817504883e-01,-4.221807420253753662e-01
4.873347580432891846e-01,1.898285299539566040e-01,-5.059332847595214844e-01,4.012053906917572021e-01,-2.351095974445343018e-01,-4.477379322052001953e-01,1.250528842210769653e-01,6.264514923095703125e-01,5.824776291847229004e-01,-2.432493269443511963e-01,-4.722959920763969421e-02,7.013984769582748413e-02,5.569754838943481445e-01,-4.486714303493499756e-01
5.156031847000122070e-01,3.458474576473236084e-01,-4.209666550159454346e-01,5.471368432044982910e-01,-1.703949421644210815e-01,-3.906729519367218018e-01,1.018888205289840698e-01,5.425516963005065918e-01,6.323896646499633789e-01,-3.691456019878387451e-01,1.084342747926712036e-01,-1.741934269666671753e-01,2.905776798725128174e-01,-4.529612362384796143e-01
9.682992100715637207e-01,4.839724004268646240e-01,-2.464956343173980713e-01,7.353648543357849121e-01,-3.637676239013671875e-01,-2.991322875022888184e-01,-2.878890000283718109e-02,6.070134043693542480e-01,4.383507668972015381e-01,-3.492299020290374756e-01,-1.285134349018335342e-02,1.405144035816192627e-01,3.620198071002960205e-01,-2.724139392375946045e-01
7.140184640884399414e-01,5.344470739364624023e-01,-3.289166390895843506e-01,6.558139920234680176e-01,2.483905293047428131e-02,-5.186623930931091309e-01,-8.923206478357315063e-02,7.072958946228027344e-01,5.087351799011230469e-01,-5.006113648414611816e-01,9.341996908187866211e-02,3.147824481129646301e-02,1.708883941173553467e-01,-2.992926239967346191e-01
7.196440100669860840e-01,3.631584346294403076e-01,-2.863554656505584717e-01,7.637606263160705566e-01,-1.738297045230865479e-01,-3.716736137866973877e-01,1.892122179269790649e-01,5.688191056251525879e-01,6.524982452392578125e-01,-6.257233619689941406e-01,1.237667575478553772e-01,-6.782755255699157715e-02,4.777140170335769653e-02,-3.702260553836822510e-01
7.109035253524780273e-01,6.923973560333251953e-01,-4.843592047691345215e-01,7.205135822296142578e-01,-3.700786530971527100e-01,-5.890285372734069824e-01,6.248756870627403259e-02,6.266145706176757812e-01,4.903039634227752686e-01,-5.834569931030273438e-01,-3.450061660259962082e-03,1.920237541198730469e-01,-7.756792753934860229e-02,-3.763776421546936035e-01
7.690846920013427734e-01,6.056298613548278809e-01,-5.627018213272094727e-01,7.614527344703674316e-01,-5.690835416316986084e-02,-6.443334817886352539e-01,1.269029378890991211e-01,6.625751256942749023e-01,3.972886800765991211e-01,-6.859593987464904785e-01,1.345707327127456665e-01,2.061680257320404053e-01,-2.750474214553833008e-01,-2.459461688995361328e-01
6.379721760749816895e-01,7.672183513641357422e-01,-7.215745449066162109e-01,6.995448470115661621e-01,-2.592801153659820557e-01,-5.358340144157409668e-01,1.466891914606094360e-01,4.423165321350097656e-01,1.506392955780029297e-01,-4.698807597160339355e-01,3.011716306209564209e-01,8.521683514118194580e-02,-1.191375032067298889e-01,1.487592458724975586e-01
6.430793404579162598e-01,6.789475679397583008e-01,-6.360802054405212402e-01,7.626703381538391113e-01,-9.047298878431320190e-02,-5.918774604797363281e-01,2.655532956123352051e-01,4.765928387641906738e-01,3.519725203514099121e-01,-5.567277669906616211e-01,1.664607971906661987e-01,9.944596886634826660e-02,-2.794282436370849609e-01,1.465446688234806061e-02
4.187383651733398438e-01,8.366831541061401367e-01,-7.102597951889038086e-01,5.043058395385742188e-01,-1.944245398044586182e-01,-6.714461445808410645e-01,4.118472933769226074e-01,7.181553244590759277e-01,4.716869890689849854e-01,-5.814588665962219238e-01,-7.802253961563110352e-02,1.780873835086822510e-01,-5.907393693923950195e-01,-1.638557016849517822e-02
5.880281925201416016e-01,8.959274888038635254e-01,-6.427720189094543457e-01,5.773425698280334473e-01,-3.737705349922180176e-01,-9.638505578041076660e-01,3.967628777027130127e-01,6.635909080505371094e-01,3.988362848758697510e-01,-4.938979148864746094e-01,1.767772734165191650e-01,1.946347802877426147e-01,-3.593730628490447998e-01,-4.157280176877975464e-02
4.352872073650360107e-01,7.469053268432617188e-01,-8.422369956970214844e-01,5.930763483047485352e-01,-1.963038444519042969e-01,-9.540829062461853027e-01,3.066202998161315918e-02,3.820007145404815674e-01,6.220926642417907715e-01,-7.891725301742553711e-01,-6.519782543182373047e-02,-1.149849966168403625e-01,-2.817937731742858887e-01,-4.596938565373420715e-02
5.013294816017150879e-01,9.761942028999328613e-01,-7.174887061119079590e-01,5.641331672668457031e-01,-2.021027654409408569e-01,-8.959034681320190430e-01,2.336728125810623169e-01,6.285492777824401855e-01,5.164943337440490723e-01,-4.842050969600677490e-01,-1.797229498624801636e-01,2.063980698585510254e-01,-5.395066738128662109e-01,8.957090228796005249e-02
2.443977445363998413e-01,1.060324788093566895e+00,-8.545472025871276855e-01,6.073164343833923340e-01,-9.441285580396652222e-02,-1.036133527755737305e+00,1.153854653239250183e-01,6.385167241096496582e-01,6.447299718856811523e-01,-6.176674962043762207e-01,-3.270670771598815918e-01,2.034744247794151306e-02,-4.721537530422210693e-01,-8.818913251161575317e-02
4.670813083648681641e-01,9.106763601303100586e-01,-6.190016269683837891e-01,3.678075671195983887e-01,-1.345078945159912109e-01,-1.197226643562316895e+00,3.128671944141387939e-01,7.744275331497192383e-01,5.800704360008239746e-01,-4.212110638618469238e-01,-3.471769988536834717e-01,-9.224922955036163330e-02,-3.312295973300933838e-01,2.752058673650026321e-03
1.735065430402755737e-01,1.060560822486877441e+00,-5.224998593330383301e-01,5.063827037811279297e-01,-2.752083837985992432e-01,-1.077754735946655273e+00,1.714562028646469116e-01,6.713420152664184570e-01,5.482167601585388184e-01,-3.792630732059478760e-01,-5.008866190910339355e-01,1.106572523713111877e-01,-5.905215144157409668e-01,-1.072615832090377808e-01
3.677186667919158936e-01,8.979163169860839844e-01,-6.730884909629821777e-01,2.469488978385925293e-01,-2.987936371937394142e-03,-1.210474967956542969e+00,1.675922423601150513e-01,7.123936414718627930e-01,5.376145839691162109e-01,-2.073001712560653687e-01,-6.010565161705017090e-01,-4.382747225463390350e-03,-3.355764448642730713e-01,1.042899787425994873e-01
2.245056629180908203e-01,9.918183088302612305e-01,-5.521998405456542969e-01,4.025870859622955322e-01,-8.504807204008102417e-02,-9.552084803581237793e-01,-1.065486576408147812e-02,7.714553475379943848e-01,4.851689934730529785e-01,-1.781890988349914551e-01,-6.979739665985107422e-01,1.073040291666984558e-01,-1.873132735490798950e-01,-3.131431713700294495e-02
4.583190679550170898e-01,6.738405823707580566e-01,-4.452774524688720703e-01,3.097943961620330811e-01,1.973497867584228516e-01,-9.558741450309753418e-01,-1.645223051309585571e-01,8.128638863563537598e-01,6.911486983299255371e-01,-5.540625425055623055e-04,-6.567426919937133789e-01,2.315020933747291565e-02,-2.141984254121780396e-01,5.345116369426250458e-03
4.003390073776245117e-01,1.125896215438842773e+00,-2.254001498222351074e-01,9.511397778987884521e-02,6.513812392950057983e-02,-1.006672263145446777e+00,-2.440334558486938477e-01,9.676337242126464844e-01,5.286120176315307617e-01,-1.398622542619705200e-01,-7.231838703155517578e-01,-2.217201516032218933e-02,-2.243969887495040894e-01,-1.892179995775222778e-01
3.118110001087188721e-01,1.021305203437805176e+00,-2.384508550167083740e-01,1.741663515567779541e-01,1.573179811239242554e-01,-8.708814382553100586e-01,-4.100095629692077637e-01,7.667709589004516602e-01,6.101284623146057129e-01,3.272161260247230530e-02,-8.648147583007812500e-01,-3.521068394184112549e-02,-1.601428985595703125e-01,-3.515509888529777527e-02
5.241075158119201660e-01,8.297259807586669922e-01,1.444504261016845703e-01,9.255861490964889526e-02,1.723869144916534424e-01,-9.267182946205139160e-01,-4.808418154716491699e-01,8.029732108116149902e-01,4.902364015579223633e-01,3.169989213347434998e-03,-1.027388453483581543e+00,3.211329132318496704e-02,-1.438620835542678833e-01,-1.823322027921676636e-01
2.789802253246307373e-01,6.447933912277221680e-01,1.477776318788528442e-01,1.106678396463394165e-01,2.747919559478759766e-01,-7.730644345283508301e-01,-5.934549570083618164e-01,6.482415795326232910e-01,4.195862710475921631e-01,-1.691090911626815796e-01,-8.838345408439636230e-01,-5.380384624004364014e-02,-2.527970355004072189e-03,-1.517589390277862549e-01
5.032470077276229858e-02,8.502986431121826172e-01,2.504816353321075439e-01,-2.802839130163192749e-02,3.082312047481536865e-01,-6.127588748931884766e-01,-6.308890581130981445e-01,8.725276589393615723e-01,5.700237154960632324e-01,-1.077455133199691772e-01,-9.593959450721740723e-01,-9.560028463602066040e-02,1.997086852788925171e-01,-1.434296183288097382e-02
3.876842260360717773e-01,6.503960490226745605e-01,1.044779866933822632e-01,-9.421557933092117310e-02,5.482526421546936035e-01,-6.458315849304199219e-01,-7.043041586875915527e-01,8.286345005035400391e-01,4.288251399993896484e-01,-5.786015093326568604e-02,-9.257478713989257812e-01,5.008814111351966858e-02,3.532216846942901611e-01,-3.023136556148529053e-01
1.423871964216232300e-01,8.045669794082641602e-01,4.505127370357513428e-01,1.267329696565866470e-02,3.269909620285034180e-01,-6.088561415672302246e-01,-6.075798869132995605e-01,5.867371559143066406e-01,4.549453258514404297e-01,2.687039971351623535e-02,-8.749119043350219727e-01,-2.902659215033054352e-02,1.341483891010284424e-01,-2.043466269969940186e-01
2.171948999166488647e-01,7.570750117301940918e-01,4.287216067314147949e-01,-1.960459500551223755e-01,5.518792867660522461e-01,-6.734922528266906738e-01,-6.463709473609924316e-01,4.995224475860595703e-01,3.635658025741577148e-01,-9.088588505983352661e-02,-9.483493566513061523e-01,-1.775251142680644989e-02,2.128809541463851929e-01,-2.147132009267807007e-01
2.406585365533828735e-01,5.672824978828430176e-01,3.236696124076843262e-01,-1.642714589834213257e-01,5.467867851257324219e-01,-4.406058788299560547e-01,-6.603267788887023926e-01,4.805298745632171631e-01,4.332603514194488525e-01,-3.146045804023742676e-01,-9.813897609710693359e-01,7.940894365310668945e-02,4.155918955802917480e-02,-2.475739419460296631e-01
1.446525603532791138e-01,7.085822224617004395e-01,2.532070577144622803e-01,-3.261619806289672852e-01,5.760793685913085938e-01,-2.906443774700164795e-01,-5.838341116905212402e-01,4.885887205600738525e-01,4.780261218547821045e-01,-2.761464715003967285e-01,-7.691355347633361816e-01,-4.963023960590362549e-02,-7.760376483201980591e-02,-3.921036720275878906e-01
2.397430688142776489e-01,6.024382710456848145e-01,4.050601124763488770e-01,-1.866286247968673706e-01,4.008315205574035645e-01,-2.313580960035324097e-01,-6.967799663543701172e-01,2.916584610939025879e-01,4.366686940193176270e-01,-1.242391616106033325e-01,-7.746705412864685059e-01,-4.368643835186958313e-02,3.112217187881469727e-01,-1.905686259269714355e-01
1.588133424520492554e-01,5.368788242340087891e-01,3.640429675579071045e-01,-4.608284235000610352e-01,2.384385913610458374e-01,-2.404316663742065430e-01,-7.432251572608947754e-01,9.749438613653182983e-02,5.315513014793395996e-01,-3.747582733631134033e-01,-7.589529752731323242e-01,-1.080331057310104370e-01,6.158658862113952637e-02,-5.831491947174072266e-01
3.338812887668609619e-01,3.521578907966613770e-01,3.619885742664337158e-01,-4.816067218780517578e-01,2.586300075054168701e-01,-3.207990229129791260e-01,-4.118958711624145508e-01,-6.912884861230850220e-02,4.410138428211212158e-01,-4.713465869426727295e-01,-6.883177757263183594e-01,-1.521213212981820107e-03,1.899959743022918701e-01,-3.615054786205291748e-01
2.201412171125411987e-01,1.194965466856956482e-01,3.264194726943969727e-01,-2.805619537830352783e-01,2.639719247817993164e-01,-4.491074383258819580e-01,-5.052976012229919434e-01,-8.286826312541961670e-02,7.026960253715515137e-01,-4.327772855758666992e-01,-7.871410250663757324e-01,2.197934780269861221e-03,1.338027566671371460e-01,-4.355421364307403564e-01
3.765668570995330811e-01,2.701295912265777588e-01,4.627607464790344238e-01,-4.749652445316314697e-01,1.397270113229751587e-01,-2.922651767730712891e-01,-5.414595603942871094e-01,-1.737408153712749481e-02,3.936804234981536865e-01,-4.382233321666717529e-01,-6.686054468154907227e-01,7.886993139982223511e-02,2.201460748910903931e-01,-4.091121554374694824e-01
5.227493047714233398e-01,6.202028319239616394e-02,1.272487044334411621e-01,-2.525048851966857910e-01,9.657349437475204468e-02,-2.684523761272430420e-01,-5.098744034767150879e-01,-1.332995444536209106e-01,1.246549114584922791e-01,-5.817069411277770996e-01,-5.461124181747436523e-01,-3.712081536650657654e-02,2.211273014545440674e-01,-7.895048856735229492e-01
5.169335007667541504e-01,-1.240051537752151489e-01,5.311263203620910645e-01,-2.914049625396728516e-01,1.303018182516098022e-01,-2.660065889358520508e-01,-4.533078968524932861e-01,-8.230151981115341187e-02,2.143460959196090698e-01,-4.968283772468566895e-01,-6.791785955429077148e-01,1.716299727559089661e-02,1.596295088529586792e-01,-7.357566952705383301e-01
4.581710100173950195e-01,8.862663060426712036e-02,4.932107329368591309e-01,-3.520836532115936279e-01,-6.336494348943233490e-03,-1.687748730182647705e-01,-4.704692661762237549e-01,-1.838300675153732300e-01,1.527164131402969360e-01,-5.817567110061645508e-01,-4.322899878025054932e-01,1.932030618190765381e-01,1.762723475694656372e-01,-5.027756094932556152e-01
3.869191706180572510e-01,1.169461160898208618e-01,4.237099587917327881e-01,-4.651862978935241699e-01,-9.348591417074203491e-02,-2.554630115628242493e-02,-4.097220599651336670e-01,-2.558086514472961426e-01,2.864347212016582489e-02,-4.713744521141052246e-01,-5.797510743141174316e-01,1.969215124845504761e-01,2.620827257633209229e-01,-8.268820047378540039e-01
5.095559954643249512e-01,-1.267766356468200684e-01,4.003535807132720947e-01,-2.281121760606765747e-01,-3.362985551357269287e-01,-2.018453180789947510e-01,-3.488546311855316162e-01,-2.858734130859375000e-01,2.029233425855636597e-02,-5.156044363975524902e-01,-6.265307664871215820e-01,1.423859000205993652e-01,9.913153201341629028e-02,-7.714785337448120117e-01
4.174881577491760254e-01,8.086189627647399902e-02,5.365216135978698730e-01,-1.577382981777191162e-01,-2.586994469165802002e-01,-2.223393470048904419e-01,-4.506863057613372803e-01,-2.857497520744800568e-02,-1.260508745908737183e-01,-4.706662595272064209e-01,-4.076805114746093750e-01,4.248596131801605225e-01,2.894515097141265869e-01,-6.172457933425903320e-01
4.842129051685333252e-01,-1.217519342899322510e-01,4.370242357254028320e-01,3.282546764239668846e-03,-2.401410788297653198e-01,-2.099441289901733398e-01,-5.222654938697814941e-01,-1.122895255684852600e-01,-9.689235687255859375e-02,-5.800551772117614746e-01,-4.516501128673553467e-01,1.813731193542480469e-01,5.051064863801002502e-02,-4.952725470066070557e-01
2.523341774940490723e-01,-1.500455886125564575e-01,4.243105947971343994e-01,9.186743944883346558e-02,-4.092553257942199707e-01,-1.529430598020553589e-01,-5.472065210342407227e-01,-4.490762948989868164e-02,-3.793359100818634033e-01,-5.720306634902954102e-01,-2.815484404563903809e-01,4.783609807491302490e-01,1.097938269376754761e-01,-2.932182550430297852e-01
4.473494887351989746e-01,-1.443134844303131104e-01,5.733805298805236816e-01,-1.006340533494949341e-01,-3.288315236568450928e-01,-2.291230410337448120e-01,-2.300456464290618896e-01,-1.810963600873947144e-01,-1.187634319067001343e-01,-3.825010359287261963e-01,-2.933540642261505127e-01,3.099968433380126953e-01,1.399557143449783325e-01,-4.049208462238311768e-01
2.971696853637695312e-01,1.213582903146743774e-01,6.717391014099121094e-01,6.842957437038421631e-02,-2.476878464221954346e-01,-1.164916157722473145e-01,-4.534597098827362061e-01,-2.948788106441497803e-01,-4.195036888122558594e-01,-4.737176895141601562e-01,-3.199487030506134033e-01,6.463316082954406738e-01,-1.154497340321540833e-01,-3.815522789955139160e-01
4.289554655551910400e-01,-7.743023335933685303e-02,3.634627461433410645e-01,6.918312609195709229e-02,-2.328612506389617920e-01,-6.865882128477096558e-02,-2.213394045829772949e-01,-1.347115188837051392e-01,-2.986806631088256836e-01,-4.270806014537811279e-01,-9.527635574340820312e-02,3.068363070487976074e-01,1.537987887859344482e-01,-2.286811769008636475e-01
2.434850484132766724e-01,1.167196109890937805e-01,4.969473779201507568e-01,8.765666186809539795e-02,-1.732075810432434082e-01,-8.241898566484451294e-02,-3.522765338420867920e-01,-2.822149097919464111e-01,-3.379332721233367920e-01,-4.760006070137023926e-01,-2.681343853473663330e-01,5.611202716827392578e-01,3.190020844340324402e-02,-1.607269495725631714e-01
6.894163787364959717e-02,2.538834139704704285e-02,3.366597294807434082e-01,1.851222477853298187e-03,-2.468463480472564697e-01,-5.259307101368904114e-02,-3.164992630481719971e-01,-2.635241150856018066e-01,-2.088429480791091919e-01,-3.436812758445739746e-01,-4.184996783733367920e-01,4.033357799053192139e-01,2.868215441703796387e-01,-1.235502064228057861e-01
-1.014671996235847473e-01,6.521504372358322144e-02,4.850350618362426758e-01,-2.848356664180755615e-01,-2.053763270378112793e-01,-5.545956268906593323e-02,-2.385060936212539673e-01,-2.896470427513122559e-01,-2.168840467929840088e-01,-4.791592657566070557e-01,-1.120463237166404724e-01,3.226172626018524170e-01,1.441896259784698486e-01,-1.600062549114227295e-01
-2.597536444664001465e-01,2.331399172544479370e-01,3.476336002349853516e-01,-1.602159887552261353e-01,-2.767695784568786621e-01,-2.814866006374359131e-01,-1.113794445991516113e-01,-5.714211463928222656e-01,-1.198156923055648804e-01,-4.116310477256774902e-01,-1.782130748033523560e-01,3.100732564926147461e-01,-7.554476708173751831e-02,-3.281275033950805664e-01
-1.824465095996856689e-01,9.798742830753326416e-02,5.406863093376159668e-01,-3.224410712718963623e-01,-2.355285435914993286e-01,-4.972491413354873657e-02,-2.262005209922790527e-01,-9.835422039031982422e-02,2.868265844881534576e-02,-2.925482392311096191e-01,-1.122826263308525085e-01,2.747156620025634766e-01,1.060896739363670349e-01,-2.308330237865447998e-01
-3.781724572181701660e-01,8.756899088621139526e-02,4.095426201820373535e-01,-2.936302125453948975e-01,-1.977940946817398071e-01,-1.912697255611419678e-01,-1.305688917636871338e-01,-1.824252158403396606e-01,6.169344112277030945e-02,-2.193410247564315796e-01,-3.689205944538116455e-01,3.276950493454933167e-02,2.856270037591457367e-02,-1.855765841901302338e-02
-3.029317557811737061e-01,2.198557108640670776e-01,4.322874546051025391e-01,-2.422954589128494263e-01,-9.542065858840942383e-02,-2.436151355504989624e-01,-5.043692141771316528e-02,-1.625707000494003296e-01,5.604559555649757385e-02,-3.466493487358093262e-01,-3.555053174495697021e-01,-5.065134167671203613e-02,-1.682125730440020561e-03,-1.764490604400634766e-01
-4.286443293094635010e-01,2.326332032680511475e-01,6.084300875663757324e-01,-3.735068738460540771e-01,-2.887397706508636475e-01,-2.506184875965118408e-01,-1.574531346559524536e-01,-1.586987376213073730e-01,1.620246022939682007e-01,-4.863826930522918701e-02,-4.232238531112670898e-01,4.030279349535703659e-03,-1.446100175380706787e-01,-2.722165882587432861e-01
-4.608319103717803955e-01,9.366103261709213257e-02,4.000215828418731689e-01,-3.466438651084899902e-01,-2.106369584798812866e-01,-9.639501571655273438e-02,1.067541390657424927e-01,-8.851405978202819824e-02,3.680604398250579834e-01,-1.577213853597640991e-01,-3.525460958480834961e-01,-3.189917504787445068e-01,-6.164046376943588257e-02,-1.798229664564132690e-01
-4.596524238586425781e-01,-8.718835562467575073e-02,5.799163579940795898e-01,-4.760736227035522461e-01,-1.179640740156173706e-01,-1.524459570646286011e-01,-2.197336852550506592e-01,-1.153764203190803528e-01,2.978039979934692383e-01,-2.340916097164154053e-01,-4.374344348907470703e-01,-2.859549522399902344e-01,1.512691974639892578e-01,-4.595792889595031738e-01
-6.146997809410095215e-01,-1.277150362730026245e-01,4.950785636901855469e-01,-6.788007020950317383e-01,-3.202255070209503174e-01,-2.776742577552795410e-01,-9.220387786626815796e-02,5.324082076549530029e-02,2.206399738788604736e-01,-3.282849863171577454e-02,-5.312348604202270508e-01,8.015080355107784271e-03,1.787163615226745605e-01,-4.237359464168548584e-01
-6.170979738235473633e-01,-1.244388595223426819e-01,7.317277193069458008e-01,-8.292030692100524902e-01,6.022019684314727783e-02,-2.859682776033878326e-02,2.374871633946895599e-02,-9.754233807325363159e-02,3.967002630233764648e-01,-5.045839771628379822e-02,-5.705082416534423828e-01,-4.489029943943023682e-01,3.314158618450164795e-01,-4.385769367218017578e-01
-6.040797829627990723e-01,-1.539878696203231812e-01,8.480851650238037109e-01,-5.802360177040100098e-01,2.192282117903232574e-02,-1.746792644262313843e-01,-2.770247161388397217e-01,8.420543372631072998e-02,3.133473396301269531e-01,8.285884559154510498e-02,-7.342185974121093750e-01,-2.802199125289916992e-01,5.255836844444274902e-01,-5.415738821029663086e-01
-3.716355860233306885e-01,-3.339308798313140869e-01,7.003904581069946289e-01,-6.255558729171752930e-01,-2.187305092811584473e-01,4.072181135416030884e-02,-2.014734894037246704e-01,1.420017778873443604e-01,1.706749051809310913e-01,7.747549563646316528e-02,-5.531291961669921875e-01,-4.836808145046234131e-01,5.486806035041809082e-01,-5.245615839958190918e-01
-5.463774204254150391e-01,-2.055415958166122437e-01,5.604727268218994141e-01,-7.037358283996582031e-01,3.997984156012535095e-02,1.179270371794700623e-01,-2.243046164512634277e-01,7.176282256841659546e-02,2.309054583311080933e-01,1.193051934242248535e-01,-5.452925562858581543e-01,-3.926810026168823242e-01,4.567080438137054443e-01,-5.817741751670837402e-01
-5.094231367111206055e-01,-3.046527802944183350e-01,7.561346292495727539e-01,-7.729358673095703125e-01,-4.478374961763620377e-03,2.569870650768280029e-01,-3.624441623687744141e-01,1.187467128038406372e-01,7.549060881137847900e-02,3.647708147764205933e-02,-3.727685213088989258e-01,-3.869835436344146729e-01,6.698804497718811035e-01,-7.223750352859497070e-01
-3.512052297592163086e-01,-5.126273036003112793e-01,1.101384043693542480e+00,-6.703249216079711914e-01,5.646803975105285645e-02,4.243222177028656006e-01,-3.267259597778320312e-01,-4.336768388748168945e-02,-3.761671856045722961e-02,2.268276661634445190e-01,-5.172328948974609375e-01,-3.410502374172210693e-01,5.214208960533142090e-01,-5.754679441452026367e-01
-4.113063812255859375e-01,-4.548808634281158447e-01,8.170461654663085938e-01,-6.094214916229248047e-01,1.670418381690979004e-01,1.866269260644912720e-01,-2.893351018428802490e-01,-8.162927627563476562e-02,6.130231916904449463e-02,-3.296884009614586830e-03,-4.505650103092193604e-01,-4.707098901271820068e-01,5.170255899429321289e-01,-7.306356430053710938e-01
-4.092844724655151367e-01,-4.276027083396911621e-01,1.054212093353271484e+00,-5.172276496887207031e-01,2.611641883850097656e-01,3.896523714065551758e-01,-4.048787653446197510e-01,-1.497415546327829361e-02,1.333935260772705078e-01,-2.872186526656150818e-02,-4.057289361953735352e-01,-2.461443245410919189e-01,6.705880761146545410e-01,-5.800827741622924805e-01
-4.070302844047546387e-01,-3.955363631248474121e-01,7.988893985748291016e-01,-5.604997277259826660e-01,1.194488778710365295e-01,4.297284483909606934e-01,-2.783926129341125488e-01,-3.406867012381553650e-02,1.001860946416854858e-01,7.621671259403228760e-02,-4.566487073898315430e-01,-4.979508221149444580e-01,5.358285307884216309e-01,-4.545086920261383057e-01
-5.850320458412170410e-01,-2.079862803220748901e-01,7.604215145111083984e-01,-4.160992205142974854e-01,1.148136779665946960e-01,5.501276254653930664e-01,-2.950747609138488770e-01,-3.585138022899627686e-01,-8.414432406425476074e-02,1.476862132549285889e-01,-1.931754350662231445e-01,-4.106729328632354736e-01,5.236043334007263184e-01,-6.133811473846435547e-01
-4.429631531238555908e-01,-3.810061514377593994e-01,8.482870459556579590e-01,-6.795917153358459473e-01,1.748135834932327271e-01,5.616865158081054688e-01,-3.551021814346313477e-01,-1.894554644823074341e-01,-2.080359309911727905e-01,-1.054969727993011475e-01,-2.561954855918884277e-01,-4.065020382404327393e-01,6.461751461029052734e-01,-6.951432824134826660e-01
-2.220811098814010620e-01,-4.973581433296203613e-01,7.683566808700561523e-01,-4.875856637954711914e-01,1.564177274703979492e-01,5.202668905258178711e-01,-1.307493448257446289e-01,-3.637249767780303955e-01,1.530315428972244263e-01,-5.905395001173019409e-02,-2.070939838886260986e-01,-5.420470237731933594e-01,5.634136199951171875e-01,-5.835041999816894531e-01
-3.867487013339996338e-01,-4.009912312030792236e-01,7.081963419914245605e-01,-5.696244239807128906e-01,-5.405209958553314209e-02,5.080867409706115723e-01,-2.508617043495178223e-01,-3.893740773200988770e-01,-5.915568675845861435e-03,-7.761073112487792969e-02,-1.457692086696624756e-01,-4.584833383560180664e-01,4.069050252437591553e-01,-6.469808816909790039e-01
-5.127471089363098145e-01,-4.694515168666839600e-01,5.364921092987060547e-01,-5.007441639900207520e-01,1.550556570291519165e-01,4.188716113567352295e-01,-1.431870274245738983e-02,-5.540555119514465332e-01,1.199281141161918640e-01,-1.519933193922042847e-01,-9.248673170804977417e-02,-4.137922227382659912e-01,2.272119373083114624e-01,-4.968591928482055664e-01
-4.098862409591674805e-01,-4.137496352195739746e-01,5.492444634437561035e-01,-6.050769090652465820e-01,-1.534047722816467285e-01,5.909200310707092285e-01,-8.913045376539230347e-02,-5.418048501014709473e-01,9.367481619119644165e-02,-3.022283315658569336e-01,-9.812831878662109375e-02,-4.716087877750396729e-01,2.643407583236694336e-01,-5.619220733642578125e-01
-2.558057010173797607e-01,-3.996378183364868164e-01,4.528895020484924316e-01,-4.392247200012207031e-01,-6.795995682477951050e-02,4.855578243732452393e-01,3.662645816802978516e-02,-3.813302218914031982e-01,-5.156831350177526474e-03,-4.042290151119232178e-01,-1.503132749348878860e-03,-1.794309020042419434e-01,4.854048490524291992e-01,-3.634781241416931152e-01
-2.373468577861785889e-01,-3.458494544029235840e-01,3.877243101596832275e-01,-4.944617748260498047e-01,-1.937562525272369385e-01,4.682005047798156738e-01,1.347955763339996338e-01,-4.800761640071868896e-01,-9.838173538446426392e-02,-5.245481133460998535e-01,-1.529813278466463089e-02,-4.975713789463043213e-01,3.483267724514007568e-01,-3.999291658401489258e-01
-2.784592211246490479e-01,-4.736304283142089844e-01,1.351212412118911743e-01,-5.616922378540039062e-01,-2.475864291191101074e-01,2.753477990627288818e-01,2.616316378116607666e-01,-5.116751194000244141e-01,-1.738133132457733154e-01,-3.228291571140289307e-01,-1.395853608846664429e-02,-2.797596752643585205e-01,3.626991510391235352e-01,-5.056176185607910156e-01
-2.956661880016326904e-01,-3.046934306621551514e-01,2.366565167903900146e-01,-4.572457373142242432e-01,-4.307760298252105713e-01,1.679155230522155762e-01,5.378512665629386902e-02,-4.612337350845336914e-01,-9.624312818050384521e-02,-1.561619937419891357e-01,5.746355280280113220e-02,-2.891761362552642822e-01,2.229745835065841675e-01,-3.832132816314697266e-01
-3.471098840236663818e-01,-3.658793568611145020e-01,2.973945997655391693e-02,-4.360531568527221680e-01,-5.886005759239196777e-01,5.414764955639839172e-02,3.965451717376708984e-01,-3.654060661792755127e-01,-2.219165563583374023e-01,-3.501510024070739746e-01,1.687375828623771667e-02,-3.464947640895843506e-01,1.470347344875335693e-01,-4.474936723709106445e-01
-1.553004682064056396e-01,-5.043833851814270020e-01,2.806680835783481598e-02,-3.150492608547210693e-01,-4.516212344169616699e-01,1.308901607990264893e-01,3.829795122146606445e-01,-3.265926241874694824e-01,-3.051934242248535156e-01,-1.203750967979431152e-01,-4.673199728131294250e-02,-3.959136903285980225e-01,2.638882100582122803e-01,-3.463498353958129883e-01
-1.012889370322227478e-01,-1.773037314414978027e-01,8.028618758544325829e-04,-4.323912858963012695e-01,-4.687641561031341553e-01,-6.854790449142456055e-02,4.508153200149536133e-01,-3.293738365173339844e-01,-4.967865645885467529e-01,-2.301788181066513062e-01,-6.802615523338317871e-02,-3.461089432239532471e-01,2.975442111492156982e-01,-3.157612979412078857e-01
-5.922329798340797424e-02,-3.176200091838836670e-01,-9.488305449485778809e-02,-2.696342468261718750e-01,-5.646896958351135254e-01,1.700511276721954346e-01,4.886927008628845215e-01,-1.620769649744033813e-01,-3.339650034904479980e-01,-6.499022990465164185e-02,1.922580786049365997e-02,-2.788605690002441406e-01,1.202656179666519165e-01,-1.222170665860176086e-01
-3.140683174133300781e-01,-3.739148080348968506e-01,-1.726703345775604248e-01,-1.847886890172958374e-01,-3.643437325954437256e-01,-1.855505853891372681e-01,4.827366471290588379e-01,-1.251827180385589600e-01,-2.496256679296493530e-01,5.548093840479850769e-02,-6.231684982776641846e-02,-3.640852570533752441e-01,9.689942002296447754e-02,3.378605842590332031e-02
-9.420764446258544922e-02,-5.493616312742233276e-02,1.264049410820007324e-01,-1.873982846736907959e-01,-4.359946846961975098e-01,-5.710250884294509888e-02,2.384139150381088257e-01,-1.356557309627532959e-01,-2.589890956878662109e-01,-2.355382032692432404e-02,-6.486406922340393066e-02,-2.479980587959289551e-01,1.571322418749332428e-02,6.540091335773468018e-02
-2.770521640777587891e-01,6.533884257078170776e-02,-5.837426707148551941e-02,-3.419192880392074585e-02,-4.766884148120880127e-01,5.199503898620605469e-02,3.222914338111877441e-01,-1.320419162511825562e-01,-3.944361209869384766e-01,1.117182672023773193e-01,-5.798556283116340637e-02,-2.647241353988647461e-01,9.231370687484741211e-02,1.749010384082794189e-01
-3.212323188781738281e-01,-6.378308683633804321e-02,-5.026497878134250641e-03,-8.384210616350173950e-02,-2.956826686859130859e-01,-5.703791975975036621e-02,4.470407068729400635e-01,-3.904485702514648438e-02,-4.904224872589111328e-01,9.792296588420867920e-02,5.282338336110115051e-02,3.994143754243850708e-02,2.297686189413070679e-01,2.703014910221099854e-01
-2.968546748161315918e-01,-2.872584201395511627e-02,-4.075078666210174561e-02,-1.699746400117874146e-01,-2.482847422361373901e-01,-1.055989414453506470e-01,4.177280068397521973e-01,-4.756768792867660522e-02,-2.984956204891204834e-01,2.459464520215988159e-01,1.491728723049163818e-01,-2.236286550760269165e-02,9.877479821443557739e-02,3.224094808101654053e-01
-5.094980001449584961e-01,8.240535110235214233e-02,1.587911508977413177e-02,-1.715269833803176880e-01,-3.364074826240539551e-01,-2.222951948642730713e-01,3.035321831703186035e-01,4.651095718145370483e-02,-3.623965680599212646e-01,2.258185446262359619e-01,6.283980607986450195e-02,-7.771060336381196976e-03,2.469577789306640625e-01,2.327177971601486206e-01
-7.441517710685729980e-01,2.407869547605514526e-01,-1.707129762507975101e-03,-2.027820497751235962e-01,-9.961777925491333008e-02,-2.639662325382232666e-01,4.432096481323242188e-01,4.465863481163978577e-02,-3.548981249332427979e-01,2.260761260986328125e-01,1.090103089809417725e-01,-4.243197292089462280e-02,3.473378717899322510e-01,5.827918648719787598e-01
-5.286964178085327148e-01,3.546163141727447510e-01,1.822319030761718750e-01,-2.444039136171340942e-01,3.818441554903984070e-02,-4.885013401508331299e-02,3.337796330451965332e-01,-1.363949775695800781e-01,-4.083733856678009033e-01,3.867776095867156982e-01,-1.688570133410394192e-03,-1.114527881145477295e-01,1.533279716968536377e-01,6.432902216911315918e-01
-6.305045485496520996e-01,3.261249959468841553e-01,-5.305618396960198879e-04,-5.299391150474548340e-01,-2.646741271018981934e-01,2.384097687900066376e-02,4.410417973995208740e-01,-1.342115551233291626e-01,1.354683004319667816e-02,3.016279637813568115e-01,-3.560297191143035889e-03,-1.883125305175781250e-02,1.548793166875839233e-01,4.721741676330566406e-01
-7.582635283470153809e-01,3.040645718574523926e-01,2.341156154870986938e-01,-4.466229677200317383e-01,-1.504226624965667725e-01,-1.729046404361724854e-01,4.689634442329406738e-01,-8.688632398843765259e-02,-5.009470507502555847e-02,1.665313839912414551e-01,1.165141016244888306e-01,-2.697110772132873535e-01,2.243495136499404907e-01,4.733847677707672119e-01
-7.040082216262817383e-01,4.500575363636016846e-01,1.821966320276260376e-01,-6.361351013183593750e-01,-8.127677440643310547e-02,-2.462773919105529785e-01,3.725628256797790527e-01,9.094300121068954468e-02,3.646776825189590454e-02,2.246005982160568237e-01,-3.902679076418280602e-03,-2.450066953897476196e-01,1.338189989328384399e-01,5.695960521697998047e-01
-7.120167613029479980e-01,2.570820450782775879e-01,2.952627837657928467e-02,-4.286654293537139893e-01,1.245841383934020996e-01,-3.817720711231231689e-01,3.968314826488494873e-01,-1.521684676408767700e-01,-6.012849882245063782e-02,2.221209853887557983e-01,-3.621838986873626709e-02,-2.271506935358047485e-01,1.579033136367797852e-01,5.463173389434814453e-01
-9.570963978767395020e-01,3.627102971076965332e-01,1.222136467695236206e-01,-6.245579123497009277e-01,-1.693139076232910156e-01,-2.364472001791000366e-01,2.751380801200866699e-01,5.925948917865753174e-02,1.026649698615074158e-01,2.341345995664596558e-01,-2.020457237958908081e-01,-4.749922454357147217e-01,2.018569260835647583e-01,4.418612420558929443e-01
-7.970477938652038574e-01,1.876888722181320190e-01,1.610596328973770142e-01,-6.890307664871215820e-01,-1.846376061439514160e-01,-1.492474079132080078e-01,4.166217148303985596e-01,7.198120653629302979e-02,1.453876942396163940e-01,4.751491844654083252e-01,-2.212074398994445801e-01,-6.493658572435379028e-02,1.986852437257766724e-01,2.995126843452453613e-01
-1.003370046615600586e+00,2.054542303085327148e-01,2.182813882827758789e-01,-6.173150539398193359e-01,-1.805158257484436035e-01,2.725848183035850525e-02,3.362750411033630371e-01,1.683143824338912964e-01,2.776792645454406738e-01,2.562274932861328125e-01,-2.209621667861938477e-01,-3.905708491802215576e-01,4.596528410911560059e-01,4.133256971836090088e-01
-7.490454316139221191e-01,8.978607505559921265e-02,2.589994668960571289e-01,-6.859514117240905762e-01,4.218375310301780701e-02,-5.369986966252326965e-02,2.672260105609893799e-01,8.498553186655044556e-02,3.661826848983764648e-01,1.082008797675371170e-02,-3.551927804946899414e-01,-3.823770880699157715e-01,3.805252909660339355e-01,3.961663246154785156e-01
-7.225782275199890137e-01,3.151030093431472778e-02,2.192176282405853271e-01,-8.450670242309570312e-01,-1.426068544387817383e-01,-7.118931412696838379e-02,1.524763703346252441e-01,-5.605593323707580566e-02,1.011796742677688599e-01,1.526349782943725586e-01,-5.527126789093017578e-01,-2.565947473049163818e-01,6.025113463401794434e-01,3.759101927280426025e-01
-5.758649706840515137e-01,-6.335951387882232666e-02,1.436423659324645996e-01,-7.262452840805053711e-01,-1.459861546754837036e-01,-1.140861585736274719e-01,1.999388188123703003e-01,-1.223943289369344711e-02,1.352093219757080078e-01,1.446787733584642410e-03,-2.846166789531707764e-01,-2.584600448608398438e-01,6.023378372192382812e-01,3.080666661262512207e-01
-6.672362685203552246e-01,5.126278847455978394e-02,3.421312570571899414e-01,-7.237557172775268555e-01,-2.451170980930328369e-02,-9.661190956830978394e-02,1.099131256341934204e-01,-3.710312768816947937e-02,2.902184128761291504e-01,1.426154673099517822e-01,-2.200657129287719727e-01,-2.963991165161132812e-01,5.980461239814758301e-01,2.260022610425949097e-01
-5.361865758895874023e-01,-2.058793157339096069e-01,2.908069491386413574e-01,-8.220587968826293945e-01,-1.813090639188885689e-03,1.451831609010696411e-01,2.700642943382263184e-01,1.493921224027872086e-02,1.449538320302963257e-01,-5.109049752354621887e-02,-2.857760488986968994e-01,-2.217733263969421387e-01,7.212957739830017090e-01,3.443385660648345947e-01
-7.528729438781738281e-01,-2.454839944839477539e-01,6.622374057769775391e-02,-6.631498932838439941e-01,8.952590078115463257e-02,7.286088913679122925e-02,2.925537824630737305e-01,2.724343724548816681e-02,2.375908493995666504e-01,2.203460223972797394e-02,-3.093811869621276855e-01,-3.068362474441528320e-01,5.718119740486145020e-01,2.558074295520782471e-01
-3.192380666732788086e-01,1.351257693022489548e-02,4.060186445713043213e-01,-5.514489412307739258e-01,4.779981449246406555e-03,-1.066910475492477417e-01,2.453239560127258301e-01,-1.052749902009963989e-01,7.302957028150558472e-02,-9.281811118125915527e-02,-2.261839061975479126e-01,-1.242261677980422974e-01,5.972735285758972168e-01,2.190257012844085693e-01
-3.366478383541107178e-01,-1.159453168511390686e-01,3.038488030433654785e-01,-4.794552326202392578e-01,2.953065559267997742e-02,8.638884127140045166e-02,3.950225114822387695e-01,1.137391850352287292e-01,-6.252884864807128906e-02,3.605441004037857056e-02,-3.266303837299346924e-01,7.654772698879241943e-02,7.376915216445922852e-01,2.743550240993499756e-01
-2.826775014400482178e-01,-4.561250507831573486e-01,3.280292153358459473e-01,-5.502068996429443359e-01,-3.146462142467498779e-03,1.139351651072502136e-01,1.051865816116333008e-01,-2.190666347742080688e-01,-1.599786132574081421e-01,-7.484608888626098633e-02,-7.864730060100555420e-02,1.641519367694854736e-01,4.193358123302459717e-01,1.531584858894348145e-01
-4.157838523387908936e-01,-2.682931125164031982e-01,3.562209904193878174e-01,-2.228251099586486816e-01,-1.285096704959869385e-01,1.833983957767486572e-01,2.296451926231384277e-01,-1.112539321184158325e-02,2.299538441002368927e-02,-1.263433098793029785e-01,-7.333471626043319702e-02,3.345083594322204590e-01,5.953869819641113281e-01,3.506022989749908447e-01
-2.128043174743652344e-01,-3.795068562030792236e-01,1.669987887144088745e-01,-2.883692383766174316e-01,-3.304295241832733154e-02,3.215315043926239014e-01,8.553649485111236572e-02,-8.902107179164886475e-02,-8.133581839501857758e-03,-2.554068863391876221e-01,5.221396684646606445e-02,2.873155474662780762e-01,5.925001502037048340e-01,4.815423488616943359e-01
-8.344583958387374878e-02,-2.747457027435302734e-01,2.889770567417144775e-01,-2.201199233531951904e-01,-3.191969171166419983e-02,2.679353058338165283e-01,2.324697375297546387e-01,-1.782194077968597412e-01,1.416801195591688156e-02,-4.758837521076202393e-01,8.558117598295211792e-02,2.393275350332260132e-01,5.916123390197753906e-01,4.904689192771911621e-01
-2.713845670223236084e-01,-4.722089767456054688e-01,1.841418147087097168e-01,-1.356337815523147583e-01,-1.174815669655799866e-01,2.687777280807495117e-01,1.666195988655090332e-01,-3.925398886203765869e-01,-6.320559978485107422e-02,-3.758881986141204834e-01,1.457691192626953125e-01,5.523841381072998047e-01,5.305074453353881836e-01,6.497111916542053223e-01
-1.977960020303726196e-01,-1.503080278635025024e-01,5.989716202020645142e-02,-2.122020423412322998e-01,-2.728979587554931641e-01,3.891044557094573975e-01,4.446859061717987061e-01,-3.346359729766845703e-01,-4.741269350051879883e-01,-3.209494352340698242e-01,2.333280444145202637e-01,6.481285095214843750e-01,2.800016701221466064e-01,5.078535676002502441e-01
-3.630238175392150879e-01,-2.304282039403915405e-01,7.891351729631423950e-02,-5.043103173375129700e-02,-2.794974744319915771e-01,1.532286554574966431e-01,4.339455962181091309e-01,-5.293849110603332520e-01,-4.052384570240974426e-02,-5.492787957191467285e-01,4.423422813415527344e-01,6.414098143577575684e-01,2.841642498970031738e-01,6.134331822395324707e-01
-2.976605594158172607e-01,-9.242030233144760132e-02,-1.689217835664749146e-01,-9.905043244361877441e-02,-2.225881218910217285e-01,3.597199320793151855e-01,3.498126566410064697e-01,-3.275597393512725830e-01,-2.207479178905487061e-01,-6.972861289978027344e-01,3.572040498256683350e-01,5.724490284919738770e-01,4.503273963928222656e-02,6.680384278297424316e-01
-4.559447765350341797e-01,-2.461148798465728760e-01,-6.296728551387786865e-02,-1.202736124396324158e-01,-1.774311810731887817e-01,4.446438327431678772e-02,5.722787976264953613e-01,-4.254605472087860107e-01,-2.396104186773300171e-01,-8.465467095375061035e-01,3.098072707653045654e-01,7.221568822860717773e-01,7.326497696340084076e-03,8.408516645431518555e-01
-2.341766953468322754e-01,-6.326147168874740601e-02,-8.630246669054031372e-02,5.805104970932006836e-02,-1.498998403549194336e-01,5.014102533459663391e-02,9.008066058158874512e-01,-4.401383697986602783e-01,-2.254751473665237427e-01,-8.261976838111877441e-01,4.923254847526550293e-01,9.830864071846008301e-01,1.253836452960968018e-01,6.334718465805053711e-01
-3.037270307540893555e-01,-1.028541401028633118e-01,-1.541666090488433838e-01,1.821116507053375244e-01,-3.752374351024627686e-01,-6.184190139174461365e-02,8.341583013534545898e-01,-4.850014150142669678e-01,-2.067296802997589111e-01,-7.035281658172607422e-01,4.116728603839874268e-01,6.697618961334228516e-01,-6.582307070493698120e-02,5.230129361152648926e-01
-4.448349475860595703e-01,9.854716062545776367e-02,-1.427315324544906616e-01,1.394277811050415039e-01,-4.548219740390777588e-01,-9.646674245595932007e-02,9.288098216056823730e-01,-5.578055977821350098e-01,5.694971606135368347e-02,-6.371452808380126953e-01,1.322166025638580322e-01,5.425503253936767578e-01,-8.291905373334884644e-02,7.183150053024291992e-01
-4.033762216567993164e-01,1.003840789198875427e-01,-1.257430315017700195e-01,1.952224522829055786e-01,-4.310954213142395020e-01,-1.351751685142517090e-01,9.075058102607727051e-01,-3.481315374374389648e-01,-1.794832758605480194e-02,-6.977549195289611816e-01,4.288870394229888916e-01,6.294677257537841797e-01,-2.261532545089721680e-01,8.255037069320678711e-01
-3.156344890594482422e-01,5.154639855027198792e-02,-2.540887892246246338e-01,8.833136409521102905e-02,-4.913974106311798096e-01,-1.987681537866592407e-01,9.022644758224487305e-01,-5.763813108205795288e-02,-7.308561354875564575e-02,-6.096279025077819824e-01,2.914387583732604980e-01,7.648193836212158203e-01,-9.271663427352905273e-02,6.128345727920532227e-01
-2.277372628450393677e-01,-4.156186804175376892e-02,-1.235767826437950134e-01,1.840472221374511719e-02,-2.819614112377166748e-01,-3.682909309864044189e-01,9.291931390762329102e-01,-1.284333467483520508e-01,1.022084131836891174e-01,-5.744869709014892578e-01,3.135226964950561523e-01,5.560131072998046875e-01,-6.197270005941390991e-02,7.370804548263549805e-01
-1.720806062221527100e-01,2.130454331636428833e-01,-2.138806581497192383e-01,3.634628355503082275e-01,-1.020959839224815369e-01,-4.419393539428710938e-01,9.416630268096923828e-01,-2.330157347023487091e-02,8.366162888705730438e-03,-5.441321730613708496e-01,1.664147526025772095e-01,7.472568154335021973e-01,-6.040481477975845337e-02,7.858002781867980957e-01
-3.364743888378143311e-01,-1.117209941148757935e-01,-2.351942360401153564e-01,4.524647295475006104e-01,-3.226604759693145752e-01,-1.004488468170166016e-01,7.808507680892944336e-01,1.377048939466476440e-01,2.352483868598937988e-01,-6.083161234855651855e-01,3.043424189090728760e-01,7.807051539421081543e-01,-2.450280040502548218e-01,7.762827873229980469e-01
-4.669057428836822510e-01,-6.245276704430580139e-02,-1.552790850400924683e-01,4.277040958404541016e-01,-2.950004637241363525e-01,-4.044873714447021484e-01,9.267192482948303223e-01,3.241348266601562500e-01,3.010045886039733887e-01,-4.750599861145019531e-01,6.466564536094665527e-02,9.055178761482238770e-01,-1.385224331170320511e-02,6.993533968925476074e-01
-3.189842700958251953e-01,1.078622266650199890e-01,-3.461340069770812988e-02,2.577232718467712402e-01,1.427406445145606995e-02,-2.765674591064453125e-01,9.122834205627441406e-01,3.372650146484375000e-01,1.554312407970428467e-01,-5.332861542701721191e-01,-1.969497203826904297e-01,8.875073194503784180e-01,-2.050002962350845337e-01,6.279520988464355469e-01
-1.816783547401428223e-01,3.820140957832336426e-01,1.035796478390693665e-01,1.831399351358413696e-01,4.263890162110328674e-02,-4.845928549766540527e-01,7.236122488975524902e-01,1.563010066747665405e-01,3.401186764240264893e-01,-4.117107689380645752e-01,-5.376739054918289185e-02,8.407118320465087891e-01,-1.026538610458374023e-01,6.971437335014343262e-01
-5.438549518585205078e-01,1.761742681264877319e-01,4.971095174551010132e-02,1.873025894165039062e-01,1.449338495731353760e-01,-3.187176585197448730e-01,6.313940286636352539e-01,9.444891661405563354e-02,3.704252541065216064e-01,-3.564540147781372070e-01,5.793081969022750854e-02,5.273979306221008301e-01,-2.615188956260681152e-01,7.524663209915161133e-01
-5.008688569068908691e-01,2.142964750528335571e-01,3.178127110004425049e-02,1.080716401338577271e-01,3.698560893535614014e-01,-2.631553113460540771e-01,5.507300496101379395e-01,5.461207628250122070e-01,2.777949273586273193e-01,-2.098559737205505371e-01,-1.091984682716429234e-03,8.156701922416687012e-01,-1.228333041071891785e-01,7.899869680404663086e-01
-3.681994080543518066e-01,1.179014742374420166e-01,2.859075069427490234e-01,2.358662784099578857e-01,1.688813418149948120e-01,-1.589619368314743042e-01,7.458879351615905762e-01,5.456505417823791504e-01,4.851184487342834473e-01,-5.089630484580993652e-01,-5.282127484679222107e-02,7.640257477760314941e-01,-2.157426923513412476e-01,7.139597535133361816e-01
-4.350045919418334961e-01,3.764118850231170654e-01,3.162715956568717957e-02,3.661879897117614746e-01,2.519854009151458740e-01,-4.337111115455627441e-01,4.759014844894409180e-01,3.349999189376831055e-01,2.971544265747070312e-01,-3.411098122596740723e-01,-1.632750332355499268e-01,6.793415546417236328e-01,-1.752271205186843872e-01,6.109709739685058594e-01
-5.199697017669677734e-01,3.845638334751129150e-01,1.327716708183288574e-01,1.415526717901229858e-01,4.499159455299377441e-01,-1.023977473378181458e-01,5.451627969741821289e-01,1.775802075862884521e-01,2.147343754768371582e-01,-2.615342438220977783e-01,-8.881011605262756348e-02,4.326069951057434082e-01,-1.423796415328979492e-01,6.588242053985595703e-01
-4.494617879390716553e-01,3.614469468593597412e-01,3.042592108249664307e-01,1.301811188459396362e-01,5.342077612876892090e-01,-1.961583644151687622e-01,4.276209175586700439e-01,3.830743432044982910e-01,3.066585659980773926e-01,-3.607940077781677246e-01,-1.210852637887001038e-01,4.735567569732666016e-01,-8.504956215620040894e-02,6.294370889663696289e-01
-3.678129911422729492e-01,1.978751868009567261e-01,3.993325531482696533e-01,1.795259416103363037e-01,5.406880974769592285e-01,-1.708307303488254547e-02,3.966330885887145996e-01,2.543320059776306152e-01,4.449517130851745605e-01,-3.841850161552429199e-01,-1.545228511095046997e-01,3.767444491386413574e-01,-1.074920743703842163e-01,5.082958340644836426e-01
-4.553795754909515381e-01,1.535187959671020508e-01,2.723608613014221191e-01,-5.465342104434967041e-02,8.575473427772521973e-01,-1.283367425203323364e-01,3.254880905151367188e-01,2.308336347341537476e-01,6.090714335441589355e-01,-4.403981864452362061e-01,-1.338483393192291260e-01,2.341242134571075439e-01,-4.375582039356231689e-01,3.023925125598907471e-01
-4.286606907844543457e-01,4.469007626175880432e-02,2.467978298664093018e-01,1.388654261827468872e-01,6.040440797805786133e-01,-9.215439110994338989e-02,2.907763421535491943e-01,3.090959191322326660e-01,4.747934043407440186e-01,-3.992491066455841064e-01,-2.071506977081298828e-01,3.812460899353027344e-01,-1.499244421720504761e-01,2.752909362316131592e-01
-2.998949885368347168e-01,1.209723800420761108e-01,1.882236301898956299e-01,9.351612627506256104e-02,5.939247608184814453e-01,-2.172265201807022095e-02,4.505386352539062500e-01,2.323765307664871216e-01,5.446780323982238770e-01,-6.637858152389526367e-01,-2.887700796127319336e-01,2.550766170024871826e-01,-2.073830962181091309e-01,2.911351323127746582e-01
-3.196284770965576172e-01,-6.483948975801467896e-02,2.674822211265563965e-01,-1.473334878683090210e-01,6.681546568870544434e-01,-9.177874773740768433e-02,2.668715715408325195e-01,6.194150820374488831e-02,4.938014149665832520e-01,-7.140954136848449707e-01,-4.003385603427886963e-01,5.614823102951049805e-01,-2.907683551311492920e-01,-3.924513608217239380e-02
-9.909251332283020020e-02,-1.479469984769821167e-01,2.222988456487655640e-01,-2.058873027563095093e-01,7.549387812614440918e-01,-2.896961569786071777e-02,4.011070728302001953e-01,1.317195445299148560e-01,5.424191951751708984e-01,-5.903367996215820312e-01,-1.964736431837081909e-01,2.596695721149444580e-01,-3.269053995609283447e-01,-2.032847106456756592e-01
7.860118150711059570e-02,-1.456761658191680908e-01,1.327854841947555542e-01,-7.665149867534637451e-02,5.853258967399597168e-01,-9.648681432008743286e-02,3.503164947032928467e-01,2.152082920074462891e-01,7.123851776123046875e-01,-8.137559890747070312e-01,-1.600245982408523560e-01,3.988614678382873535e-01,-2.481824159622192383e-01,7.245150953531265259e-02
-1.178584247827529907e-01,-2.206438034772872925e-01,1.785869896411895752e-01,-1.638352572917938232e-01,6.431760191917419434e-01,-1.554206013679504395e-01,3.998800516128540039e-01,1.848944872617721558e-01,5.658429265022277832e-01,-4.769504070281982422e-01,-2.004941552877426147e-01,1.216285899281501770e-01,-2.230351865291595459e-01,-9.907604008913040161e-02
-5.618777126073837280e-02,-2.851855456829071045e-01,1.258446723222732544e-01,-2.132363021373748779e-01,7.593140006065368652e-01,1.367505788803100586e-01,2.438739538192749023e-01,1.430933028459548950e-01,4.072286486625671387e-01,-4.760164320468902588e-01,-3.109511435031890869e-01,2.502929866313934326e-01,-2.159982472658157349e-01,-1.457473784685134888e-01
2.006290704011917114e-01,-2.321758419275283813e-01,2.177685350179672241e-01,7.384265214204788208e-02,7.686930894851684570e-01,-8.492749929428100586e-02,3.906745612621307373e-01,1.898390799760818481e-01,5.071123838424682617e-01,-6.368011832237243652e-01,-5.424495935440063477e-01,3.518963754177093506e-01,-2.872735261917114258e-01,-3.525238931179046631e-01
1.223094686865806580e-01,-3.035407364368438721e-01,2.355089038610458374e-01,1.191546991467475891e-01,6.911830902099609375e-01,3.916017711162567139e-02,2.451363354921340942e-01,3.507045283913612366e-02,2.964481711387634277e-01,-6.249386072158813477e-01,-5.367213487625122070e-01,3.018016517162322998e-01,-5.421140193939208984e-01,-1.907691508531570435e-01
1.967049241065979004e-01,-3.565773665904998779e-01,3.829043805599212646e-01,6.941147148609161377e-02,9.192128777503967285e-01,1.465522944927215576e-01,4.955607950687408447e-01,5.800440534949302673e-02,2.088411301374435425e-01,-5.900719165802001953e-01,-3.826591968536376953e-01,4.088070988655090332e-01,-3.715960383415222168e-01,-2.381946444511413574e-01
1.835283488035202026e-01,-3.091466426849365234e-01,1.552010327577590942e-01,-1.575753092765808105e-02,8.839292526245117188e-01,2.449868805706501007e-02,5.464130267500877380e-02,-3.347291052341461182e-01,2.086340785026550293e-01,-5.743685364723205566e-01,-2.947148680686950684e-01,4.915349483489990234e-01,-4.841426014900207520e-01,-4.083054363727569580e-01
3.947587013244628906e-01,-4.105173349380493164e-01,1.860319525003433228e-01,4.035325720906257629e-02,5.526899099349975586e-01,1.681156270205974579e-02,4.431453347206115723e-01,-8.525006473064422607e-02,-3.915762528777122498e-02,-5.659448504447937012e-01,-2.535466551780700684e-01,5.517485141754150391e-01,-2.154842764139175415e-01,-7.702828198671340942e-02
4.560688436031341553e-01,-2.709276378154754639e-01,3.117482662200927734e-01,2.190652340650558472e-01,5.287541747093200684e-01,1.317111551761627197e-01,1.780674159526824951e-01,-1.162862218916416168e-02,-6.350741256028413773e-03,-5.241854786872863770e-01,-1.760348081588745117e-01,8.176453709602355957e-01,-4.810030460357666016e-01,-1.618911772966384888e-01
4.158557951450347900e-01,-2.254991233348846436e-01,3.401692509651184082e-01,1.924549043178558350e-01,7.777551412582397461e-01,2.248460650444030762e-01,2.109247148036956787e-01,-1.774945706129074097e-01,-9.667538851499557495e-02,-6.000189185142517090e-01,-2.866981029510498047e-01,7.182148098945617676e-01,-4.875788688659667969e-01,-1.682037115097045898e-01
5.978273153305053711e-01,-3.424560427665710449e-01,1.734682023525238037e-01,2.291794568300247192e-01,8.292644619941711426e-01,-7.689726538956165314e-03,1.341682076454162598e-01,-2.357046753168106079e-01,-2.661746442317962646e-01,-4.910225272178649902e-01,5.662517249584197998e-02,7.646449208259582520e-01,-5.789435505867004395e-01,-1.137797310948371887e-01
5.667054653167724609e-01,-4.046867787837982178e-02,6.077579408884048462e-02,3.717862069606781006e-01,6.583936214447021484e-01,8.115609735250473022e-02,5.135838687419891357e-02,-3.411497175693511963e-01,-4.471386373043060303e-01,-5.410229563713073730e-01,8.128665387630462646e-02,7.927162051200866699e-01,-6.945983171463012695e-01,-2.253284454345703125e-01
5.923724174499511719e-01,-1.761785596609115601e-01,-5.084904376417398453e-03,3.344433605670928955e-01,6.123837232589721680e-01,-1.001696512103080750e-01,1.755473762750625610e-01,-1.788717657327651978e-01,-3.469245135784149170e-01,-6.417468190193176270e-01,-1.772772371768951416e-01,8.066205978393554688e-01,-8.487100005149841309e-01,8.380280435085296631e-02
3.599922657012939453e-01,-3.062737174332141876e-02,-1.871691942214965820e-01,3.765147924423217773e-01,5.566737651824951172e-01,7.751292432658374310e-04,2.163942158222198486e-01,-2.580053508281707764e-01,-2.603798508644104004e-01,-4.354631602764129639e-01,-2.235133498907089233e-01,7.281584739685058594e-01,-9.368621706962585449e-01,9.225717931985855103e-02
4.246762096881866455e-01,1.185865327715873718e-01,-1.384682506322860718e-01,1.049458384513854980e-01,4.939036369323730469e-01,1.733184442855417728e-03,2.974776923656463623e-01,-2.530135512351989746e-01,-3.047702610492706299e-01,-6.827010512351989746e-01,-5.336776748299598694e-02,6.809661388397216797e-01,-1.149631023406982422e+00,7.968412339687347412e-02
2.867381870746612549e-01,1.277683228254318237e-01,-7.243996858596801758e-02,1.250991225242614746e-01,6.944407820701599121e-01,-1.356753557920455933e-01,4.159167110919952393e-01,-5.182835459709167480e-01,-2.174307554960250854e-01,-5.218925476074218750e-01,5.862427875399589539e-02,6.937940716743469238e-01,-9.843637347221374512e-01,2.504288256168365479e-01
2.279427349567413330e-01,6.165846809744834900e-02,-1.280512660741806030e-01,1.836134195327758789e-01,5.135549902915954590e-01,-1.482703536748886108e-01,3.423236012458801270e-01,-3.584894239902496338e-01,-4.311964511871337891e-01,-3.683031499385833740e-01,-1.092846840620040894e-01,7.470507025718688965e-01,-1.002446651458740234e+00,-1.844842685386538506e-03
1.157544255256652832e-01,3.460933268070220947e-02,-6.216433644294738770e-02,9.661882370710372925e-02,5.564318895339965820e-01,-2.960093915462493896e-01,3.548935949802398682e-01,-3.542376458644866943e-01,-2.931371033191680908e-01,-4.756585657596588135e-01,-1.318282634019851685e-01,6.916074752807617188e-01,-1.052028656005859375e+00,8.216559886932373047e-02
-1.026580482721328735e-01,1.683562397956848145e-01,-1.431864500045776367e-01,1.477005630731582642e-01,3.247955739498138428e-01,-1.963731646537780762e-01,3.716490566730499268e-01,-3.264777660369873047e-01,-4.590202569961547852e-01,-2.973387539386749268e-01,-2.638203799724578857e-01,4.992413222789764404e-01,-1.027652740478515625e+00,5.504532158374786377e-02
1.550834476947784424e-01,1.351526826620101929e-01,-1.783742606639862061e-01,-1.992425322532653809e-02,5.978134274482727051e-01,-1.396133452653884888e-01,1.427576094865798950e-01,-3.230645060539245605e-01,-3.268697261810302734e-01,-1.871081739664077759e-01,-2.737545073032379150e-01,5.442338585853576660e-01,-1.137729406356811523e+00,1.052933111786842346e-01
1.808976233005523682e-01,-7.011776790022850037e-03,-3.611014783382415771e-02,6.905447691679000854e-02,5.575748085975646973e-01,-3.843732178211212158e-01,1.214673668146133423e-01,-2.532602548599243164e-01,-2.287841886281967163e-01,-2.314755171537399292e-01,-2.647613883018493652e-01,3.948025405406951904e-01,-1.003477454185485840e+00,1.301880627870559692e-01
-1.073743849992752075e-01,-4.246804118156433105e-02,2.328110039234161377e-01,-1.118341758847236633e-01,3.776099681854248047e-01,-3.515029251575469971e-01,9.154166281223297119e-02,-8.894452452659606934e-02,-2.462602108716964722e-01,-5.097142234444618225e-02,-3.867835104465484619e-01,3.692438006401062012e-01,-9.805366992950439453e-01,1.559956967830657959e-01
2.805826626718044281e-02,-1.909746825695037842e-01,1.828430965542793274e-02,-1.057132035493850708e-01,5.634011626243591309e-01,-2.362271994352340698e-01,1.422818154096603394e-01,-3.227717578411102295e-01,-3.302469253540039062e-01,4.389665275812149048e-02,-4.330688416957855225e-01,2.762507796287536621e-01,-7.784637808799743652e-01,6.895459443330764771e-02
1.143876314163208008e-01,9.679601527750492096e-03,1.439817249774932861e-01,-2.868009805679321289e-01,5.745182633399963379e-01,-1.438147425651550293e-01,-8.239345997571945190e-02,8.211220800876617432e-02,-3.770482540130615234e-01,1.047803312540054321e-01,-7.098156809806823730e-01,2.698706090450286865e-01,-7.622051239013671875e-01,8.971633389592170715e-03
-3.404962271451950073e-02,-3.593418747186660767e-02,3.034664392471313477e-01,-2.929424941539764404e-01,5.746349692344665527e-01,-3.739965856075286865e-01,-4.924272000789642334e-02,-2.179819531738758087e-02,-4.646646678447723389e-01,4.832385182380676270e-01,-3.699728548526763916e-01,3.930217325687408447e-01,-7.477688789367675781e-01,2.613942325115203857e-01
1.066690757870674133e-01,6.471060216426849365e-02,2.545789480209350586e-01,-2.419473379850387573e-01,3.810258805751800537e-01,-1.833589076995849609e-01,-2.085255086421966553e-01,-6.262861937284469604e-02,-4.065669178962707520e-01,2.585093975067138672e-01,-7.748218774795532227e-01,2.444588541984558105e-01,-6.175245046615600586e-01,3.329955041408538818e-01
-4.373114928603172302e-02,-3.358296677470207214e-02,5.316842794418334961e-01,-2.106426060199737549e-01,6.592902541160583496e-01,-6.430786848068237305e-02,-1.163978725671768188e-01,2.814091183245182037e-02,-5.359305739402770996e-01,5.022817254066467285e-01,-6.047365665435791016e-01,2.291020005941390991e-01,-6.271760463714599609e-01,1.073902845382690430e-01
-1.025232449173927307e-01,4.331415891647338867e-02,3.343695104122161865e-01,-3.395028114318847656e-01,8.077348470687866211e-01,-1.647919230163097382e-02,-2.123245894908905029e-01,-2.289826720952987671e-01,-4.603794217109680176e-01,4.122140705585479736e-01,-6.311355233192443848e-01,5.352740362286567688e-02,-4.847008883953094482e-01,1.948102377355098724e-02
5.143552646040916443e-02,-1.817851811647415161e-01,5.304762721061706543e-01,-4.638163745403289795e-01,7.686725258827209473e-01,-1.590305715799331665e-01,-3.700751364231109619e-01,-1.886124610900878906e-01,-6.263086199760437012e-01,3.739070892333984375e-01,-6.087076067924499512e-01,1.505981683731079102e-01,-3.313807845115661621e-01,2.439622282981872559e-01
-1.931651681661605835e-01,-2.317741885781288147e-02,6.068379282951354980e-01,-3.638630807399749756e-01,8.371897339820861816e-01,2.379084825515747070e-01,-6.029365658760070801e-01,-1.884703934192657471e-01,-5.942699909210205078e-01,5.051459074020385742e-01,-4.811204373836517334e-01,1.397817134857177734e-01,-4.709154963493347168e-01,-4.969739168882369995e-02
-1.997701674699783325e-01,-2.196944355964660645e-01,7.050887942314147949e-01,-7.696542143821716309e-01,1.031130433082580566e+00,4.386703073978424072e-01,-4.953552186489105225e-01,-1.076215431094169617e-01,-3.901010453701019287e-01,5.543358922004699707e-01,-5.995947718620300293e-01,6.148281320929527283e-02,-3.022871613502502441e-01,5.561652034521102905e-02
-2.437938749790191650e-01,-1.255051344633102417e-01,5.287913680076599121e-01,-7.432779669761657715e-01,8.793705701828002930e-01,3.929256200790405273e-01,-4.809855222702026367e-01,-3.270795345306396484e-01,-4.103319942951202393e-01,5.604573488235473633e-01,-5.261270403861999512e-01,1.247344613075256348e-01,-3.393753170967102051e-01,7.761699147522449493e-03
-2.928033769130706787e-01,-3.936997950077056885e-01,8.809169530868530273e-01,-5.834679603576660156e-01,6.650357842445373535e-01,3.646061122417449951e-01,-4.573369622230529785e-01,-3.623533844947814941e-01,-5.191287994384765625e-01,5.910812020301818848e-01,-5.475574731826782227e-01,5.580470710992813110e-02,-3.740130364894866943e-01,-5.694538727402687073e-02
-1.827141791582107544e-01,-2.778360843658447266e-01,7.913694977760314941e-01,-6.983923912048339844e-01,8.252888917922973633e-01,4.919459819793701172e-01,-3.699816465377807617e-01,-5.538700819015502930e-01,-4.874716103076934814e-01,6.869808435440063477e-01,-2.690831124782562256e-01,8.186569064855575562e-02,-3.708807751536369324e-02,5.933814682066440582e-03
-2.619931995868682861e-01,-5.624158978462219238e-01,8.529381155967712402e-01,-6.822001338005065918e-01,8.049801588058471680e-01,7.830018401145935059e-01,-4.238214194774627686e-01,-5.323890447616577148e-01,-4.774958491325378418e-01,3.702671527862548828e-01,-3.032999336719512939e-01,6.177506595849990845e-02,-8.507287502288818359e-02,-8.348402380943298340e-02
