Fp1,Fp2,F7,F3,Fz,F4,F8,T3,C3,Cz,C4,T4,T5,P3,Pz,P4,T6,O1,Oz,O2,A1
-3.761373281478881836e+00,-1.198389053344726562e+01,-3.267922878265380859e+00,-5.035034179687500000e+00,-5.329009056091308594e+00,-8.707034111022949219e+00,-9.171799659729003906e+00,-5.595616817474365234e+00,-1.113480472564697266e+01,-1.158819675445556641e+01,4.377413690090179443e-01,-6.102712154388427734e+00,-5.929255962371826172e+00,-1.088548469543457031e+01,1.227976679801940918e+00,-3.180952310562133789e+00,-5.988950252532958984e+00,-9.768092155456542969e+00,-8.831638336181640625e+00,-3.998916149139404297e+00,4.756885021924972534e-02
-4.166018486022949219e+00,-1.204002475738525391e+01,-3.652009487152099609e+00,-5.303040981292724609e+00,-5.417235374450683594e+00,-9.193593025207519531e+00,-9.881366729736328125e+00,-6.737143993377685547e+00,-1.214303684234619141e+01,-1.225054073333740234e+01,6.943637132644653320e-01,-6.153157234191894531e+00,-5.721319675445556641e+00,-1.041847419738769531e+01,1.169432044029235840e+00,-2.512475252151489258e+00,-6.334727287292480469e+00,-1.069511985778808594e+01,-8.980696678161621094e+00,-2.896516561508178711e+00,5.104373767971992493e-02
-4.623443603515625000e+00,-1.233600521087646484e+01,-4.436526775360107422e+00,-5.670741081237792969e+00,-5.763983726501464844e+00,-9.624341964721679688e+00,-1.080309772491455078e+01,-7.474730968475341797e+00,-1.322024822235107422e+01,-1.289650154113769531e+01,4.357597231864929199e-01,-6.190761566162109375e+00,-5.733067512512207031e+00,-9.825681686401367188e+00,9.759096503257751465e-01,-1.781925439834594727e+00,-6.890808582305908203e+00,-1.158531188964843750e+01,-9.047704696655273438e+00,-1.362222552299499512e+00,5.400058254599571228e-02
-5.072072029113769531e+00,-1.265579986572265625e+01,-5.505898952484130859e+00,-5.910263538360595703e+00,-6.285132884979248047e+00,-9.834707260131835938e+00,-1.184505462646484375e+01,-7.199497222900390625e+00,-1.426067066192626953e+01,-1.327214241027832031e+01,-4.282350540161132812e-01,-5.576251029968261719e+00,-5.910459518432617188e+00,-8.934001922607421875e+00,7.921446561813354492e-01,-8.285500407218933105e-01,-7.473984241485595703e+00,-1.227045249938964844e+01,-8.850783348083496094e+00,2.131226509809494019e-01,5.518012866377830505e-02
-5.324242115020751953e+00,-1.281739807128906250e+01,-6.640647411346435547e+00,-5.853296279907226562e+00,-6.767298221588134766e+00,-9.786051750183105469e+00,-1.289290523529052734e+01,-5.785706520080566406e+00,-1.511830139160156250e+01,-1.319256687164306641e+01,-1.780704021453857422e+00,-4.034471988677978516e+00,-6.123095035552978516e+00,-7.638824939727783203e+00,7.661247849464416504e-01,4.670220017433166504e-01,-7.886852264404296875e+00,-1.258355426788330078e+01,-8.257285118103027344e+00,1.538738846778869629e+00,5.206388980150222778e-02
-5.184962272644042969e+00,-1.275105762481689453e+01,-7.614289283752441406e+00,-5.473943710327148438e+00,-7.013510227203369141e+00,-9.549926757812500000e+00,-1.383231639862060547e+01,-3.594727039337158203e+00,-1.565173339843750000e+01,-1.262384033203125000e+01,-3.341244935989379883e+00,-1.743357181549072266e+00,-6.234699249267578125e+00,-5.972529888153076172e+00,9.645259976387023926e-01,2.090466022491455078e+00,-7.988779067993164062e+00,-1.243866825103759766e+01,-7.264473915100097656e+00,2.482064485549926758e+00,4.132043197751045227e-02
-4.570663928985595703e+00,-1.249930477142333984e+01,-8.289068222045898438e+00,-4.914625644683837891e+00,-6.949905872344970703e+00,-9.235094070434570312e+00,-1.456781482696533203e+01,-1.317613363265991211e+00,-1.577589416503906250e+01,-1.171458053588867188e+01,-4.793786525726318359e+00,6.844174861907958984e-01,-6.168911457061767578e+00,-4.143092155456542969e+00,1.335308432579040527e+00,3.876254558563232422e+00,-7.762991905212402344e+00,-1.188736343383789062e+01,-6.015939235687255859e+00,3.074743270874023438e+00,1.988930441439151764e-02
-3.556118488311767578e+00,-1.218291187286376953e+01,-8.620619773864746094e+00,-4.443348407745361328e+00,-6.648295879364013672e+00,-8.925985336303710938e+00,-1.496621036529541016e+01,2.922070622444152832e-01,-1.544709777832031250e+01,-1.075031948089599609e+01,-5.845046520233154297e+00,2.372028112411499023e+00,-5.922207355499267578e+00,-2.479288101196289062e+00,1.727232098579406738e+00,5.521981239318847656e+00,-7.299805641174316406e+00,-1.111013317108154297e+01,-4.753728866577148438e+00,3.484401464462280273e+00,-1.373580656945705414e-02
-2.317259073257446289e+00,-1.190054035186767578e+01,-8.618285179138183594e+00,-4.329412937164306641e+00,-6.217424392700195312e+00,-8.628325462341308594e+00,-1.483773326873779297e+01,6.981273293495178223e-01,-1.464350032806396484e+01,-1.001776218414306641e+01,-6.306768417358398438e+00,2.585731029510498047e+00,-5.529829978942871094e+00,-1.307401895523071289e+00,1.967915534973144531e+00,6.733197689056396484e+00,-6.733402729034423828e+00,-1.032185363769531250e+01,-3.718524932861328125e+00,3.888928174972534180e+00,-5.860648304224014282e-02
-1.037348628044128418e+00,-1.167940521240234375e+01,-8.296072006225585938e+00,-4.703586578369140625e+00,-5.733207225799560547e+00,-8.247664451599121094e+00,-1.401029777526855469e+01,-2.543002068996429443e-01,-1.336165428161621094e+01,-9.676058769226074219e+00,-6.172017097473144531e+00,1.044869065284729004e+00,-5.034072399139404297e+00,-8.154837489128112793e-01,1.945148110389709473e+00,7.330051898956298828e+00,-6.165709495544433594e+00,-9.679687500000000000e+00,-3.037505865097045898e+00,4.383255004882812500e+00,-1.112956553697586060e-01
1.589938104152679443e-01,-1.144976520538330078e+01,-7.645810127258300781e+00,-5.476533412933349609e+00,-5.166919708251953125e+00,-7.692413806915283203e+00,-1.240375137329101562e+01,-2.273010969161987305e+00,-1.162454986572265625e+01,-9.679569244384765625e+00,-5.584460735321044922e+00,-1.927710294723510742e+00,-4.444331645965576172e+00,-9.624365568161010742e-01,1.641041398048400879e+00,7.315727710723876953e+00,-5.622529983520507812e+00,-9.213104248046875000e+00,-2.684688568115234375e+00,4.970802307128906250e+00,-1.667424142360687256e-01
1.238047719001770020e+00,-1.111976432800292969e+01,-6.663995742797851562e+00,-6.413908958435058594e+00,-4.418024539947509766e+00,-6.985471248626708984e+00,-1.010060214996337891e+01,-4.844169616699218750e+00,-9.511514663696289062e+00,-9.842229843139648438e+00,-4.755144596099853516e+00,-5.582671165466308594e+00,-3.740637302398681641e+00,-1.520358920097351074e+00,1.128776073455810547e+00,6.862118244171142578e+00,-5.078060626983642578e+00,-8.837381362915039062e+00,-2.515117645263671875e+00,5.599400997161865234e+00,-2.196945995092391968e-01
2.234999656677246094e+00,-1.060264968872070312e+01,-5.376313209533691406e+00,-7.233465671539306641e+00,-3.369571208953857422e+00,-6.278528690338134766e+00,-7.316550731658935547e+00,-7.398497104644775391e+00,-7.158205509185791016e+00,-9.911272048950195312e+00,-3.851517200469970703e+00,-8.941383361816406250e+00,-2.873648405075073242e+00,-2.146776199340820312e+00,5.286939144134521484e-01,6.238206386566162109e+00,-4.493594646453857422e+00,-8.396583557128906250e+00,-2.326401472091674805e+00,6.188658714294433594e+00,-2.662150561809539795e-01
3.205561876296997070e+00,-9.840585708618164062e+00,-3.855143308639526367e+00,-7.695679664611816406e+00,-2.007197380065917969e+00,-5.774796485900878906e+00,-4.303833961486816406e+00,-9.388496398925781250e+00,-4.723271369934082031e+00,-9.646802902221679688e+00,-2.898348569869995117e+00,-1.102796745300292969e+01,-1.789324641227722168e+00,-2.494232416152954102e+00,-2.747988328337669373e-02,5.728890419006347656e+00,-3.821393966674804688e+00,-7.727404594421386719e+00,-1.932559013366699219e+00,6.669301509857177734e+00,-3.045822679996490479e-01
4.173191547393798828e+00,-8.813160896301269531e+00,-2.234741449356079102e+00,-7.699563980102539062e+00,-4.560611546039581299e-01,-5.588758945465087891e+00,-1.305261850357055664e+00,-1.042903804779052734e+01,-2.390655040740966797e+00,-8.927118301391601562e+00,-1.842134833335876465e+00,-1.124442100524902344e+01,-4.911907315254211426e-01,-2.352261066436767578e+00,-4.698169231414794922e-01,5.514022827148437500e+00,-3.053717613220214844e+00,-6.746351718902587891e+00,-1.261112451553344727e+00,6.996001720428466797e+00,-3.351309895515441895e-01
5.102703094482421875e+00,-7.516971588134765625e+00,-6.738785505294799805e-01,-7.260654449462890625e+00,1.041729211807250977e+00,-5.647432327270507812e+00,1.477611303329467773e+00,-1.030231189727783203e+01,-3.259045183658599854e-01,-7.758069038391113281e+00,-6.422520875930786133e-01,-9.495359420776367188e+00,9.338197112083435059e-01,-1.708408713340759277e+00,-8.015697002410888672e-01,5.615886211395263672e+00,-2.200887441635131836e+00,-5.480437755584716797e+00,-3.681294918060302734e-01,7.155075550079345703e+00,-3.592320382595062256e-01
5.941315650939941406e+00,-5.962224960327148438e+00,7.013617753982543945e-01,-6.446277141571044922e+00,2.237909793853759766e+00,-5.704674720764160156e+00,3.917487382888793945e+00,-9.014257431030273438e+00,1.358315706253051758e+00,-6.251996517181396484e+00,6.398686170578002930e-01,-6.236620426177978516e+00,2.322411775588989258e+00,-7.183454632759094238e-01,-1.089414000511169434e+00,5.916700839996337891e+00,-1.273224949836730957e+00,-4.054903030395507812e+00,5.891263484954833984e-01,7.146522998809814453e+00,-3.778896331787109375e-01
6.652376651763916016e+00,-4.174437046051025391e+00,1.830273032188415527e+00,-5.327640533447265625e+00,2.980649471282958984e+00,-5.431342601776123047e+00,5.898855209350585938e+00,-6.792586803436279297e+00,2.614870309829711914e+00,-4.578583240509033203e+00,1.796155214309692383e+00,-2.351447343826293945e+00,3.464299917221069336e+00,3.501755297183990479e-01,-1.422793030738830566e+00,6.211149215698242188e+00,-2.681497931480407715e-01,-2.641646623611450195e+00,1.404161334037780762e+00,6.975475788116455078e+00,-3.907371461391448975e-01
7.263742923736572266e+00,-2.196132659912109375e+00,2.750213146209716797e+00,-3.937113523483276367e+00,3.325346469879150391e+00,-4.578432083129882812e+00,7.307382583618164062e+00,-4.020448207855224609e+00,3.482847452163696289e+00,-2.899318456649780273e+00,2.551159858703613281e+00,1.206292748451232910e+00,4.178567409515380859e+00,1.244345784187316895e+00,-1.881392478942871094e+00,6.303462505340576172e+00,8.465934991836547852e-01,-1.386783242225646973e+00,1.904669404029846191e+00,6.662459373474121094e+00,-3.958697617053985596e-01
7.857515811920166016e+00,-1.191682592034339905e-01,3.570920944213867188e+00,-2.329073905944824219e+00,3.505902051925659180e+00,-3.097287416458129883e+00,8.068812370300292969e+00,-1.221578478813171387e+00,4.078360080718994141e+00,-1.345267295837402344e+00,2.714645147323608398e+00,3.666168689727783203e+00,4.371231555938720703e+00,1.803513526916503906e+00,-2.476595878601074219e+00,6.101327896118164062e+00,2.098099231719970703e+00,-3.652113974094390869e-01,2.014070034027099609e+00,6.216881275177001953e+00,-3.907371461391448975e-01
8.526060104370117188e+00,1.905063986778259277e+00,4.414977550506591797e+00,-6.122779250144958496e-01,3.809563636779785156e+00,-1.163928389549255371e+00,8.209075927734375000e+00,1.063455581665039062e+00,4.572704315185546875e+00,-5.366271361708641052e-03,2.335161209106445312e+00,4.653053760528564453e+00,4.108080387115478516e+00,2.006507635116577148e+00,-3.136849164962768555e+00,5.625435829162597656e+00,3.487657546997070312e+00,4.353472888469696045e-01,1.788431167602539062e+00,5.647294044494628906e+00,-3.735858798027038574e-01
9.314825057983398438e+00,3.680944919586181641e+00,5.381615161895751953e+00,1.030719161033630371e+00,4.451766967773437500e+00,8.996569514274597168e-01,7.886116504669189453e+00,2.406952619552612305e+00,5.141775608062744141e+00,1.061873674392700195e+00,1.694100737571716309e+00,4.166031360626220703e+00,3.562981605529785156e+00,1.933031201362609863e+00,-3.748314857482910156e+00,5.015848636627197266e+00,4.968821048736572266e+00,1.081196784973144531e+00,1.372708678245544434e+00,4.975933551788330078e+00,-3.446948826313018799e-01
1.021941280364990234e+01,5.034969329833984375e+00,6.515196323394775391e+00,2.422540903091430664e+00,5.502272129058837891e+00,2.764325141906738281e+00,7.386354446411132812e+00,2.661395311355590820e+00,5.925828933715820312e+00,1.861133456230163574e+00,1.210580706596374512e+00,2.583896636962890625e+00,2.993212223052978516e+00,1.748717546463012695e+00,-4.176015853881835938e+00,4.473108768463134766e+00,6.474498748779296875e+00,1.682843685150146484e+00,9.692936539649963379e-01,4.225891113281250000e+00,-3.067978918552398682e-01
1.121343231201171875e+01,5.883785724639892578e+00,7.839069366455078125e+00,3.516577482223510742e+00,6.913887977600097656e+00,4.242608070373535156e+00,7.090504646301269531e+00,2.090136766433715820e+00,7.013386726379394531e+00,2.505924224853515625e+00,1.254176855087280273e+00,5.633497238159179688e-01,2.633728981018066406e+00,1.657806158065795898e+00,-4.314246177673339844e+00,4.194576740264892578e+00,7.967274188995361328e+00,2.370440006256103516e+00,7.805775403976440430e-01,3.421113967895507812e+00,-2.643739879131317139e-01
1.225436782836914062e+01,6.252910614013671875e+00,9.319378852844238281e+00,4.393101692199707031e+00,8.538887977600097656e+00,5.281555652618408203e+00,7.253163337707519531e+00,1.191172003746032715e+00,8.356163978576660156e+00,3.131991624832153320e+00,1.881365656852722168e+00,-1.249914526939392090e+00,2.567941188812255859e+00,1.796041369438171387e+00,-4.172763347625732422e+00,4.270974159240722656e+00,9.405860900878906250e+00,3.205378532409667969e+00,8.886106610298156738e-01,2.579561471939086914e+00,-2.222130894660949707e-01
1.328943824768066406e+01,6.247807502746582031e+00,1.085455799102783203e+01,5.206184387207031250e+00,1.019466400146484375e+01,5.908359050750732422e+00,7.893188476562500000e+00,5.001174807548522949e-01,9.763321876525878906e+00,3.845825433731079102e+00,2.814717769622802734e+00,-2.366122245788574219e+00,2.686594247817993164e+00,2.195802688598632812e+00,-3.870282888412475586e+00,4.646594524383544922e+00,1.072703742980957031e+01,4.142228603363037109e+00,1.231855273246765137e+00,1.695247173309326172e+00,-1.838379055261611938e-01
1.427026271820068359e+01,6.023271083831787109e+00,1.230568218231201172e+01,6.117665767669677734e+00,1.172938632965087891e+01,6.206018924713134766e+00,8.838493347167968750e+00,4.149731993675231934e-01,1.096584320068359375e+01,4.686042785644531250e+00,3.615300178527832031e+00,-2.544054985046386719e+00,2.770003795623779297e+00,2.799803495407104492e+00,-3.572681188583374023e+00,5.167051792144775391e+00,1.183920097351074219e+01,5.049610614776611328e+00,1.640740275382995605e+00,7.322511076927185059e-01,-1.506431698799133301e-01
1.513673210144042969e+01,5.706878185272216797e+00,1.348012351989746094e+01,7.172861099243164062e+00,1.300558567047119141e+01,6.230347156524658203e+00,9.739007949829101562e+00,1.028803825378417969e+00,1.165792560577392578e+01,5.569558143615722656e+00,3.821390628814697266e+00,-1.877265334129333496e+00,2.563242197036743164e+00,3.463581800460815430e+00,-3.442582130432128906e+00,5.627027511596679688e+00,1.260429668426513672e+01,5.711421966552734375e+00,1.899199366569519043e+00,-3.487675786018371582e-01,-1.219514384865760803e-01
1.581553840637207031e+01,5.339454650878906250e+00,1.417474842071533203e+01,8.235824584960937500e+00,1.392272663116455078e+01,5.975618839263916016e+00,1.019869422912597656e+01,2.094097137451171875e+00,1.159009742736816406e+01,6.295094490051269531e+00,3.134752750396728516e+00,-7.509687542915344238e-01,1.880693912506103516e+00,3.999087572097778320e+00,-3.577559947967529297e+00,5.835528850555419922e+00,1.286104869842529297e+01,5.879637718200683594e+00,1.808943748474121094e+00,-1.564058303833007812e+00,-9.603324532508850098e-02
1.624950599670410156e+01,4.880175113677978516e+00,1.425646877288818359e+01,9.067033767700195312e+00,1.442540931701660156e+01,5.426092624664306641e+00,9.960600852966308594e+00,3.193051815032958984e+00,1.066693782806396484e+01,6.647330284118652344e+00,1.585110664367675781e+00,3.230486810207366943e-01,7.141354680061340332e-01,4.263104438781738281e+00,-3.956473588943481445e+00,5.703424930572509766e+00,1.251140117645263672e+01,5.377446651458740234e+00,1.298863172531127930e+00,-2.885398387908935547e+00,-7.144603133201599121e-02
1.645476150512695312e+01,4.288214683532714844e+00,1.373462486267089844e+01,9.485227584838867188e+00,1.452594566345214844e+01,4.669063091278076172e+00,9.023546218872070312e+00,3.988061666488647461e+00,9.028702735900878906e+00,6.532649040222167969e+00,-4.421065151691436768e-01,9.898383021354675293e-01,-7.120497226715087891e-01,4.236951828002929688e+00,-4.416699409484863281e+00,5.313479900360107422e+00,1.161341381072998047e+01,4.209760665893554688e+00,4.934007525444030762e-01,-4.239237308502197266e+00,-4.786302521824836731e-02
1.648994827270507812e+01,3.558470487594604492e+00,1.276565170288085938e+01,9.446385383605957031e+00,1.431051063537597656e+01,3.909171342849731445e+00,7.599696159362792969e+00,4.372200965881347656e+00,6.991543769836425781e+00,6.017752170562744141e+00,-2.387085676193237305e+00,1.205375552177429199e+00,-2.060699224472045898e+00,4.022749423980712891e+00,-4.748452186584472656e+00,4.847137928009033203e+00,1.037093925476074219e+01,2.554617643356323242e+00,-3.571894466876983643e-01,-5.519526004791259766e+00,-2.622467838227748871e-02
1.642543792724609375e+01,2.738571405410766602e+00,1.157253170013427734e+01,9.043728828430175781e+00,1.389194965362548828e+01,3.386835336685180664e+00,5.997864723205566406e+00,4.415762901306152344e+00,4.923344135284423828e+00,5.267641544342041016e+00,-3.727664709091186523e+00,1.100817084312438965e+00,-3.034593582153320312e+00,3.766204833984375000e+00,-4.806996822357177734e+00,4.501758098602294922e+00,9.040730476379394531e+00,6.846010088920593262e-01,-1.008123397827148438e+00,-6.592847824096679688e+00,-8.021371439099311829e-03
1.631548118591308594e+01,1.944187760353088379e+00,1.040626239776611328e+01,8.476641654968261719e+00,1.342414665222167969e+01,3.318144559860229492e+00,4.537475109100341797e+00,4.313787937164306641e+00,3.155200481414794922e+00,4.501148223876953125e+00,-4.136873245239257812e+00,9.393934011459350586e-01,-3.482185363769531250e+00,3.600571632385253906e+00,-4.556555747985839844e+00,4.404669761657714844e+00,7.865347385406494141e+00,-1.090871214866638184e+00,-1.300770163536071777e+00,-7.371112823486328125e+00,5.607199855148792267e-03
1.618206596374511719e+01,1.330114006996154785e+00,9.453634262084960938e+00,7.947102546691894531e+00,1.302405166625976562e+01,3.824738979339599609e+00,3.398866176605224609e+00,4.248444557189941406e+00,1.865306258201599121e+00,3.896144866943359375e+00,-3.649389982223510742e+00,9.742462635040283203e-01,-3.462213993072509766e+00,3.604307651519775391e+00,-4.096330165863037109e+00,4.581338405609130859e+00,6.991873741149902344e+00,-2.526228666305541992e+00,-1.236497282981872559e+00,-7.830374717712402344e+00,1.451757550239562988e-02
1.598414039611816406e+01,1.022226572036743164e+00,8.791697502136230469e+00,7.578107833862304688e+00,1.274706363677978516e+01,4.849376201629638672e+00,2.596182346343994141e+00,4.276165962219238281e+00,1.061709046363830566e+00,3.522844791412353516e+00,-2.603084325790405273e+00,1.261323451995849609e+00,-3.193189144134521484e+00,3.766204833984375000e+00,-3.595448493957519531e+00,4.953775882720947266e+00,6.431921482086181641e+00,-3.497458696365356445e+00,-9.534230828285217285e-01,-7.950963020324707031e+00,1.965020596981048584e-02
1.567332649230957031e+01,1.059649348258972168e+00,8.420453071594238281e+00,7.363184452056884766e+00,1.258497333526611328e+01,6.148777008056640625e+00,2.048094272613525391e+00,4.266265392303466797e+00,6.443902850151062012e-01,3.340290546417236328e+00,-1.462650775909423828e+00,1.647456169128417969e+00,-2.917115211486816406e+00,4.016522884368896484e+00,-3.206777334213256836e+00,5.404201984405517578e+00,6.110658645629882812e+00,-3.987371206283569336e+00,-6.347936391830444336e-01,-7.707220554351806641e+00,2.258313819766044617e-02
1.525255393981933594e+01,1.401557445526123047e+00,8.311881065368652344e+00,7.244070529937744141e+00,1.252342033386230469e+01,7.369469165802001953e+00,1.643805742263793945e+00,4.009842872619628906e+00,5.052840113639831543e-01,3.268907308578491211e+00,-6.164907813072204590e-01,1.913438200950622559e+00,-2.758519649505615234e+00,4.301710605621337891e+00,-2.966094017028808594e+00,5.851444721221923828e+00,5.954543113708496094e+00,-4.030345916748046875e+00,-3.913771510124206543e-01,-7.100858211517333984e+00,2.487050741910934448e-02
1.480832386016845703e+01,1.971404314041137695e+00,8.468317985534667969e+00,7.210407733917236328e+00,1.255830097198486328e+01,8.218086242675781250e+00,1.317310214042663574e+00,3.458385229110717773e+00,6.030032634735107422e-01,3.294651985168457031e+00,-2.270986437797546387e-01,2.014328002929687500e+00,-2.649265050888061523e+00,4.626750469207763672e+00,-2.767692804336547852e+00,6.301870822906494141e+00,5.972606182098388672e+00,-3.636205911636352539e+00,-1.958234459161758423e-01,-6.191741943359375000e+00,2.740494348108768463e-02
1.446378898620605469e+01,2.685839176177978516e+00,8.881589889526367188e+00,7.286796092987060547e+00,1.268756198883056641e+01,8.571557998657226562e+00,1.061535835266113281e+00,2.729708909988403320e+00,9.467451572418212891e-01,3.453801870346069336e+00,-2.033189833164215088e-01,2.084033727645874023e+00,-2.395512104034423828e+00,5.051418781280517578e+00,-2.429435014724731445e+00,6.822328090667724609e+00,6.219036579132080078e+00,-2.819684982299804688e+00,8.451576530933380127e-02,-5.109012603759765625e+00,3.021035715937614441e-02
1.432597541809082031e+01,3.478521823883056641e+00,9.506169319152832031e+00,7.495245933532714844e+00,1.289479064941406250e+01,8.502866744995117188e+00,8.635168671607971191e-01,2.057465314865112305e+00,1.516965746879577637e+00,3.780292987823486328e+00,-3.360888063907623291e-01,2.393123149871826172e+00,-1.811645507812500000e+00,5.601869106292724609e+00,-1.809837937355041504e+00,7.435098648071289062e+00,6.715768337249755859e+00,-1.660593986511230469e+00,5.672461986541748047e-01,-4.067335128784179688e+00,3.274479135870933533e-02
1.440807723999023438e+01,4.288214683532714844e+00,1.021830558776855469e+01,7.808567523956298828e+00,1.311432933807373047e+01,8.226673126220703125e+00,6.819995045661926270e-01,1.728768825531005859e+00,2.209048032760620117e+00,4.258912563323974609e+00,-4.361616075038909912e-01,3.200241327285766602e+00,-8.401009440422058105e-01,6.241985321044921875e+00,-8.747504353523254395e-01,8.100392341613769531e+00,7.391839504241943359e+00,-3.406544029712677002e-01,1.267410516738891602e+00,-3.314727067947387695e+00,3.434674814343452454e-02
1.461039924621582031e+01,5.050278663635253906e+00,1.082186985015869141e+01,8.111531257629394531e+00,1.323538398742675781e+01,7.994841098785400391e+00,5.051969289779663086e-01,1.853515028953552246e+00,2.841349124908447266e+00,4.757426261901855469e+00,-4.074278473854064941e-01,4.469617843627929688e+00,4.157408773899078369e-01,6.833532810211181641e+00,2.701218724250793457e-01,8.684514045715332031e+00,8.056298255920410156e+00,8.528165817260742188e-01,2.053727865219116211e+00,-2.996579170227050781e+00,3.481697291135787964e-02
1.475407791137695312e+01,5.667754650115966797e+00,1.111256217956542969e+01,8.229351043701171875e+00,1.314715766906738281e+01,7.950478553771972656e+00,3.272156119346618652e-01,2.289136886596679688e+00,3.209233522415161133e+00,5.048810958862304688e+00,-2.905111014842987061e-01,5.812368869781494141e+00,1.718573927879333496e+00,7.173516750335693359e+00,1.423125386238098145e+00,8.998061180114746094e+00,8.462715148925781250e+00,1.600577712059020996e+00,2.689619064331054688e+00,-3.106049299240112305e+00,3.452208638191223145e-02
1.466611194610595703e+01,6.013064861297607422e+00,1.096079540252685547e+01,7.996301651000976562e+00,1.281477165222167969e+01,8.070687294006347656e+00,1.869522184133529663e-01,2.672286033630371094e+00,3.190839290618896484e+00,4.892001152038574219e+00,-1.765668392181396484e-01,6.628658771514892578e+00,2.824043750762939453e+00,7.080114364624023438e+00,2.389111518859863281e+00,8.907339096069335938e+00,8.409816741943359375e+00,1.659514546394348145e+00,2.943975687026977539e+00,-3.494326591491699219e+00,3.426704928278923035e-02
1.425853443145751953e+01,5.948425292968750000e+00,1.036540222167968750e+01,7.323048114776611328e+00,1.228541564941406250e+01,8.185172080993652344e+00,1.669145971536636353e-01,2.611892938613891602e+00,2.806859970092773438e+00,4.124337673187255859e+00,-9.036552906036376953e-02,6.409452915191650391e+00,3.599399805068969727e+00,6.483585834503173828e+00,3.081889390945434570e+00,8.388473510742187500e+00,7.822770118713378906e+00,9.596395492553710938e-01,2.723806858062744141e+00,-3.951878070831298828e+00,3.488073125481605530e-02
1.358119297027587891e+01,5.412599086761474609e+00,9.472312927246093750e+00,6.278211116790771484e+00,1.170476531982421875e+01,8.096446037292480469e+00,3.731842935085296631e-01,1.916878223419189453e+00,2.236639499664306641e+00,2.771564006805419922e+00,7.906463742256164551e-02,4.996996402740478516e+00,4.086934089660644531e+00,5.483559608459472656e+00,3.564882278442382812e+00,7.568793773651123047e+00,6.818985462188720703e+00,-3.480215072631835938e-01,2.133043289184570312e+00,-4.310222148895263672e+00,3.679351508617401123e-02
1.280708980560302734e+01,4.470225334167480469e+00,8.532526969909667969e+00,5.079302310943603516e+00,1.126363563537597656e+01,7.705767631530761719e+00,8.670529127120971680e-01,7.763412594795227051e-01,1.730798482894897461e+00,1.072405695915222168e+00,5.080896019935607910e-01,2.748988866806030273e+00,4.455815792083740234e+00,4.329108715057373047e+00,4.012097835540771484e+00,6.687040805816650391e+00,5.679728031158447266e+00,-1.934404730796813965e+00,1.438349008560180664e+00,-4.549688339233398438e+00,3.982208669185638428e-02
1.216786766052246094e+01,3.339036941528320312e+00,7.814553260803222656e+00,4.043527603149414062e+00,1.110770130157470703e+01,7.077533245086669922e+00,1.644984364509582520e+00,-2.404395192861557007e-01,1.528462171554565430e+00,-5.530288815498352051e-01,1.365148663520812988e+00,5.055674314498901367e-01,4.917504787445068359e+00,3.370179414749145508e+00,4.628442764282226562e+00,6.013789176940917969e+00,4.767548084259033203e+00,-3.380812883377075195e+00,9.720286726951599121e-01,-4.778036117553710938e+00,4.328900203108787537e-02
1.185558700561523438e+01,2.304807186126708984e+00,7.520359039306640625e+00,3.459609985351562500e+00,1.128210163116455078e+01,6.356280326843261719e+00,2.640972375869750977e+00,-4.988424181938171387e-01,1.756090521812438965e+00,-1.667077660560607910e+00,2.663122415542602539e+00,-8.674505352973937988e-01,5.604752540588378906e+00,2.908149957656860352e+00,5.544015407562255859e+00,5.749581813812255859e+00,4.399837493896484375e+00,-4.331169605255126953e+00,9.857037663459777832e-01,-5.163747787475585938e+00,4.620599374175071716e-02
1.194062042236328125e+01,1.598877549171447754e+00,7.705981731414794922e+00,3.442778587341308594e+00,1.172323131561279297e+01,5.655061721801757812e+00,3.735970020294189453e+00,3.407194912433624268e-01,2.387242078781127930e+00,-1.992398619651794434e+00,4.197902202606201172e+00,-9.362390041351318359e-01,6.504635334014892578e+00,3.088727712631225586e+00,6.749058246612548828e+00,5.938983440399169922e+00,4.708198070526123047e+00,-4.608663558959960938e+00,1.542279720306396484e+00,-5.816293239593505859e+00,4.765652120113372803e-02
1.235846138000488281e+01,1.306299448013305664e+00,8.280360221862792969e+00,3.910171747207641602e+00,1.228746700286865234e+01,4.993913173675537109e+00,4.812108516693115234e+00,2.146569728851318359e+00,3.293157100677490234e+00,-1.493885159492492676e+00,5.665306091308593750e+00,1.176004260778427124e-01,7.503200054168701172e+00,3.879532814025878906e+00,8.121603965759277344e+00,6.519921779632568359e+00,5.611346721649169922e+00,-4.237852573394775391e+00,2.529620647430419922e+00,-6.714291095733642578e+00,4.713847488164901733e-02
1.295370006561279297e+01,1.340320229530334473e+00,9.047366142272949219e+00,4.600256443023681641e+00,1.281682300567626953e+01,4.308436393737792969e+00,5.785701751708984375e+00,4.334578990936279297e+00,4.297941207885742188e+00,-3.962195217609405518e-01,6.756198883056640625e+00,1.573164582252502441e+00,8.446549415588378906e+00,5.099987983703613281e+00,9.476261138916015625e+00,7.345968246459960938e+00,6.842209339141845703e+00,-3.425015449523925781e+00,3.719352960586547852e+00,-7.702944278717041016e+00,4.477140679955482483e-02
1.353867626190185547e+01,1.490011334419250488e+00,9.770009994506835938e+00,5.169932365417480469e+00,1.321076297760009766e+01,3.489871501922607422e+00,6.629639148712158203e+00,6.121618270874023438e+00,5.255589962005615234e+00,9.214473962783813477e-01,7.317993640899658203e+00,2.609577655792236328e+00,9.221905708312988281e+00,6.509738445281982422e+00,1.065853691101074219e+01,8.285018920898437500e+00,8.029204368591308594e+00,-2.452557802200317383e+00,4.888572692871093750e+00,-8.554759979248046875e+00,4.132840037345886230e-02
1.399023723602294922e+01,1.539341330528259277e+00,1.027784442901611328e+01,5.364140033721923828e+00,1.345902633666992188e+01,2.518183231353759766e+00,7.372210025787353516e+00,6.979001045227050781e+00,6.107471942901611328e+00,2.126773357391357422e+00,7.437882423400878906e+00,2.852630138397216797e+00,9.829268455505371094e+00,7.951868057250976562e+00,1.160826110839843750e+01,9.290918350219726562e+00,8.861391067504882812e+00,-1.540264606475830078e+00,5.927878856658935547e+00,-9.084151268005371094e+00,3.800494223833084106e-02
1.428052616119384766e+01,1.401557445526123047e+00,1.052650833129882812e+01,5.156985282897949219e+00,1.362727165222167969e+01,1.577978372573852539e+00,8.090028762817382812e+00,7.000782012939453125e+00,6.893824577331542969e+00,3.107417106628417969e+00,7.405185699462890625e+00,2.662774085998535156e+00,1.037906551361083984e+01,9.426377296447753906e+00,1.238885593414306641e+01,1.043210315704345703e+01,9.212328910827636719e+00,-7.470729947090148926e-01,6.886502265930175781e+00,-9.205595016479492188e+00,3.594870120286941528e-02
1.443153476715087891e+01,1.131092786788940430e+00,1.056736850738525391e+01,4.710307598114013672e+00,1.378320598602294922e+01,9.883825182914733887e-01,8.837314605712890625e+00,6.727528572082519531e+00,7.685925006866455078e+00,3.938272714614868164e+00,7.550836086273193359e+00,2.853547334671020508e+00,1.098995208740234375e+01,1.100923252105712891e+01,1.308651256561279297e+01,1.179293155670166016e+01,9.133625984191894531e+00,-5.397298955358564854e-04,7.880681037902832031e+00,-8.908827781677246094e+00,3.583712503314018250e-02
1.446965312957763672e+01,8.878447413444519043e-01,1.051833629608154297e+01,4.303766250610351562e+00,1.396581363677978516e+01,1.059935450553894043e+00,9.630568504333496094e+00,6.879995822906494141e+00,8.536657333374023438e+00,4.808915615081787109e+00,8.083897590637207031e+00,4.213725090026855469e+00,1.170539474487304688e+01,1.276643943786621094e+01,1.374188709259033203e+01,1.339886760711669922e+01,8.817523956298828125e+00,8.417658805847167969e-01,8.985627174377441406e+00,-8.234045982360839844e+00,3.755862638354301453e-02
1.442420387268066406e+01,8.623291850090026855e-01,1.053117847442626953e+01,4.229967117309570312e+00,1.417098999023437500e+01,1.958639740943908691e+00,1.046861362457275391e+01,7.945289134979248047e+00,9.467864990234375000e+00,5.903070926666259766e+00,9.002387046813964844e+00,6.981772899627685547e+00,1.245725536346435547e+01,1.466063594818115234e+01,1.430293941497802734e+01,1.514964103698730469e+01,8.523355484008789062e+00,1.924730300903320312e+00,1.016168498992919922e+01,-7.264208316802978516e+00,4.033216089010238647e-02
1.431131362915039062e+01,1.175319790840148926e+00,1.074481964111328125e+01,4.659813404083251953e+00,1.438437366485595703e+01,3.635839462280273438e+00,1.135498332977294922e+01,9.856084823608398438e+00,1.045770359039306641e+01,7.249993324279785156e+00,1.012102222442626953e+01,1.059821224212646484e+01,1.308811283111572266e+01,1.649879074096679688e+01,1.461355113983154297e+01,1.681446647644042969e+01,8.464005470275878906e+00,3.298695325851440430e+00,1.124064922332763672e+01,-6.092534542083740234e+00,4.297817498445510864e-02
1.413244915008544922e+01,1.806403875350952148e+00,1.121296119689941406e+01,5.558347702026367188e+00,1.456287765502929688e+01,5.821064472198486328e+00,1.224017524719238281e+01,1.198271083831787109e+01,1.141075325012207031e+01,8.667128562927246094e+00,1.111580562591552734e+01,1.390372848510742188e+01,1.338063335418701172e+01,1.795212936401367188e+01,1.445092678070068359e+01,1.806069946289062500e+01,8.720757484436035156e+00,4.848242759704589844e+00,1.195448875427246094e+01,-4.840468406677246094e+00,4.442073032259941101e-02
1.392426204681396484e+01,2.616096735000610352e+00,1.191926002502441406e+01,6.735246181488037109e+00,1.468598365783691406e+01,8.092153549194335938e+00,1.307939815521240234e+01,1.347768592834472656e+01,1.220860290527343750e+01,9.861922264099121094e+00,1.169048118591308594e+01,1.574267292022705078e+01,1.317504692077636719e+01,1.869561004638671875e+01,1.364105987548828125e+01,1.858752250671386719e+01,9.243293762207031250e+00,6.351132392883300781e+00,1.207072639465332031e+01,-3.686754703521728516e+00,4.414178431034088135e-02
1.375712585449218750e+01,3.400274038314819336e+00,1.278783321380615234e+01,7.956165313720703125e+00,1.474753665924072266e+01,1.003553009033203125e+01,1.379250240325927734e+01,1.371034717559814453e+01,1.273398685455322266e+01,1.057458591461181641e+01,1.166571044921875000e+01,1.553814220428466797e+01,1.242905998229980469e+01,1.855488395690917969e+01,1.213353633880615234e+01,1.823736763000488281e+01,9.921945571899414062e+00,7.554426193237304688e+00,1.149910831451416016e+01,-2.861451864242553711e+00,4.230870306491851807e-02
1.373806667327880859e+01,4.002440929412841797e+00,1.371827983856201172e+01,9.079980850219726562e+00,1.475369167327880859e+01,1.138072395324707031e+01,1.427458381652832031e+01,1.265297412872314453e+01,1.292367744445800781e+01,1.073373603820800781e+01,1.103455829620361328e+01,1.358730125427246094e+01,1.124840450286865234e+01,1.759097290039062500e+01,1.005682849884033203e+01,1.708822441101074219e+01,1.066510772705078125e+01,8.289908409118652344e+00,1.034356307983398438e+01,-2.594618082046508789e+00,3.967862576246261597e-02
1.396677875518798828e+01,4.349452018737792969e+00,1.464639282226562500e+01,1.010410213470458984e+01,1.473317432403564453e+01,1.203614807128906250e+01,1.449853420257568359e+01,1.090256690979003906e+01,1.281791114807128906e+01,1.050437259674072266e+01,1.000212383270263672e+01,1.086602878570556641e+01,9.889182090759277344e+00,1.611521911621093750e+01,7.703660964965820312e+00,1.542498970031738281e+01,1.146374893188476562e+01,8.547757148742675781e+00,8.903576850891113281e+00,-3.022236108779907227e+00,3.719200938940048218e-02
1.449164485931396484e+01,4.432802677154541016e+00,1.553831386566162109e+01,1.106866741180419922e+01,1.472086334228515625e+01,1.201754474639892578e+01,1.448321151733398438e+01,9.294726371765136719e+00,1.252705192565917969e+01,1.016383934020996094e+01,8.834938049316406250e+00,8.469438552856445312e+00,8.634514808654785156e+00,1.453360843658447266e+01,5.428552150726318359e+00,1.363601779937744141e+01,1.235141468048095703e+01,8.447073936462402344e+00,7.525128841400146484e+00,-4.146872043609619141e+00,3.558208420872688293e-02
1.530240154266357422e+01,4.283111572265625000e+00,1.641389083862304688e+01,1.199956989288330078e+01,1.479062366485595703e+01,1.141077613830566406e+01,1.435591316223144531e+01,8.571000099182128906e+00,1.222469711303710938e+01,9.988306045532226562e+00,7.821330070495605469e+00,7.180800914764404297e+00,7.736981391906738281e+00,1.322348785400390625e+01,3.553498744964599609e+00,1.210329627990722656e+01,1.336552143096923828e+01,8.172035217285156250e+00,6.514540195465087891e+00,-5.829121589660644531e+00,3.506404161453247070e-02
1.632427787780761719e+01,3.925894021987915039e+00,1.732215690612792969e+01,1.281394672393798828e+01,1.503683567047119141e+01,1.031744766235351562e+01,1.434648418426513672e+01,9.016522407531738281e+00,1.208214187622070312e+01,1.010883903503417969e+01,7.220892906188964844e+00,7.137693881988525391e+00,7.342254638671875000e+00,1.239781188964843750e+01,2.267143487930297852e+00,1.107511425018310547e+01,1.447252368927001953e+01,7.892085075378417969e+00,6.027707099914550781e+00,-7.797875404357910156e+00,3.531110659241676331e-02
1.743412017822265625e+01,3.357748270034790039e+00,1.829930114746093750e+01,1.332795047760009766e+01,1.554157066345214844e+01,8.839165687561035156e+00,1.469537448883056641e+01,1.031744766235351562e+01,1.220170497894287109e+01,1.044586181640625000e+01,7.163425445556640625e+00,7.843922138214111328e+00,7.420965194702148438e+00,1.202171230316162109e+01,1.556476950645446777e+00,1.057694053649902344e+01,1.553823852539062500e+01,7.678439140319824219e+00,6.008562088012695312e+00,-9.707618713378906250e+00,3.568569570779800415e-02
1.847945404052734375e+01,2.548055410385131836e+00,1.930329704284667969e+01,1.334996032714843750e+01,1.632944869995117188e+01,7.094706058502197266e+00,1.552163219451904297e+01,1.179460144042968750e+01,1.255234432220458984e+01,1.077118301391601562e+01,7.601367950439453125e+00,8.540978431701660156e+00,7.780448436737060547e+00,1.186728763580322266e+01,1.224724173545837402e+00,1.043369483947753906e+01,1.634978294372558594e+01,7.480754852294921875e+00,6.231465816497802734e+00,-1.126500320434570312e+01,3.555817529559135437e-02
1.931659889221191406e+01,1.491712331771850586e+00,2.021739959716796875e+01,1.278416824340820312e+01,1.733276367187500000e+01,5.245779514312744141e+00,1.674746322631835938e+01,1.275791931152343750e+01,1.297541141510009766e+01,1.084022617340087891e+01,8.337547302246093750e+00,8.619855880737304688e+00,8.134057998657226562e+00,1.164436817169189453e+01,9.791620969772338867e-01,1.037003040313720703e+01,1.669426918029785156e+01,7.184843063354492188e+00,6.396934509277343750e+00,-1.227760314941406250e+01,3.460178524255752563e-02
1.981067657470703125e+01,2.312450408935546875e-01,2.085365295410156250e+01,1.168883705139160156e+01,1.839147567749023438e+01,3.488440513610839844e+00,1.810766410827636719e+01,1.278960132598876953e+01,1.324442672729492188e+01,1.049852180480957031e+01,9.098496437072753906e+00,7.826495647430419922e+00,8.205719947814941406e+00,1.110886192321777344e+01,5.417038202285766602e-01,1.011537265777587891e+01,1.643235588073730469e+01,6.674057006835937500e+00,6.239670753479003906e+00,-1.267870903015136719e+01,3.293607011437416077e-02
1.986639022827148438e+01,-1.124480247497558594e+00,2.101826095581054688e+01,1.027241611480712891e+01,1.928194236755371094e+01,2.030192613601684570e+00,1.918380355834960938e+01,1.188073539733886719e+01,1.314095878601074219e+01,9.748411178588867188e+00,9.580035209655761719e+00,6.241609096527099609e+00,7.814517021179199219e+00,1.014744186401367188e+01,-2.567796111106872559e-01,9.497827529907226562e+00,1.556404304504394531e+01,5.905422687530517578e+00,5.614719390869140625e+00,-1.252220058441162109e+01,3.099937923252582550e-02
1.947054100036621094e+01,-2.376442432403564453e+00,2.061783027648925781e+01,8.833984375000000000e+00,1.981540298461914062e+01,1.052780151367187500e+00,1.960812950134277344e+01,1.042635345458984375e+01,1.258568382263183594e+01,8.765427589416503906e+00,9.613722801208496094e+00,4.258666515350341797e+00,6.965149879455566406e+00,8.828602790832519531e+00,-1.409783124923706055e+00,8.501478195190429688e+00,1.425189685821533203e+01,4.973483562469482422e+00,4.557635784149169922e+00,-1.192439079284667969e+01,2.944524399936199188e-02
1.869203758239746094e+01,-3.312011957168579102e+00,1.971890449523925781e+01,7.655790805816650391e+00,1.990567970275878906e+01,6.349112391471862793e-01,1.920030403137207031e+01,8.959099769592285156e+00,1.167746925354003906e+01,7.818719863891601562e+00,9.235229492187500000e+00,2.324334621429443359e+00,5.844408035278320312e+00,7.337904453277587891e+00,-2.754682779312133789e+00,7.247288227081298828e+00,1.277976512908935547e+01,4.079608440399169922e+00,3.254400014877319336e+00,-1.103494453430175781e+01,2.879171073436737061e-02
1.770241737365722656e+01,-3.769590377807617188e+00,1.853512382507324219e+01,6.921685695648193359e+00,1.959996795654296875e+01,7.465337514877319336e-01,1.801101303100585938e+01,7.893806457519531250e+00,1.065084266662597656e+01,7.144673347473144531e+00,8.604077339172363281e+00,7.348623275756835938e-01,4.724840641021728516e+00,5.890793323516845703e+00,-4.078441619873046875e+00,5.900784492492675781e+00,1.144955635070800781e+01,3.442353725433349609e+00,1.952532172203063965e+00,-1.002320003509521484e+01,2.918223664164543152e-02
1.671866035461425781e+01,-3.669229269027709961e+00,1.736535263061523438e+01,6.711941242218017578e+00,1.908086967468261719e+01,1.304646253585815430e+00,1.631252861022949219e+01,7.401751995086669922e+00,9.781716346740722656e+00,6.874352931976318359e+00,7.932301521301269531e+00,-4.006060957908630371e-01,3.864900350570678711e+00,4.652903079986572266e+00,-5.194041728973388672e+00,4.602029323577880859e+00,1.051028251647949219e+01,3.226252079010009766e+00,8.680980205535888672e-01,-9.062769889831542969e+00,3.032990545034408569e-02
1.595481872558593750e+01,-3.026237964630126953e+00,1.648393821716308594e+01,7.026557922363281250e+00,1.855356597900390625e+01,2.213367938995361328e+00,1.450207042694091797e+01,7.391851425170898438e+00,9.279323577880859375e+00,6.998395919799804688e+00,7.405185699462890625e+00,-1.139852881431579590e+00,3.416133880615234375e+00,3.707672834396362305e+00,-6.003908634185791016e+00,3.430603265762329102e+00,1.009096336364746094e+01,3.465682983398437500e+00,1.296435445547103882e-01,-8.307596206665039062e+00,3.165291249752044678e-02
1.554137706756591797e+01,-1.929069995880126953e+00,1.603680992126464844e+01,7.798209667205810547e+00,1.816578102111816406e+01,3.375386953353881836e+00,1.296270847320556641e+01,7.653224468231201172e+00,9.191951751708984375e+00,7.384568214416503906e+00,7.101004123687744141e+00,-1.581933498382568359e+00,3.375016450881958008e+00,3.053857564926147461e+00,-6.517800331115722656e+00,2.405605077743530273e+00,1.017353630065917969e+01,4.061190605163574219e+00,-2.600963413715362549e-01,-7.843203067779541016e+00,3.248975425958633423e-02
1.545927524566650391e+01,-5.427260994911193848e-01,1.598077297210693359e+01,8.905193328857421875e+00,1.791956901550292969e+01,4.699115276336669922e+00,1.192782402038574219e+01,7.994791507720947266e+00,9.387390136718750000e+00,7.836273193359375000e+00,6.985077857971191406e+00,-1.782795906066894531e+00,3.598224878311157227e+00,2.632925033569335938e+00,-6.818654537200927734e+00,1.507936120033264160e+00,1.059801673889160156e+01,4.794217586517333984e+00,-3.913771510124206543e-01,-7.636236190795898438e+00,3.241005539894104004e-02
1.555897045135498047e+01,9.252675175666809082e-01,1.611736297607421875e+01,1.016495418548583984e+01,1.768156433105468750e+01,6.060051441192626953e+00,1.142806243896484375e+01,8.329428672790527344e+00,9.615018844604492188e+00,8.161594390869140625e+00,6.950399398803710938e+00,-1.754363298416137695e+00,3.882522106170654297e+00,2.365171909332275391e+00,-7.004045486450195312e+00,7.200883030891418457e-01,1.112184238433837891e+01,5.425333023071289062e+00,-4.023172259330749512e-01,-7.529331207275390625e+00,3.126238659024238586e-02
1.560881805419921875e+01,2.231662750244140625e+00,1.619908332824707031e+01,1.133408451080322266e+01,1.726505470275878906e+01,7.257846355438232422e+00,1.134201812744140625e+01,8.651194572448730469e+00,9.617318153381347656e+00,8.211913108825683594e+00,6.910766601562500000e+00,-1.464534521102905273e+00,4.057564735412597656e+00,2.180858373641967773e+00,-7.132518768310546875e+00,2.137069404125213623e-02,1.148826313018798828e+01,5.756852626800537109e+00,-4.132572710514068604e-01,-7.291575908660888672e+00,2.915832586586475372e-02
1.541089344024658203e+01,3.134912490844726562e+00,1.603330802917480469e+01,1.215105152130126953e+01,1.655514335632324219e+01,8.023462295532226562e+00,1.147520923614501953e+01,8.940288543701171875e+00,9.236787796020507812e+00,7.920528888702392578e+00,6.833482742309570312e+00,-9.087236523628234863e-01,4.037593364715576172e+00,2.020206689834594727e+00,-7.199194431304931641e+00,-5.882166028022766113e-01,1.151406669616699219e+01,5.707738399505615234e+00,-4.980427920818328857e-01,-6.737382411956787109e+00,2.643261291086673737e-02
1.488895988464355469e+01,3.483624935150146484e+00,1.558384418487548828e+01,1.245013141632080078e+01,1.559081363677978516e+01,8.142240524291992188e+00,1.168972969055175781e+01,9.134338378906250000e+00,8.487223625183105469e+00,7.324887275695800781e+00,6.749262809753417969e+00,-2.144186198711395264e-01,3.848453521728515625e+00,1.843365073204040527e+00,-7.156912326812744141e+00,-1.111856937408447266e+00,1.116054916381835938e+01,5.335699558258056641e+00,-6.676138043403625488e-01,-5.844515800476074219e+00,2.352358959615230560e-02
1.409872913360595703e+01,3.245479822158813477e+00,1.495226097106933594e+01,1.220025062561035156e+01,1.454646396636962891e+01,7.559799671173095703e+00,1.193136024475097656e+01,9.024442672729492188e+00,7.507731437683105469e+00,6.510414600372314453e+00,6.724492549896240234e+00,2.515086531639099121e-01,3.570030212402343750e+00,1.603010177612304688e+00,-6.958510875701904297e+00,-1.575015902519226074e+00,1.052060413360595703e+01,4.774571895599365234e+00,-9.041928052902221680e-01,-4.740406036376953125e+00,2.082178555428981781e-02
1.317654800415039062e+01,2.514034748077392578e+00,1.428215217590332031e+01,1.150887107849121094e+01,1.363137531280517578e+01,6.429264068603515625e+00,1.217416954040527344e+01,8.340318679809570312e+00,6.467308521270751953e+00,5.561367034912109375e+00,6.779978275299072266e+00,-7.157541695050895214e-04,3.275160074234008789e+00,1.236873626708984375e+00,-6.595859527587890625e+00,-2.012709140777587891e+00,9.754218101501464844e+00,4.161874294281005859e+00,-1.181797027587890625e+00,-3.648269176483154297e+00,1.870975643396377563e-02
1.227196025848388672e+01,1.478103995323181152e+00,1.367391777038574219e+01,1.058314800262451172e+01,1.299122333526611328e+01,5.069759368896484375e+00,1.237454509735107422e+01,6.931478500366210938e+00,5.498163223266601562e+00,4.556148529052734375e+00,6.895904064178466797e+00,-1.311365485191345215e+00,3.020232200622558594e+00,7.312564253807067871e-01,-6.078715801239013672e+00,-2.432894706726074219e+00,9.021377563476562500e+00,3.583556652069091797e+00,-1.449828624725341797e+00,-2.798164367675781250e+00,1.745050773024559021e-02
1.147733116149902344e+01,3.639258146286010742e-01,1.312055301666259766e+01,9.640593528747558594e+00,1.260959529876708984e+01,3.826169967651367188e+00,1.247473335266113281e+01,4.902867317199707031e+00,4.671573638916015625e+00,3.571994066238403320e+00,7.069297790527343750e+00,-3.615320920944213867e+00,2.873384475708007812e+00,1.695979535579681396e-01,-5.398947715759277344e+00,-2.749625444412231445e+00,8.409816741943359375e+00,3.085049152374267578e+00,-1.611194610595703125e+00,-2.299561500549316406e+00,1.714765094220638275e-02
1.081465148925781250e+01,-6.124685406684875488e-01,1.253683471679687500e+01,8.848225593566894531e+00,1.233876132965087891e+01,2.989001274108886719e+00,1.236983108520507812e+01,2.683176517486572266e+00,4.012830734252929688e+00,2.714223384857177734e+00,7.311057567596435547e+00,-6.333841323852539062e+00,2.925075054168701172e+00,-2.525799274444580078e-01,-4.504516124725341797e+00,-2.803740262985229492e+00,7.928567886352539062e+00,2.695820569992065430e+00,-1.507264018058776855e+00,-2.099436283111572266e+00,1.768163591623306274e-02
1.028831958770751953e+01,-1.291181683540344238e+00,1.184687900543212891e+01,8.319981575012207031e+00,1.202689266204833984e+01,2.682754993438720703e+00,1.198322200775146484e+01,9.406894445419311523e-01,3.570219993591308594e+00,2.149007320404052734e+00,7.668743610382080078e+00,-8.479125022888183594e+00,3.313927650451660156e+00,-2.500891983509063721e-01,-3.288089275360107422e+00,-2.381963253021240234e+00,7.550535678863525391e+00,2.487085819244384766e+00,-9.315429329872131348e-01,-2.053253412246704102e+00,1.878148503601551056e-02
9.902733802795410156e+00,-1.607574343681335449e+00,1.104718494415283203e+01,8.080458641052246094e+00,1.160628032684326172e+01,2.824429750442504883e+00,1.128190517425537109e+01,2.258737683296203613e-01,3.415018796920776367e+00,2.034325838088989258e+00,8.145327568054199219e+00,-9.085380554199218750e+00,4.164469718933105469e+00,4.261426329612731934e-01,-1.648840308189392090e+00,-1.317174792289733887e+00,7.239594459533691406e+00,2.550934076309204102e+00,2.855394780635833740e-01,-2.015623092651367188e+00,2.002479322254657745e-02
9.688682556152343750e+00,-1.556543231010437012e+00,1.024165439605712891e+01,8.121889114379882812e+00,1.112821865081787109e+01,3.226556777954101562e+00,1.034720897674560547e+01,7.803014516830444336e-01,3.644946336746215820e+00,2.484860420227050781e+00,8.696223258972167969e+00,-7.589460372924804688e+00,5.546013355255126953e+00,1.903142571449279785e+00,4.587655961513519287e-01,4.383729994297027588e-01,7.004776000976562500e+00,2.978226184844970703e+00,2.220563888549804688e+00,-1.911284327507019043e+00,2.094930410385131836e-02
9.693080902099609375e+00,-1.177212357521057129e+00,9.638089179992675781e+00,8.426148414611816406e+00,1.074453830718994141e+01,3.718840837478637695e+00,9.425477981567382812e+00,2.419823408126831055e+00,4.370368003845214844e+00,3.529866218566894531e+00,9.305578231811523438e+00,-4.107846260070800781e+00,7.472655773162841797e+00,4.124869346618652344e+00,2.994072437286376953e+00,2.798733234405517578e+00,6.919621944427490234e+00,3.840177536010742188e+00,4.810624599456787109e+00,-1.719711303710937500e+00,2.121231146156787872e-02
9.939386367797851562e+00,-5.291178226470947266e-01,9.448964118957519531e+00,8.972518920898437500e+00,1.058039665222167969e+01,4.206831455230712891e+00,8.824349403381347656e+00,4.602882385253906250e+00,5.643017768859863281e+00,5.071044921875000000e+00,9.954565048217773438e+00,5.716043710708618164e-01,9.848064422607421875e+00,6.854703903198242188e+00,5.805840015411376953e+00,5.544263839721679688e+00,7.091219902038574219e+00,5.135560035705566406e+00,7.847860813140869141e+00,-1.413536787033081055e+00,2.067035622894763947e-02
1.039534473419189453e+01,3.094926774501800537e-01,9.803865432739257812e+00,9.731224060058593750e+00,1.064400196075439453e+01,4.697684288024902344e+00,8.804311752319335938e+00,6.680006027221679688e+00,7.407712936401367188e+00,6.911799907684326172e+00,1.064120292663574219e+01,5.319843769073486328e+00,1.248544979095458984e+01,9.751417160034179688e+00,8.646879196166992188e+00,8.391656875610351562e+00,7.596982955932617188e+00,6.767373561859130859e+00,1.102321529388427734e+01,-9.226311445236206055e-01,1.935531944036483765e-02
1.098178768157958984e+01,1.226350784301757812e+00,1.068878269195556641e+01,1.062716865539550781e+01,1.080814266204833984e+01,5.225744724273681641e+00,9.507986068725585938e+00,8.126468658447265625e+00,9.518448829650878906e+00,8.794682502746582031e+00,1.140908813476562500e+01,9.116967201232910156e+00,1.514045715332031250e+01,1.247876071929931641e+01,1.123747825622558594e+01,1.105601501464843750e+01,8.431750297546386719e+00,8.560035705566406250e+00,1.401122093200683594e+01,-1.315375715494155884e-01,1.740268804132938385e-02
1.160928058624267578e+01,2.109188318252563477e+00,1.197296237945556641e+01,1.155548095703125000e+01,1.089636898040771484e+01,5.835375308990478516e+00,1.090354728698730469e+01,8.723467826843261719e+00,1.176829147338867188e+01,1.049267101287841797e+01,1.230974292755126953e+01,1.144660377502441406e+01,1.756520652770996094e+01,1.481132507324218750e+01,1.334996318817138672e+01,1.333838653564453125e+01,9.496175765991210938e+00,1.030112838745117188e+01,1.654658126831054688e+01,1.047833323478698730e+00,1.493998151272535324e-02
1.219572353363037109e+01,2.861045837402343750e+00,1.344393253326416016e+01,1.241646862030029297e+01,1.076300430297851562e+01,6.517989635467529297e+00,1.280005073547363281e+01,8.601692199707031250e+00,1.395030498504638672e+01,1.186533832550048828e+01,1.333722305297851562e+01,1.240413951873779297e+01,1.952826690673828125e+01,1.666193389892578125e+01,1.482658767700195312e+01,1.512258338928222656e+01,1.062253093719482422e+01,1.179173946380615234e+01,1.848707580566406250e+01,2.591534852981567383e+00,1.207877788692712784e-02
1.271912288665771484e+01,3.447903156280517578e+00,1.490906524658203125e+01,1.316611003875732422e+01,1.039163398742675781e+01,7.246397972106933594e+00,1.491696739196777344e+01,8.138348579406738281e+00,1.591618633270263672e+01,1.290449237823486328e+01,1.441622638702392578e+01,1.251878643035888672e+01,2.086869239807128906e+01,1.807666587829589844e+01,1.564783859252929688e+01,1.639746475219726562e+01,1.165728092193603516e+01,1.290785503387451172e+01,1.980945587158203125e+01,4.325098514556884766e+00,9.018327109515666962e-03
1.322786140441894531e+01,3.941203355789184570e+00,1.628080368041992188e+01,1.386784744262695312e+01,9.932038307189941406e+00,8.012014389038085938e+00,1.699852371215820312e+01,7.818562984466552734e+00,1.762684822082519531e+01,1.372832679748535156e+01,1.544667816162109375e+01,1.243807506561279297e+01,2.154184341430664062e+01,1.919998168945312500e+01,1.592592620849609375e+01,1.725216102600097656e+01,1.254752731323242188e+01,1.365070533752441406e+01,2.062312316894531250e+01,5.969717979431152344e+00,6.013665813952684402e-03
1.379964351654052734e+01,4.478730678558349609e+00,1.756615066528320312e+01,1.465503597259521484e+01,9.603754997253417969e+00,8.827716827392578125e+00,1.882312583923339844e+01,8.033403396606445312e+00,1.912367820739746094e+01,1.451471424102783203e+01,1.630076408386230469e+01,1.259949874877929688e+01,2.159705734252929688e+01,2.016264724731445312e+01,1.585274505615234375e+01,1.783309936523437500e+01,1.335132884979248047e+01,1.412833881378173828e+01,2.110175132751464844e+01,7.234612464904785156e+00,3.335771150887012482e-03
1.452389907836914062e+01,5.227186203002929688e+00,1.885850334167480469e+01,1.569598960876464844e+01,9.620169639587402344e+00,9.759335517883300781e+00,2.023283195495605469e+01,9.004642486572265625e+00,2.049059677124023438e+01,1.543801784515380859e+01,1.687048721313476562e+01,1.311311912536621094e+01,2.118705940246582031e+01,2.108421516418457031e+01,1.564783859252929688e+01,1.830899047851562500e+01,1.422222232818603516e+01,1.453230190277099609e+01,2.144636344909667969e+01,7.944458484649658203e+00,1.167951733805239201e-03
1.547393608093261719e+01,6.341364383697509766e+00,2.027577209472656250e+01,1.714607238769531250e+01,1.009412765502929688e+01,1.089273357391357422e+01,2.116281318664550781e+01,1.077584075927734375e+01,2.182417869567871094e+01,1.663164138793945312e+01,1.713899803161621094e+01,1.386245536804199219e+01,2.053153038024902344e+01,2.204314422607421875e+01,1.549334621429443359e+01,1.883740615844726562e+01,1.535631847381591797e+01,1.509834098815917969e+01,2.184567642211914062e+01,8.100111961364746094e+00,-4.738526768051087856e-04
1.668200683593750000e+01,7.902915000915527344e+00,2.189033699035644531e+01,1.905707740783691406e+01,1.101331996917724609e+01,1.230089378356933594e+01,2.164135932922363281e+01,1.321136188507080078e+01,2.318649864196777344e+01,1.814356422424316406e+01,1.716971397399902344e+01,1.466773891448974609e+01,1.984780693054199219e+01,2.306558799743652344e+01,1.546244716644287109e+01,1.950429153442382812e+01,1.688780021667480469e+01,1.600940704345703125e+01,2.241592788696289062e+01,7.864066600799560547e+00,-1.836709794588387012e-03
1.809240150451660156e+01,9.860806465148925781e+00,2.366367340087890625e+01,2.131765365600585938e+01,1.221360397338867188e+01,1.398811149597167969e+01,2.170618629455566406e+01,1.599736118316650391e+01,2.453157615661621094e+01,1.988836097717285156e+01,1.701811790466308594e+01,1.541157150268554688e+01,1.925571823120117188e+01,2.409674644470214844e+01,1.547545719146728516e+01,2.025553131103515625e+01,1.879731369018554688e+01,1.730478858947753906e+01,2.315027999877929688e+01,7.454408168792724609e+00,-3.319115610793232918e-03
1.955704116821289062e+01,1.202112197875976562e+01,2.543467521667480469e+01,2.366368293762207031e+01,1.345697498321533203e+01,1.587996959686279297e+01,2.138676452636718750e+01,1.867544555664062500e+01,2.571685409545898438e+01,2.166709518432617188e+01,1.670402908325195312e+01,1.601874351501464844e+01,1.875056076049804688e+01,2.500088119506835938e+01,1.532584381103515625e+01,2.091923332214355469e+01,2.089003753662109375e+01,1.884328651428222656e+01,2.391061401367187500e+01,7.073828220367431641e+00,-5.319566931575536728e-03
2.085894203186035156e+01,1.406746768951416016e+01,2.694533729553222656e+01,2.573523139953613281e+01,1.449311733245849609e+01,1.778184509277343750e+01,2.070784187316894531e+01,2.070801734924316406e+01,2.653079795837402344e+01,2.319774055480957031e+01,1.618979263305664062e+01,1.637919616699218750e+01,1.822425842285156250e+01,2.556502914428710938e+01,1.476479148864746094e+01,2.121527290344238281e+01,2.283954811096191406e+01,2.034126472473144531e+01,2.446855735778808594e+01,6.865150451660156250e+00,-8.093100041151046753e-03
2.177819061279296875e+01,1.563242053985595703e+01,2.793182182312011719e+01,2.719308471679687500e+01,1.511685466766357422e+01,1.940895843505859375e+01,1.964820480346679688e+01,2.170004653930664062e+01,2.676417350769042969e+01,2.422285270690917969e+01,1.539812850952148438e+01,1.640579414367675781e+01,1.754171180725097656e+01,2.558869171142578125e+01,1.361991882324218750e+01,2.091127586364746094e+01,2.430780982971191406e+01,2.147334289550781250e+01,2.459436798095703125e+01,6.875413417816162109e+00,-1.160783693194389343e-02
2.218723487854003906e+01,1.642340087890625000e+01,2.823418807983398438e+01,2.785209655761718750e+01,1.523996067047119141e+01,2.047652626037597656e+01,1.821256828308105469e+01,2.155747985839843750e+01,2.632961082458496094e+01,2.461487770080566406e+01,1.428147411346435547e+01,1.602241325378417969e+01,1.663477897644042969e+01,2.496725654602050781e+01,1.189122676849365234e+01,1.990696907043457031e+01,2.508451843261718750e+01,2.203692626953125000e+01,2.416497039794921875e+01,7.070407390594482422e+00,-1.556888967752456665e-02
2.211686134338378906e+01,1.631793785095214844e+01,2.787461662292480469e+01,2.772909736633300781e+01,1.491988563537597656e+01,2.079708480834960938e+01,1.649876022338867188e+01,2.048426628112792969e+01,2.530298423767089844e+01,2.440306663513183594e+01,1.290918922424316406e+01,1.517585659027099609e+01,1.555397987365722656e+01,2.373808288574218750e+01,9.762479782104492188e+00,1.828829956054687500e+01,2.515160942077636719e+01,2.202833175659179688e+01,2.321318435668945312e+01,7.386844635009765625e+00,-1.958573237061500549e-02
2.174447059631347656e+01,1.540448188781738281e+01,2.705390930175781250e+01,2.700664520263671875e+01,1.434539031982421875e+01,2.034916305541992188e+01,1.471541213989257812e+01,1.890216636657714844e+01,2.392456626892089844e+01,2.375476646423339844e+01,1.148339939117431641e+01,1.394775295257568359e+01,1.444851016998291016e+01,2.208424186706542969e+01,7.552420616149902344e+00,1.629082679748535156e+01,2.466519927978515625e+01,2.162928009033203125e+01,2.191541862487792969e+01,7.736636161804199219e+00,-2.340332604944705963e-02
2.130170631408691406e+01,1.391777610778808594e+01,2.605224800109863281e+01,2.592814445495605469e+01,1.373191165924072266e+01,1.926728248596191406e+01,1.310886573791503906e+01,1.725076484680175781e+01,2.247142410278320312e+01,2.286422920227050781e+01,1.022307682037353516e+01,1.256372833251953125e+01,1.345112037658691406e+01,2.024733161926269531e+01,5.565156459808349609e+00,1.418194103240966797e+01,2.384978485107421875e+01,2.107551956176757812e+01,2.048500633239746094e+01,7.987220287322998047e+00,-2.698182128369808197e-02
2.097623062133789062e+01,1.217591571807861328e+01,2.511829948425292969e+01,2.469168853759765625e+01,1.325384998321533203e+01,1.777898406982421875e+01,1.191250133514404297e+01,1.581420230865478516e+01,2.115278816223144531e+01,2.186603164672851562e+01,9.300623893737792969e+00,1.134204483032226562e+01,1.259235477447509766e+01,1.842910194396972656e+01,3.979573249816894531e+00,1.213035297393798828e+01,2.289115715026855469e+01,2.052053070068359375e+01,1.905732727050781250e+01,8.006035804748535156e+00,-3.051249869167804718e-02
2.082229042053222656e+01,1.047658157348632812e+01,2.436763763427734375e+01,2.338531875610351562e+01,1.299327564239501953e+01,1.615759468078613281e+01,1.121943473815917969e+01,1.464891433715820312e+01,2.000315093994140625e+01,2.076368522644042969e+01,8.724957466125488281e+00,1.053400993347167969e+01,1.173946380615234375e+01,1.670178413391113281e+01,2.772903919219970703e+00,1.014402198791503906e+01,2.187318038940429688e+01,1.993607330322265625e+01,1.761460494995117188e+01,7.717821121215820312e+00,-3.428227081894874573e-02
2.076951026916503906e+01,9.035804748535156250e+00,2.375940322875976562e+01,2.200644493103027344e+01,1.292556762695312500e+01,1.463208675384521484e+01,1.093537235260009766e+01,1.366282463073730469e+01,1.887650489807128906e+01,1.946591186523437500e+01,8.326647758483886719e+00,1.023959541320800781e+01,1.063986778259277344e+01,1.500435543060302734e+01,1.749999403953552246e+00,8.073334693908691406e+00,2.078940200805664062e+01,1.913060379028320312e+01,1.599957752227783203e+01,7.116590023040771484e+00,-3.840272501111030579e-02
2.068740844726562500e+01,7.959049224853515625e+00,2.316634559631347656e+01,2.050716018676757812e+01,1.297686100006103516e+01,1.331694507598876953e+01,1.081868267059326172e+01,1.271435737609863281e+01,1.755097198486328125e+01,1.786154174804687500e+01,7.857990264892578125e+00,1.041294193267822266e+01,9.046863555908203125e+00,1.319733524322509766e+01,6.636717319488525391e-01,5.725707530975341797e+00,1.961143875122070312e+01,1.787574005126953125e+01,1.400301551818847656e+01,6.281023979187011719e+00,-4.277024045586585999e-02
2.045576477050781250e+01,7.261624813079833984e+00,2.246471595764160156e+01,1.884603881835937500e+01,1.305072498321533203e+01,1.220930671691894531e+01,1.059237480163574219e+01,1.160154151916503906e+01,1.585180664062500000e+01,1.588036060333251953e+01,7.108930587768554688e+00,1.077706241607666016e+01,6.835923671722412109e+00,1.113750553131103516e+01,-6.926116943359375000e-01,2.954711198806762695e+00,1.834832000732421875e+01,1.603519058227539062e+01,1.147722816467285156e+01,5.361645221710205078e+00,-4.712181910872459412e-02
2.002912712097167969e+01,6.914613246917724609e+00,2.162182617187500000e+01,1.706968498229980469e+01,1.307329463958740234e+01,1.126767063140869141e+01,1.008436203002929688e+01,1.021745300292968750e+01,1.377211093902587891e+01,1.357385826110839844e+01,6.035872936248779297e+00,1.096508407592773438e+01,4.092808246612548828e+00,8.763844490051269531e+00,-2.385526657104492188e+00,-2.316955775022506714e-01,1.709294509887695312e+01,1.369245243072509766e+01,8.429051399230957031e+00,4.511540412902832031e+00,-5.118648335337638855e-02
1.942655754089355469e+01,6.844871044158935547e+00,2.069721603393554688e+01,1.529462623596191406e+01,1.296660232543945312e+01,1.044767475128173828e+01,9.236888885498046875e+00,8.521497726440429688e+00,1.145788860321044922e+01,1.110469532012939453e+01,4.709165096282958984e+00,1.065874671936035156e+01,1.054822206497192383e+00,6.118694305419921875e+00,-4.369538307189941406e+00,-3.696634531021118164e+00,1.598078155517578125e+01,1.112010478973388672e+01,5.008913516998291016e+00,3.818798780441284180e+00,-5.486061796545982361e-02
1.868177604675292969e+01,6.955438137054443359e+00,1.979245376586914062e+01,1.367622947692871094e+01,1.264652633666992188e+01,9.737869262695312500e+00,8.090028762817382812e+00,6.520607948303222656e+00,9.140217781066894531e+00,8.689362525939941406e+00,3.267522573471069336e+00,9.675529479980468750e+00,-1.978464603424072266e+00,3.326591730117797852e+00,-6.532436370849609375e+00,-7.212504863739013672e+00,1.512795162200927734e+01,8.671770095825195312e+00,1.445186614990234375e+00,3.273158073425292969e+00,-5.828768387436866760e-02
1.781530761718750000e+01,7.115335464477539062e+00,1.899042320251464844e+01,1.234914302825927734e+01,1.202894496917724609e+01,9.138256072998046875e+00,6.762830734252929688e+00,4.235573768615722656e+00,7.031781196594238281e+00,6.517436027526855469e+00,1.868485093116760254e+00,7.999842643737792969e+00,-4.740376949310302734e+00,5.382252335548400879e-01,-8.742495536804199219e+00,-1.054693126678466797e+01,1.456283855438232422e+01,6.632309913635253906e+00,-2.017344474792480469e+00,2.796791553497314453e+00,-6.177054345607757568e-02
1.682421875000000000e+01,7.191882133483886719e+00,1.830980873107910156e+01,1.135609436035156250e+01,1.107282066345214844e+01,8.650265693664550781e+00,5.364911079406738281e+00,1.698077321052551270e+00,5.240644454956054688e+00,4.684872627258300781e+00,6.160889267921447754e-01,5.793108463287353516e+00,-7.079367637634277344e+00,-2.120623588562011719e+00,-1.089563560485839844e+01,-1.352961254119873047e+01,1.419899845123291016e+01,5.102407932281494141e+00,-5.199536323547363281e+00,2.299899101257324219e+00,-6.558016687631607056e-02
1.569238567352294922e+01,7.081315040588378906e+00,1.768289566040039062e+01,1.065047359466552734e+01,9.804828643798828125e+00,8.253862380981445312e+00,3.970528125762939453e+00,-9.710960388183593750e-01,3.755311727523803711e+00,3.201034545898437500e+00,-4.341799616813659668e-01,3.379091262817382812e+00,-8.951970100402832031e+00,-4.566515445709228516e+00,-1.289265727996826172e+01,-1.606027412414550781e+01,1.387644577026367188e+01,3.993658781051635742e+00,-7.989253520965576172e+00,1.739719390869140625e+00,-6.978031247854232788e-02
1.445352649688720703e+01,6.725798606872558594e+00,1.701512145996093750e+01,1.010280799865722656e+01,8.350125312805175781e+00,7.856028556823730469e+00,2.649223327636718750e+00,-3.521463394165039062e+00,2.493008852005004883e+00,2.026134490966796875e+00,-1.245661258697509766e+00,1.184280395507812500e+00,-1.036875629425048828e+01,-6.752126693725585938e+00,-1.461809730529785156e+01,-1.811982154846191406e+01,1.342616176605224609e+01,3.110834121704101562e+00,-1.032769298553466797e+01,1.149606347084045410e+00,-7.412392646074295044e-02
1.317948055267333984e+01,6.128735065460205078e+00,1.624227905273437500e+01,9.568089485168457031e+00,6.899525642395019531e+00,7.319382190704345703e+00,1.497648954391479492e+00,-5.595616817474365234e+00,1.383607745170593262e+00,1.115703821182250977e+00,-1.766832470893859863e+00,-3.740078806877136230e-01,-1.133325290679931641e+01,-8.646323204040527344e+00,-1.592396736145019531e+01,-1.972575759887695312e+01,1.274880027770996094e+01,2.283262729644775391e+00,-1.217519664764404297e+01,5.851504206657409668e-01,-7.818858325481414795e-02
1.196261215209960938e+01,5.341155529022216797e+00,1.534335231781005859e+01,8.923319816589355469e+00,5.647947311401367188e+00,6.500816822052001953e+00,6.112784743309020996e-01,-6.839118957519531250e+00,3.972180187702178955e-01,4.393170475959777832e-01,-1.942207574844360352e+00,-1.013282060623168945e+00,-1.182783603668212891e+01,-1.022668838500976562e+01,-1.667041015625000000e+01,-2.090354919433593750e+01,1.182758903503417969e+01,1.431134223937988281e+00,-1.349757766723632812e+01,6.174583360552787781e-02,-8.156783133745193481e-02
1.084983825683593750e+01,4.408987998962402344e+00,1.432067775726318359e+01,8.072690010070800781e+00,4.693875312805175781e+00,5.291573047637939453e+00,2.311513572931289673e-02,-7.082671165466308594e+00,-4.937517046928405762e-01,-7.440920919179916382e-02,-1.783676385879516602e+00,-7.317079305648803711e-01,-1.185368061065673828e+01,-1.152560138702392578e+01,-1.678750038146972656e+01,-2.171208763122558594e+01,1.069607257843017578e+01,5.421702861785888672e-01,-1.431944942474365234e+01,-4.685006737709045410e-01,-8.412618190050125122e-02
9.807436943054199219e+00,3.337335824966430664e+00,1.315674304962158203e+01,6.957937717437744141e+00,3.986015796661376953e+00,3.668753623962402344e+00,-3.269540369510650635e-01,-6.446069240570068359e+00,-1.352531552314758301e+00,-5.612204074859619141e-01,-1.449770212173461914e+00,1.542876064777374268e-01,-1.149302291870117188e+01,-1.263023757934570312e+01,-1.633865737915039062e+01,-2.223254585266113281e+01,9.392958641052246094e+00,-4.045026302337646484e-01,-1.475158214569091797e+01,-1.077428936958312988e+00,-8.603098988533020020e-02
8.716653823852539062e+00,2.105786085128784180e+00,1.179551219940185547e+01,5.533748149871826172e+00,3.360226631164550781e+00,1.713928818702697754e+00,-6.463773846626281738e-01,-5.336224079132080078e+00,-2.317078113555908203e+00,-1.231756091117858887e+00,-1.244670510292053223e+00,1.090728044509887695e+00,-1.093970108032226562e+01,-1.367883300781250000e+01,-1.553204345703125000e+01,-2.258270072937011719e+01,7.920826435089111328e+00,-1.499745488166809082e+00,-1.499636650085449219e+01,-1.765038847923278809e+00,-8.764888346195220947e-02
7.444074153900146484e+00,6.769163608551025391e-01,1.016577053070068359e+01,3.766458034515380859e+00,2.619538545608520508e+00,-4.111919403076171875e-01,-1.190929412841796875e+00,-4.305582523345947266e+00,-3.556388378143310547e+00,-2.322400331497192383e+00,-1.486430525779724121e+00,1.502541780471801758e+00,-1.044394302368164062e+01,-1.480339527130126953e+01,-1.465224838256835938e+01,-2.287714767456054688e+01,6.253872394561767578e+00,-2.908090353012084961e+00,-1.528354358673095703e+01,-2.421005010604858398e+00,-8.933851122856140137e-02
5.888535499572753906e+00,-9.849953055381774902e-01,8.227826118469238281e+00,1.630173563957214355e+00,1.638793587684631348e+00,-2.529157400131225586e+00,-2.138591527938842773e+00,-3.828378677368164062e+00,-5.187725067138671875e+00,-3.999324560165405273e+00,-2.357361078262329102e+00,1.045786261558532715e+00,-1.021485996246337891e+01,-1.605623054504394531e+01,-1.394646072387695312e+01,-2.317955398559570312e+01,4.354680061340332031e+00,-4.790385723114013672e+00,-1.578678607940673828e+01,-2.831518411636352539e+00,-9.124331921339035034e-02
4.061767578125000000e+00,-2.890155076980590820e+00,6.049388885498046875e+00,-8.530954718589782715e-01,4.590272009372711182e-01,-4.514034748077392578e+00,-3.425714492797851562e+00,-4.137274265289306641e+00,-7.161653995513916016e+00,-6.261358737945556641e+00,-3.733609676361083984e+00,-2.575260698795318604e-01,-1.030531883239746094e+01,-1.737880516052246094e+01,-1.352526473999023438e+01,-2.346604537963867188e+01,2.228410720825195312e+00,-7.181011199951171875e+00,-1.652934265136718750e+01,-2.726324558258056641e+00,-9.325174242258071899e-02
2.064931392669677734e+00,-5.016449451446533203e+00,3.785729408264160156e+00,-3.603076457977294922e+00,-7.617745399475097656e-01,-6.328615665435791016e+00,-4.778843879699707031e+00,-5.159005165100097656e+00,-9.252846717834472656e+00,-8.924777984619140625e+00,-5.245600700378417969e+00,-2.029517173767089844e+00,-1.059783935546875000e+01,-1.860922241210937500e+01,-1.334312534332275391e+01,-2.364112281799316406e+01,-7.203754037618637085e-02,-9.925257682800292969e+00,-1.738813781738281250e+01,-1.921547055244445801e+00,-9.514858573675155640e-02
6.809524446725845337e-02,-7.289032936096191406e+00,1.652822613716125488e+00,-6.451455593109130859e+00,-1.820486664772033691e+00,-7.990073680877685547e+00,-5.821979045867919922e+00,-6.560914993286132812e+00,-1.112560749053955078e+01,-1.165372848510742188e+01,-6.430620670318603516e+00,-3.696949958801269531e+00,-1.087273788452148438e+01,-1.954697990417480469e+01,-1.325043010711669922e+01,-2.357586669921875000e+01,-2.433125734329223633e+00,-1.269528865814208984e+01,-1.815120887756347656e+01,-4.402778744697570801e-01,-9.677445143461227417e-02
-1.761604905128479004e+00,-9.604142189025878906e+00,-1.578715741634368896e-01,-9.167774200439453125e+00,-2.573485374450683594e+00,-9.537047386169433594e+00,-6.201515197753906250e+00,-7.941043853759765625e+00,-1.245803833007812500e+01,-1.407374191284179688e+01,-6.933957099914550781e+00,-4.770967006683349609e+00,-1.092677783966064453e+01,-2.005508804321289062e+01,-1.308780574798583984e+01,-2.319228744506835938e+01,-4.721961975097656250e+00,-1.510433197021484375e+01,-1.862026405334472656e+01,1.464333295822143555e+00,-9.816122055053710938e-02
-3.323007583618164062e+00,-1.183930301666259766e+01,-1.564632773399353027e+00,-1.152804470062255859e+01,-3.012563705444335938e+00,-1.099386405944824219e+01,-5.798405647277832031e+00,-9.022177696228027344e+00,-1.309953594207763672e+01,-1.591332721710205078e+01,-6.681298255920410156e+00,-5.093814373016357422e+00,-1.070121955871582031e+01,-2.012856483459472656e+01,-1.279670906066894531e+01,-2.253813552856445312e+01,-6.839200019836425781e+00,-1.686629867553710938e+01,-1.872419357299804688e+01,3.382628440856933594e+00,-9.954001754522323608e-02
-4.595587730407714844e+00,-1.386013317108154297e+01,-2.609488487243652344e+00,-1.334971332550048828e+01,-3.256723880767822266e+00,-1.233476543426513672e+01,-4.752912521362304688e+00,-9.723133087158203125e+00,-1.310643386840820312e+01,-1.705663108825683594e+01,-5.868825912475585938e+00,-4.848927497863769531e+00,-1.029592037200927734e+01,-1.987824630737304688e+01,-1.242755317687988281e+01,-2.177256965637207031e+01,-8.721619606018066406e+00,-1.787804603576660156e+01,-1.851906776428222656e+01,4.892975807189941406e+00,-1.011977568268775940e-01
-5.629192352294921875e+00,-1.555096244812011719e+01,-3.425526618957519531e+00,-1.455897998809814453e+01,-3.488573789596557617e+00,-1.352397441864013672e+01,-3.399783372879028320e+00,-1.015578460693359375e+01,-1.271670722961425781e+01,-1.757035827636718750e+01,-4.851254463195800781e+00,-4.460960388183593750e+00,-9.936436653137207031e+00,-1.949716567993164062e+01,-1.210393142700195312e+01,-2.113592529296875000e+01,-1.035244750976562500e+01,-1.825745201110839844e+01,-1.817035293579101562e+01,5.733673095703125000e+00,-1.032460257411003113e-01
-6.507389545440673828e+00,-1.682843971252441406e+01,-4.165681362152099609e+00,-1.520374870300292969e+01,-3.864047050476074219e+00,-1.453716278076171875e+01,-2.102052211761474609e+00,-1.052309322357177734e+01,-1.222926044464111328e+01,-1.763940048217773438e+01,-3.962488889694213867e+00,-4.403178215026855469e+00,-9.854202270507812500e+00,-1.917835426330566406e+01,-1.195757007598876953e+01,-2.084784317016601562e+01,-1.172652339935302734e+01,-1.825131416320800781e+01,-1.786539840698242188e+01,5.891891479492187500e+00,-1.054855808615684509e-01
-7.282959938049316406e+00,-1.765514373779296875e+01,-4.923347949981689453e+00,-1.541478824615478516e+01,-4.436490535736083984e+00,-1.537003898620605469e+01,-1.076597094535827637e+00,-1.094287395477294922e+01,-1.186712360382080078e+01,-1.745216560363769531e+01,-3.339263439178466797e+00,-4.921384811401367188e+00,-1.015729618072509766e+01,-1.902766418457031250e+01,-1.202424621582031250e+01,-2.100700378417968750e+01,-1.281933307647705078e+01,-1.810028839111328125e+01,-1.771223831176757812e+01,5.563480854034423828e+00,-1.073664799332618713e-01
-7.974961757659912109e+00,-1.806679344177246094e+01,-5.692688465118408203e+00,-1.536558914184570312e+01,-5.125884056091308594e+00,-1.607411956787109375e+01,-3.269540369510650635e-01,-1.138938617706298828e+01,-1.169812679290771484e+01,-1.713854598999023438e+01,-2.903302669525146484e+00,-5.906435489654541016e+00,-1.077523136138916016e+01,-1.902517318725585938e+01,-1.221776866912841797e+01,-2.152427864074707031e+01,-1.359216976165771484e+01,-1.795171737670898438e+01,-1.769993019104003906e+01,5.015274524688720703e+00,-1.082192584872245789e-01
-8.578997611999511719e+00,-1.818416595458984375e+01,-6.417666912078857422e+00,-1.526071643829345703e+01,-5.805019378662109375e+00,-1.675816535949707031e+01,2.977485358715057373e-01,-1.176956558227539062e+01,-1.167743396759033203e+01,-1.677812004089355469e+01,-2.473286867141723633e+00,-7.025394916534423828e+00,-1.151886844635009766e+01,-1.906751632690429688e+01,-1.239177608489990234e+01,-2.215773963928222656e+01,-1.403342247009277344e+01,-1.783384513854980469e+01,-1.773548507690429688e+01,4.438845157623291016e+00,-1.074780598282814026e-01
-9.095067024230957031e+00,-1.816205215454101562e+01,-7.048082828521728516e+00,-1.528013706207275391e+01,-6.383617877960205078e+00,-1.751948738098144531e+01,9.684197306632995605e-01,-1.201707744598388672e+01,-1.172227001190185547e+01,-1.642237281799316406e+01,-1.921400308609008789e+00,-7.939823150634765625e+00,-1.217674636840820312e+01,-1.902890968322753906e+01,-1.241291713714599609e+01,-2.260975837707519531e+01,-1.418824768066406250e+01,-1.771474266052246094e+01,-1.770813560485839844e+01,3.894914865493774414e+00,-1.049675345420837402e-01
-9.537830352783203125e+00,-1.814334106445312500e+01,-7.567591667175292969e+00,-1.552354431152343750e+01,-6.845265388488769531e+00,-1.841676139831542969e+01,1.753423333168029785e+00,-1.205667972564697266e+01,-1.177515316009521484e+01,-1.607481765747070312e+01,-1.282321691513061523e+00,-8.362643241882324219e+00,-1.260201740264892578e+01,-1.878481864929199219e+01,-1.221288967132568359e+01,-2.260975837707519531e+01,-1.414438056945800781e+01,-1.752933692932128906e+01,-1.753993225097656250e+01,3.336445569992065430e+00,-1.009188070893287659e-01
-9.946874618530273438e+00,-1.823859786987304688e+01,-8.025226593017578125e+00,-1.601165390014648438e+01,-7.272033214569091797e+00,-1.945570945739746094e+01,2.505423784255981445e+00,-1.188639068603515625e+01,-1.186252593994140625e+01,-1.575183677673339844e+01,-8.037557005882263184e-01,-8.170035362243652344e+00,-1.278058433532714844e+01,-1.826674842834472656e+01,-1.181933975219726562e+01,-2.200971984863281250e+01,-1.403600311279296875e+01,-1.725798225402832031e+01,-1.721446418762207031e+01,2.711267948150634766e+00,-9.589775651693344116e-02
-1.036618041992187500e+01,-1.849715614318847656e+01,-8.500373840332031250e+00,-1.668231773376464844e+01,-7.772664546966552734e+00,-2.057050323486328125e+01,2.945072889328002930e+00,-1.157056522369384766e+01,-1.204071903228759766e+01,-1.546630287170410156e+01,-7.809668779373168945e-01,-7.427119731903076172e+00,-1.278293323516845703e+01,-1.745601654052734375e+01,-1.130382156372070312e+01,-2.078736305236816406e+01,-1.398955535888671875e+01,-1.692769050598144531e+01,-1.675634956359863281e+01,2.068130254745483398e+00,-9.051009267568588257e-02
-1.080601215362548828e+01,-1.889689826965332031e+01,-9.017548561096191406e+00,-1.737110710144042969e+01,-8.404608726501464844e+00,-2.163377761840820312e+01,2.821310997009277344e+00,-1.114682388305664062e+01,-1.230858516693115234e+01,-1.518896102905273438e+01,-1.376449465751647949e+00,-6.269639015197753906e+00,-1.266897964477539062e+01,-1.635760688781738281e+01,-1.069723510742187500e+01,-1.899520683288574219e+01,-1.406180763244628906e+01,-1.654951286315917969e+01,-1.616832160949707031e+01,1.561830282211303711e+00,-8.525791019201278687e-02
-1.122385215759277344e+01,-1.935958099365234375e+01,-9.533555030822753906e+00,-1.786310005187988281e+01,-9.114520072937011719e+00,-2.247810173034667969e+01,2.061059951782226562e+00,-1.061318778991699219e+01,-1.256495475769042969e+01,-1.485778903961181641e+01,-2.505984067916870117e+00,-4.849844932556152344e+00,-1.243754768371582031e+01,-1.500265312194824219e+01,-9.957295417785644531e+00,-1.673193550109863281e+01,-1.421921348571777344e+01,-1.612344741821289062e+01,-1.540525150299072266e+01,1.389072537422180176e+00,-8.037234842777252197e-02
-1.153613281250000000e+01,-1.974401473999023438e+01,-9.924646377563476562e+00,-1.795761489868164062e+01,-9.750568389892578125e+00,-2.291886901855468750e+01,8.517300486564636230e-01,-9.906291961669921875e+00,-1.261553859710693359e+01,-1.437916946411132812e+01,-3.839627265930175781e+00,-3.269544124603271484e+00,-1.200992679595947266e+01,-1.343349647521972656e+01,-8.989683151245117188e+00,-1.410259246826171875e+01,-1.434952449798583984e+01,-1.561020660400390625e+01,-1.439466285705566406e+01,1.684129118919372559e+00,-7.580558210611343384e-02
-1.163436222076416016e+01,-1.991752052307128906e+01,-1.003555297851562500e+01,-1.752776718139648438e+01,-1.009526538848876953e+01,-2.281583213806152344e+01,-4.165340065956115723e-01,-8.946934700012207031e+00,-1.226144981384277344e+01,-1.367820835113525391e+01,-4.946372985839843750e+00,-1.610366106033325195e+00,-1.128861045837402344e+01,-1.173108577728271484e+01,-7.721217155456542969e+00,-1.124564933776855469e+01,-1.431081867218017578e+01,-1.496312904357910156e+01,-1.308595752716064453e+01,2.423053264617919922e+00,-7.134242355823516846e-02
-1.145256519317626953e+01,-1.975422096252441406e+01,-9.768210411071777344e+00,-1.657097053527832031e+01,-9.998832702636718750e+00,-2.212463188171386719e+01,-1.334728956222534180e+00,-7.713332653045654297e+00,-1.143026161193847656e+01,-1.274671363830566406e+01,-5.498259544372558594e+00,2.955117449164390564e-02,-1.024892902374267578e+01,-1.003490257263183594e+01,-6.182795047760009766e+00,-8.361648559570312500e+00,-1.400632858276367188e+01,-1.417975997924804688e+01,-1.152015972137451172e+01,3.421113967895507812e+00,-6.669595837593078613e-02
-1.104352092742919922e+01,-1.923030090332031250e+01,-9.130789756774902344e+00,-1.518821239471435547e+01,-9.448958396911621094e+00,-2.093971633911132812e+01,-1.650616288185119629e+00,-6.229248523712158203e+00,-1.022773933410644531e+01,-1.164319705963134766e+01,-5.382333755493164062e+00,1.558489680290222168e+00,-8.975465774536132812e+00,-8.510578155517578125e+00,-4.537040710449218750e+00,-5.686149120330810547e+00,-1.341025066375732422e+01,-1.331658172607421875e+01,-9.831287384033203125e+00,4.432003021240234375e+00,-6.158723309636116028e-02
-1.057730007171630859e+01,-1.842401123046875000e+01,-8.269221305847167969e+00,-1.355686759948730469e+01,-8.644665718078613281e+00,-1.946286392211914062e+01,-1.384233593940734863e+00,-4.577846050262451172e+00,-8.933246612548828125e+00,-1.048116874694824219e+01,-4.763071537017822266e+00,2.874642610549926758e+00,-7.669107913970947266e+00,-7.318766593933105469e+00,-3.047405958175659180e+00,-3.457892656326293945e+00,-1.259354591369628906e+01,-1.249392127990722656e+01,-8.239507675170898438e+00,5.260727405548095703e+00,-5.586482957005500793e-02
-1.032073116302490234e+01,-1.752586364746093750e+01,-7.433336734771728516e+00,-1.187891292572021484e+01,-7.938857555389404297e+00,-1.798171997070312500e+01,-8.620765805244445801e-01,-2.880901336669921875e+00,-7.913517475128173828e+00,-9.401057243347167969e+00,-4.018965721130371094e+00,3.874368429183959961e+00,-6.589483261108398438e+00,-6.566567897796630859e+00,-1.980593085289001465e+00,-1.832857012748718262e+00,-1.170071887969970703e+01,-1.186648941040039062e+01,-6.966357231140136719e+00,5.844853401184082031e+00,-4.945700988173484802e-02
-1.052451992034912109e+01,-1.678421211242675781e+01,-6.871799468994140625e+00,-1.032525157928466797e+01,-7.696749210357666016e+00,-1.676388931274414062e+01,-5.556187629699707031e-01,-1.249299883842468262e+00,-7.454812049865722656e+00,-8.498817443847656250e+00,-3.538418054580688477e+00,4.498967647552490234e+00,-5.931605339050292969e+00,-6.240282535552978516e+00,-1.469954013824462891e+00,-8.110423088073730469e-01,-1.088272476196289062e+01,-1.154479217529296875e+01,-6.140382289886474609e+00,6.239117622375488281e+00,-4.237174615263938904e-02
-1.132354736328125000e+01,-1.642699623107910156e+01,-6.744549274444580078e+00,-9.018881797790527344e+00,-8.166604042053222656e+00,-1.597251415252685547e+01,-8.502897620201110840e-01,2.486449033021926880e-01,-7.650250434875488281e+00,-7.800196647644042969e+00,-3.551298856735229492e+00,4.777790546417236328e+00,-5.744815349578857422e+00,-6.194204330444335938e+00,-1.458570241928100586e+00,-2.205543071031570435e-01,-1.025439167022705078e+01,-1.154724788665771484e+01,-5.742437362670898438e+00,6.523056030273437500e+00,-3.468076884746551514e-02
-1.268702602386474609e+01,-1.660220146179199219e+01,-7.067928791046142578e+00,-8.036190986633300781e+00,-9.366888046264648438e+00,-1.564194011688232422e+01,-1.922892212867736816e+00,1.606002688407897949e+00,-8.360727310180664062e+00,-7.229129791259765625e+00,-4.066524982452392578e+00,4.849330425262451172e+00,-5.908110141754150391e+00,-6.190468311309814453e+00,-1.718768596649169922e+00,2.314634472131729126e-01,-9.872488975524902344e+00,-1.177071762084960938e+01,-5.598848819732666016e+00,6.734299182891845703e+00,-2.659129537642002106e-02
-1.439210700988769531e+01,-1.728091430664062500e+01,-7.697177410125732422e+00,-7.405663013458251953e+00,-1.104728507995605469e+01,-1.565481948852539062e+01,-3.693275690078735352e+00,2.850494861602783203e+00,-9.274689674377441406e+00,-6.648701190948486328e+00,-4.913675785064697266e+00,4.919953346252441406e+00,-6.178309917449951172e+00,-5.967548370361328125e+00,-1.936684608459472656e+00,8.346843123435974121e-01,-9.711212158203125000e+00,-1.201751518249511719e+01,-5.462098121643066406e+00,6.866005897521972656e+00,-1.838227361440658569e-02
-1.611478233337402344e+01,-1.827261924743652344e+01,-8.389467239379882812e+00,-7.115645885467529297e+00,-1.279949474334716797e+01,-1.580221843719482422e+01,-5.866769313812255859e+00,3.996972084045410156e+00,-1.003689956665039062e+01,-5.923165321350097656e+00,-5.862881183624267578e+00,5.191438198089599609e+00,-6.312234878540039062e+00,-5.361056804656982422e+00,-1.868382573127746582e+00,1.741903066635131836e+00,-9.691859245300292969e+00,-1.206785678863525391e+01,-5.136631011962890625e+00,6.921596050262451172e+00,-1.044422853738069534e-02
-1.753543853759765625e+01,-1.927963256835937500e+01,-8.898469924926757812e+00,-7.123414516448974609e+00,-1.421111106872558594e+01,-1.586089134216308594e+01,-8.081516265869140625e+00,5.010782718658447266e+00,-1.040248489379882812e+01,-4.998692035675048828e+00,-6.721921920776367188e+00,5.779350757598876953e+00,-6.170086383819580078e+00,-4.379711151123046875e+00,-1.447186589241027832e+00,2.899004936218261719e+00,-9.725404739379882812e+00,-1.177440071105957031e+01,-4.586892604827880859e+00,6.966923713684082031e+00,-3.167687216773629189e-03
-1.844002532958984375e+01,-2.000767517089843750e+01,-9.082924842834472656e+00,-7.373294830322265625e+00,-1.500719738006591797e+01,-1.567199230194091797e+01,-1.009352970123291016e+01,5.766190528869628906e+00,-1.034845161437988281e+01,-3.959537267684936523e+00,-7.422431468963623047e+00,6.601143360137939453e+00,-5.800030231475830078e+00,-3.240204572677612305e+00,-8.194583058357238770e-01,4.033823966979980469e+00,-9.769271850585937500e+00,-1.115556430816650391e+01,-4.000231742858886719e+00,7.106327056884765625e+00,3.072763793170452118e-03
-1.876843261718750000e+01,-2.026453208923339844e+01,-8.966180801391601562e+00,-7.809615135192871094e+00,-1.514261341094970703e+01,-1.516825962066650391e+01,-1.186744976043701172e+01,6.070135593414306641e+00,-1.008058643341064453e+01,-3.040915012359619141e+00,-8.015932083129882812e+00,7.360568523406982422e+00,-5.427624225616455078e+00,-2.316145658493041992e+00,-2.827994227409362793e-01,4.761190891265869141e+00,-9.851844787597656250e+00,-1.040289115905761719e+01,-3.729465007781982422e+00,7.425330162048339844e+00,8.045996539294719696e-03
-1.860129737854003906e+01,-2.000597381591796875e+01,-8.714015007019042969e+00,-8.387059211730957031e+00,-1.478150272369384766e+01,-1.435684967041015625e+01,-1.351642894744873047e+01,5.704807281494140625e+00,-9.939180374145507812e+00,-2.558784723281860352e+00,-8.639158248901367188e+00,7.623798847198486328e+00,-5.373584270477294922e+00,-2.008541107177734375e+00,-1.705889254808425903e-01,4.726175308227539062e+00,-1.005440902709960938e+01,-9.830713272094726562e+00,-4.171170234680175781e+00,7.921367168426513672e+00,1.167231239378452301e-02
-1.808229637145996094e+01,-1.933236312866210938e+01,-8.530727386474609375e+00,-9.052544593811035156e+00,-1.418649005889892578e+01,-1.328498744964599609e+01,-1.516540813446044922e+01,4.569220542907714844e+00,-1.022429084777832031e+01,-2.768254041671752930e+00,-9.438749313354492188e+00,7.042306900024414062e+00,-5.918683052062988281e+00,-2.586389303207397461e+00,-7.153789997100830078e-01,3.755291938781738281e+00,-1.044534301757812500e+01,-9.725117683410644531e+00,-5.587908744812011719e+00,8.465297698974609375e+00,1.411907933652400970e-02
-1.731992149353027344e+01,-1.840019607543945312e+01,-8.537732124328613281e+00,-9.719324111938476562e+00,-1.357506370544433594e+01,-1.200275993347167969e+01,-1.679906463623046875e+01,2.775251150131225586e+00,-1.103363609313964844e+01,-3.731344461441040039e+00,-1.046028423309326172e+01,5.556476116180419922e+00,-7.154553413391113281e+00,-4.049690246582031250e+00,-1.931805849075317383e+00,1.963137149810791016e+00,-1.099626350402832031e+01,-1.020397949218750000e+01,-7.966005802154541016e+00,8.861271858215332031e+00,1.574494317173957825e-02
-1.635962104797363281e+01,-1.735916328430175781e+01,-8.700005531311035156e+00,-1.028641033172607422e+01,-1.303750038146972656e+01,-1.055452919006347656e+01,-1.821348381042480469e+01,6.001124382019042969e-01,-1.221776390075683594e+01,-5.284225463867187500e+00,-1.159279155731201172e+01,3.442376852035522461e+00,-8.931998252868652344e+00,-6.129445552825927734e+00,-3.610084533691406250e+00,-2.794439494609832764e-01,-1.158072948455810547e+01,-1.116170310974121094e+01,-1.099777221679687500e+01,8.969031333923339844e+00,1.699622161686420441e-02
-1.520726203918457031e+01,-1.631302642822265625e+01,-8.857609748840332031e+00,-1.065799427032470703e+01,-1.252661037445068359e+01,-9.003262519836425781e+00,-1.911517715454101562e+01,-1.586906790733337402e+00,-1.344557762145996094e+01,-7.098065376281738281e+00,-1.261531734466552734e+01,1.252151727676391602e+00,-1.091150569915771484e+01,-8.383551597595214844e+00,-5.395695209503173828e+00,-2.491784334182739258e+00,-1.200907993316650391e+01,-1.231588268280029297e+01,-1.419910907745361328e+01,8.761209487915039062e+00,1.826344057917594910e-02
-1.387750434875488281e+01,-1.531111621856689453e+01,-8.810912132263183594e+00,-1.077581405639648438e+01,-1.196237373352050781e+01,-7.456289291381835938e+00,-1.924719047546386719e+01,-3.451169967651367188e+00,-1.435724067687988281e+01,-8.800734519958496094e+00,-1.323458003997802734e+01,-4.427963495254516602e-01,-1.269012546539306641e+01,-1.036616897583007812e+01,-6.925986289978027344e+00,-4.263248443603515625e+00,-1.211358737945556641e+01,-1.333254337310791016e+01,-1.708728599548339844e+01,8.375497817993164062e+00,1.982554420828819275e-02
-1.245977973937988281e+01,-1.436874198913574219e+01,-8.436164855957031250e+00,-1.065281581878662109e+01,-1.130991172790527344e+01,-6.091060161590576172e+00,-1.852230072021484375e+01,-4.815457820892333984e+00,-1.471822738647460938e+01,-1.012659263610839844e+01,-1.322268962860107422e+01,-1.324205994606018066e+00,-1.395888996124267578e+01,-1.180331707000732422e+01,-7.971657752990722656e+00,-5.420350074768066406e+00,-1.184393310546875000e+01,-1.397839260101318359e+01,-1.937923049926757812e+01,8.072744369506835938e+00,2.173035778105258942e-02
-1.110216522216796875e+01,-1.350971984863281250e+01,-7.787069797515869141e+00,-1.037186145782470703e+01,-1.063282871246337891e+01,-5.117940902709960938e+00,-1.713263130187988281e+01,-5.664920330047607422e+00,-1.453313541412353516e+01,-1.098904418945312500e+01,-1.256181335449218750e+01,-1.418675541877746582e+00,-1.462381649017333984e+01,-1.267631626129150391e+01,-8.516448020935058594e+00,-6.084052085876464844e+00,-1.130849456787109375e+01,-1.421782398223876953e+01,-2.106126594543457031e+01,8.057350158691406250e+00,2.384238690137863159e-02
-1.000405216217041016e+01,-1.280038738250732422e+01,-7.095947742462158203e+00,-1.008443450927734375e+01,-1.009936904907226562e+01,-4.704365253448486328e+00,-1.551076221466064453e+01,-6.120343208312988281e+00,-1.403534221649169922e+01,-1.149223899841308594e+01,-1.149470043182373047e+01,-1.070147275924682617e+00,-1.482118034362792969e+01,-1.319438648223876953e+01,-8.742495536804199219e+00,-6.590184688568115234e+00,-1.075628376007080078e+01,-1.421291255950927734e+01,-2.236313438415527344e+01,8.366089820861816406e+00,2.599426731467247009e-02
-9.334041595458984375e+00,-1.231219100952148438e+01,-6.671000480651855469e+00,-9.892816543579101562e+00,-9.908554077148437500e+00,-4.866074562072753906e+00,-1.414466762542724609e+01,-6.351024627685546875e+00,-1.355709266662597656e+01,-1.181990051269531250e+01,-1.041272544860839844e+01,-7.821528315544128418e-01,-1.480825710296630859e+01,-1.365018939971923828e+01,-8.908371925354003906e+00,-7.300043582916259766e+00,-1.044405269622802734e+01,-1.421413993835449219e+01,-2.358021545410156250e+01,8.851864814758300781e+00,2.799471840262413025e-02
-9.194762229919433594e+00,-1.210296344757080078e+01,-6.773735046386718750e+00,-9.824195861816406250e+00,-1.021426773071289062e+01,-5.442790985107421875e+00,-1.343745708465576172e+01,-6.497551918029785156e+00,-1.338809585571289062e+01,-1.214405059814453125e+01,-9.723114967346191406e+00,-1.005944728851318359e+00,-1.484584999084472656e+01,-1.427660655975341797e+01,-9.214104652404785156e+00,-8.433271408081054688e+00,-1.053436756134033203e+01,-1.443515300750732422e+01,-2.492584419250488281e+01,9.261522293090820312e+00,2.969231083989143372e-02
-9.605271339416503906e+00,-1.217780876159667969e+01,-7.513889789581298828e+00,-9.830669403076171875e+00,-1.105549240112304688e+01,-6.133991718292236328e+00,-1.358714962005615234e+01,-6.622298240661621094e+00,-1.367895412445068359e+01,-1.254660606384277344e+01,-9.693389892578125000e+00,-1.901112079620361328e+00,-1.510077762603759766e+01,-1.514960575103759766e+01,-9.731248855590820312e+00,-9.977134704589843750e+00,-1.103496932983398438e+01,-1.497786331176757812e+01,-2.643557357788085938e+01,9.369282722473144531e+00,3.104719892144203186e-02
-1.047760486602783203e+01,-1.247208786010742188e+01,-8.791065216064453125e+00,-9.835848808288574219e+00,-1.232758808135986328e+01,-6.599085807800292969e+00,-1.451831054687500000e+01,-6.730213642120361328e+00,-1.440092658996582031e+01,-1.302054500579833984e+01,-1.033048725128173828e+01,-3.292473554611206055e+00,-1.558713817596435547e+01,-1.617329406738281250e+01,-1.037361335754394531e+01,-1.171199131011962891e+01,-1.180522632598876953e+01,-1.580420684814453125e+01,-2.797538757324218750e+01,9.097316741943359375e+00,3.205937892198562622e-02
-1.166515064239501953e+01,-1.285652160644531250e+01,-1.034959316253662109e+01,-9.808659553527832031e+00,-1.379665374755859375e+01,-6.590499401092529297e+00,-1.595984077453613281e+01,-6.856939792633056641e+00,-1.541605758666992188e+01,-1.353661155700683594e+01,-1.141444396972656250e+01,-4.830584049224853516e+00,-1.621799468994140625e+01,-1.719822692871093750e+01,-1.098833179473876953e+01,-1.334339332580566406e+01,-1.265547657012939453e+01,-1.680367660522460938e+01,-2.934699821472167969e+01,8.574768066406250000e+00,3.272885084152221680e-02
-1.300663757324218750e+01,-1.319332695007324219e+01,-1.191395854949951172e+01,-9.811248779296875000e+00,-1.521852874755859375e+01,-6.072456359863281250e+00,-1.760410499572753906e+01,-7.082671165466308594e+00,-1.659213829040527344e+01,-1.409714698791503906e+01,-1.266783142089843750e+01,-6.162328720092773438e+00,-1.689467048645019531e+01,-1.811356925964355469e+01,-1.147457695007324219e+01,-1.467398071289062500e+01,-1.344766616821289062e+01,-1.788418579101562500e+01,-3.042049217224121094e+01,8.051362991333007812e+00,3.300780057907104492e-02
-1.434372615814208984e+01,-1.336002826690673828e+01,-1.326468276977539062e+01,-9.932951927185058594e+00,-1.639419174194335938e+01,-5.200942039489746094e+00,-1.920004272460937500e+01,-7.441069126129150391e+00,-1.782799911499023438e+01,-1.471736335754394531e+01,-1.385285091400146484e+01,-7.020809173583984375e+00,-1.753962516784667969e+01,-1.889192008972167969e+01,-1.182259178161621094e+01,-1.565282249450683594e+01,-1.411986732482910156e+01,-1.899416351318359375e+01,-3.117125511169433594e+01,7.785384654998779297e+00,3.280855342745780945e-02
-1.554006767272949219e+01,-1.328518295288085938e+01,-1.429903125762939453e+01,-1.021908473968505859e+01,-1.722926139831542969e+01,-4.255012989044189453e+00,-2.058971214294433594e+01,-7.869760513305664062e+00,-1.906730842590332031e+01,-1.539140892028808594e+01,-1.490411090850830078e+01,-7.331732749938964844e+00,-1.813524055480957031e+01,-1.957562446594238281e+01,-1.212507247924804688e+01,-1.636904716491699219e+01,-1.465917587280273438e+01,-2.010782432556152344e+01,-3.166219139099121094e+01,7.921367168426513672e+00,3.207531943917274475e-02
-1.648423957824707031e+01,-1.295007896423339844e+01,-1.501350307464599609e+01,-1.061526870727539062e+01,-1.771142578125000000e+01,-3.506569862365722656e+00,-2.172596359252929688e+01,-8.206377029418945312e+00,-2.025373649597167969e+01,-1.606545639038085938e+01,-1.591375637054443359e+01,-7.191404342651367188e+00,-1.869208717346191406e+01,-2.022321319580078125e+01,-1.251862239837646484e+01,-1.696430969238281250e+01,-1.505914115905761719e+01,-2.120061111450195312e+01,-3.197534942626953125e+01,8.432798385620117188e+00,3.088779933750629425e-02
-1.709414100646972656e+01,-1.239894294738769531e+01,-1.545362663269042969e+01,-1.095060062408447266e+01,-1.787351608276367188e+01,-3.105873823165893555e+00,-2.257343673706054688e+01,-8.186575889587402344e+00,-2.126771736145019531e+01,-1.661779975891113281e+01,-1.695510864257812500e+01,-6.667695045471191406e+00,-1.917727088928222656e+01,-2.082098579406738281e+01,-1.306991767883300781e+01,-1.750704956054687500e+01,-1.527331638336181641e+01,-2.219516944885253906e+01,-3.210799789428710938e+01,9.116132736206054688e+00,2.952494286000728607e-02
-1.735510635375976562e+01,-1.171682834625244141e+01,-1.568594646453857422e+01,-1.106453609466552734e+01,-1.779144477844238281e+01,-3.037183046340942383e+00,-2.311091613769531250e+01,-7.664820194244384766e+00,-2.195750045776367188e+01,-1.696184349060058594e+01,-1.799943161010742188e+01,-5.872499942779541016e+00,-1.952030754089355469e+01,-2.132411384582519531e+01,-1.375781631469726562e+01,-1.798930931091308594e+01,-1.526170444488525391e+01,-2.301414680480957031e+01,-3.199586296081542969e+01,9.689140319824218750e+00,2.838524430990219116e-02
-1.729499626159667969e+01,-1.100579547882080078e+01,-1.578050899505615234e+01,-1.090657997131347656e+01,-1.751856040954589844e+01,-3.171702384948730469e+00,-2.334429550170898438e+01,-6.787636280059814453e+00,-2.219777488708496094e+01,-1.711046218872070312e+01,-1.893278312683105469e+01,-5.019523143768310547e+00,-1.964248466491699219e+01,-2.171017456054687500e+01,-1.448799800872802734e+01,-1.836970329284667969e+01,-1.504494857788085938e+01,-2.362193298339843750e+01,-3.157467079162597656e+01,9.933738708496093750e+00,2.784328907728195190e-02
-1.698711395263671875e+01,-1.034239101409912109e+01,-1.578167629241943359e+01,-1.056865882873535156e+01,-1.707743072509765625e+01,-3.344860315322875977e+00,-2.324175071716308594e+01,-5.942134380340576172e+00,-2.192300987243652344e+01,-1.719471740722656250e+01,-1.959068870544433594e+01,-4.419687271118164062e+00,-1.949328804016113281e+01,-2.201404380798339844e+01,-1.514825153350830078e+01,-1.864027786254882812e+01,-1.471981525421142578e+01,-2.403449058532714844e+01,-3.083348083496093750e+01,9.804597854614257812e+00,2.814614586532115936e-02
-1.652968978881835938e+01,-9.775946617126464844e+00,-1.571513175964355469e+01,-1.024109554290771484e+01,-1.648857307434082031e+01,-3.446465492248535156e+00,-2.271134376525878906e+01,-5.618388175964355469e+00,-2.115275382995605469e+01,-1.739716529846191406e+01,-1.978587913513183594e+01,-4.469214916229248047e+00,-1.905626869201660156e+01,-2.233285713195800781e+01,-1.564588069915771484e+01,-1.885355377197265625e+01,-1.444112968444824219e+01,-2.431443977355957031e+01,-2.985024261474609375e+01,9.458227157592773438e+00,2.928584441542625427e-02
-1.603414535522460938e+01,-9.320069313049316406e+00,-1.559488582611083984e+01,-1.010385513305664062e+01,-1.580328273773193359e+01,-3.462207078933715820e+00,-2.166467094421386719e+01,-6.153014659881591797e+00,-1.998702049255371094e+01,-1.783365631103515625e+01,-1.941035842895507812e+01,-5.505628108978271484e+00,-1.836432266235351562e+01,-2.275752449035644531e+01,-1.593697738647460938e+01,-1.909707069396972656e+01,-1.435984611511230469e+01,-2.451703643798828125e+01,-2.876717567443847656e+01,9.129816055297851562e+00,3.102328814566135406e-02
-1.559871196746826172e+01,-8.969655990600585938e+00,-1.543961715698242188e+01,-1.022426414489746094e+01,-1.507900905609130859e+01,-3.437879085540771484e+00,-2.005105400085449219e+01,-7.507402420043945312e+00,-1.857296371459960938e+01,-1.845972442626953125e+01,-1.845917129516601562e+01,-7.594963550567626953e+00,-1.746913909912109375e+01,-2.329427719116210938e+01,-1.600040054321289062e+01,-1.941698455810546875e+01,-1.453144454956054688e+01,-2.464227676391601562e+01,-2.771145820617675781e+01,8.993833541870117188e+00,3.295997902750968933e-02
-1.529083061218261719e+01,-8.719603538513183594e+00,-1.524932479858398438e+01,-1.051945972442626953e+01,-1.442244338989257812e+01,-3.449327468872070312e+00,-1.786695098876953125e+01,-9.276620864868164062e+00,-1.704854393005371094e+01,-1.906238746643066406e+01,-1.698285102844238281e+01,-1.039878177642822266e+01,-1.641535949707031250e+01,-2.381359291076660156e+01,-1.579386806488037109e+01,-1.974803924560546875e+01,-1.487980175018310547e+01,-2.461280822753906250e+01,-2.673779296875000000e+01,9.082777976989746094e+00,3.471336513757705688e-02
-1.511489772796630859e+01,-8.575016021728515625e+00,-1.499248886108398438e+01,-1.080818176269531250e+01,-1.390744972229003906e+01,-3.566674232482910156e+00,-1.518898105621337891e+01,-1.086367034912109375e+01,-1.549768161773681641e+01,-1.933738899230957031e+01,-1.507750415802001953e+01,-1.319159412384033203e+01,-1.523470306396484375e+01,-2.406515502929687500e+01,-1.524745178222656250e+01,-1.989605903625488281e+01,-1.520880603790283203e+01,-2.429847908020019531e+01,-2.579147720336914062e+01,9.250404357910156250e+00,3.606028109788894653e-02
-1.500933742523193359e+01,-8.522283554077148438e+00,-1.459205818176269531e+01,-1.089104366302490234e+01,-1.355044174194335938e+01,-3.811385154724121094e+00,-1.214444065093994141e+01,-1.167353057861328125e+01,-1.393417358398437500e+01,-1.897813224792480469e+01,-1.282933425903320312e+01,-1.502044963836669922e+01,-1.390837478637695312e+01,-2.373015403747558594e+01,-1.423267841339111328e+01,-1.956500434875488281e+01,-1.526686573028564453e+01,-2.354580688476562500e+01,-2.471114540100097656e+01,9.247838973999023438e+00,3.690509125590324402e-02
-1.485246467590332031e+01,-8.515479087829589844e+00,-1.394646549224853516e+01,-1.064504718780517578e+01,-1.328781604766845703e+01,-4.163425445556640625e+00,-8.908952713012695312e+00,-1.136562538146972656e+01,-1.231778240203857422e+01,-1.781376266479492188e+01,-1.032949638366699219e+01,-1.505071735382080078e+01,-1.238938140869140625e+01,-2.253086853027343750e+01,-1.260481357574462891e+01,-1.846042633056640625e+01,-1.484883689880371094e+01,-2.224182891845703125e+01,-2.328483390808105469e+01,8.863837242126464844e+00,3.725577145814895630e-02
-1.449913311004638672e+01,-8.444035530090332031e+00,-1.295180988311767578e+01,-1.002746677398681641e+01,-1.299646472930908203e+01,-4.545517921447753906e+00,-5.666392803192138672e+00,-9.893421173095703125e+00,-1.058067893981933594e+01,-1.582439041137695312e+01,-7.686980247497558594e+00,-1.285957527160644531e+01,-1.060958671569824219e+01,-2.031163406372070312e+01,-1.024188804626464844e+01,-1.638337135314941406e+01,-1.385021209716796875e+01,-2.033620452880859375e+01,-2.131151962280273438e+01,8.015442848205566406e+00,3.712028264999389648e-02
-1.381152915954589844e+01,-8.124240875244140625e+00,-1.154037857055664062e+01,-9.020175933837890625e+00,-1.252250671386718750e+01,-4.804539203643798828e+00,-2.564096450805664062e+00,-7.391566753387451172e+00,-8.641239166259765625e+00,-1.311182212829589844e+01,-5.012757778167724609e+00,-8.568091392517089844e+00,-8.482056617736816406e+00,-1.707119941711425781e+01,-7.078852653503417969e+00,-1.330519485473632812e+01,-1.227099323272705078e+01,-1.784980583190917969e+01,-1.866128921508789062e+01,6.808704853057861328e+00,3.652253746986389160e-02
-1.274273777008056641e+01,-7.357074260711669922e+00,-9.753033638000488281e+00,-7.636122703552246094e+00,-1.177361106872558594e+01,-4.784504413604736328e+00,2.576732635498046875e-01,-4.134304046630859375e+00,-6.493714332580566406e+00,-9.884357452392578125e+00,-2.462388038635253906e+00,-2.887080192565917969e+00,-5.985645771026611328e+00,-1.300135517120361328e+01,-3.193767547607421875e+00,-9.424845695495605469e+00,-1.022987747192382812e+01,-1.491524314880371094e+01,-1.536832904815673828e+01,5.506179809570312500e+00,3.549441695213317871e-02
-1.133674240112304688e+01,-6.001348972320556641e+00,-7.749711990356445312e+00,-5.893432140350341797e+00,-1.073131370544433594e+01,-4.385239124298095703e+00,2.658652782440185547e+00,-3.869668543338775635e-01,-4.222028732299804688e+00,-6.399444580078125000e+00,-2.231353670358657837e-01,3.202992916107177734e+00,-3.196713447570800781e+00,-8.449555397033691406e+00,1.184068202972412109e+00,-5.113169193267822266e+00,-7.916527271270751953e+00,-1.175966644287109375e+01,-1.162956047058105469e+01,4.407201290130615234e+00,3.411561995744705200e-02
-9.729890823364257812e+00,-4.057065486907958984e+00,-5.772074222564697266e+00,-3.854251623153686523e+00,-9.442803382873535156e+00,-3.666848421096801758e+00,4.493863582611083984e+00,3.614813089370727539e+00,-1.997478723526000977e+00,-2.932084560394287109e+00,1.531606316566467285e+00,8.817049980163574219e+00,-2.938273549079895020e-01,-3.829261064529418945e+00,5.698507785797119141e+00,-8.205919265747070312e-01,-5.564470291137695312e+00,-8.675305366516113281e+00,-7.770452022552490234e+00,3.722157239913940430e+00,3.259336575865745544e-02
-8.111310005187988281e+00,-1.704533338546752930e+00,-4.116649150848388672e+00,-1.693367362022399902e+00,-8.033239364624023438e+00,-2.832541704177856445e+00,5.623043060302734375e+00,7.500757217407226562e+00,-8.218117803335189819e-02,1.795283704996109009e-01,2.650241851806640625e+00,1.325253009796142578e+01,2.431666612625122070e+00,3.974992930889129639e-01,9.894205093383789062e+00,2.999276399612426758e+00,-3.452393293380737305e+00,-6.013324737548828125e+00,-4.198520183563232422e+00,3.516900539398193359e+00,3.118268772959709167e-02
-6.662796974182128906e+00,7.415556907653808594e-01,-3.035602807998657227e+00,3.030876815319061279e-01,-6.652399539947509766e+00,-2.128461360931396484e+00,5.929501056671142578e+00,1.073029804229736328e+01,1.236454010009765625e+00,2.566775798797607422e+00,3.019817590713500977e+00,1.606827163696289062e+01,4.635557174682617188e+00,3.807301759719848633e+00,1.330442810058593750e+01,5.981956958770751953e+00,-1.861561775207519531e+00,-4.117523193359375000e+00,-1.306240200996398926e+00,3.689658164978027344e+00,3.012268804013729095e-02
-5.479649543762207031e+00,2.946097612380981445e+00,-2.657353401184082031e+00,1.842507243156433105e+00,-5.413131713867187500e+00,-1.714885592460632324e+00,5.367268562316894531e+00,1.274504852294921875e+01,1.741145253181457520e+00,3.946464300155639648e+00,2.612590551376342773e+00,1.714871025085449219e+01,6.026499271392822266e+00,6.118694305419921875e+00,1.554538536071777344e+01,7.928498268127441406e+00,-9.945392012596130371e-01,-3.210141658782958984e+00,6.575017571449279785e-01,4.019779205322265625e+00,2.960464172065258026e-02
-4.551604270935058594e+00,4.672648906707763672e+00,-2.921194076538085938e+00,2.759167671203613281e+00,-4.383144378662109375e+00,-1.546020746231079102e+00,4.048321247100830078e+00,1.318265056610107422e+01,1.379009127616882324e+00,4.233168125152587891e+00,1.530615568161010742e+00,1.661582756042480469e+01,6.463518142700195312e+00,7.271900177001953125e+00,1.643493843078613281e+01,8.845266342163085938e+00,-8.913222551345825195e-01,-3.307141780853271484e+00,1.685868024826049805e+00,4.275495052337646484e+00,2.964449115097522736e-02
-3.783365011215209961e+00,5.858270168304443359e+00,-3.588967800140380859e+00,3.100973129272460938e+00,-3.589110374450683594e+00,-1.382880210876464844e+00,2.283831119537353516e+00,1.204211425781250000e+01,3.086958527565002441e-01,3.600079298019409180e+00,5.132168903946876526e-02,1.473194122314453125e+01,6.034722805023193359e+00,7.438778877258300781e+00,1.604464149475097656e+01,8.955087661743164062e+00,-1.390634298324584961e+00,-4.201017379760742188e+00,2.011335134506225586e+00,4.330230236053466797e+00,3.009877726435661316e-02
-3.044447660446166992e+00,6.593117713928222656e+00,-4.327955245971679688e+00,3.102267742156982422e+00,-3.020770788192749023e+00,-9.306659102439880371e-01,4.839805960655212402e-01,9.775890350341796875e+00,-1.162841200828552246e+00,2.449753761291503906e+00,-1.438871145248413086e+00,1.193546009063720703e+01,5.015011787414550781e+00,6.975503921508789062e+00,1.463306522369384766e+01,8.596975326538085938e+00,-2.167341947555541992e+00,-5.512362003326416016e+00,2.029112577438354492e+00,4.174577236175537109e+00,3.065667301416397095e-02
-2.242487668991088867e+00,7.030283927917480469e+00,-4.832287788391113281e+00,3.058247327804565430e+00,-2.669918298721313477e+00,-2.194424346089363098e-02,-9.587286710739135742e-01,7.150279521942138672e+00,-2.682663202285766602e+00,1.276023864746093750e+00,-2.572368860244750977e+00,8.831724166870117188e+00,3.762694358825683594e+00,6.304253578186035156e+00,1.259376144409179688e+01,8.143365859985351562e+00,-2.847283840179443359e+00,-6.829845905303955078e+00,2.134410858154296875e+00,3.888072967529296875e+00,3.091171011328697205e-02
-1.333502054214477539e+00,7.317759037017822266e+00,-4.905836582183837891e+00,3.192898035049438477e+00,-2.518087625503540039e+00,1.281749367713928223e+00,-1.799130439758300781e+00,4.957320213317871094e+00,-3.974856615066528320e+00,4.826151728630065918e-01,-3.149025917053222656e+00,6.083854198455810547e+00,2.574990034103393555e+00,5.777465343475341797e+00,1.031052207946777344e+01,7.883933067321777344e+00,-3.123389244079589844e+00,-7.828088283538818359e+00,2.562440872192382812e+00,3.575056552886962891e+00,3.049727343022823334e-02
-3.380160927772521973e-01,7.515079021453857422e+00,-4.524084568023681641e+00,3.551534891128540039e+00,-2.524242877960205078e+00,2.677030801773071289e+00,-2.060798168182373047e+00,3.717778205871582031e+00,-4.944001674652099609e+00,2.403797805309295654e-01,-3.257025241851806641e+00,4.228399753570556641e+00,1.558803677558898926e+00,5.558281421661376953e+00,8.043544769287109375e+00,7.912581920623779297e+00,-2.874378204345703125e+00,-8.376937866210937500e+00,3.285852909088134766e+00,3.293683767318725586e+00,2.926193550229072571e-02
6.823936104774475098e-01,7.606935024261474609e+00,-3.808445930480957031e+00,4.011159896850585938e+00,-2.635038375854492188e+00,3.791824579238891602e+00,-1.984183788299560547e+00,3.554419994354248047e+00,-5.646430969238281250e+00,4.650618731975555420e-01,-3.152989387512207031e+00,3.555189847946166992e+00,6.495224833488464355e-01,5.623040199279785156e+00,5.924555301666259766e+00,8.159281730651855469e+00,-2.180244207382202148e+00,-8.520596504211425781e+00,4.068067550659179688e+00,3.030271053314208984e+00,2.734118327498435974e-02
1.661752343177795410e+00,7.564408779144287109e+00,-2.941040515899658203e+00,4.393101692199707031e+00,-2.762248039245605469e+00,4.378558158874511719e+00,-1.855707287788391113e+00,4.258345127105712891e+00,-6.193658828735351562e+00,9.284687042236328125e-01,-3.110383987426757812e+00,4.088071346282958984e+00,-2.856038808822631836e-01,5.853432178497314453e+00,4.020229339599609375e+00,8.477603912353515625e+00,-1.248710989952087402e+00,-8.373253822326660156e+00,4.594558238983154297e+00,2.695873498916625977e+00,2.513351477682590485e-02
2.539949893951416016e+00,7.377295017242431641e+00,-2.094648838043212891e+00,4.561415195465087891e+00,-2.825852632522583008e+00,4.415765762329101562e+00,-1.861600637435913086e+00,5.397891998291015625e+00,-6.661561489105224609e+00,1.371981859207153320e+00,-3.299630641937255859e+00,5.509699821472167969e+00,-1.352305889129638672e+00,6.101259231567382812e+00,2.382606506347656250e+00,8.714754104614257812e+00,-3.171778321266174316e-01,-8.045417785644531250e+00,4.613703250885009766e+00,2.206678390502929688e+00,2.318885363638401031e-02
3.289129972457885742e+00,7.091521263122558594e+00,-1.365001082420349121e+00,4.508331298828125000e+00,-2.749937295913696289e+00,4.080898284912109375e+00,-2.010114908218383789e+00,6.560210227966308594e+00,-7.034044265747070312e+00,1.656345129013061523e+00,-3.739554643630981445e+00,7.363319873809814453e+00,-2.554107666015625000e+00,6.281836986541748047e+00,1.097877621650695801e+00,8.807067871093750000e+00,4.543690085411071777e-01,-7.566555976867675781e+00,4.025674819946289062e+00,1.537028431892395020e+00,2.199336513876914978e-02
3.922487735748291016e+00,6.810850143432617188e+00,-7.357527017593383789e-01,4.367207050323486328e+00,-2.470896959304809570e+00,3.632977247238159180e+00,-2.102052211761474609e+00,7.484916210174560547e+00,-7.180048465728759766e+00,1.813154458999633789e+00,-4.236946105957031250e+00,9.207768440246582031e+00,-3.753560066223144531e+00,6.421317577362060547e+00,2.977679371833801270e-01,8.821392059326171875e+00,1.054317593574523926e+00,-6.862997531890869141e+00,2.937138080596923828e+00,7.570529580116271973e-01,2.173035778105258942e-02
4.464946746826171875e+00,6.640746593475341797e+00,-1.356902718544006348e-01,4.295997619628906250e+00,-1.972317457199096680e+00,3.253746986389160156e+00,-1.918177485466003418e+00,8.031423568725585938e+00,-6.978861808776855469e+00,1.973474502563476562e+00,-4.551035881042480469e+00,1.068626213073730469e+01,-4.770921230316162109e+00,6.588196277618408203e+00,8.147813379764556885e-02,8.880282402038574219e+00,1.571692705154418945e+00,-5.868438720703125000e+00,1.561424732208251953e+00,2.069449238479137421e-02,2.225637249648571014e-02
4.931168556213378906e+00,6.659458160400390625e+00,4.935580790042877197e-01,4.394396305084228516e+00,-1.305492997169494629e+00,3.004742860794067383e+00,-1.407807350158691406e+00,8.184881210327148438e+00,-6.414389133453369141e+00,2.280071973800659180e+00,-4.561934947967529297e+00,1.164196300506591797e+01,-5.476964950561523438e+00,6.843495368957519531e+00,4.327457845211029053e-01,9.090374946594238281e+00,2.132935047149658203e+00,-4.586562156677246094e+00,1.446861326694488525e-01,-4.933025240898132324e-01,2.312509343028068542e-02
5.327017307281494141e+00,6.901005268096923828e+00,1.176508545875549316e+00,4.666286945343017578e+00,-5.709601640701293945e-01,2.870223522186279297e+00,-6.899887323379516602e-01,7.999742031097412109e+00,-5.593547344207763672e+00,2.801989793777465820e+00,-4.296395301818847656e+00,1.210789012908935547e+01,-5.842322349548339844e+00,7.204650402069091797e+00,1.188946962356567383e+00,9.475544929504394531e+00,2.824488639831542969e+00,-3.118052721023559570e+00,-1.099746465682983398e+00,-6.275746226310729980e-01,2.379456721246242523e-02
5.651026725769042969e+00,7.355181694030761719e+00,1.885142564773559570e+00,5.014566421508789062e+00,1.102266907691955566e-01,2.858774900436401367e+00,-2.285354211926460266e-02,7.510657310485839844e+00,-4.716373443603515625e+00,3.485397815704345703e+00,-3.930782794952392578e+00,1.221336555480957031e+01,-5.941003799438476562e+00,7.610638618469238281e+00,2.045974969863891602e+00,9.946661949157714844e+00,3.656675338745117188e+00,-1.643404006958007812e+00,-2.017344474792480469e+00,-3.359390497207641602e-01,2.391411550343036652e-02
5.885603427886962891e+00,7.974358558654785156e+00,2.543576717376708984e+00,5.305877685546875000e+00,6.252203583717346191e-01,3.057692050933837891e+00,3.401811420917510986e-01,6.738419055938720703e+00,-3.994400501251220703e+00,4.173486709594726562e+00,-3.671187877655029297e+00,1.208312606811523438e+01,-5.902235984802246094e+00,7.954358577728271484e+00,2.646057128906250000e+00,1.034138202667236328e+01,4.552082538604736328e+00,-3.639835715293884277e-01,-2.501442432403564453e+00,2.704235017299652100e-01,2.337216213345527649e-02
6.029281616210937500e+00,8.687092781066894531e+00,3.086434841156005859e+00,5.453475475311279297e+00,9.124678373336791992e-01,3.600062847137451172e+00,3.319303691387176514e-01,5.763220310211181641e+00,-3.528796911239624023e+00,4.700085639953613281e+00,-3.587959051132202148e+00,1.181255817413330078e+01,-5.805903911590576172e+00,8.142408370971679688e+00,2.699723005294799805e+00,1.050531768798828125e+01,5.397171497344970703e+00,5.974236130714416504e-01,-2.437169551849365234e+00,9.434944391250610352e-01,2.230419218540191650e-02
6.082061767578125000e+00,9.394722938537597656e+00,3.465851783752441406e+00,5.439233779907226562e+00,9.658137559890747070e-01,4.513077735900878906e+00,9.855091571807861328e-02,4.692976951599121094e+00,-3.295420408248901367e+00,4.939980506896972656e+00,-3.602821350097656250e+00,1.141450214385986328e+01,-5.662580490112304688e+00,8.122482299804687500e+00,2.078499794006347656e+00,1.033819866180419922e+01,6.083564281463623047e+00,1.207665443420410156e+00,-1.730167865753173828e+00,1.359139323234558105e+00,2.100509405136108398e-02
6.041010856628417969e+00,9.988384246826171875e+00,3.643302202224731445e+00,5.301993846893310547e+00,8.345006704330444336e-01,5.686545372009277344e+00,-1.336498409509658813e-01,3.632633924484252930e+00,-3.193102598190307617e+00,4.834660530090332031e+00,-3.558234453201293945e+00,1.076880836486816406e+01,-5.444071292877197266e+00,7.867183208465576172e+00,8.230431675910949707e-01,9.812966346740722656e+00,6.535138607025146484e+00,1.498666048049926758e+00,-3.653944730758666992e-01,1.242827177047729492e+00,1.976975612342357635e-02
5.901730537414550781e+00,1.040003490447998047e+01,3.591934919357299805e+00,5.111670017242431641e+00,5.780296921730041504e-01,6.927272319793701172e+00,-1.819758862257003784e-01,2.636644124984741211e+00,-3.127573251724243164e+00,4.384126186370849609e+00,-3.315483808517456055e+00,9.690204620361328125e+00,-5.123355865478515625e+00,7.365302562713623047e+00,-8.747504353523254395e-01,8.955087661743164062e+00,6.715768337249755859e+00,1.514628171920776367e+00,1.540912151336669922e+00,5.107448697090148926e-01,1.882133446633815765e-02
5.631967067718505859e+00,1.059735488891601562e+01,3.263885259628295898e+00,4.905809879302978516e+00,2.353845238685607910e-01,7.997703552246093750e+00,-5.939275026321411133e-02,1.693127036094665527e+00,-3.087335824966430664e+00,3.616462469100952148e+00,-2.898348569869995117e+00,8.021854400634765625e+00,-4.735677719116210938e+00,6.594422817230224609e+00,-2.756309032440185547e+00,7.804352283477783203e+00,6.609971046447753906e+00,1.260462999343872070e+00,3.705677986145019531e+00,-6.840202212333679199e-01,1.828734949231147766e-02
5.208262443542480469e+00,1.060926246643066406e+01,2.635804414749145508e+00,4.711602210998535156e+00,-1.667619347572326660e-01,8.713232040405273438e+00,2.900855615735054016e-02,7.921820282936096191e-01,-3.137919902801513672e+00,2.589009761810302734e+00,-2.475268602371215820e+00,5.762841224670410156e+00,-4.355048179626464844e+00,5.552054405212402344e+00,-4.551677227020263672e+00,6.414875507354736328e+00,6.226778030395507812e+00,7.189808487892150879e-01,5.743265151977539062e+00,-1.989110827445983887e+00,1.821562089025974274e-02
4.621819972991943359e+00,1.051570510864257812e+01,1.746217608451843262e+00,4.547173023223876953e+00,-5.873742699623107910e-01,9.026634216308593750e+00,-1.749037802219390869e-01,-1.173810381442308426e-02,-3.344854831695556641e+00,1.400067090988159180e+00,-2.233508586883544922e+00,3.166305780410766602e+00,-4.039031982421875000e+00,4.291747570037841797e+00,-6.015292167663574219e+00,4.872603416442871094e+00,5.599734783172607422e+00,-9.508424252271652222e-02,7.284447193145751953e+00,-3.009407758712768555e+00,1.858223602175712585e-02
3.926886081695556641e+00,1.040683937072753906e+01,7.293802499771118164e-01,4.424174785614013672e+00,-9.402782917022705078e-01,8.983702659606933594e+00,-7.807474136352539062e-01,-6.047776937484741211e-01,-3.688596725463867188e+00,1.783581525087356567e-01,-2.224591255187988281e+00,6.798315644264221191e-01,-3.771181821823120117e+00,2.938038825988769531e+00,-6.956884860992431641e+00,3.301682710647583008e+00,4.784320831298828125e+00,-1.092099070549011230e+00,8.091277122497558594e+00,-3.472945690155029297e+00,1.936328969895839691e-02
3.248078823089599609e+00,1.033709716796875000e+01,-1.963969767093658447e-01,4.332250118255615234e+00,-1.075695037841796875e+00,8.615920066833496094e+00,-1.665939092636108398e+00,-8.532801270484924316e-01,-4.030039310455322266e+00,-9.286692738533020020e-01,-2.312774181365966797e+00,-1.194883704185485840e+00,-3.459864616394042969e+00,1.654070019721984863e+00,-7.277253627777099609e+00,1.834216594696044922e+00,3.857948541641235352e+00,-2.105075836181640625e+00,8.124097824096679688e+00,-3.345515489578247070e+00,2.047110907733440399e-02
