Fp1,Fp2,F7,F3,Fz,F4,F8,T3,C3,Cz,C4,T4,T5,P3,Pz,P4,T6,O1,Oz,O2,A1
-1.726850318908691406e+01,-1.047519207000732422e+00,2.739102840423583984e+00,3.833518981933593750e+00,1.429384350776672363e+00,9.433665275573730469e+00,5.118074417114257812e+00,1.162692546844482422e+01,7.106829643249511719e+00,1.171932125091552734e+01,-7.721061706542968750e-01,1.802119445800781250e+01,1.788181543350219727e+00,3.359838724136352539e-01,-1.628128409385681152e+00,-1.147712707519531250e+00,1.778846085071563721e-01,6.772626399993896484e+00,-1.080108928680419922e+01,3.240426301956176758e+00,-4.908268898725509644e-02
-1.501761341094970703e+01,1.046692013740539551e+00,2.909285068511962891e+00,5.543797016143798828e+00,1.688240528106689453e+00,1.125947666168212891e+01,4.387934684753417969e+00,1.352178955078125000e+01,6.070394039154052734e+00,1.275946426391601562e+01,-1.146193146705627441e+00,2.154390335083007812e+01,1.831374526023864746e+00,4.024149417877197266e+00,-5.825061798095703125e-01,1.637966632843017578e+00,1.104019403457641602e+00,6.925266265869140625e+00,-8.576595306396484375e+00,3.890406370162963867e+00,-4.818284884095191956e-02
-1.263372135162353516e+01,3.045189857482910156e+00,2.789086341857910156e+00,7.067922115325927734e+00,1.697079539299011230e+00,1.302187728881835938e+01,2.979585409164428711e+00,1.539970016479492188e+01,4.316318035125732422e+00,1.354700183868408203e+01,-2.296327114105224609e+00,2.512146377563476562e+01,1.269864678382873535e+00,7.525856018066406250e+00,-2.275218218564987183e-01,3.888056755065917969e+00,1.820418834686279297e+00,6.661326408386230469e+00,-6.557171344757080078e+00,4.981219291687011719e+00,-4.734169691801071167e-02
-1.024532032012939453e+01,4.977325916290283203e+00,2.535598039627075195e+00,8.461482048034667969e+00,1.530401468276977539e+00,1.465308189392089844e+01,1.136060476303100586e+00,1.729065322875976562e+01,2.138117790222167969e+00,1.419255065917968750e+01,-3.968715906143188477e+00,2.883716964721679688e+01,4.306849241256713867e-01,1.097535419464111328e+01,-1.132941842079162598e-01,5.930375099182128906e+00,2.431950569152832031e+00,6.149345874786376953e+00,-4.574243068695068359e+00,6.520977973937988281e+00,-4.669615998864173889e-02
-7.941454410552978516e+00,6.853310585021972656e+00,2.324953079223632812e+00,9.804625511169433594e+00,1.299324989318847656e+00,1.607655906677246094e+01,-8.466377258300781250e-01,1.922985649108886719e+01,-9.625773131847381592e-02,1.483975124359130859e+01,-5.830348491668701172e+00,3.276009368896484375e+01,-3.406199514865875244e-01,1.454418563842773438e+01,2.539916038513183594e-01,8.158918380737304688e+00,3.080009222030639648e+00,5.602385520935058594e+00,-2.427953243255615234e+00,8.419532775878906250e+00,-4.640273377299308777e-02
-5.796514511108398438e+00,8.641238212585449219e+00,2.319002628326416016e+00,1.116069602966308594e+01,1.102341771125793457e+00,1.721577835083007812e+01,-2.681853771209716797e+00,2.121339988708496094e+01,-2.027286291122436523e+00,1.562068367004394531e+01,-7.574620723724365234e+00,3.687601470947265625e+01,-7.555819749832153320e-01,1.835168457031250000e+01,1.211746454238891602e+00,1.085995006561279297e+01,3.905989646911621094e+00,5.227145195007324219e+00,3.636950999498367310e-02,1.049838733673095703e+01,-4.657879099249839783e-02
-3.870239496231079102e+00,1.025688266754150391e+01,2.623664379119873047e+00,1.255296325683593750e+01,1.003850102424621582e+00,1.800732803344726562e+01,-4.155635356903076172e+00,2.319955062866210938e+01,-3.378304004669189453e+00,1.661624908447265625e+01,-8.984415054321289062e+00,4.102037811279296875e+01,-6.769089102745056152e-01,2.239039421081542969e+01,2.819720029830932617e+00,1.407656383514404297e+01,4.998262882232666016e+00,5.174674987792968750e+00,2.844793796539306641e+00,1.252585697174072266e+01,-4.724388942122459412e-02
-2.213349819183349609e+00,1.158793830871582031e+01,3.271070957183837891e+00,1.394652271270751953e+01,1.024053573608398438e+00,1.842934226989746094e+01,-5.149580955505371094e+00,2.508528518676757812e+01,-3.999041795730590820e+00,1.782149505615234375e+01,-9.973178863525390625e+00,4.487626266479492188e+01,-1.431659162044525146e-01,2.649622917175292969e+01,4.844185352325439453e+00,1.756712722778320312e+01,6.373325824737548828e+00,5.505395412445068359e+00,5.873929500579833984e+00,1.424771881103515625e+01,-4.835890606045722961e-02
-8.619138598442077637e-01,1.253486347198486328e+01,4.226709365844726562e+00,1.526122665405273438e+01,1.166740059852600098e+00,1.849931335449218750e+01,-5.647072792053222656e+00,2.673497772216796875e+01,-3.876860380172729492e+00,1.916212272644042969e+01,-1.055851459503173828e+01,4.804548263549804688e+01,6.713320612907409668e-01,3.040068817138671875e+01,6.868650436401367188e+00,2.089455223083496094e+01,7.969906806945800781e+00,6.198636054992675781e+00,8.882210731506347656e+00,1.542868137359619141e+01,-4.976734891533851624e-02
1.829411238431930542e-01,1.304788780212402344e+01,5.416794776916503906e+00,1.639494895935058594e+01,1.424333572387695312e+00,1.829377365112304688e+01,-5.700041770935058594e+00,2.801169776916503906e+01,-3.108662128448486328e+00,2.051596069335937500e+01,-1.081377410888671875e+01,5.017251586914062500e+01,1.547534346580505371e+00,3.380356979370117188e+01,8.469594955444335938e+00,2.357403755187988281e+01,9.674890518188476562e+00,7.170126438140869141e+00,1.159331321716308594e+01,1.588483905792236328e+01,-5.125403776764869690e-02
9.437578320503234863e-01,1.314360141754150391e+01,6.741360187530517578e+00,1.725978279113769531e+01,1.808198213577270508e+00,1.792423820495605469e+01,-5.394691944122314453e+00,2.881893730163574219e+01,-1.850333809852600098e+00,2.174927330017089844e+01,-1.081964206695556641e+01,5.106030273437500000e+01,2.292614936828613281e+00,3.647180557250976562e+01,9.360570907592773438e+00,2.524698448181152344e+01,1.135395145416259766e+01,8.322876930236816406e+00,1.379173946380615234e+01,1.552063369750976562e+01,-5.250598490238189697e-02
1.447587609291076660e+00,1.289346981048583984e+01,8.100438117980957031e+00,1.780789947509765625e+01,2.329698801040649414e+00,1.750659561157226562e+01,-4.817226886749267578e+00,2.912540245056152344e+01,-2.718057632446289062e-01,2.277125549316406250e+01,-1.063479900360107422e+01,5.075556945800781250e+01,2.803218603134155273e+00,3.831029510498046875e+01,9.462496757507324219e+00,2.578872871398925781e+01,1.288572692871093750e+01,9.577387809753417969e+00,1.537495422363281250e+01,1.435499668121337891e+01,-5.330801382660865784e-02
1.701193213462829590e+00,1.239575958251953125e+01,9.395250320434570312e+00,1.801861381530761719e+01,2.979995727539062500e+00,1.713050079345703125e+01,-4.048658847808837891e+00,2.897542953491210938e+01,1.468226432800292969e+00,2.351916694641113281e+01,-1.029592037200927734e+01,4.953866958618164062e+01,3.065462350845336914e+00,3.936938095092773438e+01,8.880814552307128906e+00,2.532855415344238281e+01,1.416416931152343750e+01,1.085733890533447266e+01,1.636902427673339844e+01,1.253306865692138672e+01,-5.352319404482841492e-02
1.663997650146484375e+00,1.172831821441650391e+01,1.051631069183349609e+01,1.789838981628417969e+01,3.708581209182739258e+00,1.683312416076660156e+01,-3.155457973480224609e+00,2.846161270141601562e+01,3.226515769958496094e+00,2.395833969116210938e+01,-9.841147422790527344e+00,4.785045242309570312e+01,3.120996236801147461e+00,3.980010223388671875e+01,7.794773101806640625e+00,2.417580604553222656e+01,1.510090923309326172e+01,1.208640956878662109e+01,1.688517761230468750e+01,1.031177806854248047e+01,-5.317108333110809326e-02
1.249211668968200684e+00,1.093453407287597656e+01,1.134461021423339844e+01,1.745239830017089844e+01,4.416963100433349609e+00,1.656854438781738281e+01,-2.206172466278076172e+00,2.768045425415039062e+01,4.865432262420654297e+00,2.403758811950683594e+01,-9.321826934814453125e+00,4.614394760131835938e+01,3.022269248962402344e+00,3.977772903442382812e+01,6.383622646331787109e+00,2.271216964721679688e+01,1.561464309692382812e+01,1.314694023132324219e+01,1.703984832763671875e+01,8.017464637756347656e+00,-5.242773890495300293e-02
3.621557354927062988e-01,1.001568412780761719e+01,1.175518989562988281e+01,1.667805480957031250e+01,4.976345062255859375e+00,1.625148773193359375e+01,-1.271427392959594727e+00,2.669976806640625000e+01,6.243133544921875000e+00,2.368426895141601562e+01,-8.798105239868164062e+00,4.476249313354492188e+01,2.787792682647705078e+00,3.944023895263671875e+01,4.791464805603027344e+00,2.128085327148437500e+01,1.561935615539550781e+01,1.387039089202880859e+01,1.692167282104492188e+01,5.972867012023925781e+00,-5.154746025800704956e-02
-1.053526878356933594e+00,8.951350212097167969e+00,1.164094161987304688e+01,1.555596828460693359e+01,5.262980937957763672e+00,1.576606178283691406e+01,-4.187321960926055908e-01,2.553259468078613281e+01,7.224798202514648438e+00,2.280097389221191406e+01,-8.316926956176757812e+00,4.385439300537109375e+01,2.428364515304565430e+00,3.884170150756835938e+01,3.146586894989013672e+00,2.012195014953613281e+01,1.504317283630371094e+01,1.406755161285400391e+01,1.656192970275878906e+01,4.430403709411621094e+00,-5.082367733120918274e-02
-2.949369430541992188e+00,7.733874797821044922e+00,1.093403148651123047e+01,1.407450294494628906e+01,5.202370643615722656e+00,1.501168441772460938e+01,2.937512695789337158e-01,2.414372253417968750e+01,7.699480056762695312e+00,2.128863906860351562e+01,-7.890027523040771484e+00,4.336072540283203125e+01,1.948612928390502930e+00,3.796161270141601562e+01,1.617693901062011719e+00,1.934780693054199219e+01,1.384249687194824219e+01,1.355716037750244141e+01,1.595019435882568359e+01,3.505466699600219727e+00,-5.045200511813163757e-02
-5.156301498413085938e+00,6.379848003387451172e+00,9.630887985229492188e+00,1.224270915985107422e+01,4.786938190460205078e+00,1.392494392395019531e+01,8.296718001365661621e-01,2.247316360473632812e+01,7.596960067749023438e+00,1.909278106689453125e+01,-7.477798461914062500e+00,4.307224655151367188e+01,1.377847313880920410e+00,3.673844146728515625e+01,4.314837753772735596e-01,1.895688819885253906e+01,1.203382396697998047e+01,1.223427963256835938e+01,1.507603740692138672e+01,3.158390045166015625e+00,-5.051069334149360657e-02
-7.395920753479003906e+00,4.940316677093505859e+00,7.799345970153808594e+00,1.010066032409667969e+01,4.087395191192626953e+00,1.250583934783935547e+01,1.165141344070434570e+00,2.046875572204589844e+01,6.904598236083984375e+00,1.623486328125000000e+01,-7.014224052429199219e+00,4.271266174316406250e+01,7.654312252998352051e-01,3.511624526977539062e+01,-1.730440258979797363e-01,1.884761619567871094e+01,9.699634552001953125e+00,1.009731864929199219e+01,1.395336341857910156e+01,3.216987371444702148e+00,-5.098017305135726929e-02
-9.346992492675781250e+00,3.484195709228515625e+00,5.557225227355957031e+00,7.719456672668457031e+00,3.194657087326049805e+00,1.080466365814208984e+01,1.284581065177917480e+00,1.812527847290039062e+01,5.658909320831298828e+00,1.281890106201171875e+01,-6.447958946228027344e+00,4.202802658081054688e+01,1.561003774404525757e-01,3.305400466918945312e+01,-3.772820532321929932e-02,1.883684349060058594e+01,6.987214088439941406e+00,7.262346744537353516e+00,1.262040424346923828e+01,3.441460371017456055e+00,-5.168439447879791260e-02
-1.072660732269287109e+01,2.071464538574218750e+00,3.050905227661132812e+00,5.188297271728515625e+00,2.203427314758300781e+00,8.924186706542968750e+00,1.163064241409301758e+00,1.548185920715332031e+01,3.920281648635864258e+00,9.014949798583984375e+00,-5.779003620147705078e+00,4.084972763061523438e+01,-4.424321949481964111e-01,3.054612731933593750e+01,8.110710382461547852e-01,1.868293762207031250e+01,4.076841354370117188e+00,3.924934387207031250e+00,1.112582206726074219e+01,3.606434583663940430e+00,-5.242773890495300293e-02
-1.135780334472656250e+01,7.442373633384704590e-01,4.172460436820983887e-01,2.595086574554443359e+00,1.159163832664489746e+00,6.997791290283203125e+00,7.621623873710632324e-01,1.263239097595214844e+01,1.757529616355895996e+00,5.032687187194824219e+00,-5.089509963989257812e+00,3.909446716308593750e+01,-1.082615256309509277e+00,2.760379791259765625e+01,2.113265991210937500e+00,1.811195182800292969e+01,1.149972677230834961e+00,3.219919204711914062e-01,9.493947029113769531e+00,3.572177648544311523e+00,-5.305371433496475220e-02
-1.121014881134033203e+01,-4.847238659858703613e-01,-2.231884241104125977e+00,1.997413113713264465e-02,4.797647893428802490e-02,5.169792652130126953e+00,3.306125849485397339e-02,9.698155403137207031e+00,-7.703622579574584961e-01,1.076841235160827637e+00,-4.518843650817871094e+00,3.678256225585937500e+01,-1.880144476890563965e+00,2.423447799682617188e+01,3.415461063385009766e+00,1.687147712707519531e+01,-1.637858033180236816e+00,-3.330240488052368164e+00,7.707399845123291016e+00,3.323364257812500000e+00,-5.342538654804229736e-02
-1.038057613372802734e+01,-1.615419268608093262e+00,-4.814369678497314453e+00,-2.473696470260620117e+00,-1.188219428062438965e+00,3.575760364532470703e+00,-1.058513283729553223e+00,6.810867309570312500e+00,-3.603005409240722656e+00,-2.680882215499877930e+00,-4.225442409515380859e+00,3.398918151855468750e+01,-2.975397348403930664e+00,2.045121765136718750e+01,4.195724010467529297e+00,1.478144836425781250e+01,-4.179426670074462891e+00,-6.858452796936035156e+00,5.708830356597900391e+00,2.961863517761230469e+00,-5.336669832468032837e-02
-9.057318687438964844e+00,-2.652953624725341797e+00,-7.273086071014404297e+00,-4.826459884643554688e+00,-2.618873119354248047e+00,2.329397678375244141e+00,-2.523985862731933594e+00,4.086592674255371094e+00,-6.674394130706787109e+00,-6.118307590484619141e+00,-4.331067085266113281e+00,3.084840393066406250e+01,-4.490240097045898438e+00,1.626893424987792969e+01,4.007687568664550781e+00,1.178338050842285156e+01,-6.405213356018066406e+00,-1.014657497406005859e+01,3.421772003173828125e+00,2.654452562332153320e+00,-5.274072661995887756e-02
-7.455658912658691406e+00,-3.601155281066894531e+00,-9.556859970092773438e+00,-6.984021186828613281e+00,-4.289442539215087891e+00,1.483182907104492188e+00,-4.311426162719726562e+00,1.612705945968627930e+00,-9.880603790283203125e+00,-9.159487724304199219e+00,-4.878260612487792969e+00,2.751666259765625000e+01,-6.480206966400146484e+00,1.172865009307861328e+01,2.601809024810791016e+00,7.963459491729736328e+00,-8.284584045410156250e+00,-1.312464714050292969e+01,7.819227576255798340e-01,2.565204143524169922e+00,-5.129316076636314392e-02
-5.778480529785156250e+00,-4.462576866149902344e+00,-1.161213779449462891e+01,-8.894671440124511719e+00,-6.182249069213867188e+00,1.028369903564453125e+00,-6.325282573699951172e+00,-5.612365007400512695e-01,-1.308400440216064453e+01,-1.177470493316650391e+01,-5.818612575531005859e+00,2.416053962707519531e+01,-8.925243377685546875e+00,6.906811237335205078e+00,-2.366941794753074646e-02,3.532536506652832031e+00,-9.811645507812500000e+00,-1.574973869323730469e+01,-2.233309984207153320e+00,2.792381763458251953e+00,-4.871101677417755127e-02
-4.193727493286132812e+00,-5.249979496002197266e+00,-1.338893508911132812e+01,-1.051704406738281250e+01,-8.208903312683105469e+00,8.818675875663757324e-01,-8.427420616149902344e+00,-2.430018424987792969e+00,-1.611045265197753906e+01,-1.397386455535888672e+01,-7.039163112640380859e+00,2.093850135803222656e+01,-1.173433589935302734e+01,1.920888304710388184e+00,-3.659622907638549805e+00,-1.216969966888427734e+00,-1.099818229675292969e+01,-1.799800109863281250e+01,-5.592644214630126953e+00,3.332379102706909180e+00,-4.466174170374870300e-02
-2.826511621475219727e+00,-5.992716312408447266e+00,-1.483726882934570312e+01,-1.182916259765625000e+01,-1.021914196014404297e+01,8.993604183197021484e-01,-1.046516418457031250e+01,-4.023634433746337891e+00,-1.879704093933105469e+01,-1.578998756408691406e+01,-8.396144866943359375e+00,1.797243690490722656e+01,-1.475476551055908203e+01,-3.081815958023071289e+00,-7.935251235961914062e+00,-5.960319995880126953e+00,-1.187954235076904297e+01,-1.985035133361816406e+01,-9.207448005676269531e+00,4.083327293395996094e+00,-3.883235529065132141e-02
-1.765876770019531250e+00,-6.730348110198974609e+00,-1.592857742309570312e+01,-1.283361148834228516e+01,-1.201345729827880859e+01,9.190397858619689941e-01,-1.229830360412597656e+01,-5.400768756866455078e+00,-2.098928451538085938e+01,-1.726930236816406250e+01,-9.756061553955078125e+00,1.533751583099365234e+01,-1.781067466735839844e+01,-7.939081668853759766e+00,-1.240770244598388672e+01,-1.038508701324462891e+01,-1.250285720825195312e+01,-2.129407310485839844e+01,-1.294737911224365234e+01,4.882956027984619141e+00,-3.104680031538009644e-02
-1.059162616729736328e+00,-7.497332572937011719e+00,-1.665095901489257812e+01,-1.355236721038818359e+01,-1.339739036560058594e+01,7.944035530090332031e-01,-1.381882190704345703e+01,-6.624019145965576172e+00,-2.260011291503906250e+01,-1.847289657592773438e+01,-1.101475429534912109e+01,1.306217861175537109e+01,-2.070923995971679688e+01,-1.248868942260742188e+01,-1.659370613098144531e+01,-1.420962429046630859e+01,-1.293057537078857422e+01,-2.232280349731445312e+01,-1.663691139221191406e+01,5.561783790588378906e+00,-2.138332091271877289e-02
-7.063691020011901855e-01,-8.294944763183593750e+00,-1.702107620239257812e+01,-1.401645660400390625e+01,-1.420678901672363281e+01,4.532937407493591309e-01,-1.496648120880126953e+01,-7.746853351593017578e+00,-2.359582138061523438e+01,-1.943379020690917969e+01,-1.210474109649658203e+01,1.114439487457275391e+01,-2.325608825683593750e+01,-1.657587814331054688e+01,-2.001702117919921875e+01,-1.719230270385742188e+01,-1.321572113037109375e+01,-2.293654441833496094e+01,-2.007966423034667969e+01,5.995404720306396484e+00,-1.017446629703044891e-02
-6.556479930877685547e-01,-9.084899902343750000e+00,-1.706272888183593750e+01,-1.425561141967773438e+01,-1.434189987182617188e+01,-9.116995334625244141e-02,-1.572881793975830078e+01,-8.790137290954589844e+00,-2.401011466979980469e+01,-2.016519355773925781e+01,-1.298054409027099609e+01,9.574007034301757812e+00,-2.525993728637695312e+01,-2.007012748718261719e+01,-2.223655128479003906e+01,-1.913920021057128906e+01,-1.339364242553710938e+01,-2.312893295288085938e+01,-2.307230567932128906e+01,6.137841224670410156e+00,1.973348902538418770e-03
-8.055570125579833984e-01,-9.782970428466796875e+00,-1.682471275329589844e+01,-1.428792953491210938e+01,-1.379388236999511719e+01,-7.384039163589477539e-01,-1.613802909851074219e+01,-9.735612869262695312e+00,-2.392163848876953125e+01,-2.065389442443847656e+01,-1.361869239807128906e+01,8.367265701293945312e+00,-2.656498527526855469e+01,-2.285955810546875000e+01,-2.292191696166992188e+01,-1.991488075256347656e+01,-1.347023200988769531e+01,-2.289679336547851562e+01,-2.543235397338867188e+01,6.026055335998535156e+00,1.417984999716281891e-02
-1.034365653991699219e+00,-1.029982376098632812e+01,-1.635581779479980469e+01,-1.412633800506591797e+01,-1.265365219116210938e+01,-1.339719295501708984e+00,-1.626681518554687500e+01,-1.053633308410644531e+01,-2.344414710998535156e+01,-2.086852836608886719e+01,-1.401185035705566406e+01,7.562771320343017578e+00,-2.707713127136230469e+01,-2.487331962585449219e+01,-2.192725753784179688e+01,-1.948394775390625000e+01,-1.342545700073242188e+01,-2.224171257019042969e+01,-2.702425765991210938e+01,5.760113716125488281e+00,2.546695061028003693e-02
-1.234995841979980469e+00,-1.057292556762695312e+01,-1.573340320587158203e+01,-1.378764438629150391e+01,-1.109799003601074219e+01,-1.744240403175354004e+00,-1.621384620666503906e+01,-1.112448406219482422e+01,-2.270122909545898438e+01,-2.077276802062988281e+01,-1.418055629730224609e+01,7.205218791961669922e+00,-2.679946327209472656e+01,-2.607971191406250000e+01,-1.937558937072753906e+01,-1.793104553222656250e+01,-1.323575210571289062e+01,-2.118913269042968750e+01,-2.779240417480468750e+01,5.477043151855468750e+00,3.485656529664993286e-02
-1.357853651046752930e+00,-1.060865879058837891e+01,-1.504791450500488281e+01,-1.331192016601562500e+01,-9.371861457824707031e+00,-1.862316966056823730e+00,-1.609129142761230469e+01,-1.144920635223388672e+01,-2.181927490234375000e+01,-2.035836219787597656e+01,-1.417762279510498047e+01,7.314922332763671875e+00,-2.585384178161621094e+01,-2.651416206359863281e+01,-1.568164253234863281e+01,-1.547780132293701172e+01,-1.289522647857666016e+01,-1.980106163024902344e+01,-2.778371429443359375e+01,5.315675258636474609e+00,4.139017313718795776e-02
-1.432244539260864258e+00,-1.049252700805664062e+01,-1.441002845764160156e+01,-1.276897525787353516e+01,-7.753063678741455078e+00,-1.691762089729309082e+00,-1.601651191711425781e+01,-1.149224185943603516e+01,-2.093451309204101562e+01,-1.966328239440917969e+01,-1.409693717956542969e+01,7.843125343322753906e+00,-2.446857833862304688e+01,-2.627176475524902344e+01,-1.148685264587402344e+01,-1.247357654571533203e+01,-1.243805122375488281e+01,-1.818721008300781250e+01,-2.714591026306152344e+01,5.388696193695068359e+00,4.455916956067085266e-02
-1.561865210533142090e+00,-1.037384223937988281e+01,-1.394232463836669922e+01,-1.225576210021972656e+01,-6.489088058471679688e+00,-1.317853212356567383e+00,-1.607467269897460938e+01,-1.128619289398193359e+01,-2.015507888793945312e+01,-1.878659057617187500e+01,-1.405292701721191406e+01,8.651682853698730469e+00,-2.293985366821289062e+01,-2.551473999023437500e+01,-7.543362617492675781e+00,-9.341611862182617188e+00,-1.194316959381103516e+01,-1.650339889526367188e+01,-2.610144042968750000e+01,5.768227100372314453e+00,4.428530484437942505e-02
-1.883098959922790527e+00,-1.041723251342773438e+01,-1.375310134887695312e+01,-1.187828636169433594e+01,-5.765553951263427734e+00,-8.849061727523803711e-01,-1.633224678039550781e+01,-1.091843605041503906e+01,-1.957928276062011719e+01,-1.787192535400390625e+01,-1.416001892089843750e+01,9.531344413757324219e+00,-2.157927131652832031e+01,-2.444819259643554688e+01,-4.525995731353759766e+00,-6.508221626281738281e+00,-1.152134227752685547e+01,-1.492770862579345703e+01,-2.492315292358398438e+01,6.474100112915039062e+00,4.092069342732429504e-02
-2.523312091827392578e+00,-1.075031471252441406e+01,-1.391138267517089844e+01,-1.172832965850830078e+01,-5.662011146545410156e+00,-5.591025948524475098e-01,-1.678611755371093750e+01,-1.051285934448242188e+01,-1.926891326904296875e+01,-1.709099197387695312e+01,-1.449889755249023438e+01,1.023019790649414062e+01,-2.064444923400878906e+01,-2.329027938842773438e+01,-2.889904499053955078e+00,-4.332005977630615234e+00,-1.129039764404296875e+01,-1.363026714324951172e+01,-2.387347030639648438e+01,7.469354152679443359e+00,3.540429472923278809e-02
-3.545624256134033203e+00,-1.142030906677246094e+01,-1.443264007568359375e+01,-1.185889530181884766e+01,-6.138053894042968750e+00,-4.716385602951049805e-01,-1.739993476867675781e+01,-1.020639514923095703e+01,-1.925065612792968750e+01,-1.661054420471191406e+01,-1.509743595123291016e+01,1.052477264404296875e+01,-2.029890441894531250e+01,-2.224051284790039062e+01,-2.768647432327270508e+00,-3.048438787460327148e+00,-1.134695529937744141e+01,-1.274304676055908203e+01,-2.317310142517089844e+01,8.662035942077636719e+00,2.890980988740921021e-02
-4.936510086059570312e+00,-1.237616825103759766e+01,-1.526093959808349609e+01,-1.226998233795166016e+01,-7.045944690704345703e+00,-6.924852728843688965e-01,-1.807710456848144531e+01,-1.011249923706054688e+01,-1.949221038818359375e+01,-1.654945755004882812e+01,-1.591749382019042969e+01,1.027692317962646484e+01,-2.056886100769042969e+01,-2.144619560241699219e+01,-3.975945711135864258e+00,-2.742167949676513672e+00,-1.173461246490478516e+01,-1.232328701019287109e+01,-2.295934295654296875e+01,9.918724060058593750e+00,2.282612025737762451e-02
-6.605798244476318359e+00,-1.348772048950195312e+01,-1.627727317810058594e+01,-1.290988254547119141e+01,-8.160920143127441406e+00,-1.223829388618469238e+00,-1.870338439941406250e+01,-1.029768180847167969e+01,-1.991914367675781250e+01,-1.695560836791992188e+01,-1.686371421813964844e+01,9.470397949218750000e+00,-2.136793327331542969e+01,-2.098750686645507812e+01,-6.088278293609619141e+00,-3.359326601028442383e+00,-1.244512081146240234e+01,-1.235031700134277344e+01,-2.327216148376464844e+01,1.108616447448730469e+01,1.836605370044708252e-02
-8.432885169982910156e+00,-1.459034061431884766e+01,-1.733049774169921875e+01,-1.369456768035888672e+01,-9.239276885986328125e+00,-2.024125337600708008e+00,-1.915517807006835938e+01,-1.075672721862792969e+01,-2.041629600524902344e+01,-1.778607177734375000e+01,-1.781286811828613281e+01,8.225056648254394531e+00,-2.251717758178710938e+01,-2.085698509216308594e+01,-8.574926376342773438e+00,-4.727541446685791016e+00,-1.341838741302490234e+01,-1.273509693145751953e+01,-2.404725837707519531e+01,1.201921558380126953e+01,1.631207577884197235e-02
-1.031294822692871094e+01,-1.553598976135253906e+01,-1.826233482360839844e+01,-1.452966976165771484e+01,-1.006256580352783203e+01,-3.016842365264892578e+00,-1.933070182800292969e+01,-1.142573261260986328e+01,-2.085446357727050781e+01,-1.892197418212890625e+01,-1.864466094970703125e+01,6.774529933929443359e+00,-2.378211784362792969e+01,-2.098564147949218750e+01,-1.093328762054443359e+01,-6.600564479827880859e+00,-1.456250476837158203e+01,-1.334088706970214844e+01,-2.514039039611816406e+01,1.262051391601562500e+01,1.695761084556579590e-02
-1.218173980712890625e+01,-1.623533630371093750e+01,-1.894187355041503906e+01,-1.534020900726318359e+01,-1.049315071105957031e+01,-4.138568878173828125e+00,-1.916556358337402344e+01,-1.218993759155273438e+01,-2.111567878723144531e+01,-2.019491195678710938e+01,-1.926960563659667969e+01,5.391043663024902344e+00,-2.492519187927246094e+01,-2.125414276123046875e+01,-1.278904724121093750e+01,-8.689054489135742188e+00,-1.577614212036132812e+01,-1.402776813507080078e+01,-2.635864830017089844e+01,1.286031246185302734e+01,1.998967491090297699e-02
-1.403813266754150391e+01,-1.668965721130371094e+01,-1.930008888244628906e+01,-1.608223533630371094e+01,-1.048557472229003906e+01,-5.341199398040771484e+00,-1.865041542053222656e+01,-1.292154026031494141e+01,-2.111848831176757812e+01,-2.142161941528320312e+01,-1.964222717285156250e+01,4.338700771331787109e+00,-2.574585914611816406e+01,-2.152823829650878906e+01,-1.394889736175537109e+01,-1.069905281066894531e+01,-1.696385765075683594e+01,-1.467489814758300781e+01,-2.749870109558105469e+01,1.278278446197509766e+01,2.462579682469367981e-02
-1.591594028472900391e+01,-1.696658706665039062e+01,-1.933341217041015625e+01,-1.674798965454101562e+01,-1.009665870666503906e+01,-6.600681781768798828e+00,-1.782160758972167969e+01,-1.351882076263427734e+01,-2.084322738647460938e+01,-2.246176338195800781e+01,-1.975518608093261719e+01,3.798308134078979492e+00,-2.610528755187988281e+01,-2.169978141784667969e+01,-1.440053558349609375e+01,-1.237353897094726562e+01,-1.805259513854980469e+01,-1.521072864532470703e+01,-2.838502311706542969e+01,1.248979759216308594e+01,2.973140031099319458e-02
-1.784559822082519531e+01,-1.718609046936035156e+01,-1.910134506225585938e+01,-1.735944938659667969e+01,-9.455201148986816406e+00,-7.914829254150390625e+00,-1.676326942443847656e+01,-1.393091773986816406e+01,-2.031517982482910156e+01,-2.323278999328613281e+01,-1.962902259826660156e+01,3.812529087066650391e+00,-2.594794273376464844e+01,-2.170351028442382812e+01,-1.428103637695312500e+01,-1.352013015747070312e+01,-1.899758338928222656e+01,-1.561776924133300781e+01,-2.891334152221679688e+01,1.209584236145019531e+01,3.407409787178039551e-02
-1.981357574462890625e+01,-1.747450637817382812e+01,-1.870623779296875000e+01,-1.795022583007812500e+01,-8.731666564941406250e+00,-9.281455039978027344e+00,-1.558445167541503906e+01,-1.417739295959472656e+01,-1.962000846862792969e+01,-2.374295425415039062e+01,-1.928281021118164062e+01,4.269628047943115234e+00,-2.529850387573242188e+01,-2.154315567016601562e+01,-1.382412528991699219e+01,-1.406033706665039062e+01,-1.977525329589843750e+01,-1.592781925201416016e+01,-2.905584716796875000e+01,1.169016838073730469e+01,3.657799586653709412e-02
-2.172632598876953125e+01,-1.792372131347656250e+01,-1.828018569946289062e+01,-1.855263519287109375e+01,-8.099046707153320312e+00,-1.069181251525878906e+01,-1.440147972106933594e+01,-1.434171104431152344e+01,-1.886725997924804688e+01,-2.406820678710937500e+01,-1.873708343505859375e+01,4.907534599304199219e+00,-2.425107192993164062e+01,-2.128956985473632812e+01,-1.330395030975341797e+01,-1.404956340789794922e+01,-2.038914108276367188e+01,-1.620606994628906250e+01,-2.886989402770996094e+01,1.129621315002441406e+01,3.644106537103652954e-02
-2.342379188537597656e+01,-1.855032730102539062e+01,-1.793982124328613281e+01,-1.918995094299316406e+01,-7.696241855621337891e+00,-1.212403678894042969e+01,-1.332548427581787109e+01,-1.454775905609130859e+01,-1.817770576477050781e+01,-2.433236885070800781e+01,-1.801531410217285156e+01,5.364633560180664062e+00,-2.295373535156250000e+01,-2.106581878662109375e+01,-1.299114227294921875e+01,-1.367711353302001953e+01,-2.086163520812988281e+01,-1.653201866149902344e+01,-2.847191810607910156e+01,1.087250995635986328e+01,3.333075344562530518e-02
-2.469971084594726562e+01,-1.930072021484375000e+01,-1.777202033996582031e+01,-1.985828971862792969e+01,-7.606589317321777344e+00,-1.353220748901367188e+01,-1.245097827911376953e+01,-1.492073345184326172e+01,-1.766791534423828125e+01,-2.466752624511718750e+01,-1.715271377563476562e+01,5.267119407653808594e+00,-2.157464408874511719e+01,-2.101174545288085938e+01,-1.310009765625000000e+01,-1.322924995422363281e+01,-2.122572708129882812e+01,-1.697403907775878906e+01,-2.799226188659667969e+01,1.032980728149414062e+01,2.732531167566776276e-02
-2.535006713867187500e+01,-2.004090499877929688e+01,-1.782200431823730469e+01,-2.053438758850097656e+01,-7.855343341827392578e+00,-1.484635448455810547e+01,-1.183300781250000000e+01,-1.554800701141357422e+01,-1.743197822570800781e+01,-2.516943740844726562e+01,-1.620942878723144531e+01,4.318385124206542969e+00,-2.025416946411132812e+01,-2.124109077453613281e+01,-1.372219944000244141e+01,-1.300608825683593750e+01,-2.150615882873535156e+01,-1.757665061950683594e+01,-2.753867340087890625e+01,9.580662727355957031e+00,1.891378127038478851e-02
-2.521255683898925781e+01,-2.058455657958984375e+01,-1.806716156005859375e+01,-2.116265106201171875e+01,-8.395784378051757812e+00,-1.596370792388916016e+01,-1.148922920227050781e+01,-1.645044708251953125e+01,-1.751343345642089844e+01,-2.586286544799804688e+01,-1.525880718231201172e+01,2.378254413604736328e+00,-1.907561492919921875e+01,-2.180792808532714844e+01,-1.479066753387451172e+01,-1.322001552581787109e+01,-2.170882606506347656e+01,-1.832554054260253906e+01,-2.715112495422363281e+01,8.587211608886718750e+00,8.819944225251674652e-03
-2.419926261901855469e+01,-2.072621345520019531e+01,-1.842418670654296875e+01,-2.165259552001953125e+01,-9.126895904541015625e+00,-1.675525856018066406e+01,-1.139056205749511719e+01,-1.756154441833496094e+01,-1.790666007995605469e+01,-2.669498062133789062e+01,-1.436980056762695312e+01,-4.842005074024200439e-01,-1.803898239135742188e+01,-2.267682838439941406e+01,-1.604717063903808594e+01,-1.391104888916015625e+01,-2.181133651733398438e+01,-1.916665077209472656e+01,-2.677747917175292969e+01,7.390923500061035156e+00,-2.173731336370110512e-03
-2.230116462707519531e+01,-2.028082656860351562e+01,-1.876455116271972656e+01,-2.188916397094726562e+01,-9.904726982116699219e+00,-1.706138229370117188e+01,-1.146534156799316406e+01,-1.874958419799804688e+01,-1.854706001281738281e+01,-2.754360389709472656e+01,-1.357761669158935547e+01,-4.013003826141357422e+00,-1.706405258178710938e+01,-2.372286415100097656e+01,-1.708400726318359375e+01,-1.492374324798583984e+01,-2.175595664978027344e+01,-2.000140190124511719e+01,-2.629434585571289062e+01,6.115303993225097656e+00,-1.330433879047632217e-02
-1.959491157531738281e+01,-1.912460708618164062e+01,-1.893830299377441406e+01,-2.175084304809570312e+01,-1.056891345977783203e+01,-1.673120498657226562e+01,-1.161905574798583984e+01,-1.983199119567871094e+01,-1.932227897644042969e+01,-2.824198722839355469e+01,-1.287932109832763672e+01,-7.842476844787597656e+00,-1.603358840942382812e+01,-2.476144409179687500e+01,-1.744777679443359375e+01,-1.595798492431640625e+01,-2.146609687805175781e+01,-2.072485160827636719e+01,-2.555574417114257812e+01,4.931636810302734375e+00,-2.394590340554714203e-02
-1.622477531433105469e+01,-1.723330879211425781e+01,-1.880739402770996094e+01,-2.113291931152343750e+01,-1.096666812896728516e+01,-1.565321063995361328e+01,-1.176757621765136719e+01,-2.063792800903320312e+01,-2.009890365600585938e+01,-2.863658142089843750e+01,-1.225290870666503906e+01,-1.159678268432617188e+01,-1.484886455535888672e+01,-2.560610389709472656e+01,-1.680986022949218750e+01,-1.668749427795410156e+01,-2.087341880798339844e+01,-2.124955177307128906e+01,-2.444175910949707031e+01,4.005798339843750000e+00,-3.353113681077957153e-02
-1.239814949035644531e+01,-1.469881534576416016e+01,-1.828256607055664062e+01,-1.998756217956542969e+01,-1.099318504333496094e+01,-1.380115985870361328e+01,-1.185793495178222656e+01,-2.103828811645507812e+01,-2.075756072998046875e+01,-2.862172126770019531e+01,-1.168517684936523438e+01,-1.499759769439697266e+01,-1.350370883941650391e+01,-2.610767936706542969e+01,-1.509293079376220703e+01,-1.689526557922363281e+01,-1.993785667419433594e+01,-2.154370307922363281e+01,-2.292979812622070312e+01,3.448672294616699219e+00,-4.170792549848556519e-02
-8.356240272521972656e+00,-1.172914505004882812e+01,-1.735310935974121094e+01,-1.834062957763671875e+01,-1.060426998138427734e+01,-1.126032924652099609e+01,-1.189740180969238281e+01,-2.098090744018554688e+01,-2.122662544250488281e+01,-2.817594528198242188e+01,-1.121720123291015625e+01,-1.792506217956542969e+01,-1.211227512359619141e+01,-2.620277404785156250e+01,-1.257289314270019531e+01,-1.658437728881835938e+01,-1.867473220825195312e+01,-2.163751220703125000e+01,-2.112239646911621094e+01,3.280092239379882812e+00,-4.810460284352302551e-02
-4.372941970825195312e+00,-8.615265846252441406e+00,-1.607614898681640625e+01,-1.630329132080078125e+01,-9.832752227783203125e+00,-8.238446235656738281e+00,-1.194725513458251953e+01,-2.049578094482421875e+01,-2.150328826904296875e+01,-2.736364364624023438e+01,-1.094727134704589844e+01,-2.040964889526367188e+01,-1.090286922454833984e+01,-2.590443992614746094e+01,-9.843731880187988281e+00,-1.597029685974121094e+01,-1.715356254577636719e+01,-2.161684226989746094e+01,-1.921941184997558594e+01,3.427937984466552734e+00,-5.258423089981079102e-02
-7.052419185638427734e-01,-5.687709331512451172e+00,-1.458140087127685547e+01,-1.404877471923828125e+01,-8.774598121643066406e+00,-5.039448261260986328e+00,-1.209785270690917969e+01,-1.967810630798339844e+01,-2.163108825683593750e+01,-2.630533981323242188e+01,-1.101622104644775391e+01,-2.258747100830078125e+01,-1.014236259460449219e+01,-2.527234268188476562e+01,-7.650560855865478516e+00,-1.541777801513671875e+01,-1.548981857299804688e+01,-2.157550239562988281e+01,-1.745893287658691406e+01,3.751575708389282227e+00,-5.508812889456748962e-02
2.434958696365356445e+00,-3.239996194839477539e+00,-1.302000904083251953e+01,-1.177616024017333984e+01,-7.561131477355957031e+00,-2.000072717666625977e+00,-1.242916774749755859e+01,-1.865699386596679688e+01,-2.168866729736328125e+01,-2.514467239379882812e+01,-1.154874515533447266e+01,-2.460480117797851562e+01,-1.005751895904541016e+01,-2.437174415588378906e+01,-6.662931442260742188e+00,-1.529157638549804688e+01,-1.381429195404052734e+01,-2.158186340332031250e+01,-1.602865219116210938e+01,4.086933135986328125e+00,-5.587059631943702698e-02
4.918038845062255859e+00,-1.478868007659912109e+00,-1.154549312591552734e+01,-9.659966468811035156e+00,-6.332511901855468750e+00,5.757434368133544922e-01,-1.297547435760498047e+01,-1.756154441833496094e+01,-2.175045967102050781e+01,-2.400381660461425781e+01,-1.259178733825683594e+01,-2.656321525573730469e+01,-1.073318195343017578e+01,-2.323434066772460938e+01,-7.263944149017333984e+00,-1.582254791259765625e+01,-1.224952507019042969e+01,-2.164705276489257812e+01,-1.500851249694824219e+01,4.290671825408935547e+00,-5.544023960828781128e-02
6.714693546295166016e+00,-4.796191453933715820e-01,-1.027805233001708984e+01,-7.824294090270996094e+00,-5.202383995056152344e+00,2.480273008346557617e+00,-1.370769119262695312e+01,-1.650130844116210938e+01,-2.185859870910644531e+01,-2.295706939697265625e+01,-1.409106922149658203e+01,-2.848099899291992188e+01,-1.210147666931152344e+01,-2.186759376525878906e+01,-9.436026573181152344e+00,-1.703378105163574219e+01,-1.088153171539306641e+01,-2.171224212646484375e+01,-1.434463977813720703e+01,4.274444580078125000e+00,-5.455996468663215637e-02
7.900440692901611328e+00,-1.758883297443389893e-01,-9.287900924682617188e+00,-6.314388751983642578e+00,-4.247772693634033203e+00,3.634798526763916016e+00,-1.453649806976318359e+01,-1.553627014160156250e+01,-2.201869773864746094e+01,-2.202094078063964844e+01,-1.588815402984619141e+01,-3.030126953125000000e+01,-1.392946910858154297e+01,-2.025658607482910156e+01,-1.278728961944580078e+01,-1.874366378784179688e+01,-9.756266593933105469e+00,-2.167408370971679688e+01,-1.388583755493164062e+01,4.016616344451904297e+00,-5.403179675340652466e-02
8.620680809020996094e+00,-3.928389251232147217e-01,-8.595271110534667969e+00,-5.110859870910644531e+00,-3.517924785614013672e+00,4.093984603881835938e+00,-1.534557247161865234e+01,-1.468729877471923828e+01,-2.220829010009765625e+01,-2.116901397705078125e+01,-1.777179145812988281e+01,-3.191838264465332031e+01,-1.590709495544433594e+01,-1.841436767578125000e+01,-1.667630195617675781e+01,-2.063977241516113281e+01,-8.876084327697753906e+00,-2.142445182800292969e+01,-1.343572521209716797e+01,3.562261104583740234e+00,-5.454040318727493286e-02
9.058009147644042969e+00,-8.918252587318420410e-01,-8.170410156250000000e+00,-4.145192623138427734e+00,-3.012839555740356445e+00,4.004333972930908203e+00,-1.601754951477050781e+01,-1.393874263763427734e+01,-2.237681579589843750e+01,-2.033689880371093750e+01,-1.952339935302734375e+01,-3.320232391357421875e+01,-1.770732116699218750e+01,-1.639314842224121094e+01,-2.038782119750976562e+01,-2.235427474975585938e+01,-8.207995414733886719e+00,-2.088067245483398438e+01,-1.281356239318847656e+01,2.997021913528442383e+00,-5.635964125394821167e-02
9.379242897033691406e+00,-1.435477852821350098e+00,-7.953814983367919922e+00,-3.326896429061889648e+00,-2.724941015243530273e+00,3.575760364532470703e+00,-1.645895767211914062e+01,-1.324887084960937500e+01,-2.245546150207519531e+01,-1.945360183715820312e+01,-2.095959854125976562e+01,-3.401291275024414062e+01,-1.904630661010742188e+01,-1.428242874145507812e+01,-2.327690124511718750e+01,-2.352702903747558594e+01,-7.700152397155761719e+00,-2.000935173034667969e+01,-1.189422035217285156e+01,2.427274942398071289e+00,-5.929389595985412598e-02
9.708366394042968750e+00,-1.837474584579467773e+00,-7.837186813354492188e+00,-2.565479993820190430e+00,-2.615085124969482422e+00,3.002870798110961914e+00,-1.660020828247070312e+01,-1.255508708953857422e+01,-2.236838912963867188e+01,-1.843492317199707031e+01,-2.193955993652343750e+01,-3.420590972900390625e+01,-1.971425628662109375e+01,-1.217357349395751953e+01,-2.485324287414550781e+01,-2.384561347961425781e+01,-7.267720699310302734e+00,-1.881049156188964844e+01,-1.061166000366210938e+01,1.945875048637390137e+00,-6.269763410091400146e-02
1.010173702239990234e+01,-1.993168473243713379e+00,-7.706277370452880859e+00,-1.788551092147827148e+00,-2.625186681747436523e+00,2.440914154052734375e+00,-1.639975738525390625e+01,-1.180131435394287109e+01,-2.201869773864746094e+01,-1.722307395935058594e+01,-2.236059188842773438e+01,-3.365739059448242188e+01,-1.956770706176757812e+01,-1.013743782043457031e+01,-2.480403709411621094e+01,-2.304992485046386719e+01,-6.825862407684326172e+00,-1.731907081604003906e+01,-8.945027351379394531e+00,1.608714699745178223e+00,-6.569056957960128784e-02
1.055259132385253906e+01,-1.894902706146240234e+00,-7.446838855743408203e+00,-9.560348391532897949e-01,-2.666856288909912109e+00,1.983914613723754883e+00,-1.582436943054199219e+01,-1.095234298706054688e+01,-2.130527114868164062e+01,-1.578008174896240234e+01,-2.214200782775878906e+01,-3.230234527587890625e+01,-1.856346893310546875e+01,-8.216906547546386719e+00,-2.300802803039550781e+01,-2.098144149780273438e+01,-6.300345897674560547e+00,-1.558914852142333984e+01,-6.930816650390625000e+00,1.420301556587219238e+00,-6.747068464756011963e-02
1.100006389617919922e+01,-1.609038352966308594e+00,-6.979135036468505859e+00,-7.698040455579757690e-02,-2.642864704132080078e+00,1.653737783432006836e+00,-1.486573696136474609e+01,-1.002381992340087891e+01,-2.016631507873535156e+01,-1.412740993499755859e+01,-2.124273109436035156e+01,-3.019359588623046875e+01,-1.674473190307617188e+01,-6.436219215393066406e+00,-1.956538200378417969e+01,-1.765401649475097656e+01,-5.645217418670654297e+00,-1.369068717956542969e+01,-4.655923366546630859e+00,1.328348755836486816e+00,-6.766629964113235474e-02
1.135511207580566406e+01,-1.250431776046752930e+00,-6.282935142517089844e+00,7.917321920394897461e-01,-2.461034059524536133e+00,1.417584896087646484e+00,-1.355709362030029297e+01,-9.088776588439941406e+00,-1.859902191162109375e+01,-1.236081695556640625e+01,-1.969210433959960938e+01,-2.754039192199707031e+01,-1.429969596862792969e+01,-4.856908798217773438e+00,-1.482932853698730469e+01,-1.331543731689453125e+01,-4.867547035217285156e+00,-1.172544574737548828e+01,-2.301087617874145508e+00,1.240001916885375977e+00,-6.641435623168945312e-02
1.152530956268310547e+01,-9.364915490150451660e-01,-5.410602569580078125e+00,1.542806625366210938e+00,-2.065804958343505859e+00,1.209857821464538574e+00,-1.199606895446777344e+01,-8.280232429504394531e+00,-1.670872116088867188e+01,-1.065036010742187500e+01,-1.763095855712890625e+01,-2.469825172424316406e+01,-1.154150962829589844e+01,-3.588985204696655273e+00,-9.414938926696777344e+00,-8.461275100708007812e+00,-4.032140254974365234e+00,-9.834935188293457031e+00,-1.235160306096076965e-01,1.047081351280212402e+00,-6.443861871957778931e-02
1.144641017913818359e+01,-7.616549134254455566e-01,-4.483525753021240234e+00,2.048262834548950195e+00,-1.463490843772888184e+00,9.562120437622070312e-01,-1.034780216217041016e+01,-7.749461650848388672e+00,-1.470466423034667969e+01,-9.207367897033691406e+00,-1.530575180053710938e+01,-2.209786796569824219e+01,-8.895934104919433594e+00,-2.794668436050415039e+00,-4.127077579498291016e+00,-3.777948141098022461e+00,-3.250935077667236328e+00,-8.182923316955566406e+00,1.558757901191711426e+00,6.648461818695068359e-01,-6.273675709962844849e-02
1.109248924255371094e+01,-7.616549134254455566e-01,-3.658796548843383789e+00,2.186584711074829102e+00,-7.147021293640136719e-01,6.063558459281921387e-01,-8.826244354248046875e+00,-7.622963428497314453e+00,-1.286211204528808594e+01,-8.238218307495117188e+00,-1.304655933380126953e+01,-2.010898017883300781e+01,-6.804154872894287109e+00,-2.636178016662597656e+00,1.889697313308715820e-01,2.812100201845169067e-02,-2.652364492416381836e+00,-6.934772968292236328e+00,2.455507278442382812e+00,6.174391880631446838e-02,-6.224771216511726379e-02
1.049172592163085938e+01,-9.084156155586242676e-01,-3.085175514221191406e+00,1.881501197814941406e+00,6.439174711704254150e-02,1.515427827835083008e-01,-7.643272876739501953e+00,-7.954205989837646484e+00,-1.145491886138916016e+01,-7.873342514038085938e+00,-1.118346023559570312e+01,-1.892052268981933594e+01,-5.627143383026123047e+00,-3.208608150482177734e+00,2.872440576553344727e+00,2.421342849731445312e+00,-2.342474699020385742e+00,-6.208142280578613281e+00,2.385991811752319336e+00,-7.189534902572631836e-01,-6.359747052192687988e-02
9.708366394042968750e+00,-1.129194736480712891e+00,-2.870959997177124023e+00,1.126548528671264648e+00,7.513075470924377441e-01,-3.623085021972656250e-01,-6.965063571929931641e+00,-8.694937705993652344e+00,-1.068952941894531250e+01,-8.137506484985351562e+00,-9.961441993713378906e+00,-1.846545600891113281e+01,-5.536129474639892578e+00,-4.485854625701904297e+00,3.612284183502197266e+00,3.203179836273193359e+00,-2.381358146667480469e+00,-6.045962333679199219e+00,1.348473668098449707e+00,-1.559149742126464844e+00,-6.680558621883392334e-02
8.825819015502929688e+00,-1.330831170082092285e+00,-3.058993577957153320e+00,-9.758592583239078522e-03,1.239977478981018066e+00,-8.521071672439575195e-01,-6.862241744995117188e+00,-9.700402259826660156e+00,-1.065020656585693359e+01,-8.928344726562500000e+00,-9.474395751953125000e+00,-1.843904495239257812e+01,-6.472493648529052734e+00,-6.311291694641113281e+00,2.549088478088378906e+00,2.550622940063476562e+00,-2.766658544540405273e+00,-6.403712749481201172e+00,-4.693554043769836426e-01,-2.293870687484741211e+00,-7.136346399784088135e-02
7.917347431182861328e+00,-1.450792074203491211e+00,-3.632614850997924805e+00,-1.409782052040100098e+00,1.477367520332336426e+00,-1.228202581405639648e+00,-7.301571846008300781e+00,-1.077107238769531250e+01,-1.129341411590576172e+01,-1.005929470062255859e+01,-9.665106773376464844e+00,-1.840653991699218750e+01,-8.181705474853515625e+00,-8.444386482238769531e+00,1.872123777866363525e-01,9.361601471900939941e-01,-3.448887586593627930e+00,-7.168503284454345703e+00,-2.752938032150268555e+00,-2.749127149581909180e+00,-7.644950598478317261e-02
7.020147323608398438e+00,-1.489077448844909668e+00,-4.533509254455566406e+00,-2.937785387039184570e+00,1.462214946746826172e+00,-1.418436884880065918e+00,-8.170885086059570312e+00,-1.171524333953857422e+01,-1.246888446807861328e+01,-1.132232475280761719e+01,-1.036193561553955078e+01,-1.795756721496582031e+01,-1.030896377563476562e+01,-1.064274215698242188e+01,-2.773919582366943359e+00,-1.058447837829589844e+00,-4.359704494476318359e+00,-8.211544036865234375e+00,-5.165124416351318359e+00,-2.795103549957275391e+00,-8.120299875736236572e-02
6.139854431152343750e+00,-1.523534297943115234e+00,-5.695033073425292969e+00,-4.472252368927001953e+00,1.242502927780151367e+00,-1.403130650520324707e+00,-9.322698593139648438e+00,-1.240120315551757812e+01,-1.398983192443847656e+01,-1.254573154449462891e+01,-1.135069847106933594e+01,-1.683208847045898438e+01,-1.250718307495117188e+01,-1.273481559753417969e+01,-5.689360141754150391e+00,-2.937627077102661133e+00,-5.433125495910644531e+00,-9.416764259338378906e+00,-7.446969032287597656e+00,-2.383119106292724609e+00,-8.497840911149978638e-02
5.256179809570312500e+00,-1.699647188186645508e+00,-7.056490421295166016e+00,-5.927863121032714844e+00,8.927314281463623047e-01,-1.221642732620239258e+00,-1.061576271057128906e+01,-1.278721809387207031e+01,-1.567930698394775391e+01,-1.364035797119140625e+01,-1.244948768615722656e+01,-1.499962997436523438e+01,-1.453880023956298828e+01,-1.466839981079101562e+01,-8.142618179321289062e+00,-4.435122013092041016e+00,-6.625553607940673828e+00,-1.071102523803710938e+01,-9.492461204528808594e+00,-1.564558744430541992e+00,-8.750186860561370850e-02
4.355597972869873047e+00,-2.182043075561523438e+00,-8.572659492492675781e+00,-7.258079528808593750e+00,4.874005615711212158e-01,-9.658104181289672852e-01,-1.195037078857421875e+01,-1.292284488677978516e+01,-1.740529441833496094e+01,-1.460455417633056641e+01,-1.353507328033447266e+01,-1.264506244659423828e+01,-1.630508804321289062e+01,-1.649197196960449219e+01,-1.002649593353271484e+01,-5.544776916503906250e+00,-7.906352996826171875e+00,-1.206729602813720703e+01,-1.134157180786132812e+01,-4.836624562740325928e-01,-8.871468901634216309e-02
3.449380874633789062e+00,-3.104721307754516602e+00,-1.020783710479736328e+01,-8.442217826843261719e+00,8.459515124559402466e-02,-7.405905127525329590e-01,-1.327043819427490234e+01,-1.291371631622314453e+01,-1.909196090698242188e+01,-1.549445438385009766e+01,-1.454877567291259766e+01,-1.008327674865722656e+01,-1.783535766601562500e+01,-1.830808639526367188e+01,-1.149563884735107422e+01,-6.455893993377685547e+00,-9.254315376281738281e+00,-1.347126770019531250e+01,-1.312985706329345703e+01,6.603386998176574707e-01,-8.851907402276992798e-02
2.583740472793579102e+00,-4.514900207519531250e+00,-1.192632007598876953e+01,-9.480277061462402344e+00,-2.853797376155853271e-01,-6.334470510482788086e-01,-1.455000019073486328e+01,-1.287068080902099609e+01,-2.069857597351074219e+01,-1.638105392456054688e+01,-1.546858978271484375e+01,-7.659637451171875000e+00,-1.920982170104980469e+01,-2.019505500793457031e+01,-1.282770919799804688e+01,-7.436268329620361328e+00,-1.063526916503906250e+01,-1.489749813079833984e+01,-1.499982261657714844e+01,1.661001563072204590e+00,-8.648465573787689209e-02
1.827432394027709961e+00,-6.343665599822998047e+00,-1.368169593811035156e+01,-1.036967372894287109e+01,-6.288376450538635254e-01,-6.837388873100280762e-01,-1.577036190032958984e+01,-1.287459278106689453e+01,-2.219986343383789062e+01,-1.730397415161132812e+01,-1.627691078186035156e+01,-5.662622928619384766e+00,-2.050869941711425781e+01,-2.217338752746582031e+01,-1.428279304504394531e+01,-8.709062576293945312e+00,-1.200326251983642578e+01,-1.629828834533691406e+01,-1.702967453002929688e+01,2.368677616119384766e+00,-8.163335919380187988e-02
1.246957421302795410e+00,-8.409801483154296875e+00,-1.542041110992431641e+01,-1.110523509979248047e+01,-9.672446846961975098e-01,-8.717865943908691406e-01,-1.690348052978515625e+01,-1.294240665435791016e+01,-2.356352043151855469e+01,-1.824670600891113281e+01,-1.695613479614257812e+01,-4.277105331420898438e+00,-2.176129913330078125e+01,-2.418528366088867188e+01,-1.598039150238037109e+01,-1.037739181518554688e+01,-1.329820156097412109e+01,-1.759255027770996094e+01,-1.920376968383789062e+01,2.725670814514160156e+00,-7.226330041885375977e-02
8.772568106651306152e-01,-1.045041275024414062e+01,-1.707938957214355469e+01,-1.168566989898681641e+01,-1.341007709503173828e+00,-1.129805564880371094e+00,-1.791092872619628906e+01,-1.303108501434326172e+01,-2.473899078369140625e+01,-1.913990974426269531e+01,-1.748719215393066406e+01,-3.559968233108520508e+00,-2.293985366821289062e+01,-2.611141014099121094e+01,-1.785899734497070312e+01,-1.239662456512451172e+01,-1.445999431610107422e+01,-1.870078086853027344e+01,-2.139524459838867188e+01,2.779760837554931641e+00,-5.606621503829956055e-02
7.149492502212524414e-01,-1.218474102020263672e+01,-1.858841896057128906e+01,-1.210580635070800781e+01,-1.785482645034790039e+00,-1.365958452224731445e+00,-1.873869705200195312e+01,-1.305325508117675781e+01,-2.567150115966796875e+01,-1.988121795654296875e+01,-1.785981178283691406e+01,-3.464485168457031250e+00,-2.395488929748535156e+01,-2.780818939208984375e+01,-1.971651458740234375e+01,-1.459438705444335938e+01,-1.543208217620849609e+01,-1.954348182678222656e+01,-2.341988182067871094e+01,2.670679569244384766e+00,-3.045994974672794342e-02
7.239663600921630859e-01,-1.336393165588378906e+01,-1.987728118896484375e+01,-1.235659503936767578e+01,-2.318347454071044922e+00,-1.492781281471252441e+00,-1.934212684631347656e+01,-1.290067481994628906e+01,-2.629926109313964844e+01,-2.035010719299316406e+01,-1.808426475524902344e+01,-3.866732358932495117e+00,-2.471076965332031250e+01,-2.914137268066406250e+01,-2.125770950317382812e+01,-1.671365737915039062e+01,-1.616969108581542969e+01,-2.006977272033691406e+01,-2.507956314086914062e+01,2.580529689788818359e+00,7.098514121025800705e-03
8.468241691589355469e-01,-1.382463264465332031e+01,-2.087100219726562500e+01,-1.242123126983642578e+01,-2.933288574218750000e+00,-1.459982275962829590e+00,-1.967967414855957031e+01,-1.248075294494628906e+01,-2.656609535217285156e+01,-2.045907402038574219e+01,-1.818108749389648438e+01,-4.594027519226074219e+00,-2.510721969604492188e+01,-3.001213836669921875e+01,-2.221194839477539062e+01,-1.847740936279296875e+01,-1.663629341125488281e+01,-2.026375198364257812e+01,-2.621266555786132812e+01,2.674285411834716797e+00,5.854578316211700439e-02
1.031674504280090332e+00,-1.352345371246337891e+01,-2.149698829650878906e+01,-1.228032398223876953e+01,-3.577272176742553711e+00,-1.267561435699462891e+00,-1.972640991210937500e+01,-1.173741340637207031e+01,-2.642144203186035156e+01,-2.016849517822265625e+01,-1.816201591491699219e+01,-5.449310302734375000e+00,-2.507945251464843750e+01,-3.035708808898925781e+01,-2.239647102355957031e+01,-1.964400863647460938e+01,-1.680243110656738281e+01,-2.013655090332031250e+01,-2.672012901306152344e+01,3.047505617141723633e+00,1.246252059936523438e-01
1.239067435264587402e+00,-1.253569030761718750e+01,-2.169335174560546875e+01,-1.192353153228759766e+01,-4.178323745727539062e+00,-9.658104181289672852e-01,-1.946675872802734375e+01,-1.067848014831542969e+01,-2.583862304687500000e+01,-1.948992538452148438e+01,-1.801824951171875000e+01,-6.268024921417236328e+00,-2.459815788269042969e+01,-3.016690063476562500e+01,-2.177612686157226562e+01,-2.007648086547851562e+01,-1.663629341125488281e+01,-1.970884132385253906e+01,-2.658804893493652344e+01,3.692978382110595703e+00,2.042413204908370972e-01
1.434062004089355469e+00,-1.104128360748291016e+01,-2.142915344238281250e+01,-1.135990238189697266e+01,-4.648052692413330078e+00,-6.465666294097900391e-01,-1.889552688598632812e+01,-9.371767997741699219e+00,-2.480359268188476562e+01,-1.850426673889160156e+01,-1.771897888183593750e+01,-6.934373855590820312e+00,-2.368647575378417969e+01,-2.947886466979980469e+01,-2.047920417785644531e+01,-1.978252220153808594e+01,-1.614258956909179688e+01,-1.902991104125976562e+01,-2.589810752868652344e+01,4.507030963897705078e+00,2.939708530902862549e-01
1.576081037521362305e+00,-9.290365219116210938e+00,-2.071510124206542969e+01,-1.063726806640625000e+01,-4.904383659362792969e+00,-4.213467240333557129e-01,-1.801894378662109375e+01,-7.956814289093017578e+00,-2.334443664550781250e+01,-1.734855079650878906e+01,-1.721872901916503906e+01,-7.426009178161621094e+00,-2.241690826416015625e+01,-2.839367103576660156e+01,-1.877106094360351562e+01,-1.893450546264648438e+01,-1.534488868713378906e+01,-1.817290115356445312e+01,-2.480150222778320312e+01,5.312068939208984375e+00,3.876909613609313965e-01
1.608767986297607422e+00,-7.554760456085205078e+00,-1.961546325683593750e+01,-9.848704338073730469e+00,-4.894281864166259766e+00,-3.885477185249328613e-01,-1.685985946655273438e+01,-6.617498397827148438e+00,-2.152716255187988281e+01,-1.618458175659179688e+01,-1.649402809143066406e+01,-7.820129871368408203e+00,-2.091132164001464844e+01,-2.706421661376953125e+01,-1.699438095092773438e+01,-1.783254623413085938e+01,-1.431977748870849609e+01,-1.721890068054199219e+01,-2.351025199890136719e+01,5.907057762145996094e+00,4.768727421760559082e-01
1.456604719161987305e+00,-6.075667858123779297e+00,-1.824329376220703125e+01,-9.117020606994628906e+00,-4.608908653259277344e+00,-6.093944311141967773e-01,-1.547124385833740234e+01,-5.563782215118408203e+00,-1.946833610534667969e+01,-1.519892215728759766e+01,-1.555367565155029297e+01,-8.269102096557617188e+00,-1.933785820007324219e+01,-2.568255233764648438e+01,-1.550239276885986328e+01,-1.683986091613769531e+01,-1.318744277954101562e+01,-1.627920913696289062e+01,-2.225202178955078125e+01,6.111697673797607422e+00,5.513832569122314453e-01
1.050835728645324707e+00,-5.022819519042968750e+00,-1.674497604370117188e+01,-8.570197105407714844e+00,-4.069730281829833984e+00,-1.092633247375488281e+00,-1.392060565948486328e+01,-4.996496677398681641e+00,-1.732805442810058594e+01,-1.455007076263427734e+01,-1.445341968536376953e+01,-8.967955589294433594e+00,-1.787700843811035156e+01,-2.445378494262695312e+01,-1.459032917022705078e+01,-1.629657554626464844e+01,-1.209752559661865234e+01,-1.547784900665283203e+01,-2.124926185607910156e+01,5.800681114196777344e+00,6.008939146995544434e-01
3.542657792568206787e-01,-4.457471847534179688e+00,-1.527284049987792969e+01,-8.315529823303222656e+00,-3.325992345809936523e+00,-1.777039527893066406e+00,-1.230453491210937500e+01,-5.069526195526123047e+00,-1.528748321533203125e+01,-1.435855293273925781e+01,-1.329008293151855469e+01,-1.009140300750732422e+01,-1.670616722106933594e+01,-2.355691719055175781e+01,-1.445325660705566406e+01,-1.643355178833007812e+01,-1.120084762573242188e+01,-1.491657829284667969e+01,-2.066011810302734375e+01,4.918114185333251953e+00,6.166997551918029785e-01
-6.128168106079101562e-01,-4.327301502227783203e+00,-1.395422554016113281e+01,-8.398264884948730469e+00,-2.438305139541625977e+00,-2.557656049728393555e+00,-1.072481632232666016e+01,-5.859813690185546875e+00,-1.352217197418212891e+01,-1.468215274810791016e+01,-1.217222309112548828e+01,-1.173086452484130859e+01,-1.596879959106445312e+01,-2.311500740051269531e+01,-1.515970993041992188e+01,-1.732004356384277344e+01,-1.060934734344482422e+01,-1.467012786865234375e+01,-2.057670021057128906e+01,3.478421926498413086e+00,5.936756730079650879e-01
-1.760241150856018066e+00,-4.474062442779541016e+00,-1.286648750305175781e+01,-8.793839454650878906e+00,-1.460965394973754883e+00,-3.290167570114135742e+00,-9.266613960266113281e+00,-7.345189094543457031e+00,-1.216132354736328125e+01,-1.549445438385009766e+01,-1.119079494476318359e+01,-1.386399269104003906e+01,-1.573278045654296875e+01,-2.315229988098144531e+01,-1.663412475585937500e+01,-1.883139038085937500e+01,-1.037251091003417969e+01,-1.475280857086181641e+01,-2.098336601257324219e+01,1.559132337570190430e+00,5.313129425048828125e-01
-2.943733692169189453e+00,-4.676974773406982422e+00,-1.201914691925048828e+01,-9.397542953491210938e+00,-4.331171512603759766e-01,-3.825884819030761719e+00,-7.975626945495605469e+00,-9.392633438110351562e+00,-1.124987888336181641e+01,-1.669309616088867188e+01,-1.038394069671630859e+01,-1.633842086791992188e+01,-1.596417140960693359e+01,-2.358861351013183594e+01,-1.864628982543945312e+01,-2.067363166809082031e+01,-1.045145606994628906e+01,-1.512009811401367188e+01,-2.176715278625488281e+01,-7.126429677009582520e-01,4.345216453075408936e-01
-3.987461566925048828e+00,-4.698669910430908203e+00,-1.135626888275146484e+01,-1.004778480529785156e+01,6.262989640235900879e-01,-4.046731472015380859e+00,-6.834198951721191406e+00,-1.178175354003906250e+01,-1.073166084289550781e+01,-1.810471916198730469e+01,-9.712051391601562500e+00,-1.889208030700683594e+01,-1.650254249572753906e+01,-2.423935699462890625e+01,-2.080255508422851562e+01,-2.241891479492187500e+01,-1.073306751251220703e+01,-1.566387844085693359e+01,-2.270387268066406250e+01,-3.170126914978027344e+00,3.127109408378601074e-01
-4.730244159698486328e+00,-4.350272655487060547e+00,-1.076360702514648438e+01,-1.055970478057861328e+01,1.710969328880310059e+00,-3.887109756469726562e+00,-5.761319637298583984e+00,-1.423346996307373047e+01,-1.044797515869140625e+01,-1.950973701477050781e+01,-9.054831504821777344e+00,-2.122023773193359375e+01,-1.707793617248535156e+01,-2.485467338562011719e+01,-2.257220458984375000e+01,-2.358243560791015625e+01,-1.104531383514404297e+01,-1.623627853393554688e+01,-2.350330162048339844e+01,-5.631217002868652344e+00,1.785176843404769897e-01
-5.055986404418945312e+00,-3.532241582870483398e+00,-1.009834861755371094e+01,-1.076912593841552734e+01,2.834783792495727539e+00,-3.357952117919921875e+00,-4.628201007843017578e+00,-1.646609687805175781e+01,-1.017833328247070312e+01,-2.068196296691894531e+01,-8.231840133666992188e+00,-2.303441238403320312e+01,-1.734943580627441406e+01,-2.516046714782714844e+01,-2.337179946899414062e+01,-2.372094917297363281e+01,-1.119731330871582031e+01,-1.667988967895507812e+01,-2.384914016723632812e+01,-7.919219017028808594e+00,4.561550170183181763e-02
-4.918476104736328125e+00,-2.263718605041503906e+00,-9.229586601257324219e+00,-1.056875324249267578e+01,4.019208431243896484e+00,-2.559842824935913086e+00,-3.293592691421508789e+00,-1.825402450561523438e+01,-9.688202857971191406e+00,-2.143812942504882812e+01,-7.050899028778076172e+00,-2.415785980224609375e+01,-1.698383712768554688e+01,-2.494044494628906250e+01,-2.270752143859863281e+01,-2.255127143859863281e+01,-1.102881813049316406e+01,-1.686114883422851562e+01,-2.348070907592773438e+01,-9.894401550292968750e+00,-7.349568605422973633e-02
-4.342509269714355469e+00,-6.774270534515380859e-01,-8.065683364868164062e+00,-9.936610221862792969e+00,5.289497852325439453e+00,-1.658962965011596680e+00,-1.657788753509521484e+00,-1.946162605285644531e+01,-8.807654380798339844e+00,-2.168908500671386719e+01,-5.377043247222900391e+00,-2.457026481628417969e+01,-1.575746154785156250e+01,-2.407713699340820312e+01,-2.033685874938964844e+01,-2.005339431762695312e+01,-1.044202995300292969e+01,-1.668783950805664062e+01,-2.225028419494628906e+01,-1.147653102874755859e+01,-1.692697703838348389e-01
-3.416003704071044922e+00,1.013511300086975098e+00,-6.601878166198730469e+00,-8.937332153320312500e+00,6.664592266082763672e+00,-8.674134016036987305e-01,2.989442944526672363e-01,-2.007194709777832031e+01,-7.463658332824707031e+00,-2.143317604064941406e+01,-3.186800956726074219e+00,-2.441992950439453125e+01,-1.362248992919921875e+01,-2.260410881042480469e+01,-1.639864158630371094e+01,-1.652743339538574219e+01,-9.428702354431152344e+00,-1.613769912719726562e+01,-2.018393707275390625e+01,-1.265478897094726562e+01,-2.362881600856781006e-01
-2.257308006286621094e+00,2.571727037429809570e+00,-4.901246070861816406e+00,-7.700191974639892578e+00,8.145753860473632812e+00,-3.798013031482696533e-01,2.491440773010253906e+00,-2.016844940185546875e+01,-5.722221374511718750e+00,-2.077276802062988281e+01,-6.004662513732910156e-01,-2.398924064636230469e+01,-1.073781013488769531e+01,-2.069476509094238281e+01,-1.142885971069335938e+01,-1.254899024963378906e+01,-8.072491645812988281e+00,-1.526160812377929688e+01,-1.747457313537597656e+01,-1.347244739532470703e+01,-2.734553813934326172e-01
-1.006187200546264648e+00,3.794307231903076172e+00,-3.106596946716308594e+00,-6.391952037811279297e+00,9.698891639709472656e+00,-3.207630813121795654e-01,4.741060733795166016e+00,-1.989458847045898438e+01,-3.764509677886962891e+00,-1.986965942382812500e+01,2.131102085113525391e+00,-2.361137199401855469e+01,-7.424283981323242188e+00,-1.860082626342773438e+01,-6.227108955383300781e+00,-8.824490547180175781e+00,-6.532468795776367188e+00,-1.413747787475585938e+01,-1.442632007598876953e+01,-1.399621772766113281e+01,-2.836274802684783936e-01
2.066109776496887207e-01,4.552358150482177734e+00,-1.401204586029052734e+00,-5.169032573699951172e+00,1.125581645965576172e+01,-7.056049108505249023e-01,6.816194534301757812e+00,-1.940294075012207031e+01,-1.833481192588806152e+00,-1.888730239868164062e+01,4.689563751220703125e+00,-2.356261634826660156e+01,-4.073735713958740234e+00,-1.657960700988769531e+01,-1.612312316894531250e+00,-5.988022804260253906e+00,-5.004228591918945312e+00,-1.288296699523925781e+01,-1.136416435241699219e+01,-1.428109169006347656e+01,-2.723990678787231445e-01
1.264991521835327148e+00,4.822908401489257812e+00,4.355919733643531799e-02,-4.147778034210205078e+00,1.272056293487548828e+01,-1.422810077667236328e+00,8.496658325195312500e+00,-1.880696487426757812e+01,-1.664769500494003296e-01,-1.794291877746582031e+01,6.782983303070068359e+00,-2.396892547607421875e+01,-1.022453427314758301e+00,-1.480451488494873047e+01,1.840877056121826172e+00,-4.388950824737548828e+00,-3.683367013931274414e+00,-1.160778617858886719e+01,-8.527934074401855469e+00,-1.434509754180908203e+01,-2.468123435974121094e-01
2.087800741195678711e+00,4.674871444702148438e+00,1.099164962768554688e+00,-3.385069131851196289e+00,1.399085235595703125e+01,-2.262465000152587891e+00,9.625622749328613281e+00,-1.814839172363281250e+01,1.069381356239318848e+00,-1.707943534851074219e+01,8.220650672912597656e+00,-2.476326179504394531e+01,1.539821267127990723e+00,-1.330911064147949219e+01,3.988356828689575195e+00,-3.974946498870849609e+00,-2.726596593856811523e+00,-1.039938545227050781e+01,-6.004523277282714844e+00,-1.416660118103027344e+01,-2.140465080738067627e-01
2.638970136642456055e+00,4.244798660278320312e+00,1.721579670906066895e+00,-2.869271039962768555e+00,1.498587036132812500e+01,-2.968737125396728516e+00,1.014388751983642578e+01,-1.741548538208007812e+01,1.812300682067871094e+00,-1.625722694396972656e+01,8.962957382202148438e+00,-2.569980621337890625e+01,3.586864471435546875e+00,-1.200016593933105469e+01,5.128875732421875000e+00,-4.315076351165771484e+00,-2.214041233062744141e+00,-9.318184852600097656e+00,-3.734843730926513672e+00,-1.370954132080078125e+01,-1.802243292331695557e-01
2.936534166336059570e+00,3.699870109558105469e+00,1.939365267753601074e+00,-2.534454584121704102e+00,1.566773509979248047e+01,-3.305473804473876953e+00,1.009299564361572266e+01,-1.653651809692382812e+01,2.101603746414184570e+00,-1.538713836669921875e+01,9.100855827331542969e+00,-2.643319702148437500e+01,5.228201389312744141e+00,-1.070054435729980469e+01,5.847630977630615234e+00,-4.756783485412597656e+00,-2.139808893203735352e+00,-8.388033866882324219e+00,-1.555534362792968750e+00,-1.295408630371093750e+01,-1.497471928596496582e-01
3.068408966064453125e+00,3.205988407135009766e+00,1.852489113807678223e+00,-2.274616479873657227e+00,1.604276084899902344e+01,-3.113052845001220703e+00,9.586155891418457031e+00,-1.545280742645263672e+01,2.051045894622802734e+00,-1.437010955810546875e+01,8.810388565063476562e+00,-2.661806678771972656e+01,6.619635105133056641e+00,-9.242432594299316406e+00,6.752665519714355469e+00,-4.658284187316894531e+00,-2.408458709716796875e+00,-7.605753421783447266e+00,6.898147463798522949e-01,-1.193178749084472656e+01,-1.250603348016738892e-01
3.177741050720214844e+00,2.895876646041870117e+00,1.595430612564086914e+00,-1.965654730796813965e+00,1.615892982482910156e+01,-2.341182708740234375e+00,8.764618873596191406e+00,-1.412262058258056641e+01,1.799661159515380859e+00,-1.313679695129394531e+01,8.274930000305175781e+00,-2.601876068115234375e+01,7.866064071655273438e+00,-7.532600402832031250e+00,8.234109878540039062e+00,-3.614808797836303711e+00,-2.857386589050292969e+00,-6.944313049316406250e+00,3.079408407211303711e+00,-1.073099136352539062e+01,-1.067897006869316101e-01
3.451635122299194336e+00,2.858867406845092773e+00,1.309810161590576172e+00,-1.489931106567382812e+00,1.606801414489746094e+01,-1.042341470718383789e+00,7.763402938842773438e+00,-1.255899906158447266e+01,1.472439646720886230e+00,-1.166738891601562500e+01,7.629446983337402344e+00,-2.456010627746582031e+01,8.984456062316894531e+00,-5.597152233123779297e+00,1.033238410949707031e+01,-1.567873239517211914e+00,-3.290996789932250977e+00,-6.356012344360351562e+00,5.569799423217773438e+00,-9.481514930725097656e+00,-9.423109143972396851e-02
4.065924167633056641e+00,3.119208097457885742e+00,1.107495546340942383e+00,-7.556621432304382324e-01,1.580537033081054688e+01,6.479012370109558105e-01,6.681175708770751953e+00,-1.081801986694335938e+01,1.157857537269592285e+00,-1.000481033325195312e+01,6.934085369110107422e+00,-2.236196899414062500e+01,9.908479690551757812e+00,-3.568474769592285156e+00,1.275752449035644531e+01,1.196259498596191406e+00,-3.524297952651977539e+00,-5.782021999359130859e+00,8.002840042114257812e+00,-8.318582534790039062e+00,-8.585868030786514282e-02
5.144593238830566406e+00,3.642441987991333008e+00,1.058702111244201660e+00,2.707631886005401611e-01,1.537731075286865234e+01,2.545871019363403320e+00,5.576099395751953125e+00,-9.000098228454589844e+00,8.952376246452331543e-01,-8.231614112854003906e+00,6.196180343627929688e+00,-1.969251251220703125e+01,1.052706527709960938e+01,-1.640485167503356934e+00,1.504032039642333984e+01,4.174320220947265625e+00,-3.427678346633911133e+00,-5.173051834106445312e+00,1.017519855499267578e+01,-7.345866203308105469e+00,-8.000973612070083618e-02
6.705676555633544922e+00,4.335407733917236328e+00,1.163429617881774902e+00,1.546684861183166504e+00,1.476489543914794922e+01,4.454773902893066406e+00,4.467907428741455078e+00,-7.221299171447753906e+00,6.901975274085998535e-01,-6.460068702697753906e+00,5.392260074615478516e+00,-1.691131973266601562e+01,1.075382900238037109e+01,-1.507546519860625267e-03,1.671683120727539062e+01,6.816867828369140625e+00,-2.962254285812377930e+00,-4.494121551513671875e+00,1.192003631591796875e+01,-6.603933334350585938e+00,-7.533448934555053711e-02
8.643222808837890625e+00,5.069211006164550781e+00,1.369314432144165039e+00,2.951879262924194336e+00,1.394918251037597656e+01,6.190935134887695312e+00,3.358676433563232422e+00,-5.601601123809814453e+00,5.202670097351074219e-01,-4.804094791412353516e+00,4.510588645935058594e+00,-1.439422798156738281e+01,1.056563091278076172e+01,1.206748962402343750e+00,1.748830604553222656e+01,8.677577972412109375e+00,-2.189297199249267578e+00,-3.746820926666259766e+00,1.313481903076171875e+01,-6.071147918701171875e+00,-7.099179178476333618e-02
1.074195003509521484e+01,5.703472614288330078e+00,1.577579379081726074e+00,4.304071903228759766e+00,1.293901252746582031e+01,7.594733238220214844e+00,2.236982345581054688e+00,-4.249244689941406250e+00,3.643803596496582031e-01,-3.369357824325561523e+00,3.549698591232299805e+00,-1.246019172668457031e+01,1.001029109954833984e+01,1.924617409706115723e+00,1.725633621215820312e+01,9.491735458374023438e+00,-1.258449196815490723e+00,-2.964540243148803711e+00,1.381954574584960938e+01,-5.679897785186767578e+00,-6.684470921754837036e-02
1.272345447540283203e+01,6.130992889404296875e+00,1.668025851249694824e+00,5.399011611938476562e+00,1.178615570068359375e+01,8.559024810791015625e+00,1.096593379974365234e+00,-3.239867448806762695e+00,1.916410624980926514e-01,-2.240059614181518555e+00,2.528661251068115234e+00,-1.132049179077148438e+01,9.183452606201171875e+00,2.159556150436401367e+00,1.611933135986328125e+01,9.194699287414550781e+00,-3.770892918109893799e-01,-2.210879802703857422e+00,1.405416011810302734e+01,-5.346343517303466797e+00,-6.316711008548736572e-02
1.431497097015380859e+01,6.300724506378173828e+00,1.525215625762939453e+00,6.066058635711669922e+00,1.060046863555908203e+01,9.026957511901855469e+00,-5.937464162707328796e-02,-2.606072664260864258e+00,-9.185898117721080780e-03,-1.460777759552001953e+00,1.460679531097412109e+00,-1.103810596466064453e+01,8.197725296020507812e+00,1.982419848442077637e+00,1.428641796112060547e+01,7.889585018157958984e+00,2.521167695522308350e-01,-1.558979392051696777e+00,1.396031475067138672e+01,-5.002872467041015625e+00,-6.042847409844398499e-02
1.532375717163085938e+01,6.235639572143554688e+00,1.070602893829345703e+00,6.218600749969482422e+00,9.520848274230957031e+00,9.016023635864257812e+00,-1.211188316345214844e+00,-2.330906629562377930e+00,-2.451224774122238159e-01,-1.039767503738403320e+00,3.589567840099334717e-01,-1.151958370208740234e+01,7.148750305175781250e+00,1.501354694366455078e+00,1.201592350006103516e+01,5.787243843078613281e+00,4.724567532539367676e-01,-1.066079020500183105e+00,1.368399047851562500e+01,-4.616129875183105469e+00,-5.898090824484825134e-02
1.567316913604736328e+01,6.014860153198242188e+00,2.910969853401184082e-01,5.882491588592529297e+00,8.684932708740234375e+00,8.607130050659179688e+00,-2.317303180694580078e+00,-2.334818840026855469e+00,-5.021247863769531250e-01,-9.308000802993774414e-01,-7.618371248245239258e-01,-1.252723217010498047e+01,6.124457359313964844e+00,8.431532979011535645e-01,9.567937850952148438e+00,3.184711217880249023e+00,2.155898362398147583e-01,-7.560288310050964355e-01,1.333119964599609375e+01,-4.192425727844238281e+00,-5.878528952598571777e-02
1.542181777954101562e+01,5.753243446350097656e+00,-7.645088434219360352e-01,5.190882682800292969e+00,8.198788642883300781e+00,7.940216064453125000e+00,-3.318519115447998047e+00,-2.500440120697021484e+00,-7.563183903694152832e-01,-1.048022627830505371e+00,-1.870894908905029297e+00,-1.371772098541259766e+01,5.195806503295898438e+00,1.383369565010070801e-01,7.188488006591796875e+00,4.159614443778991699e-01,-4.878484308719635010e-01,-6.176987290382385254e-01,1.298709869384765625e+01,-3.759706735610961914e+00,-5.941126495599746704e-02
1.472750282287597656e+01,5.559264183044433594e+00,-1.980776190757751465e+00,4.349317073822021484e+00,8.110398292541503906e+00,7.183652400970458984e+00,-4.146287918090820312e+00,-2.680406570434570312e+00,-9.697847962379455566e-01,-1.270910382270812988e+00,-2.909536361694335938e+00,-1.471927547454833984e+01,4.422958850860595703e+00,-5.068123936653137207e-01,5.100758075714111328e+00,-2.175797700881958008e+00,-1.510602831840515137e+00,-6.049786806106567383e-01,1.271425056457519531e+01,-3.354933977127075195e+00,-6.009592488408088684e-02
1.381114101409912109e+01,5.512045383453369141e+00,-3.205374002456665039e+00,3.580144643783569336e+00,8.390720367431640625e+00,6.501432895660400391e+00,-4.742447376251220703e+00,-2.741699457168579102e+00,-1.107414484024047852e+00,-1.475636959075927734e+00,-3.795608997344970703e+00,-1.520481586456298828e+01,3.849108219146728516e+00,-1.027033925056457520e+00,3.462909698486328125e+00,-4.298146724700927734e+00,-2.666503906250000000e+00,-6.606287360191345215e-01,1.249353885650634766e+01,-3.005152702331542969e+00,-6.005680188536643982e-02
1.289139842987060547e+01,5.653701305389404297e+00,-4.278831005096435547e+00,3.072102785110473633e+00,8.958941459655761719e+00,6.024753570556640625e+00,-5.072723865509033203e+00,-2.589119195938110352e+00,-1.145332813262939453e+00,-1.551583886146545410e+00,-4.448427677154541016e+00,-1.497525119781494141e+01,3.468083620071411133e+00,-1.429786086082458496e+00,2.317118406295776367e+00,-5.780251502990722656e+00,-3.745816230773925781e+00,-7.305887937545776367e-01,1.226935100555419922e+01,-2.719377756118774414e+00,-5.872660502791404724e-02
1.214072608947753906e+01,5.995717525482177734e+00,-5.065477848052978516e+00,2.935073614120483398e+00,9.696365356445312500e+00,5.841079235076904297e+00,-5.141272068023681641e+00,-2.192671537399291992e+00,-1.082135558128356934e+00,-1.440965533256530762e+00,-4.831316471099853516e+00,-1.400823307037353516e+01,3.213552951812744141e+00,-1.798975586891174316e+00,1.550914645195007324e+00,-6.609798908233642578e+00,-4.561192035675048828e+00,-7.814688086509704590e-01,1.191482257843017578e+01,-2.487692832946777344e+00,-5.602709203958511353e-02
1.165493011474609375e+01,6.529160976409912109e+00,-5.474866867065429688e+00,3.187155485153198242e+00,1.046662044525146484e+01,5.981021404266357422e+00,-4.993790149688720703e+00,-1.595391511917114258e+00,-9.431015253067016602e-01,-1.142130732536315918e+00,-4.970682144165039062e+00,-1.246628570556640625e+01,2.943596124649047852e+00,-2.281905412673950195e+00,8.866369724273681641e-01,-6.965319156646728516e+00,-4.988910675048828125e+00,-8.021388053894042969e-01,1.126832866668701172e+01,-2.293870687484741211e+00,-5.236905440688133240e-02
1.143401145935058594e+01,7.231060028076171875e+00,-5.477247238159179688e+00,3.761126279830932617e+00,1.114848518371582031e+01,6.424901485443115234e+00,-4.708173274993896484e+00,-8.989996314048767090e-01,-7.759797573089599609e-01,-7.112143039703369141e-01,-4.967748165130615234e+00,-1.065007972717285156e+01,2.470015048980712891e+00,-3.051982402801513672e+00,-6.057373061776161194e-02,-7.157700538635253906e+00,-4.986554145812988281e+00,-8.005488514900207520e-01,1.015781974792480469e+01,-2.120783090591430664e+00,-4.853495955467224121e-02
1.139568901062011719e+01,8.070786476135253906e+00,-5.097609996795654297e+00,4.526420593261718750e+00,1.165230846405029297e+01,7.118054389953613281e+00,-4.372704029083251953e+00,-2.404267489910125732e-01,-6.425632238388061523e-01,-2.489284873008728027e-01,-4.972149372100830078e+00,-8.919198989868164062e+00,1.613866567611694336e+00,-4.239728450775146484e+00,-1.661517977714538574e+00,-7.537845611572265625e+00,-4.602432250976562500e+00,-8.021388053894042969e-01,8.463379859924316406e+00,-1.954005956649780273e+00,-4.538552463054656982e-02
1.138779926300048828e+01,9.002397537231445312e+00,-4.410930633544921875e+00,5.327911376953125000e+00,1.192757987976074219e+01,7.981761932373046875e+00,-4.065276622772216797e+00,2.486125081777572632e-01,-5.920054316520690918e-01,1.258532404899597168e-01,-5.139388084411621094e+00,-7.598690986633300781e+00,2.579126358032226562e-01,-5.889893531799316406e+00,-4.139379024505615234e+00,-8.379705429077148438e+00,-3.964977979660034180e+00,-8.339388370513916016e-01,6.167632579803466797e+00,-1.788130283355712891e+00,-4.358585178852081299e-02
1.123563575744628906e+01,9.950599670410156250e+00,-3.515986442565917969e+00,6.009178638458251953e+00,1.196924877166748047e+01,8.921999931335449219e+00,-3.833667516708374023e+00,4.755267202854156494e-01,-6.509895324707031250e-01,3.157206177711486816e-01,-5.563353538513183594e+00,-6.887648105621337891e+00,-1.585506081581115723e+00,-7.912977218627929688e+00,-7.453738212585449219e+00,-9.774084091186523438e+00,-3.249756813049316406e+00,-9.197989106178283691e-01,3.383538484573364258e+00,-1.613239645957946777e+00,-4.335111007094383240e-02
1.078139972686767578e+01,1.083499145507812500e+01,-2.523455142974853516e+00,6.451291561126708984e+00,1.181898593902587891e+01,9.849119186401367188e+00,-3.683069705963134766e+00,4.103214740753173828e-01,-7.998542785644531250e-01,2.661899924278259277e-01,-6.246978759765625000e+00,-6.810449123382568359e+00,-3.765213489532470703e+00,-1.009641647338867188e+01,-1.125663948059082031e+01,-1.158246707916259766e+01,-2.627620458602905273e+00,-1.062898993492126465e+00,3.596163690090179443e-01,-1.420318961143493652e+00,-4.438788071274757385e-02
9.940556526184082031e+00,1.157262420654296875e+01,-1.528543710708618164e+00,6.601247787475585938e+00,1.155129146575927734e+01,1.069533348083496094e+01,-3.576093196868896484e+00,9.864046424627304077e-02,-9.852330684661865234e-01,-1.118149422109127045e-02,-7.075838088989257812e+00,-7.212696075439453125e+00,-6.005083084106445312e+00,-1.212695884704589844e+01,-1.494179916381835938e+01,-1.346780300140380859e+01,-2.225824117660522461e+00,-1.255289196968078613e+00,-2.573935747146606445e+00,-1.194944500923156738e+00,-4.601150006055831909e-02
8.739029884338378906e+00,1.211117172241210938e+01,-6.050373911857604980e-01,6.475853443145751953e+00,1.126339244842529297e+01,1.142347240447998047e+01,-3.451460599899291992e+00,-3.499715328216552734e-01,-1.117245197296142578e+00,-4.387958943843841553e-01,-7.853352546691894531e+00,-7.809972286224365234e+00,-7.967282772064208984e+00,-1.368202972412109375e+01,-1.779221725463867188e+01,-1.498838329315185547e+01,-2.090320825576782227e+00,-1.458809256553649902e+00,-5.059113025665283203e+00,-9.262980222702026367e-01,-4.741994291543960571e-02
7.319965362548828125e+00,1.243914985656738281e+01,2.077909857034683228e-01,6.170769691467285156e+00,1.104494285583496094e+01,1.203790664672851562e+01,-3.241662263870239258e+00,-7.790219783782958984e-01,-1.110223293304443359e+00,-8.878735303878784180e-01,-8.352134704589843750e+00,-8.254881858825683594e+00,-9.337120056152343750e+00,-1.448194026947021484e+01,-1.916997909545898438e+01,-1.572712707519531250e+01,-2.168087959289550781e+00,-1.627349376678466797e+00,-6.809164524078369141e+00,-6.107736825942993164e-01,-4.792854562401771545e-02
5.922317028045654297e+00,1.259611988067626953e+01,9.004207253456115723e-01,5.837245941162109375e+00,1.095529079437255859e+01,1.257581043243408203e+01,-2.904115438461303711e+00,-1.022889614105224609e+00,-9.037787318229675293e-01,-1.204869508743286133e+00,-8.394678115844726562e+00,-8.228471755981445312e+00,-9.912513732910156250e+00,-1.438498115539550781e+01,-1.870779609680175781e+01,-1.542855167388916016e+01,-2.325978517532348633e+00,-1.702079415321350098e+00,-7.660728931427001953e+00,-2.627954185009002686e-01,-4.724388942122459412e-02
4.823359489440917969e+00,1.264333915710449219e+01,1.479992389678955078e+00,5.644629478454589844e+00,1.099822235107421875e+01,1.310059547424316406e+01,-2.444013118743896484e+00,-9.459474086761474609e-01,-4.993160367012023926e-01,-1.256051182746887207e+00,-7.909098625183105469e+00,-7.521492004394531250e+00,-9.648727416992187500e+00,-1.340606975555419922e+01,-1.644784736633300781e+01,-1.407264900207519531e+01,-2.390784502029418945e+00,-1.640069365501403809e+00,-7.634660720825195312e+00,9.059185534715652466e-02,-4.548333585262298584e-02
4.255282878875732422e+00,1.265227222442626953e+01,1.964357137680053711e+00,5.735120773315429688e+00,1.111186695098876953e+01,1.366911125183105469e+01,-1.927826166152954102e+00,-4.673409759998321533e-01,3.715878725051879883e-02,-9.506123661994934082e-01,-6.973147869110107422e+00,-6.070964813232421875e+00,-8.696936607360839844e+00,-1.172980022430419922e+01,-1.286812782287597656e+01,-1.189643383026123047e+01,-2.204614877700805664e+00,-1.419059276580810547e+00,-6.932554721832275391e+00,4.115251898765563965e-01,-4.311636835336685181e-02
4.334182739257812500e+00,1.266631031036376953e+01,2.359465599060058594e+00,6.181111335754394531e+00,1.118005371093750000e+01,1.430759906768798828e+01,-1.469801068305969238e+00,4.194502234458923340e-01,5.792511701583862305e-01,-2.736937999725341797e-01,-5.802475452423095703e+00,-3.976436138153076172e+00,-7.359494209289550781e+00,-9.660101890563964844e+00,-8.789322853088378906e+00,-9.336994171142578125e+00,-1.670850157737731934e+00,-1.059718966484069824e+00,-5.888084888458251953e+00,6.729596257209777832e-01,-4.078852757811546326e-02
5.007082939147949219e+00,1.268928146362304688e+01,2.656986951828002930e+00,6.954162120819091797e+00,1.106262111663818359e+01,1.500075149536132812e+01,-1.205995202064514160e+00,1.646612763404846191e+00,9.724788069725036621e-01,7.185696959495544434e-01,-4.697818756103515625e+00,-1.465439438819885254e+00,-6.015881061553955078e+00,-7.553111076354980469e+00,-5.181486606597900391e+00,-6.911452770233154297e+00,-7.906686067581176758e-01,-6.113387346267700195e-01,-4.895751953125000000e+00,8.640772700309753418e-01,-3.910622000694274902e-02
6.054192066192626953e+00,1.268545246124267578e+01,2.831929445266723633e+00,7.934049606323242188e+00,1.063456153869628906e+01,1.568297100067138672e+01,-1.252732515335083008e+00,3.086344242095947266e+00,1.084829568862915039e+00,1.907304763793945312e+00,-3.961380958557128906e+00,1.171513199806213379e+00,-5.014727592468261719e+00,-5.722080230712890625e+00,-2.912750005722045898e+00,-5.090757369995117188e+00,3.381318449974060059e-01,-1.470583975315093994e-01,-4.299656867980957031e+00,1.002907991409301758e+00,-3.840199857950210571e-02
7.131733894348144531e+00,1.259611988067626953e+01,2.853350877761840820e+00,8.932034492492675781e+00,9.826425552368164062e+00,1.626898002624511719e+01,-1.656750082969665527e+00,4.587368965148925781e+00,8.531060814857482910e-01,3.143919229507446289e+00,-3.807345151901245117e+00,3.656099557876586914e+00,-4.590509891510009766e+00,-4.360927104949951172e+00,-2.519104003906250000e+00,-4.164249420166015625e+00,1.550590753555297852e+00,2.552118897438049316e-01,-4.310084342956542969e+00,1.129117727279663086e+00,-3.863674029707908630e-02
7.857609272003173828e+00,1.235875034332275391e+01,2.703400135040283203e+00,9.741281509399414062e+00,8.662203788757324219e+00,1.668880844116210938e+01,-2.371310710906982422e+00,6.001018047332763672e+00,3.053961992263793945e-01,4.276519775390625000e+00,-4.306127548217773438e+00,5.783133029937744141e+00,-4.787963867187500000e+00,-3.514401674270629883e+00,-4.058541297912597656e+00,-4.176561832427978516e+00,2.654647111892700195e+00,5.398220419883728027e-01,-4.956577777862548828e+00,1.291387319564819336e+00,-3.951701521873474121e-02
7.900440692901611328e+00,1.192867851257324219e+01,2.389217615127563477e+00,1.019632148742675781e+01,7.250490665435791016e+00,1.688778877258300781e+01,-3.249971151351928711e+00,7.219051837921142578e+00,-4.319055974483489990e-01,5.196138381958007812e+00,-5.355038166046142578e+00,7.469320297241210938e+00,-5.463626861572265625e+00,-3.063169956207275391e+00,-7.096996307373046875e+00,-4.919922828674316406e+00,3.487697124481201172e+00,6.749721765518188477e-01,-6.072300910949707031e+00,1.524875402450561523e+00,-4.059290885925292969e-02
7.058469772338867188e+00,1.128420734405517578e+01,1.958406686782836914e+00,1.020537090301513672e+01,5.778167724609375000e+00,1.686373519897460938e+01,-4.071508407592773438e+00,8.181481361389160156e+00,-1.166398644447326660e+00,5.841687202453613281e+00,-6.716421604156494141e+00,8.755291938781738281e+00,-6.324403285980224609e+00,-2.777887105941772461e+00,-1.082433223724365234e+01,-5.997257232666015625e+00,3.953121185302734375e+00,6.686121821403503418e-01,-7.361812591552734375e+00,1.839498281478881836e+00,-4.139493778347969055e-02
5.306900978088378906e+00,1.042661476135253906e+01,1.491893172264099121e+00,9.780063629150390625e+00,4.458632469177246094e+00,1.668662071228027344e+01,-4.605351448059082031e+00,8.877873420715332031e+00,-1.688829660415649414e+00,6.209865093231201172e+00,-8.080739021301269531e+00,9.785287857055664062e+00,-7.026290416717529297e+00,-2.395645618438720703e+00,-1.426697731018066406e+01,-6.926843166351318359e+00,4.037957668304443359e+00,5.557220578193664551e-01,-8.470583915710449219e+00,2.207309484481811523e+00,-4.166880249977111816e-02
2.795642137527465820e+00,9.380146980285644531e+00,1.086073994636535645e+00,9.014769554138183594e+00,3.490131855010986328e+00,1.641985511779785156e+01,-4.654165744781494141e+00,9.340829849243164062e+00,-1.833481192588806152e+00,6.338644504547119141e+00,-9.138451576232910156e+00,1.074621105194091797e+01,-7.259224891662597656e+00,-1.696422934532165527e+00,-1.651638221740722656e+01,-7.260816574096679688e+00,3.809369802474975586e+00,3.887719511985778809e-01,-9.096222877502441406e+00,2.573317766189575195e+00,-4.135581478476524353e-02
-1.845051646232604980e-01,8.161395072937011719e+00,8.397263884544372559e-01,8.064615249633789062e+00,3.016614437103271484e+00,1.614871788024902344e+01,-4.112013816833496094e+00,9.619908332824707031e+00,-1.513281583786010742e+00,6.300671100616455078e+00,-9.648969650268554688e+00,1.182090187072753906e+01,-6.822666168212890625e+00,-5.664793252944946289e-01,-1.693287467956542969e+01,-6.689829349517822266e+00,3.386364221572875977e+00,2.265918552875518799e-01,-9.045824050903320312e+00,2.871713638305664062e+00,-4.063203185796737671e-02
-3.260458946228027344e+00,6.800987243652343750e+00,8.111643195152282715e-01,7.095069408416748047e+00,3.099953651428222656e+00,1.593224334716796875e+01,-3.003821611404418945e+00,9.763360023498535156e+00,-7.450833320617675781e-01,6.168589591979980469e+00,-9.471462249755859375e+00,1.312515735626220703e+01,-5.667251586914062500e+00,9.774039983749389648e-01,-1.523703384399414062e+01,-5.089218139648437500e+00,2.907979249954223633e+00,1.280117928981781006e-01,-8.282892227172851562e+00,3.042096853256225586e+00,-3.973219543695449829e-02
-6.053501605987548828e+00,5.330828189849853516e+00,1.020619392395019531e+00,6.250918865203857422e+00,3.711106538772583008e+00,1.578792762756347656e+01,-1.440720081329345703e+00,9.806395530700683594e+00,3.643803596496582031e-01,6.013393402099609375e+00,-8.572186470031738281e+00,1.468335628509521484e+01,-3.880909442901611328e+00,2.799111843109130859e+00,-1.154308700561523438e+01,-2.528239965438842773e+00,2.499113082885742188e+00,1.359618008136749268e-01,-6.915175914764404297e+00,3.046604156494140625e+00,-3.889104351401329041e-02
-8.239018440246582031e+00,3.799412012100219727e+00,1.440719485282897949e+00,5.625238895416259766e+00,4.749056816101074219e+00,1.570483684539794922e+01,3.726853132247924805e-01,9.765968322753906250e+00,1.656413912773132324e+00,5.876358985900878906e+00,-7.012756824493408203e+00,1.642033195495605469e+01,-1.661093950271606445e+00,4.687944889068603516e+00,-6.292130947113037109e+00,7.699428200721740723e-01,2.246959209442138672e+00,2.742919027805328369e-01,-5.147745609283447266e+00,2.878925561904907227e+00,-3.820638358592987061e-02
-9.603980064392089844e+00,2.274377107620239258e+00,1.996489405632019043e+00,5.247762680053710938e+00,6.052176475524902344e+00,1.565235900878906250e+01,2.198554039001464844e+00,9.635558128356933594e+00,2.942830085754394531e+00,5.770693302154541016e+00,-4.934007167816162109e+00,1.817356109619140625e+01,7.361216545104980469e-01,6.407100200653076172e+00,-1.537131965160369873e-01,4.469817638397216797e+00,2.186866521835327148e+00,5.318720340728759766e-01,-3.234332561492919922e+00,2.557090759277343750e+00,-3.761953115463256836e-02
-1.006723213195800781e+01,8.399508595466613770e-01,2.601052761077880859e+00,5.082293510437011719e+00,7.432321548461914062e+00,1.558676052093505859e+01,3.806315422058105469e+00,9.392994880676269531e+00,4.053698062896728516e+00,5.678236484527587891e+00,-2.535449504852294922e+00,1.972566413879394531e+01,3.034610271453857422e+00,7.753336429595947266e+00,6.084873199462890625e+00,8.192777633666992188e+00,2.305873632431030273e+00,8.594122529029846191e-01,-1.423454999923706055e+00,2.114455223083496094e+00,-3.693487122654914856e-02
-9.688514709472656250e+00,-4.030483663082122803e-01,3.167533397674560547e+00,5.049975395202636719e+00,8.692508697509765625e+00,1.547743034362792969e+01,5.005905151367187500e+00,9.020020484924316406e+00,4.854197025299072266e+00,5.551107883453369141e+00,-6.794245541095733643e-02,2.085114479064941406e+01,4.976755619049072266e+00,8.581215858459472656e+00,1.164336585998535156e+01,1.156175708770751953e+01,2.543888092041015625e+00,1.169462442398071289e+00,8.503033220767974854e-02,1.591586232185363770e+00,-3.599591180682182312e-02
-8.639151573181152344e+00,-1.361459493637084961e+00,3.626906394958496094e+00,5.043511390686035156e+00,9.663535118103027344e+00,1.529812908172607422e+01,5.672689914703369141e+00,8.485337257385253906e+00,5.255851268768310547e+00,5.329870700836181641e+00,2.200051546096801758e+00,2.135090637207031250e+01,6.360476970672607422e+00,8.836665153503417969e+00,1.584342861175537109e+01,1.424585914611816406e+01,2.820785760879516602e+00,1.353902578353881836e+00,1.165995597839355469e+00,1.027248382568359375e+00,-3.466571494936943054e-02
-7.151331901550292969e+00,-1.963816404342651367e+00,3.944659233093261719e+00,4.968533515930175781e+00,1.022291660308837891e+01,1.503355026245117188e+01,5.764087200164794922e+00,7.787641525268554688e+00,5.231976509094238281e+00,4.955089092254638672e+00,4.017673969268798828e+00,2.110711860656738281e+01,7.070077419281005859e+00,8.564435005187988281e+00,1.824748039245605469e+01,1.600806999206542969e+01,3.056443452835083008e+00,1.320512533187866211e+00,1.791634678840637207e+00,4.620091021060943604e-01,-3.296384587883949280e-02
-5.468518257141113281e+00,-2.171833753585815430e+00,4.125552177429199219e+00,4.769453525543212891e+00,1.031256961822509766e+01,1.468588066101074219e+01,5.317486763000488281e+00,6.949102401733398438e+00,4.827513694763183594e+00,4.408601284027099609e+00,5.203016281127929688e+00,2.011166000366210938e+01,7.105557441711425781e+00,7.896910190582275391e+00,1.872723770141601562e+01,1.674065780639648438e+01,3.199016332626342773e+00,1.032722353935241699e+00,2.019297838211059570e+00,-6.536731868982315063e-02,-3.098811581730842590e-02
-3.785704374313354492e+00,-1.988063812255859375e+00,4.205287933349609375e+00,4.450150012969970703e+00,9.952696800231933594e+00,1.425949382781982422e+01,4.450251102447509766e+00,6.034924983978271484e+00,4.150600433349609375e+00,3.721776485443115234e+00,5.682727813720703125e+00,1.846813583374023438e+01,6.596496105194091797e+00,7.039197444915771484e+00,1.750060844421386719e+01,1.647901916503906250e+01,3.244969606399536133e+00,5.414120554924011230e-01,2.000180959701538086e+00,-5.089043974876403809e-01,-2.897326089441776276e-02
-2.214476823806762695e+00,-1.457172989845275879e+00,4.246941089630126953e+00,4.090771675109863281e+00,9.234212875366210938e+00,1.378062820434570312e+01,3.335827112197875977e+00,5.142917156219482422e+00,3.365549802780151367e+00,2.995327472686767578e+00,5.514021873474121094e+00,1.637360572814941406e+01,5.774285316467285156e+00,6.235557556152343750e+00,1.507898139953613281e+01,1.540630245208740234e+01,3.249682903289794922e+00,-7.138301152735948563e-03,1.927189826965332031e+00,-8.280347585678100586e-01,-2.717358432710170746e-02
-7.830142974853515625e-01,-6.608366966247558594e-01,4.330246925354003906e+00,3.825762748718261719e+00,8.298542976379394531e+00,1.328864288330078125e+01,2.178820371627807617e+00,4.393057346343994141e+00,2.667570829391479492e+00,2.377845525741577148e+00,4.865604400634765625e+00,1.407795429229736328e+01,4.918136596679687500e+00,5.717200279235839844e+00,1.213893795013427734e+01,1.379799556732177734e+01,3.323915004730224609e+00,-4.030485749244689941e-01,1.998443126678466797e+00,-9.912058711051940918e-01,-2.572601847350597382e-02
5.582773685455322266e-01,2.962982356548309326e-01,4.531371593475341797e+00,3.808957338333129883e+00,7.311100959777832031e+00,1.284257602691650391e+01,1.168257236480712891e+00,3.898801565170288086e+00,2.236424684524536133e+00,2.037735462188720703e+00,3.967795848846435547e+00,1.180464935302734375e+01,4.284123897552490234e+00,5.648210525512695312e+00,9.344754219055175781e+00,1.196806621551513672e+01,3.599634647369384766e+00,-4.205385744571685791e-01,2.365137100219726562e+00,-9.939103722572326660e-01,-2.468924783170223236e-02
1.891679167747497559e+00,1.294270873069763184e+00,4.913388729095458984e+00,4.167042732238769531e+00,6.427202224731445312e+00,1.250583934783935547e+01,4.443490803241729736e-01,3.731876134872436523e+00,2.188675642013549805e+00,2.115333318710327148e+00,3.045047998428344727e+00,9.712152481079101562e+00,4.021880626678466797e+00,6.078931808471679688e+00,7.169157028198242188e+00,1.018430805206298828e+01,4.195848464965820312e+00,1.089317798614501953e-01,3.086359977722167969e+00,-8.640946745872497559e-01,-2.402414940297603607e-02
3.288200378417968750e+00,2.213120460510253906e+00,5.497720718383789062e+00,4.955605983734130859e+00,5.763015270233154297e+00,1.233965778350830078e+01,7.252827286720275879e-02,3.902713775634765625e+00,2.541176080703735352e+00,2.671727418899536133e+00,2.260198831558227539e+00,7.855314731597900391e+00,4.142203807830810547e+00,6.929186344146728516e+00,5.782609462738037109e+00,8.608321189880371094e+00,5.175006389617919922e+00,1.241012573242187500e+00,4.104761600494384766e+00,-6.684695482254028320e-01,-2.349598333239555359e-02
4.773765563964843750e+00,2.943095445632934570e+00,6.261755466461181641e+00,6.129402160644531250e+00,5.384201049804687500e+00,1.237683010101318359e+01,3.409986197948455811e-02,4.347413539886474609e+00,3.215280532836914062e+00,3.668943881988525391e+00,1.680730700492858887e+00,6.183348655700683594e+00,4.506259918212890625e+00,7.997598171234130859e+00,5.053309917449951172e+00,7.260114192962646484e+00,6.512363910675048828e+00,2.899383544921875000e+00,5.263931751251220703e+00,-4.917759299278259277e-01,-2.290913276374340057e-02
6.308924674987792969e+00,3.398691654205322266e+00,7.132898330688476562e+00,7.533304214477539062e+00,5.286972522735595703e+00,1.260861015319824219e+01,2.449368089437484741e-01,4.942085266113281250e+00,4.036845684051513672e+00,4.974901199340820312e+00,1.290506720542907715e+00,4.584518432617187500e+00,4.887284278869628906e+00,9.013801574707031250e+00,4.628031730651855469e+00,6.041186809539794922e+00,8.086557388305664062e+00,4.878934860229492188e+00,6.348372459411621094e+00,-4.223605692386627197e-01,-2.198973298072814941e-02
7.782091140747070312e+00,3.517376422882080078e+00,7.987379550933837891e+00,8.943669319152832031e+00,5.417031764984130859e+00,1.298033237457275391e+01,5.814450383186340332e-01,5.531540393829345703e+00,4.805043697357177734e+00,6.383222103118896484e+00,1.019110202789306641e+00,2.926773071289062500e+00,5.047715663909912109e+00,9.688784599304199219e+00,4.083253383636474609e+00,4.786861419677734375e+00,9.694921493530273438e+00,6.899826526641845703e+00,7.137372970581054688e+00,-5.188208818435668945e-01,-2.054216712713241577e-02
9.034338951110839844e+00,3.267245054244995117e+00,8.678819656372070312e+00,1.010583114624023438e+01,5.667048931121826172e+00,1.340453243255615234e+01,9.169146418571472168e-01,5.967111587524414062e+00,5.326070308685302734e+00,7.672669410705566406e+00,7.829220294952392578e-01,1.116661429405212402e+00,4.794727802276611328e+00,9.795065879821777344e+00,3.071020841598510742e+00,3.327842950820922852e+00,1.108765792846679688e+01,8.656777381896972656e+00,7.457144260406494141e+00,-7.928763031959533691e-01,-1.844906620681285858e-02
9.887580871582031250e+00,2.643193006515502930e+00,9.051316261291503906e+00,1.078839111328125000e+01,5.904438972473144531e+00,1.377188205718994141e+01,1.144369244575500488e+00,6.141861438751220703e+00,5.472126483917236328e+00,8.641819000244140625e+00,5.144596099853515625e-01,-8.823844194412231445e-01,4.048104763031005859e+00,9.196532249450683594e+00,1.427900314331054688e+00,1.561014175415039062e+00,1.202086257934570312e+01,9.871538162231445312e+00,7.226005077362060547e+00,-1.204860925674438477e+00,-1.576911285519599915e-02
1.019190788269042969e+01,1.663086891174316406e+00,8.977530479431152344e+00,1.083234310150146484e+01,5.990303516387939453e+00,1.397742176055908203e+01,1.198376774787902832e+00,6.010147094726562500e+00,5.192653656005859375e+00,9.158588409423828125e+00,1.814488470554351807e-01,-3.035828113555908203e+00,2.846411705017089844e+00,7.885722637176513672e+00,-8.004173636436462402e-01,-5.167024731636047363e-01,1.229893875122070312e+01,1.034376907348632812e+01,6.452645778656005859e+00,-1.674541473388671875e+00,-1.260011736303567886e-02
9.858275413513183594e+00,3.703166544437408447e-01,8.383678436279296875e+00,1.018210220336914062e+01,5.804684638977050781e+00,1.395118331909179688e+01,1.051933407783508301e+00,5.592833518981933594e+00,4.521358013153076172e+00,9.170145034790039062e+00,-2.234452813863754272e-01,-5.258344650268554688e+00,1.308429837226867676e+00,5.965191364288330078e+00,-3.397778034210205078e+00,-2.811424970626831055e+00,1.182173156738281250e+01,9.958988189697265625e+00,5.239601135253906250e+00,-2.106359004974365234e+00,-9.215943515300750732e-03
8.892319679260253906e+00,-1.163651585578918457e+00,7.262617588043212891e+00,8.901009559631347656e+00,5.273082256317138672e+00,1.366255187988281250e+01,7.185409665107727051e-01,4.968167304992675781e+00,3.553737163543701172e+00,8.724370002746582031e+00,-6.855527162551879883e-01,-7.436166763305664062e+00,-3.822704255580902100e-01,3.625126600265502930e+00,-6.047859191894531250e+00,-5.158475399017333984e+00,1.059631156921386719e+01,8.715607643127441406e+00,3.755446195602416992e+00,-2.415572881698608398e+00,-5.851331166923046112e-03
7.401119232177734375e+00,-2.843104362487792969e+00,5.680994033813476562e+00,7.146778583526611328e+00,4.377819061279296875e+00,1.313339424133300781e+01,2.376665621995925903e-01,4.253518104553222656e+00,2.426016569137573242e+00,7.928577899932861328e+00,-1.185802340507507324e+00,-9.447402000427246094e+00,-2.029777526855468750e+00,1.115383863449096680e+00,-8.415007591247558594e+00,-7.370089054107666016e+00,8.740507125854492188e+00,6.729696273803710938e+00,2.191348552703857422e+00,-2.548093080520629883e+00,-2.721458906307816505e-03
5.576286315917968750e+00,-4.544251918792724609e+00,3.776857137680053711e+00,5.157271385192871094e+00,3.171928167343139648e+00,1.241181564331054688e+01,-3.283734917640686035e-01,3.589728593826293945e+00,1.289869666099548340e+00,6.956126213073730469e+00,-1.697788000106811523e+00,-1.117218875885009766e+01,-3.461319446563720703e+00,-1.302993774414062500e+00,-1.022156143188476562e+01,-9.276971817016601562e+00,6.460519313812255859e+00,4.212724685668945312e+00,7.489029169082641602e-01,-2.489495754241943359e+00,3.674067193060182035e-05
3.655646800994873047e+00,-6.129267692565917969e+00,1.726340055465698242e+00,3.198790073394775391e+00,1.764003276824951172e+00,1.156778812408447266e+01,-9.068768620491027832e-01,3.103297710418701172e+00,2.871392071247100830e-01,5.996883392333984375e+00,-2.190702676773071289e+00,-1.250285434722900391e+01,-4.539603710174560547e+00,-3.382015466690063477e+00,-1.128827190399169922e+01,-1.076215362548828125e+01,4.017927169799804688e+00,1.468382716178894043e+00,-4.050536155700683594e-01,-2.257810831069946289e+00,2.462391508743166924e-03
1.878153443336486816e+00,-7.457770824432373047e+00,-2.825242280960083008e-01,1.524708509445190430e+00,2.992563545703887939e-01,1.066690826416015625e+01,-1.426179647445678711e+00,2.899857282638549805e+00,-4.613976776599884033e-01,5.245668888092041016e+00,-2.633738994598388672e+00,-1.335204219818115234e+01,-5.187500000000000000e+00,-4.938951015472412109e+00,-1.155890369415283203e+01,-1.177792644500732422e+01,1.680202484130859375e+00,-1.163069128990173340e+00,-1.164509892463684082e+00,-1.888196587562561035e+00,4.633740056306123734e-03
4.331652820110321045e-01,-8.420010566711425781e+00,-2.079553127288818359e+00,3.353995382785797119e-01,-1.064473628997802734e+00,9.759468078613281250e+00,-1.822926998138427734e+00,3.043308734893798828e+00,-8.672647476196289062e-01,4.841168880462646484e+00,-2.994622945785522461e+00,-1.366896438598632812e+01,-5.386496543884277344e+00,-5.867518424987792969e+00,-1.110023593902587891e+01,-1.233660125732421875e+01,-3.181748688220977783e-01,-3.352500438690185547e+00,-1.491232514381408691e+00,-1.414008498191833496e+00,6.785527337342500687e-03
-5.711127519607543945e-01,-8.952178001403808594e+00,-3.550498962402343750e+00,-2.489131093025207520e-01,-2.199652433395385742e+00,8.880455017089843750e+00,-2.060767650604248047e+00,3.540172815322875977e+00,-8.925436735153198242e-01,4.865933895111083984e+00,-3.257217168807983398e+00,-1.345361995697021484e+01,-5.199840545654296875e+00,-6.162124156951904297e+00,-1.010733413696289062e+01,-1.250589656829833984e+01,-1.811066508293151855e+00,-4.853461742401123047e+00,-1.440833806991577148e+00,-8.559811711311340332e-01,9.113369509577751160e-03
-1.118900775909423828e+00,-9.049167633056640625e+00,-4.637046813964843750e+00,-2.088385671377182007e-01,-3.016627788543701172e+00,8.060479164123535156e+00,-2.135547399520874023e+00,4.342196941375732422e+00,-5.583001971244812012e-01,5.308407783508300781e+00,-3.427390098571777344e+00,-1.276695537567138672e+01,-4.743227958679199219e+00,-5.914133071899414062e+00,-8.863131523132324219e+00,-1.239662456512451172e+01,-2.717170476913452148e+00,-5.551472187042236328e+00,-1.134965896606445312e+00,-2.186219990253448486e-01,1.179332192987203598e-02
-1.266555666923522949e+00,-8.770959854125976562e+00,-5.347527980804443359e+00,3.922795355319976807e-01,-3.487619638442993164e+00,7.327968120574951172e+00,-2.075308084487915039e+00,5.355486392974853516e+00,5.541578307747840881e-02,6.079434394836425781e+00,-3.538882732391357422e+00,-1.173086452484130859e+01,-4.184803485870361328e+00,-5.296952724456787109e+00,-7.708553314208984375e+00,-1.214114189147949219e+01,-3.043556213378906250e+00,-5.487872123718261719e+00,-7.439414262771606445e-01,5.025765299797058105e-01,1.492319442331790924e-02
-1.121155142784118652e+00,-8.223479270935058594e+00,-5.734305858612060547e+00,1.413533926010131836e+00,-3.645458698272705078e+00,6.717905998229980469e+00,-1.934057831764221191e+00,6.450934410095214844e+00,8.250184059143066406e-01,7.018865108489990234e+00,-3.643040180206298828e+00,-1.050990295410156250e+01,-3.709679603576660156e+00,-4.530604839324951172e+00,-6.949378967285156250e+00,-1.188412094116210938e+01,-2.873882770538330078e+00,-4.839151382446289062e+00,-4.589280784130096436e-01,1.313924789428710938e+00,1.850298605859279633e-02
-8.078113198280334473e-01,-7.531789302825927734e+00,-5.878305912017822266e+00,2.676528215408325195e+00,-3.573484182357788086e+00,6.276212692260742188e+00,-1.775151133537292480e+00,7.494217872619628906e+00,1.608664870262145996e+00,7.936832904815673828e+00,-3.794142007827758789e+00,-9.288941383361816406e+00,-3.470575094223022461e+00,-3.840705394744873047e+00,-6.794732570648193359e+00,-1.175638008117675781e+01,-2.343652963638305664e+00,-3.877200841903686523e+00,-4.467628896236419678e-01,2.207309484481811523e+00,2.241532504558563232e-02
-4.426192939281463623e-01,-6.826061725616455078e+00,-5.867595195770263672e+00,3.984768152236938477e+00,-3.391653537750244141e+00,6.031313419342041016e+00,-1.652595639228820801e+00,8.354927062988281250e+00,2.267321109771728516e+00,8.650074005126953125e+00,-4.027396202087402344e+00,-8.226439476013183594e+00,-3.553876161575317383e+00,-3.413713455200195312e+00,-7.297334194183349609e+00,-1.184718418121337891e+01,-1.617827177047729492e+00,-2.889810323715209961e+00,-8.099811077117919922e-01,3.154783964157104492e+00,2.654284425079822540e-02
-1.225126981735229492e-01,-6.230085849761962891e+00,-5.780718803405761719e+00,5.153393268585205078e+00,-3.231288909912109375e+00,5.989768028259277344e+00,-1.596511006355285645e+00,8.933949470520019531e+00,2.706893444061279297e+00,9.016600608825683594e+00,-4.341335773468017578e+00,-7.428040504455566406e+00,-3.954954624176025391e+00,-3.368963241577148438e+00,-8.323625564575195312e+00,-1.217961883544921875e+01,-8.637225031852722168e-01,-2.113889694213867188e+00,-1.579864740371704102e+00,4.097751140594482422e+00,3.076817095279693604e-02
6.910040229558944702e-02,-5.849784374237060547e+00,-5.686702251434326172e+00,6.025984287261962891e+00,-3.214873552322387695e+00,6.105658054351806641e+00,-1.610012888908386230e+00,9.156951904296875000e+00,2.874015331268310547e+00,8.950559616088867188e+00,-4.693417549133300781e+00,-6.922184467315673828e+00,-4.582796573638916016e+00,-3.738152742385864258e+00,-9.587159156799316406e+00,-1.269519996643066406e+01,-2.356946766376495361e-01,-1.697309494018554688e+00,-2.704277276992797852e+00,4.963189125061035156e+00,3.503262251615524292e-02
6.797327101230621338e-02,-5.783422946929931641e+00,-5.643859386444091797e+00,6.483609676361083984e+00,-3.437111139297485352e+00,6.284959316253662109e+00,-1.674406409263610840e+00,8.996546745300292969e+00,2.777112722396850586e+00,8.428836822509765625e+00,-5.016159534454345703e+00,-6.660114288330078125e+00,-5.292397022247314453e+00,-4.483990192413330078e+00,-1.074700832366943359e+01,-1.326156997680664062e+01,1.390010863542556763e-01,-1.676639437675476074e+00,-4.070255756378173828e+00,5.666357994079589844e+00,3.935575857758522034e-02
-1.833780258893966675e-01,-6.110125064849853516e+00,-5.703363418579101562e+00,6.452584266662597656e+00,-3.944721698760986328e+00,6.394289016723632812e+00,-1.764765143394470215e+00,8.440998077392578125e+00,2.459721803665161133e+00,7.482801914215087891e+00,-5.240611553192138672e+00,-6.532126903533935547e+00,-5.921782016754150391e+00,-5.513245582580566406e+00,-1.148333740234375000e+01,-1.371712875366210938e+01,1.637451350688934326e-01,-2.007359743118286133e+00,-5.535294055938720703e+00,6.127023220062255859e+00,4.381582513451576233e-02
-7.232761383056640625e-01,-6.887318611145019531e+00,-5.910438537597656250e+00,5.904468059539794922e+00,-4.730129241943359375e+00,6.298078536987304688e+00,-1.863432645797729492e+00,7.525516510009765625e+00,1.973804831504821777e+00,6.168589591979980469e+00,-5.321297168731689453e+00,-6.398044586181640625e+00,-6.350627422332763672e+00,-6.699127197265625000e+00,-1.161865329742431641e+01,-1.390643215179443359e+01,-2.168420553207397461e-01,-2.594069957733154297e+00,-6.953409194946289062e+00,6.284785747528076172e+00,4.845194891095161438e-02
-1.560738086700439453e+00,-8.126488685607910156e+00,-6.298406124114990234e+00,4.859944343566894531e+00,-5.733985900878906250e+00,5.895744323730468750e+00,-1.974563479423522949e+00,6.302266597747802734e+00,1.371323943138122559e+00,4.568750381469726562e+00,-5.250880718231201172e+00,-6.121753692626953125e+00,-6.523399829864501953e+00,-7.914842128753662109e+00,-1.113714027404785156e+01,-1.374021434783935547e+01,-1.016899943351745605e+00,-3.331830501556396484e+00,-8.202949523925781250e+00,6.111697673797607422e+00,5.326412618160247803e-02
-2.665331125259399414e+00,-9.775313377380371094e+00,-6.879168033599853516e+00,3.378479003906250000e+00,-6.856537818908691406e+00,5.150113105773925781e+00,-2.116852283477783203e+00,4.850798130035400391e+00,6.873887777328491211e-01,2.765835523605346680e+00,-5.066037654876708984e+00,-5.595582008361816406e+00,-6.461695671081542969e+00,-9.046649932861328125e+00,-1.017411327362060547e+01,-1.321232032775878906e+01,-2.203436613082885742e+00,-4.133191108703613281e+00,-9.198758125305175781e+00,5.617676734924316406e+00,5.815454944968223572e-02
-3.966046094894409180e+00,-1.171510696411132812e+01,-7.633682250976562500e+00,1.558319330215454102e+00,-7.972775936126708984e+00,4.113664150238037109e+00,-2.311071634292602539e+00,3.271527051925659180e+00,-5.553058162331581116e-02,8.473493456840515137e-01,-4.819580554962158203e+00,-4.762646198272705078e+00,-6.228761196136474609e+00,-1.000132179260253906e+01,-8.945726394653320312e+00,-1.239816379547119141e+01,-3.696328163146972656e+00,-4.944091796875000000e+00,-9.890437126159667969e+00,4.852304935455322266e+00,6.296672672033309937e-02
-5.354677677154541016e+00,-1.375827121734619141e+01,-8.497684478759765625e+00,-4.712621569633483887e-01,-8.955166816711425781e+00,2.911033391952514648e+00,-2.569684505462646484e+00,1.670086622238159180e+00,-8.377726674079895020e-01,-1.090949058532714844e+00,-4.570188999176025391e+00,-3.614820003509521484e+00,-5.909440994262695312e+00,-1.070613861083984375e+01,-7.659347534179687500e+00,-1.141778945922851562e+01,-5.373032569885253906e+00,-5.718421936035156250e+00,-1.025365543365478516e+01,3.900322914123535156e+00,6.752460449934005737e-02
-6.710621833801269531e+00,-1.568657875061035156e+01,-9.379537582397460938e+00,-2.557723760604858398e+00,-9.697641372680664062e+00,1.717149257659912109e+00,-2.884382009506225586e+00,1.651498079299926758e-01,-1.620014786720275879e+00,-2.941743373870849609e+00,-4.350138187408447266e+00,-2.192734479904174805e+00,-5.573152065277099609e+00,-1.110889053344726562e+01,-6.464350700378417969e+00,-1.039893817901611328e+01,-7.074481487274169922e+00,-6.416432380676269531e+00,-1.029188919067382812e+01,2.875319480895996094e+00,7.169124484062194824e-02
-7.917784214019775391e+00,-1.727414703369140625e+01,-1.013643169403076172e+01,-4.530425071716308594e+00,-1.013201522827148438e+01,7.091261148452758789e-01,-3.218812942504882812e+00,-1.125913858413696289e+00,-2.343272686004638672e+00,-4.579555988311767578e+00,-4.171163082122802734e+00,-5.613994598388671875e-01,-5.255374431610107422e+00,-1.117415142059326172e+01,-5.438059329986572266e+00,-9.438571929931640625e+00,-8.627465248107910156e+00,-6.980883121490478516e+00,-1.002251625061035156e+01,1.899898648262023926e+00,7.542753219604492188e-02
-8.885993957519531250e+00,-1.833209991455078125e+01,-1.062793731689453125e+01,-6.216141223907470703e+00,-1.023555755615234375e+01,3.127971664071083069e-02,-3.525201559066772461e+00,-2.096167802810668945e+00,-2.919070243835449219e+00,-5.870654582977294922e+00,-4.025929450988769531e+00,1.181671023368835449e+00,-4.976162433624267578e+00,-1.088327503204345703e+01,-4.613862991333007812e+00,-8.585938453674316406e+00,-9.856420516967773438e+00,-7.332273006439208984e+00,-9.490723609924316406e+00,1.097565293312072754e+00,7.885082811117172241e-02
-9.558894157409667969e+00,-1.872133445739746094e+01,-1.071243286132812500e+01,-7.444231986999511719e+00,-1.002215862274169922e+01,-2.201794236898422241e-01,-3.750579118728637695e+00,-2.651716232299804688e+00,-3.253313779830932617e+00,-6.679654598236083984e+00,-3.907101631164550781e+00,2.924741506576538086e+00,-4.732429981231689453e+00,-1.022880268096923828e+01,-4.025151252746582031e+00,-7.845655441284179688e+00,-1.059874248504638672e+01,-7.375203132629394531e+00,-8.750383377075195312e+00,5.647798776626586914e-01,8.217632025480270386e-02
-9.909433364868164062e+00,-1.837038612365722656e+01,-1.027686214447021484e+01,-8.063447952270507812e+00,-9.534751892089843750e+00,-5.892504006624221802e-03,-3.850285291671752930e+00,-2.728658437728881836e+00,-3.253313779830932617e+00,-6.889334201812744141e+00,-3.819081068038940430e+00,4.539824008941650391e+00,-4.521092414855957031e+00,-9.216328620910644531e+00,-3.724644899368286133e+00,-7.183864116668701172e+00,-1.073188877105712891e+01,-7.014273166656494141e+00,-7.865799427032470703e+00,3.556323051452636719e-01,8.577567338943481445e-02
-9.922959327697753906e+00,-1.726648902893066406e+01,-9.254578590393066406e+00,-7.962615489959716797e+00,-8.832683563232421875e+00,6.807003021240234375e-01,-3.793161869049072266e+00,-2.294391632080078125e+00,-2.857277393341064453e+00,-6.417142391204833984e+00,-3.773603916168212891e+00,5.896900177001953125e+00,-4.342149734497070312e+00,-7.851445674896240234e+00,-3.763306617736816406e+00,-6.540541648864746094e+00,-1.018045043945312500e+01,-6.174752235412597656e+00,-6.887369632720947266e+00,4.719255566596984863e-01,9.000100195407867432e-02
-9.593835830688476562e+00,-1.544793319702148438e+01,-7.633682250976562500e+00,-7.086146831512451172e+00,-7.963936805725097656e+00,1.819919466972351074e+00,-3.557398319244384766e+00,-1.360652685165405273e+00,-2.044138908386230469e+00,-5.239964485168457031e+00,-3.773603916168212891e+00,6.872044086456298828e+00,-4.175547599792480469e+00,-6.145342826843261719e+00,-4.156952381134033203e+00,-5.840274333953857422e+00,-8.931464195251464844e+00,-4.821661472320556641e+00,-5.844637870788574219e+00,8.559637665748596191e-01,9.518484771251678467e-02
-8.919808387756347656e+00,-1.300532531738281250e+01,-5.468916416168212891e+00,-5.453432559967041016e+00,-6.962605476379394531e+00,3.385525941848754883e+00,-3.130531549453735352e+00,1.387366279959678650e-02,-8.490077257156372070e-01,-3.400727272033691406e+00,-3.797075986862182617e+00,7.383995056152343750e+00,-3.978093862533569336e+00,-4.109206676483154297e+00,-4.824744701385498047e+00,-5.001492500305175781e+00,-7.039132595062255859e+00,-2.972490310668945312e+00,-4.720225334167480469e+00,1.406779170036315918e+00,1.015032753348350525e-01
-7.911021709442138672e+00,-1.007138729095458984e+01,-2.881670951843261719e+00,-3.176939964294433594e+00,-5.851418018341064453e+00,5.325041294097900391e+00,-2.501136541366577148e+00,1.733987689018249512e+00,6.494703888893127441e-01,-1.013351082801818848e+00,-3.780938863754272461e+00,7.394152641296386719e+00,-3.681912660598754883e+00,-1.771006703376770020e+00,-5.594463348388671875e+00,-3.971868276596069336e+00,-4.634245872497558594e+00,-7.083287835121154785e-01,-3.470685005187988281e+00,2.001767873764038086e+00,1.089562848210334778e-01
-6.614815235137939453e+00,-6.828614234924316406e+00,-5.521789565682411194e-02,-4.505785405635833740e-01,-4.648052692413330078e+00,7.555374622344970703e+00,-1.671290636062622070e+00,3.666670799255371094e+00,2.326305389404296875e+00,1.738900542259216309e+00,-3.637172222137451172e+00,6.928927898406982422e+00,-3.203703641891479492e+00,8.170489668846130371e-01,-6.227108955383300781e+00,-2.742167949676513672e+00,-1.913577556610107422e+00,1.829312920570373535e+00,-2.050832033157348633e+00,2.526439905166625977e+00,1.173482537269592285e-01
-5.126996040344238281e+00,-3.506717920303344727e+00,2.775995492935180664e+00,2.455471992492675781e+00,-3.381551742553710938e+00,9.936583518981933594e+00,-6.628045439720153809e-01,5.665863513946533203e+00,4.029823780059814453e+00,4.626535892486572266e+00,-3.280689239501953125e+00,6.069581985473632812e+00,-2.484847545623779297e+00,3.567324161529541016e+00,-6.495983123779296875e+00,-1.373952984809875488e+00,8.660051226615905762e-01,4.448044776916503906e+00,-4.398113489151000977e-01,2.898758649826049805e+00,1.262879520654678345e-01
-3.604235410690307617e+00,-3.660391271114349365e-01,5.346580028533935547e+00,5.230957031250000000e+00,-2.102423667907714844e+00,1.228280639648437500e+01,4.703142344951629639e-01,7.572464466094970703e+00,5.587285995483398438e+00,7.391995906829833984e+00,-2.655744075775146484e+00,4.933945178985595703e+00,-1.513003349304199219e+00,6.347433090209960938e+00,-6.260498523712158203e+00,-2.659984631463885307e-03,3.420534610748291016e+00,6.907776355743408203e+00,1.322405338287353516e+00,3.080861091613769531e+00,1.352667659521102905e-01
-2.240401029586791992e+00,2.326700448989868164e+00,7.394717216491699219e+00,7.560451030731201172e+00,-8.864310979843139648e-01,1.436663722991943359e+01,1.641861438751220703e+00,9.236501693725585938e+00,6.823143959045410156e+00,9.777721405029296875e+00,-1.769671440124511719e+00,3.652036666870117188e+00,-3.483330011367797852e-01,9.000749588012695312e+00,-5.513625621795654297e+00,1.190103292465209961e+00,5.462508678436279297e+00,8.976367950439453125e+00,3.136758804321289062e+00,3.070944786071777344e+00,1.437956690788269043e-01
-1.240631461143493652e+00,4.343064785003662109e+00,8.699050903320312500e+00,9.171189308166503906e+00,1.792986243963241577e-01,1.596504306793212891e+01,2.741744756698608398e+00,1.053017330169677734e+01,7.588533401489257812e+00,1.155421924591064453e+01,-6.884866952896118164e-01,2.337623357772827148e+00,8.919252157211303711e-01,1.136505413055419922e+01,-4.380136013031005859e+00,2.024267911911010742e+00,6.752734661102294922e+00,1.042803859710693359e+01,4.862479686737060547e+00,2.893349647521972656e+00,1.514834165573120117e-01
-7.661072611808776855e-01,5.528635978698730469e+00,9.123910903930664062e+00,9.873140335083007812e+00,1.012689113616943359e+00,1.691402816772460938e+01,3.660910606384277344e+00,1.134393501281738281e+01,7.780934333801269531e+00,1.254978466033935547e+01,4.895204603672027588e-01,1.069935679435729980e+00,2.058138132095336914e+00,1.329863739013671875e+01,-3.065639257431030273e+00,2.375171184539794922e+00,7.129786968231201172e+00,1.110219955444335938e+01,6.341421127319335938e+00,2.569711685180664062e+00,1.581735163927078247e-01
-8.979821801185607910e-01,5.845128536224365234e+00,8.650257110595703125e+00,9.587447166442871094e+00,1.556918382644653320e+00,1.712831497192382812e+01,4.317309379577636719e+00,1.161649322509765625e+01,7.366641044616699219e+00,1.267856502532958984e+01,1.658725619316101074e+00,-1.043005511164665222e-01,3.013013601303100586e+00,1.471572875976562500e+01,-1.791561841964721680e+00,2.215110063552856445e+00,6.546534061431884766e+00,1.092570877075195312e+01,7.464095592498779297e+00,2.107243061065673828e+00,1.639442294836044312e-01
-1.611459136009216309e+00,5.384427547454833984e+00,7.376865863800048828e+00,8.360649108886718750e+00,1.789257526397705078e+00,1.663414192199707031e+01,4.682898521423339844e+00,1.134263134002685547e+01,6.403233051300048828e+00,1.197027683258056641e+01,2.758981466293334961e+00,-1.160706877708435059e+00,3.673250675201416016e+00,1.559022235870361328e+01,-7.406675219535827637e-01,1.621037125587463379e+00,5.087812900543212891e+00,9.936728477478027344e+00,8.180105209350585938e+00,1.494224429130554199e+00,1.691085100173950195e-01
-2.773536205291748047e+00,4.360931396484375000e+00,5.534613609313964844e+00,6.364678859710693359e+00,1.737486362457275391e+00,1.557364082336425781e+01,4.791952133178710938e+00,1.057581710815429688e+01,5.038171768188476562e+00,1.056030464172363281e+01,3.777084827423095703e+00,-2.083030939102172852e+00,4.037306308746337891e+00,1.597060012817382812e+01,-1.839737407863140106e-02,7.622475624084472656e-01,2.959823846817016602e+00,8.292667388916015625e+00,8.545061111450195312e+00,7.126255631446838379e-01,1.739793717861175537e-01
-4.172311782836914062e+00,3.078370332717895508e+00,3.434112548828125000e+00,3.868422746658325195e+00,1.476104736328125000e+00,1.412829780578613281e+01,4.737944602966308594e+00,9.438637733459472656e+00,3.497561931610107422e+00,8.694651603698730469e+00,4.752645015716552734e+00,-2.832673072814941406e+00,4.183854579925537109e+00,1.595568275451660156e+01,3.524031043052673340e-01,-1.350182294845581055e-01,4.724567532539367676e-01,6.262236118316650391e+00,8.678877830505371094e+00,-2.465684413909912109e-01,1.789480447769165039e-01
-5.557561874389648438e+00,1.871104240417480469e+00,1.427628517150878906e+00,1.211868524551391602e+00,1.114968895912170410e+00,1.253645229339599609e+01,4.653817653656005859e+00,8.109755516052246094e+00,2.059472322463989258e+00,6.693614006042480469e+00,5.747276306152343750e+00,-3.362907648086547852e+00,4.262527465820312500e+00,1.567785835266113281e+01,4.262117445468902588e-01,-8.291295170783996582e-01,-2.012553691864013672e+00,4.185694694519042969e+00,8.767510414123535156e+00,-1.363524675369262695e+00,1.841319054365158081e-01
-6.676807880401611328e+00,1.046692013740539551e+00,-1.599454134702682495e-01,-1.239142060279846191e+00,7.917143702507019043e-01,1.102769756317138672e+01,4.687053203582763672e+00,6.787393569946289062e+00,9.991620779037475586e-01,4.894001483917236328e+00,6.822592735290527344e+00,-3.622946262359619141e+00,4.464609622955322266e+00,1.527883529663085938e+01,3.278002440929412842e-01,-1.104619383811950684e+00,-4.131116390228271484e+00,2.425563335418701172e+00,9.007338523864746094e+00,-2.583251714706420898e+00,1.895504891872406006e-01
