Fp1,Fp2,F7,F3,Fz,F4,F8,T3,C3,Cz,C4,T4,T5,P3,Pz,P4,T6,O1,Oz,O2,A1
4.059641659259796143e-01,3.521758270263671875e+01,1.663662910461425781e+01,1.400310516357421875e+01,2.093473243713378906e+01,1.550131225585937500e+01,1.388227653503417969e+01,1.668551445007324219e+01,1.261888980865478516e+01,1.366773986816406250e+01,9.632515907287597656e+00,7.436985492706298828e+00,3.884365081787109375e+00,9.883415222167968750e+00,-1.063270688056945801e+00,4.332624435424804688e+00,1.775956153869628906e+01,1.644454383850097656e+01,1.153798198699951172e+01,6.695868968963623047e+00,2.764512002468109131e-01
2.289283573627471924e-01,3.342958450317382812e+01,1.598351478576660156e+01,1.280815029144287109e+01,2.135723686218261719e+01,1.529112911224365234e+01,1.486053752899169922e+01,1.527580451965332031e+01,1.259910869598388672e+01,1.236592578887939453e+01,8.455774307250976562e+00,7.030915737152099609e+00,2.918904066085815430e+00,6.760074615478515625e+00,-3.153403282165527344e+00,1.585071921348571777e+00,1.725076866149902344e+01,1.594572925567626953e+01,9.614724159240722656e+00,6.463326930999755859e+00,2.769498825073242188e-01
-9.356687068939208984e-01,3.065264701843261719e+01,1.533179283142089844e+01,1.168944358825683594e+01,2.120389556884765625e+01,1.488735580444335938e+01,1.585346698760986328e+01,1.414506626129150391e+01,1.288345623016357422e+01,1.130198955535888672e+01,7.983191490173339844e+00,6.984836578369140625e+00,2.471811294555664062e+00,4.133818149566650391e+00,-4.524192810058593750e+00,-5.068364143371582031e-01,1.648189735412597656e+01,1.559738826751708984e+01,8.440971374511718750e+00,6.397178649902343750e+00,2.770707607269287109e-01
-2.927854776382446289e+00,2.709642601013183594e+01,1.459930229187011719e+01,1.053823757171630859e+01,2.042413520812988281e+01,1.415171527862548828e+01,1.665232467651367188e+01,1.316454219818115234e+01,1.322590827941894531e+01,1.034929847717285156e+01,8.237820625305175781e+00,7.098593711853027344e+00,2.308525323867797852e+00,2.054352760314941406e+00,-5.335289001464843750e+00,-2.041158914566040039e+00,1.540036201477050781e+01,1.521231842041015625e+01,7.889449596405029297e+00,6.557435035705566406e+00,2.766778767108917236e-01
-5.406356334686279297e+00,2.310902786254882812e+01,1.373312473297119141e+01,9.202039718627929688e+00,1.905710792541503906e+01,1.298907089233398438e+01,1.707431793212890625e+01,1.211799049377441406e+01,1.335077381134033203e+01,9.305480957031250000e+00,9.058291435241699219e+00,7.121633529663085938e+00,2.158198356628417969e+00,4.388320147991180420e-01,-5.801393985748291016e+00,-3.177480459213256836e+00,1.401752948760986328e+01,1.461516284942626953e+01,7.752073764801025391e+00,6.947505474090576172e+00,2.755444943904876709e-01
-7.904054164886474609e+00,1.916909790039062500e+01,1.274857807159423828e+01,7.585851669311523438e+00,1.726268005371093750e+01,1.141048526763916016e+01,1.701564598083496094e+01,1.079246807098388672e+01,1.304541015625000000e+01,7.989465713500976562e+00,1.016587448120117188e+01,6.886919021606445312e+00,1.808299779891967773e+00,-8.846523165702819824e-01,-6.109683990478515625e+00,-4.063849449157714844e+00,1.244709968566894531e+01,1.372416877746582031e+01,7.824802398681640625e+00,7.513516902923583984e+00,2.734137475490570068e-01
-9.915436744689941406e+00,1.581462097167968750e+01,1.175289154052734375e+01,5.733422756195068359e+00,1.530838394165039062e+01,9.571936607360839844e+00,1.648420333862304688e+01,9.097186088562011719e+00,1.223687553405761719e+01,6.351547241210937500e+00,1.129755878448486328e+01,6.400211334228515625e+00,1.184961795806884766e+00,-2.073509931564331055e+00,-6.357417106628417969e+00,-4.775252342224121094e+00,1.089230155944824219e+01,1.259502315521240234e+01,7.978339672088623047e+00,8.149767875671386719e+00,2.699834108352661133e-01
-1.103737449645996094e+01,1.353215217590332031e+01,1.090621089935302734e+01,3.842245578765869141e+00,1.350906181335449219e+01,7.765468597412109375e+00,1.559846496582031250e+01,7.121282100677490234e+00,1.100305843353271484e+01,4.494688034057617188e+00,1.230559539794921875e+01,5.837185382843017578e+00,3.594600856304168701e-01,-3.216801404953002930e+00,-6.539088249206542969e+00,-5.313611030578613281e+00,9.604690551757812500e+00,1.139360332489013672e+01,8.182382583618164062e+00,8.701458930969238281e+00,2.650721371173858643e-01
-1.108216667175292969e+01,1.261837291717529297e+01,1.035753822326660156e+01,2.191059112548828125e+00,1.215019035339355469e+01,6.321842670440673828e+00,1.454122066497802734e+01,5.095857143402099609e+00,9.521982192993164062e+00,2.629544258117675781e+00,1.317112445831298828e+01,5.397996425628662109e+00,-5.152865648269653320e-01,-4.310384750366210938e+00,-6.597809791564941406e+00,-5.644317150115966797e+00,8.783234596252441406e+00,1.029052448272705078e+01,8.451072692871093750e+00,9.007650375366210938e+00,2.585892677307128906e-01
-1.014793014526367188e+01,1.308515167236328125e+01,1.018207454681396484e+01,1.043603181838989258e+00,1.140142440795898438e+01,5.506553173065185547e+00,1.351895523071289062e+01,3.301532030105590820e+00,8.006290435791015625e+00,9.880756139755249023e-01,1.395491981506347656e+01,5.203600883483886719e+00,-1.272104382514953613e+00,-5.275554656982421875e+00,-6.480366230010986328e+00,-5.736607074737548828e+00,8.498993873596191406e+00,9.394790649414062500e+00,8.814714431762695312e+00,8.923089981079101562e+00,2.505498826503753662e-01
-8.558873176574707031e+00,1.465558528900146484e+01,1.033804225921630859e+01,5.548719167709350586e-01,1.129049682617187500e+01,5.430223941802978516e+00,1.270994377136230469e+01,1.954550266265869141e+00,6.650079727172851562e+00,-2.557480335235595703e-01,1.471671104431152344e+01,5.189201354980468750e+00,-1.787880897521972656e+00,-5.985969543457031250e+00,-6.173911094665527344e+00,-5.598172187805175781e+00,8.662432670593261719e+00,8.709958076477050781e+00,9.269265174865722656e+00,8.363898277282714844e+00,2.411051094532012939e-01
-6.765052795410156250e+00,1.681542587280273438e+01,1.066529655456542969e+01,6.973664164543151855e-01,1.169505786895751953e+01,5.986655712127685547e+00,1.222814750671386719e+01,1.104433059692382812e+00,5.560907840728759766e+00,-1.065239310264587402e+00,1.545754528045654297e+01,5.120083332061767578e+00,-2.043177366256713867e+00,-6.340141773223876953e+00,-5.726156711578369141e+00,-5.284770488739013672e+00,9.019154548645019531e+00,8.128205299377441406e+00,9.784423828125000000e+00,7.366899490356445312e+00,2.303758561611175537e-01
-5.182395458221435547e+00,1.895153236389160156e+01,1.091038799285888672e+01,1.258594870567321777e+00,1.236552238464355469e+01,6.868318557739257812e+00,1.208597755432128906e+01,6.026162505149841309e-01,4.736302375793457031e+00,-1.545726895332336426e+00,1.610616683959960938e+01,4.690973758697509766e+00,-2.104085683822631836e+00,-6.313216209411621094e+00,-5.219680309295654297e+00,-4.892537593841552734e+00,9.211017608642578125e+00,7.486026287078857422e+00,1.032382488250732422e+01,6.090305328369140625e+00,2.184981256723403931e-01
-4.098850727081298828e+00,2.049229812622070312e+01,1.079759025573730469e+01,1.896070361137390137e+00,1.299030876159667969e+01,7.639358520507812500e+00,1.220219516754150391e+01,1.569237262010574341e-01,4.076123237609863281e+00,-1.910234689712524414e+00,1.655045890808105469e+01,3.672919273376464844e+00,-2.102789640426635742e+00,-5.985969543457031250e+00,-4.738894939422607422e+00,-4.527222633361816406e+00,8.889824867248535156e+00,6.619913578033447266e+00,1.086726570129394531e+01,4.808255195617675781e+00,2.056381404399871826e-01
-3.642396926879882812e+00,2.104610252380371094e+01,1.010966110229492188e+01,2.232307434082031250e+00,1.326436710357666016e+01,7.879409790039062500e+00,1.240078163146972656e+01,-5.759928822517395020e-01,3.396163463592529297e+00,-2.403740406036376953e+00,1.662800025939941406e+01,1.986721158027648926e+00,-2.196095943450927734e+00,-5.540666103363037109e+00,-4.360872268676757812e+00,-4.290729522705078125e+00,7.823921680450439453e+00,5.418493747711181641e+00,1.141070747375488281e+01,3.809893131256103516e+00,1.919167935848236084e-01
-3.783172369003295898e+00,2.049823188781738281e+01,8.792291641235351562e+00,1.996066451072692871e+00,1.298215293884277344e+01,7.331827640533447266e+00,1.247750759124755859e+01,-1.815678358078002930e+00,2.527051210403442383e+00,-3.186012029647827148e+00,1.621828842163085938e+01,-2.221837788820266724e-01,-2.479902744293212891e+00,-5.171995639801025391e+00,-4.114974498748779297e+00,-4.233047962188720703e+00,6.014729022979736328e+00,3.887690067291259766e+00,1.196020984649658203e+01,3.291617631912231445e+00,1.775607466697692871e-01
-4.365470886230468750e+00,1.901086807250976562e+01,6.998663425445556641e+00,1.133599638938903809e+00,1.211267089843750000e+01,5.995505809783935547e+00,1.226763820648193359e+01,-3.558831453323364258e+00,1.403263330459594727e+00,-4.255866050720214844e+00,1.528988838195800781e+01,-2.612524271011352539e+00,-2.936066865921020508e+00,-4.991803169250488281e+00,-3.957159519195556641e+00,-4.309956550598144531e+00,3.726589918136596680e+00,2.169683218002319336e+00,1.252385330200195312e+01,3.300482988357543945e+00,1.627362519502639771e-01
-5.165331363677978516e+00,1.696969985961914062e+01,5.072741508483886719e+00,-1.601005792617797852e-01,1.083373260498046875e+01,4.131513595581054688e+00,1.170008945465087891e+01,-5.547940731048583984e+00,1.076310276985168457e-01,-5.419213771820068359e+00,1.394025039672851562e+01,-4.742231369018554688e+00,-3.418149471282958984e+00,-4.969019889831542969e+00,-3.782828807830810547e+00,-4.373405933380126953e+00,1.422817945480346680e+00,5.251358151435852051e-01,1.310163879394531250e+01,3.726014375686645508e+00,1.477304100990295410e-01
-5.884139537811279297e+00,1.488106346130371094e+01,3.481035709381103516e+00,-1.470050215721130371e+00,9.512381553649902344e+00,2.201147794723510742e+00,1.085497093200683594e+01,-7.325758457183837891e+00,-1.116296410560607910e+00,-6.306814193725585938e+00,1.243343353271484375e+01,-6.149075984954833984e+00,-3.664374589920043945e+00,-4.877888202667236328e+00,-3.412146806716918945e+00,-4.173444271087646484e+00,-3.480025827884674072e-01,-7.070898413658142090e-01,1.371780776977539062e+01,4.339761734008789062e+00,1.327245682477951050e-01
-6.103834629058837891e+00,1.335612106323242188e+01,2.755507707595825195e+00,-2.201272010803222656e+00,8.672263145446777344e+00,7.774340510368347168e-01,1.000759601593017578e+01,-8.321138381958007812e+00,-1.861779570579528809e+00,-6.433444976806640625e+00,1.121687412261962891e+01,-6.422669410705566406e+00,-3.339098215103149414e+00,-4.275174617767333984e+00,-2.584534883499145508e+00,-3.344756126403808594e+00,-1.085607528686523438e+00,-1.184577345848083496e+00,1.445721149444580078e+01,4.834168910980224609e+00,1.178698539733886719e-01
-5.730566501617431641e+00,1.265595340728759766e+01,2.993636846542358398e+00,-2.060027599334716797e+00,8.523814201354980469e+00,1.479910314083099365e-01,9.306903839111328125e+00,-8.273267745971679688e+00,-1.938429594039916992e+00,-5.542294502258300781e+00,1.056196403503417969e+01,-5.414694309234619141e+00,-2.303657531738281250e+00,-2.866771936416625977e+00,-1.158693790435791016e+00,-1.681612133979797363e+00,-5.853436589241027832e-01,-7.141988277435302734e-01,1.541075897216796875e+01,5.096034526824951172e+00,1.031964719295501709e-01
-4.700345993041992188e+00,1.290912151336669922e+01,4.102121353149414062e+00,-9.138215780258178711e-01,9.158390045166015625e+00,4.079543054103851318e-01,8.955993652343750000e+00,-7.081452846527099609e+00,-1.260942459106445312e+00,-3.538685083389282227e+00,1.067617988586425781e+01,-3.155390739440917969e+00,-5.217661857604980469e-01,-4.704161882400512695e-01,9.222636222839355469e-01,8.928963541984558105e-01,1.058989644050598145e+00,7.206331491470336914e-01,1.662895774841308594e+01,5.124676227569580078e+00,8.864397555589675903e-02
-3.132619142532348633e+00,1.403651046752929688e+01,5.736996650695800781e+00,1.109850525856018066e+00,1.041938304901123047e+01,1.409089565277099609e+00,9.031592369079589844e+00,-4.923971176147460938e+00,7.919634878635406494e-02,-5.847518444061279297e-01,1.158047962188720703e+01,9.892822057008743286e-02,1.858840584754943848e+00,2.903536796569824219e+00,3.581264734268188477e+00,4.288402080535888672e+00,3.477879285812377930e+00,2.925606250762939453e+00,1.807948112487792969e+01,4.986241817474365234e+00,7.413682341575622559e-02
-1.526499032974243164e+00,1.557727527618408203e+01,7.235400199890136719e+00,3.493508815765380859e+00,1.180761814117431641e+01,2.690100193023681641e+00,9.370090484619140625e+00,-2.330700874328613281e+00,1.695027828216552734e+00,2.829550027847290039e+00,1.294164371490478516e+01,3.867314338684082031e+00,4.480488777160644531e+00,6.871918678283691406e+00,6.546720981597900391e+00,8.103057861328125000e+00,6.071577072143554688e+00,5.513279914855957031e+00,1.960677337646484375e+01,4.898953437805175781e+00,5.965989083051681519e-02
-2.616528272628784180e-01,1.712990760803222656e+01,8.167028427124023438e+00,5.808419704437255859e+00,1.296583938598632812e+01,3.871550321578979492e+00,9.858656883239746094e+00,2.724736332893371582e-01,3.279952049255371094e+00,6.243852138519287109e+00,1.443169403076171875e+01,7.676019668579101562e+00,7.054187774658203125e+00,1.101635074615478516e+01,9.543373107910156250e+00,1.191386890411376953e+01,8.294340133666992188e+00,8.080811500549316406e+00,2.100275039672851562e+01,4.978740692138671875e+00,4.534918814897537231e-02
6.149944067001342773e-01,1.855793571472167969e+01,8.570873260498046875e+00,7.955837249755859375e+00,1.392178058624267578e+01,4.864942073822021484e+00,1.056386280059814453e+01,2.735337495803833008e+00,4.809243202209472656e+00,9.421460151672363281e+00,1.594270229339599609e+01,1.120537185668945312e+01,9.476263999938964844e+00,1.514628410339355469e+01,1.246845722198486328e+01,1.548434162139892578e+01,9.832083702087402344e+00,1.032843875885009766e+01,2.210983657836914062e+01,5.116492748260498047e+00,3.153716772794723511e-02
1.402057290077209473e+00,1.995233726501464844e+01,8.896734237670898438e+00,1.015450286865234375e+01,1.505553245544433594e+01,5.833996295928955078e+00,1.168654918670654297e+01,5.138775825500488281e+00,6.512851715087890625e+00,1.238604450225830078e+01,1.760250473022460938e+01,1.430129432678222656e+01,1.182447242736816406e+01,1.935699462890625000e+01,1.541556262969970703e+01,1.881062889099121094e+01,1.065780353546142578e+01,1.211753559112548828e+01,2.292600822448730469e+01,5.051026344299316406e+00,1.869229041039943695e-02
2.466405153274536133e+00,2.143574523925781250e+01,9.647328376770019531e+00,1.265565681457519531e+01,1.678634071350097656e+01,6.984472274780273438e+00,1.339032554626464844e+01,7.578529834747314453e+00,8.644216537475585938e+00,1.526068592071533203e+01,1.961124420166015625e+01,1.690330886840820312e+01,1.422840595245361328e+01,2.385766983032226562e+01,1.859755516052246094e+01,2.204847335815429688e+01,1.094915008544921875e+01,1.345284175872802734e+01,2.362904739379882812e+01,4.549117565155029297e+00,7.267906796187162399e-03
3.886957645416259766e+00,2.289739418029785156e+01,1.096330547332763672e+01,1.538430213928222656e+01,1.917129898071289062e+01,8.288713455200195312e+00,1.557138538360595703e+01,9.896130561828613281e+00,1.117490291595458984e+01,1.800869560241699219e+01,2.195215415954589844e+01,1.888614082336425781e+01,1.667640113830566406e+01,2.863588333129882812e+01,2.210985946655273438e+01,2.528054809570312500e+01,1.092356872558593750e+01,1.437345695495605469e+01,2.447956466674804688e+01,3.600537061691284180e+00,-2.509311307221651077e-03
5.281914234161376953e+00,2.388435554504394531e+01,1.238651084899902344e+01,1.775171089172363281e+01,2.168186569213867188e+01,9.370603561401367188e+00,1.776259994506835938e+01,1.156995391845703125e+01,1.363759326934814453e+01,2.027621841430664062e+01,2.423333549499511719e+01,1.999635314941406250e+01,1.892741584777832031e+01,3.321733474731445312e+01,2.578731918334960938e+01,2.834919357299804688e+01,1.069617557525634766e+01,1.486516189575195312e+01,2.567553901672363281e+01,2.479425430297851562e+00,-1.063936296850442886e-02
5.955930233001708984e+00,2.375579261779785156e+01,1.305076599121093750e+01,1.883416938781738281e+01,2.337841606140136719e+01,9.627247810363769531e+00,1.927230262756347656e+01,1.190669918060302734e+01,1.525095176696777344e+01,2.147151947021484375e+01,2.577577781677246094e+01,1.992723464965820312e+01,2.057193946838378906e+01,3.672384262084960938e+01,2.918768501281738281e+01,3.085063934326171875e+01,1.025986576080322266e+01,1.484502029418945312e+01,2.721495246887207031e+01,1.649502754211425781e+00,-1.751514896750450134e-02
5.328839778900146484e+00,2.203701782226562500e+01,1.215116691589355469e+01,1.783670806884765625e+01,2.338983535766601562e+01,8.565270423889160156e+00,1.950925254821777344e+01,1.041115283966064453e+01,1.530163955688476562e+01,2.105257225036621094e+01,2.592667007446289062e+01,1.850023078918457031e+01,2.123933792114257812e+01,3.819645309448242188e+01,3.176777839660644531e+01,3.232151031494140625e+01,9.563475608825683594e+00,1.420994949340820312e+01,2.888366127014160156e+01,1.520615816116333008e+00,-2.365046739578247070e-02
3.372913837432861328e+00,1.878143501281738281e+01,9.470472335815429688e+00,1.460558128356933594e+01,2.144206619262695312e+01,6.154802322387695312e+00,1.830983924865722656e+01,7.149344444274902344e+00,1.355599784851074219e+01,1.888682746887207031e+01,2.447119712829589844e+01,1.584493637084960938e+01,2.083241844177246094e+01,3.709665298461914062e+01,3.315875244140625000e+01,3.251378250122070312e+01,8.638272285461425781e+00,1.295521259307861328e+01,3.033418655395507812e+01,2.201193332672119141e+00,-2.951377630233764648e-02
7.749665379524230957e-01,1.470503234863281250e+01,5.607487678527832031e+00,9.850764274597167969e+00,1.811584854125976562e+01,2.961125612258911133e+00,1.608477401733398438e+01,2.864093065261840820e+00,1.045909023284912109e+01,1.542873859405517578e+01,2.182117080688476562e+01,1.244950103759765625e+01,1.962332534790039062e+01,3.362328338623046875e+01,3.336611557006835938e+01,3.157165527343750000e+01,7.663325786590576172e+00,1.123957538604736328e+01,3.125540924072265625e+01,3.413003206253051758e+00,-3.542241826653480530e-02
-1.313202857971191406e+00,1.094904613494873047e+01,1.752858400344848633e+00,4.919703960418701172e+00,1.462160778045654297e+01,-3.453638777136802673e-02,1.365435504913330078e+01,-1.264340162277221680e+00,6.990059375762939453e+00,1.161915874481201172e+01,1.886412239074707031e+01,9.016626358032226562e+00,1.814856719970703125e+01,2.872701454162597656e+01,3.276788330078125000e+01,3.000464630126953125e+01,6.917193412780761719e+00,9.379387855529785156e+00,3.150389862060546875e+01,4.578441143035888672e+00,-4.140662029385566711e-02
-1.818714857101440430e+00,8.617130279541015625e+00,-8.679553866386413574e-01,1.231095910072326660e+00,1.222523021697998047e+01,-1.844323396682739258e+00,1.188852024078369141e+01,-4.096963882446289062e+00,4.239313602447509766e+00,8.522026062011718750e+00,1.656931877136230469e+01,6.201496124267578125e+00,1.697057533264160156e+01,2.371268653869628906e+01,3.192375755310058594e+01,2.844725036621093750e+01,6.651428222656250000e+00,7.762092113494873047e+00,3.113419532775878906e+01,5.089897155761718750e+00,-4.733037576079368591e-02
-2.787165045738220215e-01,8.263090133666992188e+00,-1.582342982292175293e+00,-3.563430309295654297e-01,1.163306903839111328e+01,-1.919546723365783691e+00,1.131871414184570312e+01,-4.998253345489501953e+00,2.936263322830200195e+00,6.875823020935058594e+00,1.555813884735107422e+01,4.362661838531494141e+00,1.641462516784667969e+01,1.973602104187011719e+01,3.128332138061523438e+01,2.733592414855957031e+01,6.944196224212646484e+00,6.707591056823730469e+00,3.033620643615722656e+01,4.591397762298583984e+00,-5.298212170600891113e-02
2.918592929840087891e+00,9.681227684020996094e+00,-5.574126243591308594e-01,1.136388853192329407e-01,1.268036270141601562e+01,-3.752542138099670410e-01,1.193816661834716797e+01,-4.070552349090576172e+00,3.171158552169799805e+00,6.805998802185058594e+00,1.586411285400390625e+01,3.456924676895141602e+00,1.641592025756835938e+01,1.733759307861328125e+01,3.094016647338867188e+01,2.668220329284667969e+01,7.634901523590087891e+00,6.336738586425781250e+00,2.927154541015625000e+01,3.121814250946044922e+00,-5.821074172854423523e-02
6.794184207916259766e+00,1.204676723480224609e+01,1.375472307205200195e+00,1.811073660850524902e+00,1.449599742889404297e+01,2.103799819946289062e+00,1.330344486236572266e+01,-2.022017478942871094e+00,4.454428195953369141e+00,7.841532230377197266e+00,1.703456687927246094e+01,3.132932662963867188e+00,1.659216690063476562e+01,1.631443023681640625e+01,3.059333992004394531e+01,2.608231735229492188e+01,8.378190994262695312e+00,6.538160324096679688e+00,2.797657966613769531e+01,1.061669230461120605e+00,-6.294067949056625366e-02
1.030077266693115234e+01,1.433912563323974609e+01,3.226195812225341797e+00,3.602254629135131836e+00,1.603431129455566406e+01,4.622678279876708984e+00,1.482330322265625000e+01,2.163493931293487549e-01,6.048006534576416016e+00,9.201335906982421875e+00,1.844183731079101562e+01,2.954377174377441406e+00,1.643276786804199219e+01,1.597061443328857422e+01,2.971434593200683594e+01,2.491715621948242188e+01,8.815922737121582031e+00,7.034605026245117188e+00,2.634423446655273438e+01,-1.063260197639465332e+00,-6.712659448385238647e-02
1.284539604187011719e+01,1.583439922332763672e+01,4.376457214355468750e+00,4.635964870452880859e+00,1.663952255249023438e+01,6.491095066070556641e+00,1.607574844360351562e+01,1.921535968780517578e+00,7.359710216522216797e+00,1.018361282348632812e+01,1.964372825622558594e+01,2.626065254211425781e+00,1.556709289550781250e+01,1.549838542938232422e+01,2.782056427001953125e+01,2.269065856933593750e+01,8.751968383789062500e+00,7.515646934509277344e+00,2.421087455749511719e+01,-2.818577289581298828e+00,-7.072316110134124756e-02
1.448351097106933594e+01,1.637040328979492188e+01,4.829041957855224609e+00,4.682213306427001953e+00,1.635241508483886719e+01,7.484487056732177734e+00,1.696374320983886719e+01,2.816222429275512695e+00,8.167008399963378906e+00,1.044279193878173828e+01,2.054069137573242188e+01,2.116317987442016602e+00,1.389794635772705078e+01,1.437994766235351562e+01,2.469912910461425781e+01,1.924131584167480469e+01,8.258810043334960938e+00,7.769200801849365234e+00,2.149164581298828125e+01,-4.013338565826416016e+00,-7.366992533206939697e-02
1.571636295318603516e+01,1.626755523681640625e+01,5.043497562408447266e+00,4.070986747741699219e+00,1.574067783355712891e+01,7.795336723327636719e+00,1.763058471679687500e+01,3.004403829574584961e+00,8.562621116638183594e+00,1.001792812347412109e+01,2.125637817382812500e+01,1.579211354255676270e+00,1.156917667388916016e+01,1.247653293609619141e+01,2.045463562011718750e+01,1.476524829864501953e+01,7.609320163726806641e+00,7.724177360534667969e+00,1.823907852172851562e+01,-4.684369087219238281e+00,-7.592155784368515015e-02
1.706439399719238281e+01,1.602625274658203125e+01,5.523933410644531250e+00,3.351014375686645508e+00,1.549272060394287109e+01,7.815248489379882812e+00,1.825906372070312500e+01,2.751844644546508789e+00,8.750536918640136719e+00,9.177666664123535156e+00,2.191967010498046875e+01,1.229300022125244141e+00,8.846446037292480469e+00,9.955905914306640625e+00,1.543391323089599609e+01,9.700830459594726562e+00,7.143165111541748047e+00,7.430338859558105469e+00,1.467337608337402344e+01,-4.989196777343750000e+00,-7.747805863618850708e-02
1.873450279235839844e+01,1.601636505126953125e+01,6.463917255401611328e+00,2.921030998229980469e+00,1.599026679992675781e+01,7.880516052246093750e+00,1.890108299255371094e+01,2.287994384765625000e+00,8.834605216979980469e+00,8.211956977844238281e+00,2.248131942749023438e+01,1.233619928359985352e+00,6.003195762634277344e+00,7.099748134613037109e+00,1.008104515075683594e+01,4.546045303344726562e+00,7.093422889709472656e+00,7.009723663330078125e+00,1.115817928314208984e+01,-5.073075771331787109e+00,-7.844520360231399536e-02
2.048566436767578125e+01,1.627348899841308594e+01,7.580757141113281250e+00,2.798535585403442383e+00,1.709465599060058594e+01,8.079636573791503906e+00,1.942350006103515625e+01,1.683833360671997070e+00,8.714684486389160156e+00,7.264000415802001953e+00,2.268984413146972656e+01,1.616650462150573730e+00,3.207894325256347656e+00,4.127604484558105469e+00,4.788733959197998047e+00,-3.107199966907501221e-01,7.461514949798583984e+00,6.546453952789306641e+00,8.061168670654296875e+00,-4.983059406280517578e+00,-7.900433242321014404e-02
2.185289382934570312e+01,1.655830192565917969e+01,8.307678222656250000e+00,2.688539981842041016e+00,1.828713417053222656e+01,8.277651786804199219e+00,1.960290336608886719e+01,9.179024696350097656e-01,8.169480323791503906e+00,6.314859867095947266e+00,2.225603103637695312e+01,2.302073240280151367e+00,5.603278279304504395e-01,1.167887568473815918e+00,-1.585863828659057617e-01,-4.632971763610839844e+00,7.990202903747558594e+00,6.034606456756591797e+00,5.638915061950683594e+00,-4.683687210083007812e+00,-7.939723134040832520e-02
2.270820999145507812e+01,1.675609016418457031e+01,8.345276832580566406e+00,2.418550252914428711e+00,1.922186851501464844e+01,8.396018028259277344e+00,1.944719314575195312e+01,1.684787273406982422e-01,7.192811012268066406e+00,5.408324241638183594e+00,2.120607948303222656e+01,3.229410171508789062e+00,-1.774921774864196777e+00,-1.514291167259216309e+00,-4.465470790863037109e+00,-8.188062667846679688e+00,8.338397979736328125e+00,5.418493747711181641e+00,4.002530097961425781e+00,-4.225422382354736328e+00,-7.979013770818710327e-02
2.292363929748535156e+01,1.659983825683593750e+01,7.442893028259277344e+00,1.728576779365539551e+00,1.954486465454101562e+01,8.205746650695800781e+00,1.890559577941894531e+01,-5.264714956283569336e-01,5.743878841400146484e+00,4.437881469726562500e+00,1.961753082275390625e+01,4.195626258850097656e+00,-3.770639896392822266e+00,-3.763593196868896484e+00,-7.992455005645751953e+00,-1.092600154876708984e+01,8.075474739074707031e+00,4.544087409973144531e+00,3.038881301879882812e+00,-3.577578067779541016e+00,-8.033415675163269043e-02
2.253970718383789062e+01,1.588978004455566406e+01,5.613058090209960938e+00,4.823746979236602783e-01,1.915009117126464844e+01,7.526523590087890625e+00,1.802324295043945312e+01,-1.137235283851623535e+00,3.841228008270263672e+00,3.295835971832275391e+00,1.766851997375488281e+01,4.958806991577148438e+00,-5.430714607238769531e+00,-5.534452438354492188e+00,-1.070283794403076172e+01,-1.294292354583740234e+01,6.894454002380371094e+00,3.271577358245849609e+00,2.463116407394409180e+00,-2.671959877014160156e+00,-8.107462525367736816e-02
2.191474914550781250e+01,1.475843524932861328e+01,3.284683465957641602e+00,-1.118813753128051758e+00,1.829692268371582031e+01,6.454589843750000000e+00,1.701113319396972656e+01,-1.506995081901550293e+00,1.708627104759216309e+00,2.031893491744995117e+00,1.570588684082031250e+01,5.380716800689697266e+00,-6.699421405792236328e+00,-6.692242145538330078e+00,-1.256909370422363281e+01,-1.429074287414550781e+01,4.795335769653320312e+00,1.612811923027038574e+00,1.968160390853881836e+00,-1.607449412345886230e+00,-8.198131620883941650e-02
2.136017990112304688e+01,1.338974475860595703e+01,9.382058382034301758e-01,-2.787499666213989258e+00,1.729693603515625000e+01,5.197916030883789062e+00,1.604189872741699219e+01,-1.587880015373229980e+00,-4.227375388145446777e-01,7.478318810462951660e-01,1.401150417327880859e+01,5.410955905914306641e+00,-7.557321071624755859e+00,-7.166542530059814453e+00,-1.363526248931884766e+01,-1.505790424346923828e+01,2.069465875625610352e+00,-2.651473879814147949e-01,1.325727820396423340e+00,-5.354375243186950684e-01,-8.296357840299606323e-02
2.111702156066894531e+01,1.202896595001220703e+01,-9.723979830741882324e-01,-4.187445640563964844e+00,1.638340950012207031e+01,4.066246032714843750e+00,1.527576255798339844e+01,-1.356780171394348145e+00,-2.305607795715332031e+00,-3.800120651721954346e-01,1.282847499847412109e+01,5.141682624816894531e+00,-7.965536117553710938e+00,-6.932498931884765625e+00,-1.398575878143310547e+01,-1.532323837280273438e+01,-7.587305903434753418e-01,-2.034102201461791992e+00,4.812724292278289795e-01,3.340377807617187500e-01,-8.391560614109039307e-02
2.129192352294921875e+01,1.089168739318847656e+01,-2.154688596725463867e+00,-5.034913063049316406e+00,1.563301181793212891e+01,3.381491899490356445e+00,1.483345794677734375e+01,-8.269012570381164551e-01,-3.711269855499267578e+00,-1.142164707183837891e+00,1.234960556030273438e+01,4.784571647644042969e+00,-7.877413749694824219e+00,-6.019108772277832031e+00,-1.372701549530029297e+01,-1.512904453277587891e+01,-3.098032712936401367e+00,-3.312536239624023438e+00,-4.460123479366302490e-01,7.663886547088623047e-01,-8.471652120351791382e-02
2.183369636535644531e+01,1.007878017425537109e+01,-2.540430068969726562e+00,-5.198657035827636719e+00,1.494134140014648438e+01,3.329499244689941406e+00,1.477365684509277344e+01,-5.601825565099716187e-02,-4.477769851684570312e+00,-1.378858089447021484e+00,1.268387126922607422e+01,4.582976341247558594e+00,-7.283881664276123047e+00,-4.542356967926025391e+00,-1.300216770172119141e+01,-1.452339076995849609e+01,-4.497919082641601562e+00,-3.779360294342041016e+00,-1.244002580642700195e+00,6.259087324142456055e-01,-8.533609658479690552e-02
2.255677032470703125e+01,9.544754028320312500e+00,-2.273056983947753906e+00,-4.728674888610839844e+00,1.412569236755371094e+01,3.896993398666381836e+00,1.508733177185058594e+01,8.568260669708251953e-01,-4.554419994354248047e+00,-1.028551936149597168e+00,1.383127307891845703e+01,4.695293903350830078e+00,-6.226410388946533203e+00,-2.728002786636352539e+00,-1.196535873413085938e+01,-1.357549571990966797e+01,-4.796371936798095703e+00,-3.288839578628540039e+00,-1.700574159622192383e+00,-5.125910788774490356e-02,-8.578944951295852661e-02
2.320945739746093750e+01,9.165001869201660156e+00,-1.629690289497375488e+00,-3.831209421157836914e+00,1.303598594665527344e+01,4.879323005676269531e+00,1.571242618560791016e+01,1.781225323677062988e+00,-4.011688709259033203e+00,-1.575202941894531250e-01,1.565873336791992188e+01,5.134482860565185547e+00,-4.822927951812744141e+00,-8.763675689697265625e-01,-1.077257061004638672e+01,-1.239495182037353516e+01,-4.149724006652832031e+00,-1.914434075355529785e+00,-1.692493200302124023e+00,-1.052349090576171875e+00,-8.621257543563842773e-02
2.354859733581542969e+01,8.852497100830078125e+00,-9.097324609756469727e-01,-2.771250247955322266e+00,1.166406345367431641e+01,5.991080760955810547e+00,1.655641555786132812e+01,2.595026969909667969e+00,-3.020183563232421875e+00,1.065001010894775391e+00,1.790324020385742188e+01,5.756547451019287109e+00,-3.252271652221679688e+00,6.956583857536315918e-01,-9.572441101074218750e+00,-1.112211704254150391e+01,-2.953069925308227539e+00,7.134502381086349487e-02,-1.223800301551818848e+00,-2.094355583190917969e+00,-8.678681403398513794e-02
2.342915153503417969e+01,8.628997802734375000e+00,-3.415645360946655273e-01,-1.775038480758666992e+00,1.014858722686767578e+01,6.983366012573242188e+00,1.752226448059082031e+01,3.195886373519897461e+00,-1.796256184577941895e+00,2.416520118713378906e+00,2.021795272827148438e+01,6.346932411193847656e+00,-1.719197154045104980e+00,1.741604447364807129e+00,-8.491591453552246094e+00,-9.899273872375488281e+00,-1.679670929908752441e+00,2.278687715530395508e+00,-4.177291691303253174e-01,-2.953601837158203125e+00,-8.763306587934494019e-02
2.285111999511718750e+01,8.615152359008789062e+00,-1.709609106183052063e-02,-9.638196825981140137e-01,8.727726936340332031e+00,7.732281684875488281e+00,1.854114532470703125e+01,3.540885448455810547e+00,-5.364762544631958008e-01,3.694664239883422852e+00,2.223612213134765625e+01,6.705483913421630859e+00,-4.064292013645172119e-01,2.159982919692993164e+00,-7.621773242950439453e+00,-8.837938308715820312e+00,-7.089884281158447266e-01,4.322523593902587891e+00,5.681422352790832520e-01,-3.550982475280761719e+00,-8.881177008152008057e-02
2.193181228637695312e+01,8.967214584350585938e+00,1.054499298334121704e-01,-3.200944364070892334e-01,7.605393886566162109e+00,8.247783660888671875e+00,1.956905364990234375e+01,3.663038253784179688e+00,6.417084932327270508e-01,4.776352882385253906e+00,2.364339256286621094e+01,6.742922782897949219e+00,5.758789181709289551e-01,2.041925668716430664e+00,-6.986842632293701172e+00,-7.966950416564941406e+00,-2.001973390579223633e-01,5.948113441467285156e+00,1.622701406478881836e+00,-3.939007043838500977e+00,-9.021715074777603149e-02
2.081414031982421875e+01,9.740563392639160156e+00,1.472269743680953979e-01,2.598832547664642334e-01,6.843577384948730469e+00,8.608412742614746094e+00,2.056649589538574219e+01,3.681196212768554688e+00,1.716044783592224121e+00,5.633183002471923828e+00,2.425324440002441406e+01,6.502448558807373047e+00,1.221247553825378418e+00,1.635974287986755371e+00,-6.544593334197998047e+00,-7.228630065917968750e+00,-8.507979661226272583e-02,7.087922573089599609e+00,2.719685316085815430e+00,-4.190643310546875000e+00,-9.166786819696426392e-02
1.956635856628417969e+01,1.083235168457031250e+01,2.391365021467208862e-01,9.048584699630737305e-01,6.339506149291992188e+00,8.876119613647460938e+00,2.148157119750976562e+01,3.767033100128173828e+00,2.732275485992431641e+00,6.317226886749267578e+00,2.403948211669921875e+01,6.125178337097167969e+00,1.616503477096557617e+00,1.281802415847778320e+00,-6.184921741485595703e+00,-6.488386631011962891e+00,-1.419279575347900391e-01,7.856878757476806641e+00,3.917680740356445312e+00,-4.309301376342773438e+00,-9.290701895952224731e-02
1.816713523864746094e+01,1.198743057250976562e+01,4.675177037715911865e-01,1.697327971458435059e+00,5.907212257385253906e+00,9.052010536193847656e+00,2.224996185302734375e+01,4.093874454498291016e+00,3.763341665267944336e+00,6.921978473663330078e+00,2.315509223937988281e+01,5.786786556243896484e+00,1.915861129760742188e+00,1.310799002647399902e+00,-5.751847743988037109e+00,-5.580867767333984375e+00,-1.021342426538467407e-01,8.475360870361328125e+00,5.309617996215820312e+00,-4.182460308074951172e+00,-9.369282424449920654e-02
1.653755378723144531e+01,1.287945270538330078e+01,8.476889133453369141e-01,2.622292518615722656e+00,5.391721725463867188e+00,9.068603515625000000e+00,2.279945945739746094e+01,4.759111881256103516e+00,4.850040912628173828e+00,7.523179531097412109e+00,2.189242553710937500e+01,5.619750499725341797e+00,2.290382385253906250e+00,1.936295509338378906e+00,-5.083886146545410156e+00,-4.358024120330810547e+00,2.304275482892990112e-01,9.153084754943847656e+00,6.943982601165771484e+00,-3.633497238159179688e+00,-9.393461048603057861e-02
1.464988231658935547e+01,1.325920486450195312e+01,1.353191256523132324e+00,3.596004962921142578e+00,4.778353691101074219e+00,8.860632896423339844e+00,2.309056663513183594e+01,5.756142616271972656e+00,5.971356391906738281e+00,8.161067962646484375e+00,2.061508941650390625e+01,5.704708576202392578e+00,2.880026340484619141e+00,3.203857898712158203e+00,-4.052582740783691406e+00,-2.733334302902221680e+00,9.268175959587097168e-01,1.001327323913574219e+01,8.798552513122558594e+00,-2.546482801437377930e+00,-9.363237768411636353e-02
1.261503696441650391e+01,1.305943965911865234e+01,1.964528799057006836e+00,4.505970001220703125e+00,4.231868743896484375e+00,8.435841560363769531e+00,2.314924049377441406e+01,6.967765808105468750e+00,7.061764240264892578e+00,8.832094192504882812e+00,1.967411613464355469e+01,6.058939933776855469e+00,3.774211883544921875e+00,4.989215373992919922e+00,-2.588205099105834961e+00,-7.029528021812438965e-01,1.951505899429321289e+00,1.106185054779052734e+01,1.076625442504882812e+01,-9.759716391563415527e-01,-9.298257529735565186e-02
1.066337680816650391e+01,1.240278530120849609e+01,2.685879230499267578e+00,5.264690876007080078e+00,4.013275146484375000e+00,7.904852867126464844e+00,2.306574440002441406e+01,8.200848579406738281e+00,8.019889831542968750e+00,9.506669998168945312e+00,1.928640937805175781e+01,6.676684379577636719e+00,4.975530624389648438e+00,7.039684295654296875e+00,-7.182795405387878418e-01,1.652366757392883301e+00,3.190795898437500000e+00,1.219810485839843750e+01,1.268345165252685547e+01,8.188981413841247559e-01,-9.230255335569381714e-02
9.048725128173828125e+00,1.150285148620605469e+01,3.538130998611450195e+00,5.832169055938720703e+00,4.306908607482910156e+00,7.428069114685058594e+00,2.296306610107421875e+01,9.255654335021972656e+00,8.757954597473144531e+00,1.014100837707519531e+01,1.946873664855957031e+01,7.529143333435058594e+00,6.406227111816406250e+00,9.054943084716796875e+00,1.448925733566284180e+00,4.186498165130615234e+00,4.513936996459960938e+00,1.328341102600097656e+01,1.436832141876220703e+01,2.465786695480346680e+00,-9.183409810066223145e-02
7.954515457153320312e+00,1.059896183013916016e+01,4.553313255310058594e+00,6.240903377532958984e+00,5.132345676422119141e+00,7.174743175506591797e+00,2.296645164489746094e+01,1.002653694152832031e+01,9.254943847656250000e+00,1.072919082641601562e+01,2.007649230957031250e+01,8.604796409606933594e+00,7.954853057861328125e+00,1.080094814300537109e+01,3.779451131820678711e+00,6.753315925598144531e+00,5.824287414550781250e+00,1.423127651214599609e+01,1.569965171813964844e+01,3.619631528854370117e+00,-9.175853431224822998e-02
7.402078151702880859e+00,9.877037048339843750e+00,5.735603809356689453e+00,6.574640274047851562e+00,6.319930553436279297e+00,7.244435787200927734e+00,2.316503715515136719e+01,1.053990840911865234e+01,9.594923019409179688e+00,1.132329177856445312e+01,2.089591407775878906e+01,9.910843849182128906e+00,9.534580230712890625e+00,1.219071006774902344e+01,6.174203872680664062e+00,9.275911331176757812e+00,7.094843864440917969e+00,1.505947494506835938e+01,1.667340278625488281e+01,4.103127956390380859e+00,-9.204565733671188354e-02
7.218643665313720703e+00,9.426081657409667969e+00,7.030692577362060547e+00,6.917127132415771484e+00,7.558085918426513672e+00,7.619446277618408203e+00,2.358590316772460938e+01,1.094763469696044922e+01,9.953447341918945312e+00,1.201680278778076172e+01,2.174886894226074219e+01,1.145160579681396484e+01,1.111430835723876953e+01,1.330086231231689453e+01,8.629512786865234375e+00,1.176005268096923828e+01,8.349767684936523438e+00,1.588174819946289062e+01,1.741482543945312500e+01,3.969467401504516602e+00,-9.249901026487350464e-02
7.111995697021484375e+00,9.238183021545410156e+00,8.324388504028320312e+00,7.312111854553222656e+00,8.518920898437500000e+00,8.194684028625488281e+00,2.418617439270019531e+01,1.146430778503417969e+01,1.053079509735107422e+01,1.289730262756347656e+01,2.253266525268554688e+01,1.322132110595703125e+01,1.271606636047363281e+01,1.431988334655761719e+01,1.121694660186767578e+01,1.427687931060791016e+01,9.606111526489257812e+00,1.682843017578125000e+01,1.816028976440429688e+01,3.445054531097412109e+00,-9.283146262168884277e-02
6.766455650329589844e+00,9.226316452026367188e+00,9.466294288635253906e+00,7.717096328735351562e+00,8.975684165954589844e+00,8.800896644592285156e+00,2.485414505004882812e+01,1.225500011444091797e+01,1.145677661895751953e+01,1.398609161376953125e+01,2.319805335998535156e+01,1.514079380035400391e+01,1.436188602447509766e+01,1.541760921478271484e+01,1.401908302307128906e+01,1.688215065002441406e+01,1.083545398712158203e+01,1.796586799621582031e+01,1.915020179748535156e+01,2.836762666702270508e+00,-9.280123561620712280e-02
5.923935890197753906e+00,9.222360610961914062e+00,1.028651714324951172e+01,8.009585380554199219e+00,8.827236175537109375e+00,9.255556106567382812e+00,2.542620849609375000e+01,1.335767555236816406e+01,1.271779251098632812e+01,1.520269584655761719e+01,2.368216323852539062e+01,1.705306625366210938e+01,1.601418495178222656e+01,1.663546371459960938e+01,1.704693031311035156e+01,1.954125976562500000e+01,1.193972969055175781e+01,1.923956298828125000e+01,2.053001785278320312e+01,2.409867525100708008e+00,-9.239322692155838013e-02
4.458591461181640625e+00,9.046329498291015625e+00,1.069314765930175781e+01,8.050833702087402344e+00,8.112727165222167969e+00,9.421489715576171875e+00,2.574778175354003906e+01,1.466339015960693359e+01,1.416178035736083984e+01,1.640273094177246094e+01,2.388754272460937500e+01,1.874790382385253906e+01,1.756540298461914062e+01,1.787817192077636719e+01,2.019038772583007812e+01,2.212345886230468750e+01,1.281092739105224609e+01,2.051562690734863281e+01,2.229165649414062500e+01,2.328034400939941406e+00,-9.171320497989654541e-02
2.400283336639404297e+00,8.557793617248535156e+00,1.070707321166992188e+01,7.769594669342041016e+00,6.962662220001220703e+00,9.241174697875976562e+00,2.571393203735351562e+01,1.599551582336425781e+01,1.559093189239501953e+01,1.744299888610839844e+01,2.371045494079589844e+01,2.004099082946777344e+01,1.887817001342773438e+01,1.893654441833496094e+01,2.325126647949218750e+01,2.444993782043457031e+01,1.339220046997070312e+01,2.167083930969238281e+01,2.429168319702148438e+01,2.645819187164306641e+00,-9.106340259313583374e-02
-4.622369632124900818e-02,7.727086067199707031e+00,1.048704719543457031e+01,7.239614963531494141e+00,5.576058864593505859e+00,8.756648063659667969e+00,2.531788825988769531e+01,1.718733024597167969e+01,1.686925506591796875e+01,1.827024269104003906e+01,2.314461326599121094e+01,2.081425285339355469e+01,1.986566162109375000e+01,1.965317344665527344e+01,2.602587699890136719e+01,2.638610649108886719e+01,1.374039554595947266e+01,2.266965293884277344e+01,2.631393051147460938e+01,3.327760457992553711e+00,-9.068561345338821411e-02
-2.541788816452026367e+00,6.672878265380859375e+00,1.028234004974365234e+01,6.677136421203613281e+00,4.176404953002929688e+00,8.112823486328125000e+00,2.466684341430664062e+01,1.816785430908203125e+01,1.800417137145996094e+01,1.894600105285644531e+01,2.236396026611328125e+01,2.107920646667480469e+01,2.055379676818847656e+01,2.002805709838867188e+01,2.841328811645507812e+01,2.793388748168945312e+01,1.403174209594726562e+01,2.359263801574707031e+01,2.817860221862792969e+01,4.261338233947753906e+00,-9.065538644790649414e-02
-4.685415267944335938e+00,5.622626304626464844e+00,1.033247184753417969e+01,6.365898609161376953e+00,3.001869916915893555e+00,7.496655464172363281e+00,2.395712471008300781e+01,1.895359420776367188e+01,1.913043022155761719e+01,1.961347770690917969e+01,2.171009826660156250e+01,2.095392799377441406e+01,2.110715484619140625e+01,2.024967384338378906e+01,3.046121597290039062e+01,2.923940849304199219e+01,1.447231483459472656e+01,2.457367897033691406e+01,2.979074478149414062e+01,5.284250259399414062e+00,-9.085184335708618164e-02
-6.140095233917236328e+00,4.803785324096679688e+00,1.076834583282470703e+01,6.524642467498779297e+00,2.272679805755615234e+00,7.074076652526855469e+00,2.340649986267089844e+01,1.959737205505371094e+01,2.041122817993164062e+01,2.039693260192871094e+01,2.157492446899414062e+01,2.060545730590820312e+01,2.175381851196289062e+01,2.063905525207519531e+01,3.234765625000000000e+01,3.052377700805664062e+01,1.518433856964111328e+01,2.569689941406250000e+01,3.114227676391601562e+01,6.210326671600341797e+00,-9.098784625530242920e-02
-6.747989177703857422e+00,4.338984489440917969e+00,1.152729606628417969e+01,7.183367252349853516e+00,2.129125356674194336e+00,6.920310974121093750e+00,2.316503715515136719e+01,2.010413932800292969e+01,2.189477729797363281e+01,2.130228424072265625e+01,2.221202087402343750e+01,2.014898872375488281e+01,2.268947410583496094e+01,2.149238204956054688e+01,3.427263259887695312e+01,3.197350120544433594e+01,1.610527801513671875e+01,2.690661430358886719e+01,3.225138092041015625e+01,6.860217094421386719e+00,-9.076116979122161865e-02
-6.615745544433593750e+00,4.182732582092285156e+00,1.236979961395263672e+01,8.152079582214355469e+00,2.574469804763793945e+00,6.992216110229492188e+00,2.325530242919921875e+01,2.039961814880371094e+01,2.344384765625000000e+01,2.218870162963867188e+01,2.361195564270019531e+01,1.962052154541015625e+01,2.399057960510253906e+01,2.295049285888671875e+01,3.634625244140625000e+01,3.362318801879882812e+01,1.698926734924316406e+01,2.799666023254394531e+01,3.310391998291015625e+01,7.101624488830566406e+00,-8.997536450624465942e-02
-6.065441608428955078e+00,4.145152568817138672e+00,1.296303367614746094e+01,9.092043876647949219e+00,3.453739643096923828e+00,7.139344215393066406e+00,2.355656623840332031e+01,2.033854103088378906e+01,2.475184249877929688e+01,2.280055236816406250e+01,2.549180984497070312e+01,1.894661903381347656e+01,2.556512260437011719e+01,2.490154457092285156e+01,3.851712799072265625e+01,3.530747985839843750e+01,1.747674179077148438e+01,2.868504714965820312e+01,3.358473205566406250e+01,6.892268180847167969e+00,-8.864554762840270996e-02
-5.498073577880859375e+00,3.990878582000732422e+00,1.302569961547851562e+01,9.663271903991699219e+00,4.505927085876464844e+00,7.180274486541748047e+00,2.386798667907714844e+01,1.978555297851562500e+01,2.548372650146484375e+01,2.289167976379394531e+01,2.741147994995117188e+01,1.800920295715332031e+01,2.720575904846191406e+01,2.701829147338867188e+01,4.055954742431640625e+01,3.670913696289062500e+01,1.729482650756835938e+01,2.873836517333984375e+01,3.351604461669921875e+01,6.293523788452148438e+00,-8.686237037181854248e-02
-5.207990646362304688e+00,3.583436012268066406e+00,1.245753192901611328e+01,9.702020645141601562e+00,5.452079772949218750e+00,6.994428157806396484e+00,2.399887275695800781e+01,1.871258926391601562e+01,2.543674850463867188e+01,2.234728622436523438e+01,2.897802352905273438e+01,1.675355339050292969e+01,2.868181228637695312e+01,2.889685058593750000e+01,4.219825363159179688e+01,3.748398590087890625e+01,1.640799522399902344e+01,2.810921859741210938e+01,3.275239944458007812e+01,5.455417633056640625e+00,-8.488275110721588135e-02
-5.282644271850585938e+00,2.964360952377319336e+00,1.138943195343017578e+01,9.292036056518554688e+00,6.106230735778808594e+00,6.577380657196044922e+00,2.386121559143066406e+01,1.725996208190917969e+01,2.464923095703125000e+01,2.127033042907714844e+01,3.001854515075683594e+01,1.523583126068115234e+01,2.983518218994140625e+01,3.022033500671386719e+01,4.321304321289062500e+01,3.741861724853515625e+01,1.505927276611328125e+01,2.697651863098144531e+01,3.126147079467773438e+01,4.586624622344970703e+00,-8.287290483713150024e-02
-5.602588653564453125e+00,2.357152938842773438e+00,1.013472747802734375e+01,8.757056236267089844e+00,6.414546012878417969e+00,6.076260089874267578e+00,2.351481819152832031e+01,1.574955940246582031e+01,2.339810562133789062e+01,1.996141624450683594e+01,3.061267852783203125e+01,1.367634963989257812e+01,3.063476562500000000e+01,3.087689971923828125e+01,4.354885864257812500e+01,3.650532913208007812e+01,1.371623420715332031e+01,2.569097518920898438e+01,2.917659568786621094e+01,3.873995542526245117e+00,-8.101417869329452515e-02
-5.933197975158691406e+00,2.060471534729003906e+00,9.055486679077148438e+00,8.515815734863281250e+00,6.439015388488769531e+00,5.732223510742187500e+00,2.311990356445312500e+01,1.458085441589355469e+01,2.205549430847167969e+01,1.880280303955078125e+01,3.097942924499511719e+01,1.237750244140625000e+01,3.112721633911132812e+01,3.096595954895019531e+01,4.327910614013671875e+01,3.492678451538085938e+01,1.286493301391601562e+01,2.463055038452148438e+01,2.675636100769042969e+01,3.419822692871093750e+00,-7.936701178550720215e-02
-6.112366676330566406e+00,2.266170740127563477e+00,8.375913619995117188e+00,8.879551887512207031e+00,6.266098022460937500e+00,5.765410423278808594e+00,2.283105087280273438e+01,1.406913375854492188e+01,2.089709091186523438e+01,1.808917236328125000e+01,3.128749847412109375e+01,1.157688236236572266e+01,3.133326721191406250e+01,3.067392349243164062e+01,4.251572036743164062e+01,3.291178512573242188e+01,1.277681827545166016e+01,2.402154731750488281e+01,2.424319648742675781e+01,3.229561090469360352e+00,-7.797674089670181274e-02
-6.118765354156494141e+00,2.964360952377319336e+00,8.098792076110839844e+00,9.918261528015136719e+00,5.936575412750244141e+00,6.280911922454833984e+00,2.270355033874511719e+01,1.432334327697753906e+01,1.996492767333984375e+01,1.791401863098144531e+01,3.153688812255859375e+01,1.134072780609130859e+01,3.117516517639160156e+01,3.012298965454101562e+01,4.128623199462890625e+01,3.061030006408691406e+01,1.339220046997070312e+01,2.385093116760253906e+01,2.175023651123046875e+01,3.227515220642089844e+00,-7.685848325490951538e-02
-6.046244621276855469e+00,3.982966899871826172e+00,8.033341407775878906e+00,1.145320320129394531e+01,5.445554733276367188e+00,7.257710456848144531e+00,2.267308616638183594e+01,1.519987201690673828e+01,1.907974243164062500e+01,1.815662956237792969e+01,3.157880210876464844e+01,1.150920391082763672e+01,3.048055076599121094e+01,2.928416252136230469e+01,3.950071716308593750e+01,2.802617835998535156e+01,1.436998844146728516e+01,2.390306282043457031e+01,1.923707199096679688e+01,3.279342651367187500e+00,-7.595178484916687012e-02
-6.009984493255615234e+00,5.094533443450927734e+00,7.910795688629150391e+00,1.313563823699951172e+01,4.794666767120361328e+00,8.571907997131347656e+00,2.259861564636230469e+01,1.636032295227050781e+01,1.795842742919921875e+01,1.855190658569335938e+01,3.121938705444335938e+01,1.175399780273437500e+01,2.906151771545410156e+01,2.800003051757812500e+01,3.700136566162109375e+01,2.506135940551757812e+01,1.524971389770507812e+01,2.388410568237304688e+01,1.657036972045898438e+01,3.239790201187133789e+00,-7.524153590202331543e-02
-6.014250278472900391e+00,6.142807483673095703e+00,7.537587642669677734e+00,1.459183216094970703e+01,4.068738937377929688e+00,1.006641960144042969e+01,2.234135627746582031e+01,1.739532089233398438e+01,1.636979484558105469e+01,1.882055473327636719e+01,3.035280990600585938e+01,1.170935916900634766e+01,2.681568717956542969e+01,2.609040260314941406e+01,3.366706466674804688e+01,2.161970901489257812e+01,1.566044235229492188e+01,2.356420135498046875e+01,1.364103984832763672e+01,2.989517688751220703e+00,-7.463707029819488525e-02
-5.903336524963378906e+00,7.147568702697753906e+00,6.892828464508056641e+00,1.556554508209228516e+01,3.476577758789062500e+00,1.163504981994628906e+01,2.184489250183105469e+01,1.800773429870605469e+01,1.427428245544433594e+01,1.878504943847656250e+01,2.904508781433105469e+01,1.113625335693359375e+01,2.381692504882812500e+01,2.350763893127441406e+01,2.954735565185546875e+01,1.773391151428222656e+01,1.546431541442871094e+01,2.287699890136718750e+01,1.046524047851562500e+01,2.450783967971801758e+00,-7.404772192239761353e-02
-5.429818630218505859e+00,8.267045974731445312e+00,6.100456714630126953e+00,1.595053005218505859e+01,3.295503616333007812e+00,1.321584796905517578e+01,2.114532852172851562e+01,1.808366775512695312e+01,1.182024574279785156e+01,1.840160751342773438e+01,2.751207542419433594e+01,1.000732135772705078e+01,2.031664276123046875e+01,2.041743850708007812e+01,2.486978912353515625e+01,1.360393142700195312e+01,1.477503204345703125e+01,2.190188217163085938e+01,7.204592227935791016e+00,1.621543169021606445e+00,-7.335258275270462036e-02
-4.393199443817138672e+00,9.667382240295410156e+00,5.333151817321777344e+00,1.576178741455078125e+01,3.765317678451538086e+00,1.473690986633300781e+01,2.032390594482421875e+01,1.768419456481933594e+01,9.261124610900878906e+00,1.771874618530273438e+01,2.599687576293945312e+01,8.493919372558593750e+00,1.666214561462402344e+01,1.717396926879882812e+01,1.999587059020996094e+01,9.560472488403320312e+00,1.383135223388671875e+01,2.077155113220214844e+01,4.093440532684326172e+00,5.809005498886108398e-01,-7.243077456951141357e-02
-2.718824625015258789e+00,1.141582489013671875e+01,4.705103397369384766e+00,1.508306312561035156e+01,4.990422725677490234e+00,1.609424972534179688e+01,1.946637535095214844e+01,1.699419593811035156e+01,6.841704845428466797e+00,1.682049560546875000e+01,2.465771675109863281e+01,6.888359069824218750e+00,1.320333290100097656e+01,1.421218204498291016e+01,1.530178928375244141e+01,5.945777893066406250e+00,1.286067008972167969e+01,1.958079528808593750e+01,1.339869379997253418e+00,-5.149792432785034180e-01,-7.120673358440399170e-02
-4.941456317901611328e-01,1.341545772552490234e+01,4.212134361267089844e+00,1.402185440063476562e+01,6.876203536987304688e+00,1.714627075195312500e+01,1.862689971923828125e+01,1.621506118774414062e+01,4.702922344207763672e+00,1.576484298706054688e+01,2.352079200744628906e+01,5.472874164581298828e+00,1.019809246063232422e+01,1.187381935119628906e+01,1.107748222351074219e+01,3.005954504013061523e+00,1.196673202514648438e+01,1.833435058593750000e+01,-9.490491747856140137e-01,-1.475834727287292480e+00,-6.960490345954895020e-02
2.080338954925537109e+00,1.543882465362548828e+01,3.762334585189819336e+00,1.267315578460693359e+01,9.173070907592773438e+00,1.775248336791992188e+01,1.782691383361816406e+01,1.548379421234130859e+01,2.857140779495239258e+00,1.457782554626464844e+01,2.251589965820312500e+01,4.410181045532226562e+00,7.774719715118408203e+00,1.029972171783447266e+01,7.469755649566650391e+00,8.159880042076110840e-01,1.112395763397216797e+01,1.697416305541992188e+01,-2.783416509628295898e+00,-2.127088785171508789e+00,-6.768573075532913208e-02
4.765737533569335938e+00,1.720902252197265625e+01,3.245691776275634766e+00,1.112196540832519531e+01,1.156129169464111328e+01,1.781111335754394531e+01,1.708221626281738281e+01,1.483176231384277344e+01,1.246254444122314453e+00,1.327127838134765625e+01,2.155501556396484375e+01,3.721878051757812500e+00,5.955246925354003906e+00,9.390474319458007812e+00,4.507969856262207031e+00,-6.933392286300659180e-01,1.023002052307128906e+01,1.545639324188232422e+01,-4.235960483551025391e+00,-2.349401712417602539e+00,-6.547942757606506348e-02
7.342355251312255859e+00,1.850848770141601562e+01,2.620428562164306641e+00,9.440780639648437500e+00,1.375538825988769531e+01,1.731220436096191406e+01,1.642891502380371094e+01,1.420614242553710938e+01,-1.853697896003723145e-01,1.187360382080078125e+01,2.060775375366210938e+01,3.305728435516357422e+00,4.702091217041015625e+00,8.903746604919433594e+00,2.162763833999633789e+00,-1.660462260246276855e+00,9.196805000305175781e+00,1.381540107727050781e+01,-5.375369548797607422e+00,-2.116177797317504883e+00,-6.313712894916534424e-02
9.637421607971191406e+00,1.925216865539550781e+01,1.931107044219970703e+00,7.690847396850585938e+00,1.556776046752929688e+01,1.634646987915039062e+01,1.592229557037353516e+01,1.353100109100341797e+01,-1.426605343818664551e+00,1.043332481384277344e+01,1.971603012084960938e+01,3.006215810775756836e+00,3.962120294570922852e+00,8.562001228332519531e+00,4.047768712043762207e-01,-2.210357427597045898e+00,7.994466304779052734e+00,1.216374397277832031e+01,-6.242047309875488281e+00,-1.525616407394409180e+00,-6.080994009971618652e-02
1.149309825897216797e+01,1.948358154296875000e+01,1.257104039192199707e+00,5.884666919708251953e+00,1.688911247253417969e+01,1.505439662933349609e+01,1.560523509979248047e+01,1.272215175628662109e+01,-2.410692453384399414e+00,8.980027198791503906e+00,1.892699432373046875e+01,2.675024032592773438e+00,3.645915746688842773e+00,8.156050682067871094e+00,-7.990221381187438965e-01,-2.421855449676513672e+00,6.637216091156005859e+00,1.062701702117919922e+01,-6.860237121582031250e+00,-7.788906097412109375e-01,-5.860364437103271484e-02
1.275794506072998047e+01,1.927788162231445312e+01,6.234853863716125488e-01,3.972240447998046875e+00,1.765419006347656250e+01,1.353775978088378906e+01,1.546080875396728516e+01,1.169045543670654297e+01,-3.088179588317871094e+00,7.474657535552978516e+00,1.822912216186523438e+01,2.188316106796264648e+00,3.619997262954711914e+00,7.557479381561279297e+00,-1.511025190353393555e+00,-2.344947099685668945e+00,5.136424541473388672e+00,9.251426696777343750e+00,-7.300646781921386719e+00,-9.217559546232223511e-02,-5.657868832349777222e-02
1.327625465393066406e+01,1.868649673461914062e+01,-4.494745656847953796e-02,1.834822654724121094e+00,1.780100822448730469e+01,1.182753276824951172e+01,1.538408279418945312e+01,1.032366561889648438e+01,-3.502336978912353516e+00,5.777565956115722656e+00,1.750610160827636719e+01,1.436654925346374512e+00,3.670538187026977539e+00,6.697939395904541016e+00,-1.881707191467285156e+00,-2.081535816192626953e+00,3.453718662261962891e+00,7.945741176605224609e+00,-7.712773323059082031e+00,3.626793324947357178e-01,-5.464439839124679565e-02
1.294137954711914062e+01,1.772524833679199219e+01,-9.139101505279541016e-01,-6.500817537307739258e-01,1.726920509338378906e+01,9.891635894775390625e+00,1.519113826751708984e+01,8.488072395324707031e+00,-3.831190109252929688e+00,3.676912307739257812e+00,1.657560729980468750e+01,3.019631505012512207e-01,3.522803068161010742e+00,5.498725891113281250e+00,-2.155131101608276367e+00,-1.812356352806091309e+00,1.505247712135314941e+00,6.504984855651855469e+00,-8.324902534484863281e+00,5.017953515052795410e-01,-5.264966562390327454e-02
1.177251625061035156e+01,1.643369674682617188e+01,-2.136585235595703125e+00,-3.537470817565917969e+00,1.607509422302246094e+01,7.697988510131835938e+00,1.468564701080322266e+01,6.087935924530029297e+00,-4.331887722015380859e+00,9.928094744682312012e-01,1.531713199615478516e+01,-1.312236666679382324e+00,2.927975416183471680e+00,3.876991510391235352e+00,-2.595545291900634766e+00,-1.762365937232971191e+00,-7.573093771934509277e-01,4.720627307891845703e+00,-9.363300323486328125e+00,3.572237789630889893e-01,-5.047359317541122437e-02
9.959499359130859375e+00,1.493051052093505859e+01,-3.747786760330200195e+00,-6.737347602844238281e+00,1.435733699798583984e+01,5.279777050018310547e+00,1.372882461547851562e+01,3.111700057983398438e+00,-5.231906890869140625e+00,-2.327998399734497070e+00,1.378097629547119141e+01,-3.440503597259521484e+00,1.759054780006408691e+00,1.795455217361450195e+00,-3.382785797119140625e+00,-2.121912717819213867e+00,-3.282789230346679688e+00,2.495512008666992188e+00,-1.094917869567871094e+01,4.830433428287506104e-02,-4.805573448538780212e-02
7.837202548980712891e+00,1.343919181823730469e+01,-5.613828659057617188e+00,-1.000722217559814453e+01,1.239814758300781250e+01,2.788554191589355469e+00,1.231389999389648438e+01,-3.036252260208129883e-01,-6.610371112823486328e+00,-6.145862579345703125e+00,1.218823528289794922e+01,-6.007959842681884766e+00,7.694932818412780762e-02,-6.754630804061889648e-01,-4.544378280639648438e+00,-2.960214138031005859e+00,-5.875065803527832031e+00,-7.320453226566314697e-02,-1.304415607452392578e+01,-2.892566621303558350e-01,-4.547164589166641235e-02
5.766096591949462891e+00,1.223664283752441406e+01,-7.461766719818115234e+00,-1.299335670471191406e+01,1.055967521667480469e+01,4.699030220508575439e-01,1.058078765869140625e+01,-3.874117612838745117e+00,-8.326341629028320312e+00,-1.012941169738769531e+01,1.083335876464843750e+01,-8.814450263977050781e+00,-1.868228077888488770e+00,-3.316218137741088867e+00,-5.931683540344238281e+00,-4.175366878509521484e+00,-8.225737571716308594e+00,-2.708271741867065430e+00,-1.543610572814941406e+01,-5.627151727676391602e-01,-4.285733774304389954e-02
4.017068386077880859e+00,1.149889564514160156e+01,-8.990806579589843750e+00,-1.535451602935791016e+01,9.151864051818847656e+00,-1.441656827926635742e+00,8.793514251708984375e+00,-7.266333103179931641e+00,-1.007198429107666016e+01,-1.385733222961425781e+01,9.943729400634765625e+00,-1.157198143005371094e+01,-3.727874517440795898e+00,-5.797492504119873047e+00,-7.289627552032470703e+00,-5.536645412445068359e+00,-1.002498245239257812e+01,-5.058979034423828125e+00,-1.781391525268554688e+01,-7.461574077606201172e-01,-4.039414227008819580e-02
2.690366029739379883e+00,1.122199249267578125e+01,-9.992063522338867188e+00,-1.687570762634277344e+01,8.315008163452148438e+00,-2.825546503067016602e+00,7.257859230041503906e+00,-1.020295143127441406e+01,-1.147640991210937500e+01,-1.695328140258789062e+01,9.551831245422363281e+00,-1.398536109924316406e+01,-5.178009986877441406e+00,-7.775469779968261719e+00,-8.357631683349609375e+00,-6.763334274291992188e+00,-1.107098865509033203e+01,-6.837412357330322266e+00,-1.987454795837402344e+01,-8.614054918289184570e-01,-3.818784654140472412e-02
1.734799265861511230e+00,1.118836879730224609e+01,-1.042236709594726562e+01,-1.751818275451660156e+01,7.972435951232910156e+00,-3.712740421295166016e+00,6.240107059478759766e+00,-1.253375816345214844e+01,-1.227010822296142578e+01,-1.919831848144531250e+01,9.484768867492675781e+00,-1.582995510101318359e+01,-6.026838302612304688e+00,-8.999537467956542969e+00,-8.965036392211914062e+00,-7.632399082183837891e+00,-1.134954452514648438e+01,-7.919164657592773438e+00,-2.139375877380371094e+01,-9.411926269531250000e-01,-3.629889339208602905e-02
9.989274740219116211e-01,1.105980682373046875e+01,-1.039590835571289062e+01,-1.742068672180175781e+01,7.866401195526123047e+00,-4.254791259765625000e+00,5.889196872711181641e+00,-1.423564338684082031e+01,-1.239126491546630859e+01,-2.056048965454101562e+01,9.461715698242187500e+00,-1.700352668762207031e+01,-6.258808135986328125e+00,-9.395133018493652344e+00,-9.071470260620117188e+00,-8.034245491027832031e+00,-1.100987720489501953e+01,-8.369400978088378906e+00,-2.228872108459472656e+01,-9.875646829605102539e-01,-3.463661670684814453e-02
3.419753313064575195e-01,1.052775859832763672e+01,-1.011182403564453125e+01,-1.679696083068847656e+01,7.696746349334716797e+00,-4.640864372253417969e+00,6.215283393859863281e+00,-1.536968326568603516e+01,-1.198081588745117188e+01,-2.115814018249511719e+01,9.263670921325683594e+00,-1.753055191040039062e+01,-5.990552425384521484e+00,-9.047174453735351562e+00,-8.742994308471679688e+00,-7.984254837036132812e+00,-1.032485675811767578e+01,-8.375325202941894531e+00,-2.258771514892578125e+01,-9.630147814750671387e-01,-3.304989635944366455e-02
-2.872483730316162109e-01,9.479484558105468750e+00,-9.724690437316894531e+00,-1.584949684143066406e+01,7.262821197509765625e+00,-4.981582641601562500e+00,7.114561557769775391e+00,-1.597219371795654297e+01,-1.126624011993408203e+01,-2.114393806457519531e+01,8.877012252807617188e+00,-1.750463294982910156e+01,-5.373694419860839844e+00,-8.113072395324707031e+00,-8.067692756652832031e+00,-7.543954372406005859e+00,-9.513348579406738281e+00,-8.111107826232910156e+00,-2.237963104248046875e+01,-8.109418153762817383e-01,-3.128183633089065552e-02
-8.588820695877075195e-01,8.067280769348144531e+00,-9.267928123474121094e+00,-1.468329238891601562e+01,6.548312187194824219e+00,-5.258139133453369141e+00,8.425679206848144531e+00,-1.600520706176757812e+01,-1.040949153900146484e+01,-2.061374473571777344e+01,8.500832557678222656e+00,-1.702224540710449219e+01,-4.491171836853027344e+00,-6.704669475555419922e+00,-7.073090553283691406e+00,-6.736416339874267578e+00,-8.686207771301269531e+00,-7.639544010162353516e+00,-2.173315811157226562e+01,-5.006585121154785156e-01,-2.910576201975345612e-02
-1.276942610740661621e+00,6.617497920989990234e+00,-8.653805732727050781e+00,-1.329209518432617188e+01,5.721244335174560547e+00,-5.345530986785888672e+00,9.986158370971679688e+00,-1.536968326568603516e+01,-9.414277076721191406e+00,-1.956045913696289062e+01,8.447391510009765625e+00,-1.615106773376464844e+01,-3.337802410125732422e+00,-4.836464405059814453e+00,-5.715146541595458984e+00,-5.521263599395751953e+00,-7.788006782531738281e+00,-6.863478660583496094e+00,-2.067051696777343750e+01,-3.625639900565147400e-02,-2.638567052781581879e-02
-1.462510228157043457e+00,5.521754264831542969e+00,-7.727747440338134766e+00,-1.161091041564941406e+01,5.032836437225341797e+00,-5.092205047607421875e+00,1.165608406066894531e+01,-1.398308467864990234e+01,-8.134716987609863281e+00,-1.791543960571289062e+01,8.970271110534667969e+00,-1.492277812957763672e+01,-1.863044381141662598e+00,-2.454607009887695312e+00,-3.911283016204833984e+00,-3.819665431976318359e+00,-6.662413120269775391e+00,-5.601632595062255859e+00,-1.919575119018554688e+01,5.304369330406188965e-01,-2.319711819291114807e-02
-1.415585041046142578e+00,5.051020145416259766e+00,-6.378348350524902344e+00,-9.603487014770507812e+00,4.688632488250732422e+00,-4.414088249206542969e+00,1.330231571197509766e+01,-1.186686992645263672e+01,-6.402674198150634766e+00,-1.563963317871093750e+01,1.012081718444824219e+01,-1.337625598907470703e+01,-5.782645568251609802e-02,4.823268055915832520e-01,-1.637644290924072266e+00,-1.585476636886596680e+00,-5.150251865386962891e+00,-3.722488164901733398e+00,-1.733916091918945312e+01,1.110769033432006836e+00,-1.987256295979022980e-02
-1.208687782287597656e+00,5.270564079284667969e+00,-4.613964557647705078e+00,-7.333574771881103516e+00,4.766934871673583984e+00,-3.374234914779663086e+00,1.478381156921386719e+01,-9.205921173095703125e+00,-4.169933795928955078e+00,-1.281114768981933594e+01,1.170622253417968750e+01,-1.158494091033935547e+01,1.966402053833007812e+00,3.895632266998291016e+00,1.015851616859436035e+00,1.119776129722595215e+00,-3.200359582901000977e+00,-1.263961076736450195e+00,-1.520378017425537109e+01,1.635863900184631348e+00,-1.694090850651264191e-02
-9.250038862228393555e-01,6.055780887603759766e+00,-2.564103603363037109e+00,-4.938666820526123047e+00,5.200860023498535156e+00,-2.143004655838012695e+00,1.596404361724853516e+01,-6.287459850311279297e+00,-1.579905390739440918e+00,-9.624072074890136719e+00,1.336497783660888672e+01,-9.658268928527832031e+00,3.995814323425292969e+00,7.586475849151611328e+00,3.851018428802490234e+00,4.130739688873291016e+00,-9.093782305717468262e-01,1.542906880378723145e+00,-1.297344779968261719e+01,2.062759160995483398e+00,-1.499150972813367844e-02
-5.879959464073181152e-01,7.195037364959716797e+00,-4.209409356117248535e-01,-2.586257219314575195e+00,5.838697433471679688e+00,-9.139866232872009277e-01,1.674597549438476562e+01,-3.392109394073486328e+00,1.078118920326232910e+00,-6.329299926757812500e+00,1.473033332824707031e+01,-7.698477745056152344e+00,5.782889366149902344e+00,1.129803085327148438e+01,6.634803771972656250e+00,7.239761352539062500e+00,1.518038630485534668e+00,4.350959777832031250e+00,-1.085826873779296875e+01,2.371678590774536133e+00,-1.443237904459238052e-02
-1.720684319734573364e-01,8.476700782775878906e+00,1.628919720649719238e+00,-4.013413190841674805e-01,6.494479656219482422e+00,1.889214217662811279e-01,1.710478401184082031e+01,-6.997963190078735352e-01,3.486412525177001953e+00,-3.143407106399536133e+00,1.554766082763671875e+01,-5.771805763244628906e+00,7.148789882659912109e+00,1.481075286865234375e+01,9.185536384582519531e+00,1.026802921295166016e+01,3.837443828582763672e+00,6.830813884735107422e+00,-9.029962539672851562e+00,2.525797367095947266e+00,-1.527862995862960815e-02
3.761027157306671143e-01,9.732652664184570312e+00,3.467110157012939453e+00,1.568582892417907715e+00,7.006707191467285156e+00,1.146913766860961914e+00,1.710139846801757812e+01,1.749861836433410645e+00,5.443460464477539062e+00,-1.811896264553070068e-01,1.573836994171142578e+01,-3.886892557144165039e+00,8.055934906005859375e+00,1.803143882751464844e+01,1.145183467864990234e+01,1.314440345764160156e+01,5.845605373382568359e+00,8.803559303283691406e+00,-7.555195808410644531e+00,2.479425430297851562e+00,-1.706180162727832794e-02
1.092777848243713379e+00,1.084224033355712891e+01,5.062993526458740234e+00,3.349764347076416016e+00,7.272608757019042969e+00,2.036319971084594727e+00,1.688024711608886719e+01,4.032797813415527344e+00,6.940608024597167969e+00,2.563270092010498047e+00,1.540305614471435547e+01,-1.999099493026733398e+00,8.636507034301757812e+00,2.101186752319335938e+01,1.352178192138671875e+01,1.591887378692626953e+01,7.447302818298339844e+00,1.029407882690429688e+01,-6.365281105041503906e+00,2.190282344818115234e+00,-1.898097619414329529e-02
1.990754604339599609e+00,1.172239589691162109e+01,6.452776908874511719e+00,5.007200717926025391e+00,7.269346237182617188e+00,2.976612806320190430e+00,1.663991165161132812e+01,6.259609699249267578e+00,8.141045570373535156e+00,5.153879165649414062e+00,1.476491260528564453e+01,-3.930833935737609863e-02,9.119885444641113281e+00,2.388459396362304688e+01,1.558989334106445312e+01,1.871257209777832031e+01,8.656747817993164062e+00,1.149194431304931641e+01,-5.276378154754638672e+00,1.624270915985107422e+00,-2.014457248151302338e-02
3.070033311843872070e+00,1.229993534088134766e+01,7.682414531707763672e+00,6.553391456604003906e+00,7.036070346832275391e+00,4.031953334808349609e+00,1.655641555786132812e+01,8.469914436340332031e+00,9.254943847656250000e+00,7.609572410583496094e+00,1.405237102508544922e+01,2.018400430679321289e+00,9.736743927001953125e+00,2.673453903198242188e+01,1.783600616455078125e+01,2.163124465942382812e+01,9.554948806762695312e+00,1.260094738006591797e+01,-4.088483810424804688e+00,8.107148408889770508e-01,-1.991789788007736206e-02
4.345544338226318359e+00,1.251552391052246094e+01,8.765832901000976562e+00,7.923338413238525391e+00,6.686972618103027344e+00,5.159198284149169922e+00,1.673694801330566406e+01,1.058447837829589844e+01,1.041087532043457031e+01,9.845141410827636719e+00,1.345614051818847656e+01,4.145227432250976562e+00,1.063092994689941406e+01,2.951820564270019531e+01,2.036288261413574219e+01,2.467489433288574219e+01,1.022859954833984375e+01,1.372298336029052734e+01,-2.652101516723632812e+00,-1.310462504625320435e-01,-1.816494949162006378e-02
5.832218647003173828e+00,1.235927200317382812e+01,9.691890716552734375e+00,8.993297576904296875e+00,6.370501041412353516e+00,6.244406700134277344e+00,1.720407676696777344e+01,1.246464061737060547e+01,1.158658695220947266e+01,1.168898296356201172e+01,1.310930061340332031e+01,6.257654666900634766e+00,1.181540107727050781e+01,3.204504394531250000e+01,2.314850425720214844e+01,2.772046661376953125e+01,1.074023246765136719e+01,1.481895351409912109e+01,-9.571301341056823730e-01,-1.030526995658874512e+00,-1.517284847795963287e-02
7.498061656951904297e+00,1.190040397644042969e+01,1.042298889160156250e+01,9.639522552490234375e+00,6.205739974975585938e+00,7.159255981445312500e+00,1.790589714050292969e+01,1.395358371734619141e+01,1.262383460998535156e+01,1.295174217224121094e+01,1.307681751251220703e+01,8.253445625305175781e+00,1.318259811401367188e+01,3.403130722045898438e+01,2.604055786132812500e+01,3.053339195251464844e+01,1.111258888244628906e+01,1.574786186218261719e+01,8.529944419860839844e-01,-1.734972476959228516e+00,-1.142516732215881348e-02
9.225760459899902344e+00,1.128132915496826172e+01,1.093963241577148438e+01,9.794516563415527344e+00,6.231840610504150391e+00,7.807505130767822266e+00,1.874763107299804688e+01,1.496051883697509766e+01,1.332852077484130859e+01,1.353519153594970703e+01,1.338907814025878906e+01,1.004332065582275391e+01,1.456145763397216797e+01,3.520152282714843750e+01,2.879681587219238281e+01,3.282910537719726562e+01,1.134424495697021484e+01,1.637226867675781250e+01,2.519682645797729492e+00,-2.141409635543823242e+00,-7.390364538878202438e-03
1.079775333404541016e+01,1.065236473083496094e+01,1.125296020507812500e+01,9.493278503417968750e+00,6.367238521575927734e+00,8.147116661071777344e+00,1.962659835815429688e+01,1.550030136108398438e+01,1.357330608367919922e+01,1.349850368499755859e+01,1.408380603790283203e+01,1.158408260345458984e+01,1.579517459869384766e+01,3.540449905395507812e+01,3.115853881835937500e+01,3.437304306030273438e+01,1.144372940063476562e+01,1.666492271423339844e+01,3.741920948028564453e+00,-2.204830169677734375e+00,-3.295115660876035690e-03
1.194955253601074219e+01,1.014800643920898438e+01,1.140474987030029297e+01,8.852052688598632812e+00,6.445540428161621094e+00,8.195790290832519531e+00,2.046043395996093750e+01,1.566372203826904297e+01,1.336560916900634766e+01,1.303931808471679688e+01,1.519977283477783203e+01,1.286853027343750000e+01,1.677229881286621094e+01,3.465058898925781250e+01,3.288349533081054688e+01,3.500177001953125000e+01,1.143804454803466797e+01,1.673245811462402344e+01,4.285362243652343750e+00,-1.950465917587280273e+00,7.396868895739316940e-04
1.246572875976562500e+01,9.837479591369628906e+00,1.142981624603271484e+01,8.029584884643554688e+00,6.266098022460937500e+00,8.022112846374511719e+00,2.117805099487304688e+01,1.558283710479736328e+01,1.282658672332763672e+01,1.240853118896484375e+01,1.672545051574707031e+01,1.389090442657470703e+01,1.741637229919433594e+01,3.306199645996093750e+01,3.377533340454101562e+01,3.465183639526367188e+01,1.136129951477050781e+01,1.674312210083007812e+01,4.042934894561767578e+00,-1.455376505851745605e+00,4.593149758875370026e-03
1.224176788330078125e+01,9.718807220458984375e+00,1.134486961364746094e+01,7.165867805480957031e+00,5.698406219482421875e+00,7.715688228607177734e+00,2.172641754150390625e+01,1.536824417114257812e+01,1.211942863464355469e+01,1.180377960205078125e+01,1.854557418823242188e+01,1.462384605407714844e+01,1.766518783569335938e+01,3.083133316040039062e+01,3.367623901367187500e+01,3.333093261718750000e+01,1.124191761016845703e+01,1.683790779113769531e+01,3.036861181259155273e+00,-8.368555903434753418e-01,8.038599044084548950e-03
1.133525943756103516e+01,9.738586425781250000e+00,1.114573192596435547e+01,6.355898857116699219e+00,4.734308719635009766e+00,7.377182960510253906e+00,2.206266021728515625e+01,1.506616401672363281e+01,1.137147235870361328e+01,1.130908966064453125e+01,2.040132713317871094e+01,1.500687694549560547e+01,1.742673873901367188e+01,2.810565948486328125e+01,3.248345184326171875e+01,3.109289932250976562e+01,1.108132171630859375e+01,1.703814506530761719e+01,1.400476336479187012e+00,-2.422026991844177246e-01,1.063779741525650024e-02
9.963765144348144531e+00,9.831545829772949219e+00,1.083379650115966797e+01,5.662175655364990234e+00,3.523885488510131836e+00,7.119431972503662109e+00,2.216533851623535156e+01,1.468649959564208984e+01,1.062598991394042969e+01,1.089014244079589844e+01,2.192805290222167969e+01,1.498239803314208984e+01,1.659605407714843750e+01,2.500096130371093750e+01,3.016393661499023438e+01,2.802810096740722656e+01,1.086956214904785156e+01,1.723601150512695312e+01,-6.904599666595458984e-01,1.894662082195281982e-01,1.196762081235647202e-02
8.440830230712890625e+00,9.971975326538085938e+00,1.044944763183593750e+01,5.144695281982421875e+00,2.298780441284179688e+00,7.048633575439453125e+00,2.203670883178710938e+01,1.422925281524658203e+01,9.844654083251953125e+00,1.044752597808837891e+01,2.275166702270507812e+01,1.453456878662109375e+01,1.509796905517578125e+01,2.159386825561523438e+01,2.677641677856445312e+01,2.427304840087890625e+01,1.059811210632324219e+01,1.725615310668945312e+01,-3.082410335540771484e+00,3.579057455062866211e-01,1.175605785101652145e-02
7.129059314727783203e+00,1.021129798889160156e+01,1.007484722137451172e+01,4.879705429077148438e+00,1.313476324081420898e+00,7.242223262786865234e+00,2.168805503845214844e+01,1.370432567596435547e+01,8.949580192565917969e+00,9.891296386718750000e+00,2.263011550903320312e+01,1.371522903442382812e+01,1.290656661987304688e+01,1.794859123229980469e+01,2.247870635986328125e+01,2.000078773498535156e+01,1.028971099853515625e+01,1.694809722900390625e+01,-5.686484336853027344e+00,2.344743460416793823e-01,1.003333274275064468e-02
6.339863300323486328e+00,1.067807674407958984e+01,9.796333312988281250e+00,4.930953502655029297e+00,7.425219416618347168e-01,7.722325801849365234e+00,2.112614631652832031e+01,1.312987804412841797e+01,7.854226589202880859e+00,9.164648056030273438e+00,2.154768180847167969e+01,1.261077690124511719e+01,1.009701061248779297e+01,1.415418910980224609e+01,1.750019073486328125e+01,1.539397430419921875e+01,9.981309890747070312e+00,1.624430656433105469e+01,-8.490561485290527344e+00,-1.324101388454437256e-01,7.086567115038633347e-03
6.260943889617919922e+00,1.154240894317626953e+01,9.651506423950195312e+00,5.332188129425048828e+00,6.218059062957763672e-01,8.456860542297363281e+00,2.033631706237792969e+01,1.253066921234130859e+01,6.512851715087890625e+00,8.261662483215332031e+00,1.973174667358398438e+01,1.133208847045898438e+01,6.850728034973144531e+00,1.032457637786865234e+01,1.211796092987060547e+01,1.063526725769042969e+01,9.709859848022460938e+00,1.518388175964355469e+01,-1.152292442321777344e+01,-6.520494818687438965e-01,3.233104245737195015e-03
6.945624351501464844e+00,1.293087768554687500e+01,9.604159355163574219e+00,6.035911083221435547e+00,8.485563397407531738e-01,9.345160484313964844e+00,1.929374122619628906e+01,1.190174674987792969e+01,4.925454616546630859e+00,7.202460289001464844e+00,1.755744743347167969e+01,9.954042434692382812e+00,3.395802974700927734e+00,6.600594043731689453e+00,6.614617824554443359e+00,5.886173725128173828e+00,9.479624748229980469e+00,1.386871814727783203e+01,-1.479165363311767578e+01,-1.232381582260131836e+00,-1.315493369475007057e-03
8.295788764953613281e+00,1.485732936859130859e+01,9.540101051330566406e+00,6.914627552032470703e+00,1.248224377632141113e+00,1.024784088134765625e+01,1.798262405395507812e+01,1.119689273834228516e+01,3.140251398086547852e+00,6.005975246429443359e+00,1.542506122589111328e+01,8.514079093933105469e+00,-4.693694878369569778e-03,3.116868257522583008e+00,1.261749625205993652e+00,1.277438402175903320e+00,9.246547698974609375e+00,1.241137409210205078e+01,-1.823614311218261719e+01,-1.813395738601684570e+00,-6.604560185223817825e-03
1.007894515991210938e+01,1.719320106506347656e+01,9.310326576232910156e+00,7.787093639373779297e+00,1.647892475128173828e+00,1.102773094177246094e+01,1.644471168518066406e+01,1.034017276763916016e+01,1.238836765289306641e+00,4.684042453765869141e+00,1.363951587677001953e+01,7.013636112213134766e+00,-3.117495775222778320e+00,-1.061414461582899094e-02,-3.696580886840820312e+00,-3.064040422439575195e+00,8.933882713317871094e+00,1.089478874206542969e+01,-2.171093559265136719e+01,-2.390318155288696289e+00,-1.280032470822334290e-02
1.196021747589111328e+01,1.967345619201660156e+01,8.802039146423339844e+00,8.454567909240722656e+00,1.939894914627075195e+00,1.154765796661376953e+01,1.478042697906494141e+01,9.240797996520996094e+00,-6.823585033416748047e-01,3.249680757522583008e+00,1.233179187774658203e+01,5.428235530853271484e+00,-5.781909465789794922e+00,-2.728002786636352539e+00,-8.078702926635742188e+00,-7.042127132415771484e+00,8.439303398132324219e+00,9.360430717468261719e+00,-2.503421020507812500e+01,-2.963830947875976562e+00,-2.000856772065162659e-02
1.358340072631835938e+01,2.195790290832519531e+01,7.980424404144287109e+00,8.763306617736816406e+00,2.088342905044555664e+00,1.169257354736328125e+01,1.314547824859619141e+01,7.832739353179931641e+00,-2.530612707138061523e+00,1.744310975074768066e+00,1.147045516967773438e+01,3.740597486495971680e+00,-7.930546283721923828e+00,-5.047725200653076172e+00,-1.178552341461181641e+01,-1.058952713012695312e+01,7.680380344390869141e+00,7.840291023254394531e+00,-2.802414894104003906e+01,-3.481424331665039062e+00,-2.806306071579456329e-02
1.463708400726318359e+01,2.374985885620117188e+01,6.920679569244384766e+00,8.658309936523437500e+00,2.111181259155273438e+00,1.139499855041503906e+01,1.171588611602783203e+01,6.124251365661621094e+00,-4.200840950012207031e+00,2.661608457565307617e-01,1.091194820404052734e+01,1.965121746063232422e+00,-9.563406944274902344e+00,-7.027773380279541016e+00,-1.480236053466796875e+01,-1.367547607421875000e+01,6.637216091156005859e+00,6.405458927154541016e+00,-3.054741287231445312e+01,-3.846262931823730469e+00,-3.638956323266029358e-02
1.491863536834716797e+01,2.489109420776367188e+01,5.785736560821533203e+00,8.203328132629394531e+00,2.029616355895996094e+00,1.067926979064941406e+01,1.065638542175292969e+01,4.224280834197998047e+00,-5.581777095794677734e+00,-1.029735326766967773e+00,1.048547077178955078e+01,1.738063544034957886e-01,-1.072843933105468750e+01,-8.709571838378906250e+00,-1.718977355957031250e+01,-1.629036140441894531e+01,5.375186920166015625e+00,5.198114871978759766e+00,-3.251713562011718750e+01,-3.949918031692504883e+00,-4.430805146694183350e-02
1.438326168060302734e+01,2.540336418151855469e+01,4.774731636047363281e+00,7.559602737426757812e+00,1.835491776466369629e+00,9.682559013366699219e+00,1.006852626800537109e+01,2.358974933624267578e+00,-6.553501605987548828e+00,-1.951655983924865723e+00,1.003489303588867188e+01,-1.505191802978515625e+00,-1.149044132232666016e+01,-1.009726333618164062e+01,-1.905052375793457031e+01,-1.844187355041503906e+01,4.052045822143554688e+00,4.406646728515625000e+00,-3.387271118164062500e+01,-3.750109195709228516e+00,-5.109316855669021606e-02
1.315680885314941406e+01,2.547456741333007812e+01,4.068699359893798828e+00,6.937126636505126953e+00,1.514126062393188477e+00,8.640493392944335938e+00,9.981644630432128906e+00,8.122568130493164062e-01,-7.009692668914794922e+00,-2.326815128326416016e+00,9.442853927612304688e+00,-2.919236660003662109e+00,-1.191679954528808594e+01,-1.113492393493652344e+01,-2.049287986755371094e+01,-2.014347267150878906e+01,2.885236978530883789e+00,4.207594871520996094e+00,-3.458988952636718750e+01,-3.307529211044311523e+00,-5.633690208196640015e-02
1.154642295837402344e+01,2.540929794311523438e+01,3.813859462738037109e+00,6.565890789031982422e+00,1.107932806015014648e+00,7.858391284942626953e+00,1.036527633666992188e+01,-1.220467761158943176e-01,-6.868755817413330078e+00,-2.019113540649414062e+00,8.656962394714355469e+00,-3.917131662368774414e+00,-1.204768753051757812e+01,-1.171899700164794922e+01,-2.158841133117675781e+01,-2.137977409362792969e+01,2.124892711639404297e+00,4.720627307891845703e+00,-3.464241790771484375e+01,-2.791299581527709961e+00,-5.999391153454780579e-02
9.995759963989257812e+00,2.554972648620605469e+01,4.113261699676513672e+00,6.657137393951416016e+00,7.572036385536193848e-01,7.636039733886718750e+00,1.116074848175048828e+01,-2.177881300449371338e-01,-6.087419986724853516e+00,-9.812132120132446289e-01,7.697126865386962891e+00,-4.412479400634765625e+00,-1.189865589141845703e+01,-1.174799346923828125e+01,-2.234445571899414062e+01,-2.209886741638183594e+01,2.008353948593139648e+00,5.963516235351562500e+00,-3.403230667114257812e+01,-2.410776376724243164e+00,-6.233621388673782349e-02
9.006065368652343750e+00,2.615891265869140625e+01,5.026786804199218750e+00,7.352110385894775391e+00,7.115272879600524902e-01,8.144904136657714844e+00,1.229359054565429688e+01,5.960134267807006836e-01,-4.675576686859130859e+00,7.383641004562377930e-01,6.675467967987060547e+00,-4.432639122009277344e+00,-1.145933914184570312e+01,-1.119498825073242188e+01,-2.270963096618652344e+01,-2.224499320983886719e+01,2.701901674270629883e+00,7.848584651947021484e+00,-3.280603027343750000e+01,-2.282571315765380859e+00,-6.389270722866058350e-02
9.012464523315429688e+00,2.735948181152343750e+01,6.558611869812011719e+00,8.704558372497558594e+00,1.248224377632141113e+00,9.372816085815429688e+00,1.369046115875244141e+01,2.213712215423583984e+00,-2.716056108474731445e+00,3.009437084197998047e+00,5.788982391357421875e+00,-4.125926494598388672e+00,-1.070252132415771484e+01,-1.013040161132812500e+01,-2.261604309082031250e+01,-2.178546714782714844e+01,4.263805389404296875e+00,1.021706485748291016e+01,-3.107873344421386719e+01,-2.371905803680419922e+00,-6.511675566434860229e-02
1.021332168579101562e+01,2.905649948120117188e+01,8.616827964782714844e+00,1.061698532104492188e+01,2.505955457687377930e+00,1.108857345581054688e+01,1.523965644836425781e+01,4.321672916412353516e+00,-3.905940055847167969e-01,5.588211059570312500e+00,5.225235939025878906e+00,-3.758735656738281250e+00,-9.650233268737792969e+00,-8.748924255371093750e+00,-2.204717445373535156e+01,-2.077604293823242188e+01,6.587474346160888672e+00,1.282962036132812500e+01,-2.905446434020996094e+01,-2.502156496047973633e+00,-6.635590642690658569e-02
1.249132442474365234e+01,3.097108459472656250e+01,1.098976421356201172e+01,1.285064888000488281e+01,4.377054214477539062e+00,1.290610408782958984e+01,1.678546714782714844e+01,6.456044673919677734e+00,2.025117397308349609e+00,8.159884452819824219e+00,5.072248935699462891e+00,-3.644978523254394531e+00,-8.406148910522460938e+00,-7.334308147430419922e+00,-2.108560371398925781e+01,-1.938977050781250000e+01,9.407143592834472656e+00,1.541610908508300781e+01,-2.700797462463378906e+01,-2.460558176040649414e+00,-6.771595031023025513e-02
1.539641857147216797e+01,3.270568084716796875e+01,1.337105655670166016e+01,1.507306385040283203e+01,6.484691619873046875e+00,1.441720962524414062e+01,1.814623069763183594e+01,8.134819984436035156e+00,4.218296527862548828e+00,1.039190292358398438e+01,5.277628898620605469e+00,-4.033768653869628906e+00,-7.142626285552978516e+00,-6.147521972656250000e+00,-1.990199089050292969e+01,-1.787275123596191406e+01,1.235187816619873047e+01,1.771468353271484375e+01,-2.522209167480468750e+01,-2.126406908035278320e+00,-6.907599419355392456e-02
1.830151176452636719e+01,3.386471557617187500e+01,1.543902015686035156e+01,1.695424079895019531e+01,8.303588867187500000e+00,1.532431602478027344e+01,1.915721321105957031e+01,8.986587524414062500e+00,5.921904563903808594e+00,1.201798629760742188e+01,5.662191867828369141e+00,-5.023024082183837891e+00,-6.060532569885253906e+00,-5.356330871582031250e+00,-1.869819259643554688e+01,-1.646917343139648438e+01,1.506069374084472656e+01,1.953458595275878906e+01,-2.390894317626953125e+01,-1.531071901321411133e+00,-7.028492540121078491e-02
2.066270065307617188e+01,3.422864532470703125e+01,1.698616409301757812e+01,1.829294013977050781e+01,9.412872314453125000e+00,1.555883598327636719e+01,1.976763916015625000e+01,8.879291534423828125e+00,7.020967006683349609e+00,1.292807292938232422e+01,6.015318870544433594e+00,-6.503307342529296875e+00,-5.302418708801269531e+00,-4.969019889831542969e+00,-1.762468147277832031e+01,-1.532900619506835938e+01,1.731472396850585938e+01,2.081776046752929688e+01,-2.312105369567871094e+01,-8.511763811111450195e-01,-7.117651402950286865e-02
2.221976280212402344e+01,3.381526947021484375e+01,1.800830841064453125e+01,1.908165931701660156e+01,9.675511360168457031e+00,1.529223537445068359e+01,2.005987739562988281e+01,7.964796543121337891e+00,7.614386081695556641e+00,1.320382022857666016e+01,6.196598052978515625e+00,-8.195264816284179688e+00,-4.881244182586669922e+00,-4.832322120666503906e+00,-1.672733879089355469e+01,-1.445225048065185547e+01,1.910401916503906250e+01,2.167202377319335938e+01,-2.273317146301269531e+01,-3.131245970726013184e-01,-7.175075262784957886e-02
2.305161857604980469e+01,3.285797882080078125e+01,1.869484519958496094e+01,1.950164413452148438e+01,9.301943778991699219e+00,1.484974479675292969e+01,2.023251152038574219e+01,6.617814540863037109e+00,7.982800960540771484e+00,1.309612464904785156e+01,6.194502353668212891e+00,-9.760506629943847656e+00,-4.668713092803955078e+00,-4.705980300903320312e+00,-1.594376754760742188e+01,-1.372162151336669922e+01,2.060054779052734375e+01,2.232842063903808594e+01,-2.248468208312988281e+01,-9.217559546232223511e-02,-7.214365154504776001e-02
2.346754455566406250e+01,3.169300842285156250e+01,1.935492324829101562e+01,1.983538055419921875e+01,8.727726936340332031e+00,1.455327606201171875e+01,2.051910591125488281e+01,5.279086112976074219e+00,8.493389129638671875e+00,1.294819164276123047e+01,6.094955921173095703e+00,-1.091967773437500000e+01,-4.439335346221923828e+00,-4.351808547973632812e+00,-1.514918708801269531e+01,-1.295830535888671875e+01,2.205443954467773438e+01,2.306420135498046875e+01,-2.207053565979003906e+01,-2.319735884666442871e-01,-7.259700447320938110e-02
2.381735038757324219e+01,3.062495613098144531e+01,2.027540969848632812e+01,2.036036109924316406e+01,8.388417243957519531e+00,1.460084342956542969e+01,2.109229660034179688e+01,4.318371295928955078e+00,9.472530364990234375e+00,1.308902454376220703e+01,6.029988765716552734e+00,-1.150862312316894531e+01,-3.946885347366333008e+00,-3.591685056686401367e+00,-1.420046138763427734e+01,-1.198733711242675781e+01,2.365897941589355469e+01,2.410685539245605469e+01,-2.122809982299804688e+01,-6.445481181144714355e-01,-7.333747297525405884e-02
2.429086875915527344e+01,2.983578300476074219e+01,2.161227607727050781e+01,2.124907684326171875e+01,8.505869865417480469e+00,1.500682830810546875e+01,2.198706245422363281e+01,3.942008733749389648e+00,1.109207057952880859e+01,1.374939823150634766e+01,6.097051620483398438e+00,-1.147982311248779297e+01,-3.002158880233764648e+00,-2.328264951705932617e+00,-1.298748683929443359e+01,-1.068758487701416016e+01,2.547243690490722656e+01,2.557012176513671875e+01,-1.980990028381347656e+01,-1.174416661262512207e+00,-7.445573061704635620e-02
2.486036872863769531e+01,2.938680648803710938e+01,2.334741592407226562e+01,2.254652595520019531e+01,9.026254653930664062e+00,1.565839672088623047e+01,2.311200523376464844e+01,4.209424495697021484e+00,1.333717441558837891e+01,1.503109359741210938e+01,6.329675674438476562e+00,-1.083759975433349609e+01,-1.517033457756042480e+00,-5.263381004333496094e-01,-1.142768669128417969e+01,-8.985986709594726562e+00,2.742374992370605469e+01,2.743978881835937500e+01,-1.779371261596679688e+01,-1.687918424606323242e+00,-7.590644806623458862e-02
2.531042480468750000e+01,2.925033187866210938e+01,2.530536842346191406e+01,2.418646240234375000e+01,9.662460327148437500e+00,1.640509986877441406e+01,2.428546714782714844e+01,5.066144466400146484e+00,1.601497840881347656e+01,1.689268684387207031e+01,6.681755065917968750e+00,-9.607870101928710938e+00,4.735011458396911621e-01,1.805811047554016113e+00,-9.491698265075683594e+00,-6.853701591491699219e+00,2.935516548156738281e+01,2.959262847900390625e+01,-1.527650833129882812e+01,-2.123678922653198242e+00,-7.747805863618850708e-02
2.539574241638183594e+01,2.933735847473144531e+01,2.721457862854003906e+01,2.602389335632324219e+01,1.006049728393554688e+01,1.712414741516113281e+01,2.530998992919921875e+01,6.411475658416748047e+00,1.882135772705078125e+01,1.917677688598632812e+01,7.077844619750976562e+00,-7.829514503479003906e+00,2.834669113159179688e+00,4.614331722259521484e+00,-7.194204330444335938e+00,-4.311879158020019531e+00,3.108193016052246094e+01,3.183907127380371094e+01,-1.242192554473876953e+01,-2.488517761230468750e+00,-7.891365885734558105e-02
2.497768211364746094e+01,2.953316879272460938e+01,2.880489158630371094e+01,2.790007019042968750e+01,9.977301597595214844e+00,1.775469589233398438e+01,2.604791641235351562e+01,8.129867553710937500e+00,2.145218467712402344e+01,2.166797447204589844e+01,7.509561061859130859e+00,-5.578850269317626953e+00,5.392817020416259766e+00,7.808092117309570312e+00,-4.582914829254150391e+00,-1.398973822593688965e+00,3.245623397827148438e+01,3.396821594238281250e+01,-9.403704643249511719e+00,-2.811075925827026367e+00,-7.992614060640335083e-02
2.407757186889648438e+01,2.970128822326660156e+01,2.984792518615722656e+01,2.966000175476074219e+01,9.365564346313476562e+00,1.828900337219238281e+01,2.645185852050781250e+01,1.008101081848144531e+01,2.365278053283691406e+01,2.412366867065429688e+01,8.032441139221191406e+00,-3.007074356079101562e+00,7.978179454803466797e+00,1.124210929870605469e+01,-1.720221996307373047e+00,1.804260849952697754e+00,3.336154174804687500e+01,3.578456115722656250e+01,-6.377402782440185547e+00,-3.107038497924804688e+00,-8.039459586143493652e-02
2.281912422180175781e+01,2.964986228942871094e+01,3.017657279968261719e+01,3.114369583129882812e+01,8.359053611755371094e+00,1.869941329956054688e+01,2.653422737121582031e+01,1.207177066802978516e+01,2.525625038146972656e+01,2.629769706726074219e+01,8.722977638244628906e+00,-3.575403988361358643e-01,1.044172477722167969e+01,1.471340751647949219e+01,1.303956031799316406e+00,5.174771308898925781e+00,3.369552230834960938e+01,3.710565185546875000e+01,-3.466253519058227539e+00,-3.346400022506713867e+00,-8.031903952360153198e-02
2.135164642333984375e+01,2.915143775939941406e+01,2.969474411010742188e+01,3.217240524291992188e+01,7.171468257904052734e+00,1.888968467712402344e+01,2.632322883605957031e+01,1.384133529663085938e+01,2.616986846923828125e+01,2.796520233154296875e+01,9.608415603637695312e+00,2.071679115295410156e+00,1.266811752319335938e+01,1.795894813537597656e+01,4.399701118469238281e+00,8.539513587951660156e+00,3.335727691650390625e+01,3.778218841552734375e+01,-7.732893228530883789e-01,-3.441871881484985352e+00,-7.985058426856994629e-02
1.978818702697753906e+01,2.803196144104003906e+01,2.840243911743164062e+01,3.260239028930664062e+01,6.008352756500244141e+00,1.874366188049316406e+01,2.584256172180175781e+01,1.512393856048583984e+01,2.639240074157714844e+01,2.896878242492675781e+01,1.064684009552001953e+01,4.018510818481445312e+00,1.460033512115478516e+01,2.072604370117187500e+01,7.500951766967773438e+00,1.173121166229248047e+01,3.229990005493164062e+01,3.774664688110351562e+01,1.628762125968933105e+00,-3.308211326599121094e+00,-7.920078188180923462e-02
1.822259330749511719e+01,2.626571655273437500e+01,2.643613243103027344e+01,3.238364791870117188e+01,5.036098957061767578e+00,1.821156692504882812e+01,2.513058471679687500e+01,1.575451183319091797e+01,2.601780509948730469e+01,2.926938247680664062e+01,1.173765754699707031e+01,5.343277454376220703e+00,1.624356269836425781e+01,2.283864784240722656e+01,1.057651138305664062e+01,1.462681293487548828e+01,3.059872055053710938e+01,3.706655120849609375e+01,3.711617469787597656e+00,-2.921550512313842773e+00,-7.859631627798080444e-02
1.674231719970703125e+01,2.401093864440917969e+01,2.405901908874511719e+01,3.157992935180664062e+01,4.370529174804687500e+00,1.736087989807128906e+01,2.425161743164062500e+01,1.571324348449707031e+01,2.521916198730468750e+01,2.896049880981445312e+01,1.277922630310058594e+01,6.063259601593017578e+00,1.765611648559570312e+01,2.421805381774902344e+01,1.362454509735107422e+01,1.715133094787597656e+01,2.848681068420410156e+01,3.594451522827148438e+01,5.485377788543701172e+00,-2.342582225799560547e+00,-7.823363691568374634e-02
1.544760990142822266e+01,2.153661537170410156e+01,2.158164024353027344e+01,3.033497619628906250e+01,4.052425861358642578e+00,1.635089492797851562e+01,2.328915405273437500e+01,1.510413074493408203e+01,2.419180297851562500e+01,2.821491432189941406e+01,1.366466426849365234e+01,6.273494243621826172e+00,1.889760971069335938e+01,2.484562301635742188e+01,1.660101127624511719e+01,1.924516105651855469e+01,2.629673385620117188e+01,3.463409042358398438e+01,6.958124160766601562e+00,-1.709740638732910156e+00,-7.833942025899887085e-02
1.440459156036376953e+01,1.911569595336914062e+01,1.926301383972167969e+01,2.880628585815429688e+01,4.060582637786865234e+00,1.535639667510986328e+01,2.230976486206054688e+01,1.408894157409667969e+01,2.309150505065917969e+01,2.720660018920898438e+01,1.430071258544921875e+01,6.061819553375244141e+00,2.000821304321289062e+01,2.473792076110839844e+01,1.940498161315917969e+01,2.083524322509765625e+01,2.433120918273925781e+01,3.333670043945312500e+01,8.097533226013183594e+00,-1.195556759834289551e+00,-7.923100143671035767e-02
1.360686397552490234e+01,1.694398880004882812e+01,1.722011566162109375e+01,2.711260032653808594e+01,4.288964271545410156e+00,1.449796485900878906e+01,2.133150291442871094e+01,1.282284545898437500e+01,2.197760772705078125e+01,2.605271911621093750e+01,1.457944202423095703e+01,5.461354732513427734e+00,2.094905281066894531e+01,2.391773414611816406e+01,2.187864303588867188e+01,2.182543945312500000e+01,2.274514579772949219e+01,3.210447311401367188e+01,8.820775032043457031e+00,-9.725619554519653320e-01,-8.145241439342498779e-02
1.293711376190185547e+01,1.510456371307373047e+01,1.539306545257568359e+01,2.531391906738281250e+01,4.574441432952880859e+00,1.378887271881103516e+01,2.029908180236816406e+01,1.140488243103027344e+01,2.081673049926757812e+01,2.478167724609375000e+01,1.438873195648193359e+01,4.431780338287353516e+00,2.164625740051269531e+01,2.243684005737304688e+01,2.384949684143066406e+01,2.212345886230468750e+01,2.146463966369628906e+01,3.082603836059570312e+01,9.000575065612792969e+00,-1.157368063926696777e+00,-8.559300005435943604e-02
1.222897052764892578e+01,1.360731124877929688e+01,1.361893367767333984e+01,2.345774078369140625e+01,4.740833759307861328e+00,1.316053581237792969e+01,1.912449264526367188e+01,9.917590141296386719e+00,1.952975273132324219e+01,2.337453460693359375e+01,1.367514228820800781e+01,2.960136890411376953e+00,2.202985000610351562e+01,2.041950988769531250e+01,2.521111106872558594e+01,2.171969032287597656e+01,2.026372337341308594e+01,2.931774711608886719e+01,8.546023368835449219e+00,-1.743155717849731445e+00,-9.195499122142791748e-02
1.133739280700683594e+01,1.245223140716552734e+01,1.175706958770751953e+01,2.163531112670898438e+01,4.669056892395019531e+00,1.253330612182617188e+01,1.774454689025878906e+01,8.469914436340332031e+00,1.805609512329101562e+01,2.181945991516113281e+01,1.250887966156005859e+01,1.135702371597290039e+00,2.207131958007812500e+01,1.811221504211425781e+01,2.597632980346679688e+01,2.072949409484863281e+01,1.888941764831542969e+01,2.745637512207031250e+01,7.469242095947265625e+00,-2.590126991271972656e+00,-9.994903206825256348e-02
1.024744892120361328e+01,1.164723587036132812e+01,9.776837348937988281e+00,1.998287391662597656e+01,4.329746723175048828e+00,1.187067604064941406e+01,1.618293952941894531e+01,7.217023372650146484e+00,1.640688323974609375e+01,2.015787124633789062e+01,1.111523151397705078e+01,-8.082491755485534668e-01,2.180824851989746094e+01,1.585669898986816406e+01,2.625709342956542969e+01,1.938551902770996094e+01,1.722092437744140625e+01,2.527272987365722656e+01,5.915686607360839844e+00,-3.449373245239257812e+00,-1.075804010033607483e-01
9.104181289672851562e+00,1.118441295623779297e+01,7.793819904327392578e+00,1.865292549133300781e+01,3.806100130081176758e+00,1.120583343505859375e+01,1.456491565704345703e+01,6.330590724945068359e+00,1.467731285095214844e+01,1.849036598205566406e+01,9.831608772277832031e+00,-2.533326148986816406e+00,2.132098197937011719e+01,1.402163314819335938e+01,2.620754814147949219e+01,1.797617340087890625e+01,1.533782863616943359e+01,2.296941566467285156e+01,4.133845329284667969e+00,-4.007883071899414062e+00,-1.112223044037818909e-01
8.163545608520507812e+00,1.098266983032226562e+01,5.991836547851562500e+00,1.770796203613281250e+01,3.228620529174804688e+00,1.057307147979736328e+01,1.306536674499511719e+01,5.914610862731933594e+00,1.297370529174804688e+01,1.692582321166992188e+01,8.970271110534667969e+00,-3.708337068557739258e+00,2.065876579284667969e+01,1.284727382659912109e+01,2.591393852233886719e+01,1.670910835266113281e+01,1.345615386962890625e+01,2.081183624267578125e+01,2.376246452331542969e+00,-3.969694375991821289e+00,-1.060087978839874268e-01
7.677230358123779297e+00,1.088970947265625000e+01,4.515714168548583984e+00,1.707298660278320312e+01,2.701711177825927734e+00,9.981240272521972656e+00,1.183887386322021484e+01,5.954227924346923828e+00,1.136900043487548828e+01,1.553998374938964844e+01,8.694685935974121094e+00,-4.114407062530517578e+00,1.982678413391113281e+01,1.238125801086425781e+01,2.535057449340820312e+01,1.565546226501464844e+01,1.182319068908691406e+01,1.899667167663574219e+01,8.024887442588806152e-01,-3.154092550277709961e+00,-8.674147725105285645e-02
7.790277481079101562e+00,1.073939132690429688e+01,3.408622264862060547e+00,1.655425643920898438e+01,2.275942325592041016e+00,9.409321784973144531e+00,1.094523715972900391e+01,6.337193489074707031e+00,9.861962318420410156e+00,1.435296630859375000e+01,8.924165725708007812e+00,-3.695377349853515625e+00,1.875505828857421875e+01,1.245996284484863281e+01,2.440001487731933594e+01,1.472487068176269531e+01,1.058958530426025391e+01,1.756657981872558594e+01,-5.551046729087829590e-01,-1.570624589920043945e+00,-4.923443868756294250e-02
8.489889144897460938e+00,1.042886447906494141e+01,2.605110168457031250e+00,1.591678142547607422e+01,1.941526174545288086e+00,8.828552246093750000e+00,1.031450176239013672e+01,6.898436069488525391e+00,8.390776634216308594e+00,1.332926750183105469e+01,9.347499847412109375e+00,-2.550605773925781250e+00,1.736194229125976562e+01,1.277064037322998047e+01,2.290077018737792969e+01,1.372506237030029297e+01,9.759601593017578125e+00,1.639833450317382812e+01,-1.795524835586547852e+00,5.795366764068603516e-01,8.401278406381607056e-03
9.633155822753906250e+00,9.987798690795898438e+00,1.999342918395996094e+00,1.501431560516357422e+01,1.690306186676025391e+00,8.254420280456542969e+00,9.785315513610839844e+00,7.479486942291259766e+00,6.877557277679443359e+00,1.241563129425048828e+01,9.549736022949218750e+00,-8.759275078773498535e-01,1.560856246948242188e+01,1.298190116882324219e+01,2.074457550048828125e+01,1.246568679809570312e+01,9.212438583374023438e+00,1.528696250915527344e+01,-3.066248416900634766e+00,2.952692747116088867e+00,8.504741638898849487e-02
1.104517650604248047e+01,9.552665710449218750e+00,1.510551452636718750e+00,1.384061145782470703e+01,1.569590210914611816e+00,7.761043548583984375e+00,9.173761367797851562e+00,7.971399307250976562e+00,5.270379543304443359e+00,1.155880165100097656e+01,9.160981178283691406e+00,1.104023218154907227e+00,1.352472114562988281e+01,1.284520244598388672e+01,1.792408943176269531e+01,1.081023406982421875e+01,8.793183326721191406e+00,1.405236721038818359e+01,-4.490509510040283203e+00,5.190142631530761719e+00,1.765331625938415527e-01
1.257024383544921875e+01,9.287630081176757812e+00,1.110884308815002441e+00,1.252066135406494141e+01,1.651155114173889160e+00,7.442450046539306641e+00,8.330900192260742188e+00,8.298240661621093750e+00,3.556881189346313477e+00,1.071025562286376953e+01,7.972712993621826172e+00,3.160291910171508789e+00,1.120243072509765625e+01,1.224041843414306641e+01,1.452005386352539062e+01,8.714480400085449219e+00,8.369664192199707031e+00,1.261042594909667969e+01,-6.136995315551757812e+00,7.006152629852294922e+00,2.760733962059020996e-01
1.408038139343261719e+01,9.228294372558593750e+00,7.780604362487792969e-01,1.119696235656738281e+01,1.980677366256713867e+00,7.320765495300292969e+00,7.182261466979980469e+00,8.357666015625000000e+00,1.743243217468261719e+00,9.797802925109863281e+00,5.975500583648681641e+00,5.059604644775390625e+00,8.736292839050292969e+00,1.114683532714843750e+01,1.065908908843994141e+01,6.186116695404052734e+00,7.858030796051025391e+00,1.096350955963134766e+01,-8.036009788513183594e+00,8.284792900085449219e+00,3.751753866672515869e-01
1.542201423645019531e+01,9.228294372558593750e+00,4.424514770507812500e-01,9.929511070251464844e+00,2.499430179595947266e+00,7.279834747314453125e+00,5.722204208374023438e+00,7.997810840606689453e+00,-1.779520511627197266e-01,8.706645965576171875e+00,3.322330474853515625e+00,6.552847385406494141e+00,6.180737018585205078e+00,9.570666313171386719e+00,6.465978145599365234e+00,3.252061367034912109e+00,7.187222480773925781e+00,9.156640052795410156e+00,-1.020169448852539062e+01,9.086755752563476562e+00,4.649384319782257080e-01
1.638611221313476562e+01,8.977104187011718750e+00,-5.608800426125526428e-02,8.639560699462890625e+00,3.021445512771606445e+00,7.079607963562011719e+00,3.998117685317993164e+00,7.025540828704833984e+00,-2.241320610046386719e+00,7.282935619354248047e+00,2.573530673980712891e-01,7.393786430358886719e+00,3.529282808303833008e+00,7.511913299560546875e+00,2.047155141830444336e+00,-6.653583794832229614e-02,6.259175777435302734e+00,7.208775043487548828e+00,-1.267647457122802734e+01,9.578435897827148438e+00,5.372475385665893555e-01
1.672738647460937500e+01,8.174085617065429688e+00,-8.930215835571289062e-01,7.165867805480957031e+00,3.318341970443725586e+00,6.457908630371093750e+00,2.105910539627075195e+00,5.297244071960449219e+00,-4.469115734100341797e+00,5.390572071075439453e+00,-2.918696880340576172e+00,7.405306339263916016e+00,7.573078274726867676e-01,4.987144470214843750e+00,-2.478101491928100586e+00,-3.727375507354736328e+00,4.971564769744873047e+00,5.113991737365722656e+00,-1.548661231994628906e+01,9.920769691467285156e+00,5.852873325347900391e-01
1.626879882812500000e+01,6.694634914398193359e+00,-2.176969766616821289e+00,5.378436565399169922e+00,3.233514308929443359e+00,5.262077331542968750e+00,1.753402054309844971e-01,2.798064708709716797e+00,-6.827958106994628906e+00,2.969199180603027344e+00,-5.893558502197265625e+00,6.544207572937011719e+00,-2.131299972534179688e+00,2.066779851913452148e+00,-6.951976299285888672e+00,-7.626630783081054688e+00,3.254750251770019531e+00,2.867549419403076172e+00,-1.862806701660156250e+01,1.016626930236816406e+01,6.037386655807495117e-01
1.497195911407470703e+01,4.671267986297607422e+00,-3.863369941711425781e+00,3.272267341613769531e+00,2.771857023239135742e+00,3.533044815063476562e+00,-1.660450577735900879e+00,-3.366394639015197754e-01,-9.220179557800292969e+00,6.260454654693603516e-02,-8.407363891601562500e+00,4.914168357849121094e+00,-5.089887619018554688e+00,-1.108339786529541016e+00,-1.119279861450195312e+01,-1.161240863800048828e+01,1.115837812423706055e+00,4.966998398303985596e-01,-2.204831314086914062e+01,1.022355175018310547e+01,5.890652537345886230e-01
1.300750160217285156e+01,2.450113058090209961e+00,-5.739159584045410156e+00,9.948549866676330566e-01,2.112812519073486328e+00,1.488737821578979492e+00,-3.268318891525268555e+00,-3.846055507659912109e+00,-1.149742698669433594e+01,-3.169443368911743164e+00,-1.028407287597656250e+01,2.757102012634277344e+00,-8.026444435119628906e+00,-4.335238933563232422e+00,-1.502256774902343750e+01,-1.548666858673095703e+01,-1.311579108238220215e+00,-1.899031281471252441e+00,-2.565038108825683594e+01,9.911222457885742188e+00,5.401187539100646973e-01
1.073589706420898438e+01,4.663035273551940918e-01,-7.467337131500244141e+00,-1.196310758590698242e+00,1.528807759284973145e+00,-5.533567070960998535e-01,-4.537688732147216797e+00,-7.406643390655517578e+00,-1.347054576873779297e+01,-6.484333992004394531e+00,-1.144404888153076172e+01,3.926809132099151611e-01,-1.082304191589355469e+01,-7.390230178833007812e+00,-1.830548858642578125e+01,-1.905137252807617188e+01,-3.788738012313842773e+00,-4.163245677947998047e+00,-2.931507492065429688e+01,9.062888145446777344e+00,4.590902328491210938e-01
8.594404220581054688e+00,-9.122759699821472168e-01,-8.710900306701660156e+00,-3.026240348815917969e+00,1.251487016677856445e+00,-2.297876358032226562e+00,-5.389576911926269531e+00,-1.068991184234619141e+01,-1.498376560211181641e+01,-9.599218368530273438e+00,-1.190615367889404297e+01,-1.846463322639465332e+00,-1.335267925262451172e+01,-1.007240867614746094e+01,-2.096999549865722656e+01,-2.213539886474609375e+01,-6.020028591156005859e+00,-6.104001522064208984e+00,-3.290299987792968750e+01,7.617854118347167969e+00,3.521755039691925049e-01
6.945624351501464844e+00,-1.509594559669494629e+00,-9.241469383239746094e+00,-4.316190719604492188e+00,1.344470977783203125e+00,-3.577780723571777344e+00,-5.800288677215576172e+00,-1.343174648284912109e+01,-1.593200016021728516e+01,-1.225728511810302734e+01,-1.175421428680419922e+01,-3.693937301635742188e+00,-1.550261211395263672e+01,-1.226786041259765625e+01,-2.301058197021484375e+01,-2.462915420532226562e+01,-7.742528438568115234e+00,-7.557790756225585938e+00,-3.627273941040039062e+01,5.692733287811279297e+00,2.294087111949920654e-01
5.921802997589111328e+00,-1.398833513259887695e+00,-9.015872955322265625e+00,-5.038662910461425781e+00,1.669099330902099609e+00,-4.409663200378417969e+00,-5.805930137634277344e+00,-1.547367858886718750e+01,-1.629917907714843750e+01,-1.429284858703613281e+01,-1.110978317260742188e+01,-5.020144462585449219e+00,-1.720156478881835938e+01,-1.397244167327880859e+01,-2.448780441284179688e+01,-2.651341056823730469e+01,-8.816958427429199219e+00,-8.438120841979980469e+00,-3.928287887573242188e+01,3.554165124893188477e+00,1.032115817070007324e-01
5.401360511779785156e+00,-8.173379302024841309e-01,-8.134377479553222656e+00,-5.313652515411376953e+00,1.959470510482788086e+00,-4.925164699554443359e+00,-5.515949726104736328e+00,-1.678104209899902344e+01,-1.614216995239257812e+01,-1.565856933593750000e+01,-1.009860324859619141e+01,-5.839483737945556641e+00,-1.844305801391601562e+01,-1.527935600280761719e+01,-2.549525260925292969e+01,-2.783431243896484375e+01,-9.247583389282226562e+00,-8.753286361694335938e+00,-4.179402542114257812e+01,1.523343563079833984e+00,-1.382791437208652496e-02
5.113410472869873047e+00,-3.805482760071754456e-02,-6.761304855346679688e+00,-5.303652763366699219e+00,2.000252962112426758e+00,-5.262564182281494141e+00,-5.081542968750000000e+00,-1.742317008972167969e+01,-1.554133224487304688e+01,-1.640178680419921875e+01,-8.838032722473144531e+00,-6.291632652282714844e+00,-1.923486518859863281e+01,-1.632530212402343750e+01,-2.613385200500488281e+01,-2.868991661071777344e+01,-9.121096611022949219e+00,-8.573191642761230469e+00,-4.367081832885742188e+01,-1.542322635650634766e-01,-1.115698739886283875e-01
4.780668258666992188e+00,7.432061433792114258e-01,-5.066549301147460938e+00,-5.151158809661865234e+00,1.737613916397094727e+00,-5.488234043121337891e+00,-4.674216270446777344e+00,-1.757503509521484375e+01,-1.461164188385009766e+01,-1.666925048828125000e+01,-7.515638828277587891e+00,-6.619944572448730469e+00,-1.967936515808105469e+01,-1.725733375549316406e+01,-2.652839088439941406e+01,-2.922827529907226562e+01,-8.581038475036621094e+00,-8.028168678283691406e+00,-4.484658813476562500e+01,-1.400139212608337402e+00,-1.840754300355911255e-01
4.287954330444335938e+00,1.463153004646301270e+00,-3.175441265106201172e+00,-4.923667430877685547e+00,1.320001602172851562e+00,-5.561245441436767578e+00,-4.440652370452880859e+00,-1.747434234619140625e+01,-1.348290920257568359e+01,-1.662664413452148438e+01,-6.408055782318115234e+00,-7.102332592010498047e+00,-1.992170333862304688e+01,-1.818936538696289062e+01,-2.681282424926757812e+01,-2.960320472717285156e+01,-7.769531250000000000e+00,-7.260397911071777344e+00,-4.535770797729492188e+01,-2.303711652755737305e+00,-2.301205247640609741e-01
3.720586538314819336e+00,2.173210382461547852e+00,-1.165964961051940918e+00,-4.606179714202880859e+00,1.045943498611450195e+00,-5.376505374908447266e+00,-4.454192161560058594e+00,-1.733733367919921875e+01,-1.227752590179443359e+01,-1.642663955688476562e+01,-5.833830833435058594e+00,-7.959111213684082031e+00,-2.011479568481445312e+01,-1.912968063354492188e+01,-2.709358787536621094e+01,-2.992814254760742188e+01,-6.780373096466064453e+00,-6.396655082702636719e+00,-4.531932449340820312e+01,-3.040208339691162109e+00,-2.521532773971557617e-01
3.306792020797729492e+00,2.956449270248413086e+00,8.811105489730834961e-01,-4.166196346282958984e+00,1.207441926002502441e+00,-4.851047515869140625e+00,-4.695654869079589844e+00,-1.730101776123046875e+01,-1.110799503326416016e+01,-1.615680885314941406e+01,-6.057024002075195312e+00,-9.285318374633789062e+00,-2.036750030517578125e+01,-1.997886466979980469e+01,-2.742573356628417969e+01,-3.022616195678710938e+01,-5.691730499267578125e+00,-5.525803089141845703e+00,-4.488901519775390625e+01,-3.752155065536499023e+00,-2.547524571418762207e-01
3.287595272064208984e+00,3.828692674636840820e+00,2.868305683135986328e+00,-3.593718528747558594e+00,1.962733030319213867e+00,-4.009209156036376953e+00,-5.055591583251953125e+00,-1.738025093078613281e+01,-1.002747726440429688e+01,-1.583727264404296875e+01,-7.130028247833251953e+00,-1.099167537689208984e+01,-2.066815376281738281e+01,-2.052979850769042969e+01,-2.776705551147460938e+01,-3.041651153564453125e+01,-4.580348968505859375e+00,-4.682202339172363281e+00,-4.417991256713867188e+01,-4.449780941009521484e+00,-2.427991777658462524e-01
3.801639080047607422e+00,4.683135032653808594e+00,4.680037021636962891e+00,-2.956243038177490234e+00,3.277559518814086914e+00,-3.021348714828491211e+00,-5.359111785888671875e+00,-1.750570678710937500e+01,-9.018664360046386719e+00,-1.542660999298095703e+01,-8.809741020202636719e+00,-1.283338928222656250e+01,-2.088716316223144531e+01,-2.052979850769042969e+01,-2.797258186340332031e+01,-3.032037544250488281e+01,-3.555660486221313477e+00,-3.850450038909912109e+00,-4.321020507812500000e+01,-4.992606639862060547e+00,-2.206153124570846558e-01
4.770003795623779297e+00,5.320011138916015625e+00,6.195151329040527344e+00,-2.390014886856079102e+00,4.931695938110351562e+00,-2.143004655838012695e+00,-5.438095092773437500e+00,-1.755522727966308594e+01,-7.986361980438232422e+00,-1.487274742126464844e+01,-1.060681247711181641e+01,-1.449654865264892578e+01,-2.081459236145019531e+01,-1.977174758911132812e+01,-2.785330390930175781e+01,-2.974740791320800781e+01,-2.742731809616088867e+00,-2.989077091217041016e+00,-4.192736053466796875e+01,-5.191051483154296875e+00,-1.919334679841995239e-01
5.928201675415039062e+00,5.561312198638916016e+00,7.325917243957519531e+00,-2.060027599334716797e+00,6.585832118988037109e+00,-1.625290393829345703e+00,-5.180836200714111328e+00,-1.742977333068847656e+01,-6.806941032409667969e+00,-1.413544750213623047e+01,-1.195330715179443359e+01,-1.569459819793701172e+01,-2.024697875976562500e+01,-1.820386314392089844e+01,-2.723488807678222656e+01,-2.856686401367187500e+01,-2.256679773330688477e+00,-2.056613922119140625e+00,-4.025056838989257812e+01,-4.938733100891113281e+00,-1.604106277227401733e-01
6.905098438262939453e+00,5.345723628997802734e+00,8.026378631591796875e+00,-2.090026378631591797e+00,7.892502307891845703e+00,-1.598741054534912109e+00,-4.582821846008300781e+00,-1.710623359680175781e+01,-5.385207176208496094e+00,-1.321589374542236328e+01,-1.244999027252197266e+01,-1.627058410644531250e+01,-1.909879302978515625e+01,-1.596905899047851562e+01,-2.604760551452636719e+01,-2.678066635131835938e+01,-2.164301633834838867e+00,-1.041212558746337891e+00,-3.816973495483398438e+01,-4.314074993133544922e+00,-1.297642588615417480e-01
7.374349594116210938e+00,4.809719085693359375e+00,8.317425727844238281e+00,-2.498760700225830078e+00,8.611905097961425781e+00,-2.002513885498046875e+00,-3.737703561782836914e+00,-1.661432075500488281e+01,-3.707561016082763672e+00,-1.214958953857421875e+01,-1.199731731414794922e+01,-1.623314476013183594e+01,-1.743094253540039062e+01,-1.339458179473876953e+01,-2.434650421142578125e+01,-2.452725028991699219e+01,-2.431488037109375000e+00,3.580005094408988953e-02,-3.579192733764648438e+01,-3.586443424224853516e+00,-1.033793762326240540e-01
7.197313785552978516e+00,4.249980449676513672e+00,8.261722564697265625e+00,-3.163735151290893555e+00,8.675525665283203125e+00,-2.589920282363891602e+00,-2.802319288253784180e+00,-1.599365234375000000e+01,-1.848180413246154785e+00,-1.099215888977050781e+01,-1.082371902465820312e+01,-1.570323848724365234e+01,-1.543522453308105469e+01,-1.087602710723876953e+01,-2.229490852355957031e+01,-2.204503250122070312e+01,-2.920382261276245117e+00,1.131770014762878418e+00,-3.331512451171875000e+01,-3.106356620788574219e+00,-8.356803655624389648e-02
6.476372718811035156e+00,4.012635231018066406e+00,7.959535598754882812e+00,-3.863708257675170898e+00,8.199186325073242188e+00,-3.022454738616943359e+00,-1.949302673339843750e+00,-1.524918079376220703e+01,3.963505476713180542e-02,-9.802775382995605469e+00,-9.382917404174804688e+00,-1.486229896545410156e+01,-1.336175060272216797e+01,-8.763422966003417969e+00,-2.010935211181640625e+01,-1.959165382385253906e+01,-3.417803764343261719e+00,2.195749521255493164e+00,-3.096964073181152344e+01,-3.154092550277709961e+00,-7.102539390325546265e-02
5.508008480072021484e+00,4.321183681488037109e+00,7.491632938385009766e+00,-4.354939460754394531e+00,7.425951004028320312e+00,-3.029092311859130859e+00,-1.335491895675659180e+00,-1.435779571533203125e+01,1.771677851676940918e+00,-8.642977714538574219e+00,-8.134922027587890625e+00,-1.387592411041259766e+01,-1.142823696136474609e+01,-7.268030166625976562e+00,-1.798435401916503906e+01,-1.736900138854980469e+01,-3.721941471099853516e+00,3.177975416183471680e+00,-2.893123054504394531e+01,-3.779432773590087891e+00,-6.495052576065063477e-02
4.620696544647216797e+00,5.153869628906250000e+00,6.913716793060302734e+00,-4.473684787750244141e+00,6.615195751190185547e+00,-2.526865243911743164e+00,-1.075976252555847168e+00,-1.330464076995849609e+01,3.173631191253662109e+00,-7.574306964874267578e+00,-7.363699913024902344e+00,-1.287946891784667969e+01,-9.766866683959960938e+00,-6.431273460388183594e+00,-1.604102516174316406e+01,-1.548474597930908203e+01,-3.702044486999511719e+00,4.034609317779541016e+00,-2.727666473388671875e+01,-4.767565727233886719e+00,-6.346958875656127930e-02
4.017068386077880859e+00,6.281258583068847656e+00,6.264780044555664062e+00,-4.162446498870849609e+00,5.974095344543457031e+00,-1.614228129386901855e+00,-1.201220750808715820e+00,-1.210622310638427734e+01,4.135465145111083984e+00,-6.638184547424316406e+00,-7.111166954040527344e+00,-1.194493198394775391e+01,-8.404853820800781250e+00,-6.116454124450683594e+00,-1.429771900177001953e+01,-1.392735099792480469e+01,-3.321161746978759766e+00,4.749063491821289062e+00,-2.596553611755371094e+01,-5.751607418060302734e+00,-6.428561359643936157e-02
3.701389789581298828e+00,7.392825126647949219e+00,5.585206508636474609e+00,-3.474973201751708984e+00,5.613578319549560547e+00,-5.068951845169067383e-01,-1.658193945884704590e+00,-1.082857131958007812e+01,4.636162757873535156e+00,-5.840528011322021484e+00,-7.203378200531005859e+00,-1.109535312652587891e+01,-7.276106357574462891e+00,-6.075030326843261719e+00,-1.266818618774414062e+01,-1.258914470672607422e+01,-2.630456686019897461e+00,5.334370613098144531e+00,-2.485643005371093750e+01,-6.391268253326416016e+00,-6.546431779861450195e-02
3.503024339675903320e+00,8.229466438293457031e+00,4.936269760131835938e+00,-2.546258926391601562e+00,5.541801452636718750e+00,5.794194340705871582e-01,-2.327292919158935547e+00,-9.569077491760253906e+00,4.723939418792724609e+00,-5.151750564575195312e+00,-7.383609294891357422e+00,-1.031201267242431641e+01,-6.286022663116455078e+00,-6.008752822875976562e+00,-1.102213859558105469e+01,-1.130862045288085938e+01,-1.718043446540832520e+00,5.818966865539550781e+00,-2.378368949890136719e+01,-6.523564815521240234e+00,-6.582699716091156006e-02
3.193744897842407227e+00,8.672511100769042969e+00,4.365316867828369141e+00,-1.535047769546508789e+00,5.696774482727050781e+00,1.500906348228454590e+00,-3.076503038406372070e+00,-8.448243141174316406e+00,4.464318275451660156e+00,-4.530430316925048828e+00,-7.486299037933349609e+00,-9.566111564636230469e+00,-5.374989986419677734e+00,-5.671150207519531250e+00,-9.262316703796386719e+00,-9.945419311523437500e+00,-7.075672745704650879e-01,6.215885639190673828e+00,-2.261599731445312500e+01,-6.213963508605957031e+00,-6.510163843631744385e-02
2.585850954055786133e+00,8.716024398803710938e+00,3.887665748596191406e+00,-5.913339853286743164e-01,5.988777160644531250e+00,2.208891391754150391e+00,-3.826841592788696289e+00,-7.576666831970214844e+00,3.879553079605102539e+00,-3.964733123779296875e+00,-7.550218105316162109e+00,-8.834609031677246094e+00,-4.567631244659423828e+00,-4.946237087249755859e+00,-7.385050296783447266e+00,-8.447628021240234375e+00,2.688000500202178955e-01,6.490767002105712891e+00,-2.132507133483886719e+01,-5.677957534790039062e+00,-6.359048187732696533e-02
1.638815999031066895e+00,8.421320915222167969e+00,3.447614192962646484e+00,1.698867231607437134e-01,6.323193073272705078e+00,2.718862056732177734e+00,-4.590720176696777344e+00,-7.028630256652832031e+00,2.939972400665283203e+00,-3.483062028884887695e+00,-7.780746459960937500e+00,-8.130466461181640625e+00,-3.958548545837402344e+00,-3.873365640640258789e+00,-5.494939327239990234e+00,-6.859469890594482422e+00,1.061832070350646973e+00,6.559487342834472656e+00,-1.996343803405761719e+01,-5.149453163146972656e+00,-6.191308796405792236e-02
4.486233890056610107e-01,7.835869312286376953e+00,2.911475181579589844e+00,6.673675775527954102e-01,6.595620155334472656e+00,3.044092655181884766e+00,-5.465174674987792969e+00,-6.837147712707519531e+00,1.580052852630615234e+00,-3.157608747482299805e+00,-8.434608459472656250e+00,-7.504082679748535156e+00,-3.664374589920043945e+00,-2.636870861053466797e+00,-3.764478206634521484e+00,-5.303997516632080078e+00,1.510932564735412598e+00,6.324890136718750000e+00,-1.864018821716308594e+01,-4.745743751525878906e+00,-6.056815385818481445e-02
