Fp1,Fp2,F7,F3,Fz,F4,F8,T3,C3,Cz,C4,T4,T5,P3,Pz,P4,T6,O1,Oz,O2,A1
1.982720565795898438e+01,6.728150367736816406e+00,1.901159477233886719e+01,1.675433349609375000e+01,1.397976875305175781e+01,1.455544185638427734e+01,3.394589614868164062e+01,1.484954547882080078e+01,3.132705307006835938e+01,3.255973815917968750e+01,2.721772766113281250e+01,2.095302200317382812e+01,3.953141021728515625e+01,2.461191940307617188e+01,2.968563652038574219e+01,2.360117912292480469e+01,2.084171867370605469e+01,3.374642181396484375e+01,3.209183120727539062e+01,-7.433443069458007812e+00,3.257387550547719002e-03
2.114097404479980469e+01,8.227260589599609375e+00,2.017677688598632812e+01,1.829194068908691406e+01,1.500281143188476562e+01,1.642452430725097656e+01,3.446638870239257812e+01,1.612645912170410156e+01,3.143681716918945312e+01,3.360417938232421875e+01,2.808390426635742188e+01,2.211754035949707031e+01,3.977869796752929688e+01,2.529187393188476562e+01,3.027357864379882812e+01,2.536507225036621094e+01,2.224558448791503906e+01,3.391720199584960938e+01,3.253984069824218750e+01,-8.365683555603027344e+00,1.001703669317066669e-03
2.176063537597656250e+01,9.384723663330078125e+00,2.090703010559082031e+01,1.939495086669921875e+01,1.535655784606933594e+01,1.811205673217773438e+01,3.445026016235351562e+01,1.712238121032714844e+01,3.131558418273925781e+01,3.425387191772460938e+01,2.812317276000976562e+01,2.302770042419433594e+01,3.930767440795898438e+01,2.564399337768554688e+01,2.991872596740722656e+01,2.677401161193847656e+01,2.329279708862304688e+01,3.387831115722656250e+01,3.253325271606445312e+01,-9.325100898742675781e+00,-8.930708863772451878e-04
2.189639091491699219e+01,1.027835369110107422e+01,2.137954711914062500e+01,2.018334197998046875e+01,1.519214057922363281e+01,1.951982116699218750e+01,3.404119873046875000e+01,1.784442520141601562e+01,3.121728706359863281e+01,3.460092163085937500e+01,2.745895576477050781e+01,2.378524589538574219e+01,3.824591445922851562e+01,2.585445594787597656e+01,2.876023483276367188e+01,2.795114707946777344e+01,2.405636596679687500e+01,3.376332855224609375e+01,3.218846130371093750e+01,-1.008669376373291016e+01,-1.885571866296231747e-03
2.183398628234863281e+01,1.098960971832275391e+01,2.181044960021972656e+01,2.081625747680664062e+01,1.471383476257324219e+01,2.062500190734863281e+01,3.341807174682617188e+01,1.837439918518066406e+01,3.134998893737792969e+01,3.477691650390625000e+01,2.632013702392578125e+01,2.447311973571777344e+01,3.678966903686523438e+01,2.609122467041015625e+01,2.699640464782714844e+01,2.896710395812988281e+01,2.465118217468261719e+01,3.367371368408203125e+01,3.162625122070312500e+01,-1.049119091033935547e+01,-1.407366828061640263e-03
2.184821891784667969e+01,1.157320499420166016e+01,2.234605789184570312e+01,2.141612052917480469e+01,1.413920307159423828e+01,2.144247817993164062e+01,3.273923110961914062e+01,1.877632331848144531e+01,3.174481201171875000e+01,3.486408996582031250e+01,2.495916366577148438e+01,2.509463882446289062e+01,3.512538909912109375e+01,2.640287017822265625e+01,2.481684112548828125e+01,2.978566551208496094e+01,2.517658424377441406e+01,3.362636566162109375e+01,3.093227577209472656e+01,-1.046464633941650391e+01,6.949306698516011238e-04
2.212411117553710938e+01,1.206196594238281250e+01,2.305080604553222656e+01,2.204291534423828125e+01,1.367252349853515625e+01,2.203474998474121094e+01,3.210144424438476562e+01,1.907509994506835938e+01,3.225431442260742188e+01,3.486408996582031250e+01,2.358472633361816406e+01,2.560446166992187500e+01,3.342185592651367188e+01,2.673880004882812500e+01,2.242506217956542969e+01,3.031628227233886719e+01,2.567804908752441406e+01,3.354520416259765625e+01,3.015264892578125000e+01,-1.005319595336914062e+01,3.934092819690704346e-03
2.270326423645019531e+01,1.245589256286621094e+01,2.385757446289062500e+01,2.265379524230957031e+01,1.346326446533203125e+01,2.245340919494628906e+01,3.152376937866210938e+01,1.921737480163574219e+01,3.261801147460937500e+01,3.468316268920898438e+01,2.231126976013183594e+01,2.592074966430664062e+01,3.178898048400878906e+01,2.698366546630859375e+01,2.002458381652832031e+01,3.046659278869628906e+01,2.612087059020996094e+01,3.327804183959960938e+01,2.928957176208496094e+01,-9.374399185180664062e+00,7.155209779739379883e-03
2.350247192382812500e+01,1.276714324951171875e+01,2.462273025512695312e+01,2.314837455749511719e+01,1.359280586242675781e+01,2.273615264892578125e+01,3.095782470703125000e+01,1.906443023681640625e+01,3.258688354492187500e+01,3.416669845581054688e+01,2.115786552429199219e+01,2.596388053894042969e+01,3.028367042541503906e+01,2.698973655700683594e+01,1.781370925903320312e+01,3.021305656433105469e+01,2.639613914489746094e+01,3.265579223632812500e+01,2.832546997070312500e+01,-8.590052604675292969e+00,8.878552354872226715e-03
2.437612915039062500e+01,1.304678249359130859e+01,2.519726753234863281e+01,2.344708251953125000e+01,1.404952144622802734e+01,2.293754577636718750e+01,3.033763122558593750e+01,1.847043418884277344e+01,3.206427383422851562e+01,3.318804550170898438e+01,2.010992622375488281e+01,2.567855644226074219e+01,2.891966819763183594e+01,2.665583038330078125e+01,1.597856235504150391e+01,2.964078712463378906e+01,2.637938308715820312e+01,3.156177902221679688e+01,2.723838806152343750e+01,-7.903671264648437500e+00,8.066506125032901764e-03
2.511074447631835938e+01,1.331912708282470703e+01,2.542412757873535156e+01,2.348258399963378906e+01,1.468394088745117188e+01,2.307842063903808594e+01,2.957375335693359375e+01,1.732512283325195312e+01,3.110097122192382812e+01,3.167154884338378906e+01,1.910686874389648438e+01,2.502607345581054688e+01,2.766557121276855469e+01,2.590707015991210938e+01,1.460959434509277344e+01,2.886569023132324219e+01,2.596648216247558594e+01,2.995880699157714844e+01,2.602392768859863281e+01,-7.495381355285644531e+00,4.692002665251493454e-03
2.551034736633300781e+01,1.357201862335205078e+01,2.518250083923339844e+01,2.322794914245605469e+01,1.526687526702880859e+01,2.314687538146972656e+01,2.858848190307617188e+01,1.565161800384521484e+01,2.981656646728515625e+01,2.962378311157226562e+01,1.809371185302734375e+01,2.398652076721191406e+01,2.644483757019042969e+01,2.469286537170410156e+01,1.367549610137939453e+01,2.796563339233398438e+01,2.511195564270019531e+01,2.789760017395019531e+01,2.469087791442871094e+01,-7.497277736663818359e+00,-1.786549182725138962e-05
2.548078918457031250e+01,1.378235530853271484e+01,2.444687843322753906e+01,2.271867752075195312e+01,1.558076381683349609e+01,2.312108039855957031e+01,2.734516143798828125e+01,1.366510963439941406e+01,2.832410049438476562e+01,2.714508247375488281e+01,1.706035995483398438e+01,2.259971618652343750e+01,2.516522598266601562e+01,2.299905014038085938e+01,1.303710746765136719e+01,2.694967651367187500e+01,2.387325286865234375e+01,2.550835990905761719e+01,2.328096389770507812e+01,-7.945384979248046875e+00,-3.996891900897026062e-03
2.506585693359375000e+01,1.390636920928955078e+01,2.328974914550781250e+01,2.201231002807617188e+01,1.550768947601318359e+01,2.295639610290527344e+01,2.587165260314941406e+01,1.174440193176269531e+01,2.667272186279296875e+01,2.441308593750000000e+01,1.603710556030273438e+01,2.098730468750000000e+01,2.375215911865234375e+01,2.087824058532714844e+01,1.249787044525146484e+01,2.577254104614257812e+01,2.237723350524902344e+01,2.296862983703613281e+01,2.185787391662597656e+01,-8.722146987915039062e+00,-5.305188708007335663e-03
2.441882514953613281e+01,1.391123294830322266e+01,2.185743331909179688e+01,2.115413856506347656e+01,1.505429553985595703e+01,2.260420608520507812e+01,2.424566268920898438e+01,1.033232688903808594e+01,2.482638931274414062e+01,2.162845420837402344e+01,1.506209754943847656e+01,1.934061241149902344e+01,2.214675712585449219e+01,1.845185470581054688e+01,1.188035583496093750e+01,2.438171195983886719e+01,2.077828788757324219e+01,2.041199111938476562e+01,2.047870445251464844e+01,-9.590552330017089844e+00,-3.139732172712683678e-03
2.363932418823242188e+01,1.368630599975585938e+01,2.023852729797363281e+01,2.009030151367187500e+01,1.423885059356689453e+01,2.197125816345214844e+01,2.248478317260742188e+01,9.681420326232910156e+00,2.264584922790527344e+01,1.889809989929199219e+01,1.408596706390380859e+01,1.783879089355468750e+01,2.027051734924316406e+01,1.582512569427490234e+01,1.099496269226074219e+01,2.269569206237792969e+01,1.917216110229492188e+01,1.790438652038574219e+01,1.913467407226562500e+01,-1.025228500366210938e+01,1.696454361081123352e-03
2.264414405822753906e+01,1.299085521697998047e+01,1.837530899047851562e+01,1.861880302429199219e+01,1.300322723388671875e+01,2.088691139221191406e+01,2.050837516784667969e+01,9.709875106811523438e+00,1.992467880249023438e+01,1.620064163208007812e+01,1.292358589172363281e+01,1.657031822204589844e+01,1.801942253112792969e+01,1.301828956604003906e+01,9.707750320434570312e+00,2.063842201232910156e+01,1.752055740356445312e+01,1.539340209960937500e+01,1.774672126770019531e+01,-1.043557262420654297e+01,7.227391470223665237e-03
2.127235031127929688e+01,1.162062263488769531e+01,1.617112541198730469e+01,1.655233955383300781e+01,1.128099536895751953e+01,1.925195884704589844e+01,1.824019813537597656e+01,1.008512496948242188e+01,1.655475425720214844e+01,1.345055103302001953e+01,1.139655876159667969e+01,1.554514312744140625e+01,1.536207199096679688e+01,1.005563068389892578e+01,7.997845172882080078e+00,1.820265769958496094e+01,1.572054672241210938e+01,1.276912689208984375e+01,1.620284271240234375e+01,-1.003486728668212891e+01,1.122446358203887939e-02
1.940242195129394531e+01,9.537917137145996094e+00,1.359644699096679688e+01,1.385663318634033203e+01,9.062188148498535156e+00,1.711600685119628906e+01,1.567731857299804688e+01,1.036433887481689453e+01,1.262126350402832031e+01,1.060177230834960938e+01,9.463371276855468750e+00,1.471018409729003906e+01,1.239070510864257812e+01,7.014048099517822266e+00,5.993968486785888672e+00,1.552241230010986328e+01,1.367638587951660156e+01,9.947016716003417969e+00,1.442837142944335938e+01,-9.166461944580078125e+00,1.228914596140384674e-02
1.705077552795410156e+01,6.872833728790283203e+00,1.071436405181884766e+01,1.067613887786865234e+01,6.464722633361816406e+00,1.465365791320800781e+01,1.292676830291748047e+01,1.015270519256591797e+01,8.378139495849609375e+00,7.667464256286621094e+00,7.276614665985107422e+00,1.399908733367919922e+01,9.317283630371093750e+00,4.043294429779052734e+00,3.948344230651855469e+00,1.284397697448730469e+01,1.136772918701171875e+01,6.896634101867675781e+00,1.243867969512939453e+01,-8.084430694580078125e+00,1.043948531150817871e-02
1.447360134124755859e+01,3.956074237823486328e+00,7.749053955078125000e+00,7.348740577697753906e+00,3.772592544555664062e+00,1.215361022949218750e+01,1.023486614227294922e+01,9.295500755310058594e+00,4.215290069580078125e+00,4.772631645202636719e+00,5.200934886932373047e+00,1.338199138641357422e+01,6.440121173858642578e+00,1.384186625480651855e+00,2.174078226089477539e+00,1.049151802062988281e+01,8.879549980163574219e+00,3.687307834625244141e+00,1.035455417633056641e+01,-7.081403732299804688e+00,6.902573164552450180e-03
1.209568119049072266e+01,1.219256520271301270e+00,5.011947631835937500e+00,4.301685810089111328e+00,1.372760415077209473e+00,9.939282417297363281e+00,7.894845962524414062e+00,7.920772552490234375e+00,5.390081405639648438e-01,2.094911336898803711e+00,3.663809537887573242e+00,1.288433456420898438e+01,4.033981800079345703e+00,-6.880557537078857422e-01,9.303527474403381348e-01,8.774712562561035156e+00,6.375813007354736328e+00,4.492362141609191895e-01,8.338508605957031250e+00,-6.370372772216796875e+00,3.437842475250363350e-03
1.034399032592773438e+01,-9.789513945579528809e-01,2.760782003402709961e+00,1.867959618568420410e+00,-4.092603921890258789e-01,8.229924201965332031e+00,6.104642868041992188e+00,6.313069343566894531e+00,-2.383668899536132812e+00,-2.291787415742874146e-01,2.947980403900146484e+00,1.253929138183593750e+01,2.224470376968383789e+00,-2.013562440872192383e+00,3.093596994876861572e-01,7.847492218017578125e+00,4.024070739746093750e+00,-2.673854351043701172e+00,6.524506092071533203e+00,-5.999372959136962891e+00,1.317499438300728798e-03
9.423257827758789062e+00,-2.518183231353759766e+00,1.070729613304138184e+00,1.344804614782333374e-01,-1.468840241432189941e+00,7.044385433197021484e+00,4.871587276458740234e+00,4.753384113311767578e+00,-4.516698837280273438e+00,-2.178256511688232422e+00,3.036617517471313477e+00,1.232474613189697266e+01,9.370089173316955566e-01,-2.636853933334350586e+00,1.806384623050689697e-01,7.633796691894531250e+00,1.893739581108093262e+00,-5.599109649658203125e+00,4.919136524200439453e+00,-5.858430862426757812e+00,8.663626504130661488e-04
9.225097656250000000e+00,-3.529747962951660156e+00,-1.991588324308395386e-01,-1.060346961021423340e+00,-1.978700876235961914e+00,6.231870174407958984e+00,3.997745037078857422e+00,3.389326572418212891e+00,-6.045206546783447266e+00,-3.841140508651733398e+00,3.598734140396118164e+00,1.212900066375732422e+01,-6.195118650794029236e-02,-2.833150386810302734e+00,2.449990808963775635e-01,7.822138309478759766e+00,-3.792029991745948792e-02,-8.292712211608886719e+00,3.423573255538940430e+00,-5.773739337921142578e+00,1.606227015145123005e-03
9.395887374877929688e+00,-4.281126499176025391e+00,-1.294538259506225586e+00,-1.998090624809265137e+00,-2.299232006072998047e+00,5.557254314422607422e+00,3.176685571670532227e+00,2.222674846649169922e+00,-7.260804653167724609e+00,-5.339545249938964844e+00,4.148509025573730469e+00,1.178395843505859375e+01,-1.041285395622253418e+00,-2.993020772933959961e+00,1.771595031023025513e-01,8.010479927062988281e+00,-1.835536837577819824e+00,-1.073098850250244141e+01,1.899460315704345703e+00,-5.613836288452148438e+00,2.788205398246645927e-03
9.529454231262207031e+00,-5.009404659271240234e+00,-2.412738084793090820e+00,-2.906453371047973633e+00,-2.789163112640380859e+00,4.834025859832763672e+00,2.166488885879516602e+00,1.187627315521240234e+00,-8.396126747131347656e+00,-6.727749347686767578e+00,4.285391330718994141e+00,1.114474487304687500e+01,-2.150150775909423828e+00,-3.450371026992797852e+00,-2.211805582046508789e-01,7.883711814880371094e+00,-3.520652770996093750e+00,-1.285306644439697266e+01,2.765216231346130371e-01,-5.351544857025146484e+00,3.825820051133632660e-03
9.398077011108398438e+00,-5.770509719848632812e+00,-3.560470104217529297e+00,-3.825833797454833984e+00,-3.597964763641357422e+00,4.015558242797851562e+00,9.378318190574645996e-01,2.557286620140075684e-01,-9.506875038146972656e+00,-7.916933536529541016e+00,3.905037164688110352e+00,1.015827655792236328e+01,-3.335557222366333008e+00,-4.312456130981445312e+00,-9.117526412010192871e-01,7.344040393829345703e+00,-5.004703521728515625e+00,-1.453382015228271484e+01,-1.363986134529113770e+00,-5.042483329772949219e+00,4.682980012148618698e-03
9.069635391235351562e+00,-6.400306224822998047e+00,-4.540405273437500000e+00,-4.588515758514404297e+00,-4.569523334503173828e+00,3.199074268341064453e+00,-3.098855912685394287e-01,-5.285600423812866211e-01,-1.047345542907714844e+01,-8.726170539855957031e+00,3.211647987365722656e+00,8.893120765686035156e+00,-4.383582115173339844e+00,-5.451785087585449219e+00,-1.673643231391906738e+00,6.512802124023437500e+00,-6.093805789947509766e+00,-1.561430454254150391e+01,-2.813430786132812500e+00,-4.758071422576904297e+00,5.612321663647890091e-03
8.855052947998046875e+00,-6.621585845947265625e+00,-5.051850795745849609e+00,-4.921500205993652344e+00,-5.343448162078857422e+00,2.566125631332397461e+00,-1.261435031890869141e+00,-1.099436879158020020e+00,-1.110255241394042969e+01,-8.979468345642089844e+00,2.590065956115722656e+00,7.490831851959228516e+00,-5.060677051544189453e+00,-6.603255271911621094e+00,-2.218099355697631836e+00,5.629045486450195312e+00,-6.582106113433837891e+00,-1.600152015686035156e+01,-3.836826562881469727e+00,-4.553294181823730469e+00,6.848436780273914337e-03
9.110142707824707031e+00,-6.221580028533935547e+00,-4.881369113922119141e+00,-4.644829273223876953e+00,-5.579279422760009766e+00,2.264532566070556641e+00,-1.669032573699951172e+00,-1.464015483856201172e+00,-1.129095363616943359e+01,-8.652154922485351562e+00,2.345472335815429688e+00,6.070848941802978516e+00,-5.274599552154541016e+00,-7.538192749023437500e+00,-2.374652147293090820e+00,4.888355731964111328e+00,-6.382237911224365234e+00,-1.575972175598144531e+01,-4.344131946563720703e+00,-4.427520751953125000e+00,8.301096968352794647e-03
1.000569534301757812e+01,-5.189346313476562500e+00,-4.045068264007568359e+00,-3.790331840515136719e+00,-5.147475719451904297e+00,2.329017877578735352e+00,-1.503354430198669434e+00,-1.769905924797058105e+00,-1.113367938995361328e+01,-7.925157546997070312e+00,2.523868560791015625e+00,4.666348934173583984e+00,-5.156844139099121094e+00,-8.224218368530273438e+00,-2.185049295425415039e+00,4.297977447509765625e+00,-5.599521160125732422e+00,-1.514085292816162109e+01,-4.442957878112792969e+00,-4.363054275512695312e+00,9.519166313111782074e-03
1.141909027099609375e+01,-3.725495576858520508e+00,-2.791288375854492188e+00,-2.594280242919921875e+00,-4.214115619659423828e+00,2.680215120315551758e+00,-9.799289107322692871e-01,-2.269645452499389648e+00,-1.089612960815429688e+01,-7.132368087768554688e+00,2.899734973907470703e+00,3.227565526962280273e+00,-4.993948936462402344e+00,-8.829297065734863281e+00,-1.866725206375122070e+00,3.714842796325683594e+00,-4.504435062408447266e+00,-1.450676631927490234e+01,-4.414408206939697266e+00,-4.380751132965087891e+00,9.988348931074142456e-03
1.298247432708740234e+01,-2.155868053436279297e+00,-1.501264214515686035e+00,-1.390883207321166992e+00,-3.161178827285766602e+00,3.168319702148437500e+00,-4.345107078552246094e-01,-3.231777429580688477e+00,-1.088793849945068359e+01,-6.632351398468017578e+00,3.136474609375000000e+00,1.661603093147277832e+00,-5.068527221679687500e+00,-9.608411788940429688e+00,-1.678861737251281738e+00,2.952421665191650391e+00,-3.450040578842163086e+00,-1.422269535064697266e+01,-4.581314086914062500e+00,-4.564038753509521484e+00,9.537211619317531586e-03
1.422945976257324219e+01,-8.111678361892700195e-01,-5.441496372222900391e-01,-4.959868788719177246e-01,-2.403861522674560547e+00,3.617733001708984375e+00,-1.735310405492782593e-01,-4.860821247100830078e+00,-1.130569744110107422e+01,-6.698143005371093750e+00,2.978274106979370117e+00,-1.133755370974540710e-01,-5.506185531616210938e+00,-1.077000045776367188e+01,-1.776272416114807129e+00,1.925597667694091797e+00,-2.736738681793212891e+00,-1.451014804840087891e+01,-5.143522739410400391e+00,-5.015306472778320312e+00,8.319142274558544159e-03
1.483050823211669922e+01,1.031310632824897766e-01,-1.199586018919944763e-01,-6.751392781734466553e-02,-2.181316375732421875e+00,3.869721889495849609e+00,-3.274797201156616211e-01,-7.215466022491455078e+00,-1.212319564819335938e+01,-7.420206546783447266e+00,2.416157484054565430e+00,-2.101794004440307617e+00,-6.198981285095214844e+00,-1.235251426696777344e+01,-2.125907182693481445e+00,7.303529977798461914e-01,-2.502162933349609375e+00,-1.538096046447753906e+01,-6.085661888122558594e+00,-5.768050670623779297e+00,6.758209317922592163e-03
1.469694232940673828e+01,5.262374877929687500e-01,-2.501691579818725586e-01,-1.103612259030342102e-01,-2.500186920166015625e+00,3.801268339157104492e+00,-8.083860874176025391e-01,-1.018900489807128906e+01,-1.310779666900634766e+01,-8.729460716247558594e+00,1.676766753196716309e+00,-4.224027156829833984e+00,-6.854487419128417969e+00,-1.421834182739257812e+01,-2.531205177307128906e+00,-3.707209527492523193e-01,-2.725967407226562500e+00,-1.666266250610351562e+01,-7.190314292907714844e+00,-6.751485347747802734e+00,5.314571317285299301e-03
1.398203277587890625e+01,4.873311221599578857e-01,-8.260487914085388184e-01,-5.400583744049072266e-01,-3.174464941024780273e+00,3.323084592819213867e+00,-1.377263069152832031e+00,-1.350044631958007812e+01,-1.395150661468505859e+01,-1.043346405029296875e+01,1.089966416358947754e+00,-6.319718360900878906e+00,-7.144951343536376953e+00,-1.610643005371093750e+01,-2.741681814193725586e+00,-1.082434892654418945e+00,-3.277699232101440430e+00,-1.807287216186523438e+01,-8.154414176940917969e+00,-7.767153263092041016e+00,4.313047975301742554e-03
1.302079296112060547e+01,1.031310632824897766e-01,-1.667719006538391113e+00,-1.210924625396728516e+00,-3.935103893280029297e+00,2.426242113113403320e+00,-1.754070878028869629e+00,-1.670696067810058594e+01,-1.438237285614013672e+01,-1.227069568634033203e+01,9.250339865684509277e-01,-8.164368629455566406e+00,-6.823086261749267578e+00,-1.773143959045410156e+01,-2.567734003067016602e+00,-1.185660600662231445e+00,-3.974245786666870117e+00,-1.931230163574218750e+01,-8.714426994323730469e+00,-8.562875747680664062e+00,3.879956435412168503e-03
1.217122268676757812e+01,-5.023487806320190430e-01,-2.599328517913818359e+00,-1.984624385833740234e+00,-4.554575920104980469e+00,1.194075703620910645e+00,-1.746739983558654785e+00,-1.930347061157226562e+01,-1.427752304077148438e+01,-1.396483135223388672e+01,1.257142782211303711e+00,-9.509150505065917969e+00,-5.845714569091796875e+00,-1.886874580383300781e+01,-1.958917379379272461e+00,-6.224467754364013672e-01,-4.656430721282958984e+00,-2.014760589599609375e+01,-8.740780830383300781e+00,-8.925026893615722656e+00,3.961161244660615921e-03
1.165994834899902344e+01,-1.246432423591613770e+00,-3.505432844161987305e+00,-2.777911424636840820e+00,-4.946520805358886719e+00,-2.236100286245346069e-01,-1.334743976593017578e+00,-2.085070800781250000e+01,-1.370740413665771484e+01,-1.529711246490478516e+01,1.935946226119995117e+00,-1.018154144287109375e+01,-4.373769283294677734e+00,-1.942525482177734375e+01,-1.026558041572570801e+00,4.840601384639739990e-01,-5.236886024475097656e+00,-2.047733116149902344e+01,-8.303750991821289062e+00,-8.746795654296875000e+00,4.439366050064563751e-03
1.144098663330078125e+01,-2.155868053436279297e+00,-4.384689331054687500e+00,-3.603027820587158203e+00,-5.215568065643310547e+00,-1.694868206977844238e+00,-7.042874693870544434e-01,-2.119750213623046875e+01,-1.292758655548095703e+01,-1.617872047424316406e+01,2.627091646194458008e+00,-1.016495227813720703e+01,-2.748741865158081055e+00,-1.949203681945800781e+01,-5.485502537339925766e-03,1.845914721488952637e+00,-5.714415073394775391e+00,-2.034205818176269531e+01,-7.607578754425048828e+00,-8.067366600036621094e+00,5.152162164449691772e-03
1.123297309875488281e+01,-3.314547300338745117e+00,-5.320326328277587891e+00,-4.532202243804931641e+00,-5.585922718048095703e+00,-3.145292758941650391e+00,-1.808619201183319092e-01,-2.054837417602539062e+01,-1.229357624053955078e+01,-1.667380332946777344e+01,2.939004659652709961e+00,-9.630800247192382812e+00,-1.380814075469970703e+00,-1.931597709655761719e+01,8.190262913703918457e-01,3.100921630859375000e+00,-6.152449607849121094e+00,-1.989735221862792969e+01,-6.924582481384277344e+00,-7.051066398620605469e+00,5.928117316216230392e-03
1.066367340087890625e+01,-4.797851562500000000e+00,-6.404966354370117188e+00,-5.640110969543457031e+00,-6.281791210174560547e+00,-4.544128894805908203e+00,-8.995889127254486084e-02,-1.939772796630859375e+01,-1.211828041076660156e+01,-1.697644424438476562e+01,2.594553947448730469e+00,-8.888737678527832031e+00,-6.173651814460754395e-01,-1.920467567443847656e+01,1.217366337776184082e+00,3.914050340652465820e+00,-6.643143653869628906e+00,-1.936810111999511719e+01,-6.496337890625000000e+00,-5.950074672698974609e+00,6.541663315147161484e-03
9.428731918334960938e+00,-6.611859321594238281e+00,-7.703044891357421875e+00,-6.963479995727539062e+00,-7.437696456909179688e+00,-5.906258106231689453e+00,-6.441741585731506348e-01,-1.835734558105468750e+01,-1.257699680328369141e+01,-1.732349586486816406e+01,1.516322255134582520e+00,-8.286018371582031250e+00,-6.644673943519592285e-01,-1.941513633728027344e+01,1.059074044227600098e+00,4.057117462158203125e+00,-7.259503841400146484e+00,-1.897412109375000000e+01,-6.465591907501220703e+00,-5.008354187011718750e+00,6.821368355304002762e-03
7.492018699645996094e+00,-8.627694129943847656e+00,-9.158181190490722656e+00,-8.439875602722167969e+00,-9.000494003295898438e+00,-7.241600990295410156e+00,-1.850838541984558105e+00,-1.791273689270019531e+01,-1.363532066345214844e+01,-1.789917182922363281e+01,-1.341237872838973999e-01,-8.055990219116210938e+00,-1.531933784484863281e+00,-2.007080650329589844e+01,3.476281762123107910e-01,3.464928150177001953e+00,-8.026662826538085938e+00,-1.887435913085937500e+01,-6.856502532958984375e+00,-4.366214275360107422e+00,6.695050280541181564e-03
5.157890796661376953e+00,-1.055720520019531250e+01,-1.056499195098876953e+01,-9.878320693969726562e+00,-1.072936916351318359e+01,-8.468807220458984375e+00,-3.485626935958862305e+00,-1.819195175170898438e+01,-1.502948951721191406e+01,-1.872814750671386719e+01,-1.995503783226013184e+00,-8.218558311462402344e+00,-3.025467395782470703e+00,-2.106443214416503906e+01,-7.847709059715270996e-01,2.278738260269165039e+00,-8.900337219238281250e+00,-1.911615753173828125e+01,-7.583421230316162109e+00,-4.054625034332275391e+00,6.189777050167322159e-03
2.954044818878173828e+00,-1.207333660125732422e+01,-1.164292049407958984e+01,-1.103764533996582031e+01,-1.226227283477783203e+01,-9.433111190795898438e+00,-5.180528640747070312e+00,-1.895667648315429688e+01,-1.635812759399414062e+01,-1.966732215881347656e+01,-3.635851860046386719e+00,-8.579083442687988281e+00,-4.833016395568847656e+00,-2.211471748352050781e+01,-2.138083457946777344e+00,7.774384021759033203e-01,-9.796751976013183594e+00,-1.964709854125976562e+01,-8.512383460998535156e+00,-3.970565319061279297e+00,5.458935163915157318e-03
1.382997035980224609e+00,-1.297426128387451172e+01,-1.217450141906738281e+01,-1.175380802154541016e+01,-1.326372528076171875e+01,-1.001149463653564453e+01,-6.590991973876953125e+00,-1.978542709350585938e+01,-1.726900672912597656e+01,-2.051439094543457031e+01,-4.733157157897949219e+00,-8.866619110107421875e+00,-6.648415088653564453e+00,-2.292216491699218750e+01,-3.541840791702270508e+00,-7.564590573310852051e-01,-1.064649105072021484e+01,-2.036404037475585938e+01,-9.533582687377929688e+00,-3.897881984710693359e+00,4.619820974767208099e-03
6.221064329147338867e-01,-1.335846138000488281e+01,-1.218926811218261719e+01,-1.208556842803955078e+01,-1.362743663787841797e+01,-1.023173713684082031e+01,-7.585060596466064453e+00,-2.035630416870117188e+01,-1.764744758605957031e+01,-2.116408348083496094e+01,-5.229076385498046875e+00,-8.906432151794433594e+00,-8.318582534790039062e+00,-2.336130142211914062e+01,-4.952556133270263672e+00,-2.179886817932128906e+00,-1.146750640869140625e+01,-2.119427108764648438e+01,-1.060968589782714844e+01,-3.609045505523681641e+00,3.744615474715828896e-03
4.556957781314849854e-01,-1.358825206756591797e+01,-1.196240615844726562e+01,-1.229735660552978516e+01,-1.349623489379882812e+01,-1.028927803039550781e+01,-8.256569862365722656e+00,-2.060350608825683594e+01,-1.765072441101074219e+01,-2.168219184875488281e+01,-5.326689720153808594e+00,-8.714004516601562500e+00,-9.843517303466796875e+00,-2.352926635742187500e+01,-6.441547870635986328e+00,-3.510954856872558594e+00,-1.235434627532958984e+01,-2.210904884338378906e+01,-1.177143764495849609e+01,-2.946681022644042969e+00,2.716023474931716919e-03
4.108087122440338135e-01,-1.410619258880615234e+01,-1.188857555389404297e+01,-1.273194980621337891e+01,-1.318068599700927734e+01,-1.045693969726562500e+01,-8.832777976989746094e+00,-2.069776153564453125e+01,-1.759502410888671875e+01,-2.225293540954589844e+01,-5.340153694152832031e+00,-8.481763839721679688e+00,-1.132135009765625000e+01,-2.369116020202636719e+01,-8.121882438659667969e+00,-4.870998382568359375e+00,-1.342549610137939453e+01,-2.311005973815917969e+01,-1.306934928894042969e+01,-1.919636607170104980e+00,1.299453899264335632e-03
-2.054515108466148376e-02,-1.521866989135742188e+01,-1.231142425537109375e+01,-1.363419151306152344e+01,-1.302789402008056641e+01,-1.097480678558349609e+01,-9.539475440979003906e+00,-2.095030021667480469e+01,-1.783093452453613281e+01,-2.308190917968750000e+01,-5.558941364288330078e+00,-8.467387199401855469e+00,-1.285806083679199219e+01,-2.414648818969726562e+01,-1.006313705444335938e+01,-6.384974956512451172e+00,-1.473840236663818359e+01,-2.416687202453613281e+01,-1.450781345367431641e+01,-7.086722254753112793e-01,-5.953205982223153114e-04
-1.067180395126342773e+00,-1.689772224426269531e+01,-1.330881023406982422e+01,-1.498449420928955078e+01,-1.318234634399414062e+01,-1.190141201019287109e+01,-1.041478347778320312e+01,-2.154251861572265625e+01,-1.850098800659179688e+01,-2.419543266296386719e+01,-6.055982589721679688e+00,-8.816853523254394531e+00,-1.442421054840087891e+01,-2.500654792785644531e+01,-1.216616439819335938e+01,-8.042018890380859375e+00,-1.620330429077148438e+01,-2.515435791015625000e+01,-1.597702312469482422e+01,4.150723218917846680e-01,-2.751754596829414368e-03
-2.522178649902343750e+00,-1.871172904968261719e+01,-1.458809471130371094e+01,-1.643395614624023438e+01,-1.348128795623779297e+01,-1.303437042236328125e+01,-1.124170780181884766e+01,-2.237304496765136719e+01,-1.945937728881835938e+01,-2.536652374267578125e+01,-6.636051177978515625e+00,-9.458278656005859375e+00,-1.582746505737304688e+01,-2.610135650634765625e+01,-1.415612506866455078e+01,-9.635678291320800781e+00,-1.756647682189941406e+01,-2.584086227416992188e+01,-1.727054214477539062e+01,1.199418187141418457e+00,-4.709688015282154083e-03
-3.815145254135131836e+00,-1.996402740478515625e+01,-1.556803035736083984e+01,-1.740230560302734375e+01,-1.349623489379882812e+01,-1.395700645446777344e+01,-1.164050865173339844e+01,-2.307196998596191406e+01,-2.031946945190429688e+01,-2.615273475646972656e+01,-6.932256221771240234e+00,-1.011408042907714844e+01,-1.679306221008300781e+01,-2.703224754333496094e+01,-1.566425132751464844e+01,-1.083092308044433594e+01,-1.845810508728027344e+01,-2.595246124267578125e+01,-1.814240455627441406e+01,1.491414785385131836e+00,-5.909712053835391998e-03
-4.346126556396484375e+00,-2.005156707763671875e+01,-1.567005062103271484e+01,-1.738149452209472656e+01,-1.277545452117919922e+01,-1.425165557861328125e+01,-1.129155826568603516e+01,-2.323736381530761719e+01,-2.068972015380859375e+01,-2.613628768920898438e+01,-6.640539169311523438e+00,-1.047792339324951172e+01,-1.713062667846679688e+01,-2.737829589843750000e+01,-1.641918373107910156e+01,-1.135972881317138672e+01,-1.856462097167968750e+01,-2.531161117553710938e+01,-1.843229484558105469e+01,1.307494878768920898e+00,-5.999939516186714172e-03
-3.851274013519287109e+00,-1.878103256225585938e+01,-1.462970924377441406e+01,-1.620870208740234375e+01,-1.113293933868408203e+01,-1.370799446105957031e+01,-1.014647293090820312e+01,-2.265048027038574219e+01,-2.040302085876464844e+01,-2.516750526428222656e+01,-5.732849597930908203e+00,-1.040604019165039062e+01,-1.688922882080078125e+01,-2.693915748596191406e+01,-1.639309120178222656e+01,-1.119311904907226562e+01,-1.780224990844726562e+01,-2.397410964965820312e+01,-1.818193626403808594e+01,7.904965281486511230e-01,-5.088643170893192291e-03
-2.516704559326171875e+00,-1.639801788330078125e+01,-1.258929634094238281e+01,-1.410918426513671875e+01,-8.751376152038574219e+00,-1.235479354858398438e+01,-8.476496696472167969e+00,-2.135400390625000000e+01,-1.959863090515136719e+01,-2.343225097656250000e+01,-4.487441539764404297e+00,-9.969206809997558594e+00,-1.635147857666015625e+01,-2.580590057373046875e+01,-1.583298015594482422e+01,-1.056652069091796875e+01,-1.635649681091308594e+01,-2.224263000488281250e+01,-1.762411880493164062e+01,9.021027386188507080e-02,-3.654028056189417839e-03
-9.314243793487548828e-01,-1.351408672332763672e+01,-1.007636737823486328e+01,-1.163383483886718750e+01,-6.175500869750976562e+00,-1.045197963714599609e+01,-6.797722816467285156e+00,-1.960758399963378906e+01,-1.867955970764160156e+01,-2.140586662292480469e+01,-3.381160497665405273e+00,-9.397454261779785156e+00,-1.591774463653564453e+01,-2.430635833740234375e+01,-1.514066886901855469e+01,-9.881971359252929688e+00,-1.463786983489990234e+01,-2.058216667175292969e+01,-1.709704780578613281e+01,-7.181526422500610352e-01,-2.201367635279893875e-03
2.038902342319488525e-01,-1.081860733032226562e+01,-7.766136646270751953e+00,-9.424139022827148438e+00,-4.064644813537597656e+00,-8.366621971130371094e+00,-5.636509895324707031e+00,-1.774556541442871094e+01,-1.809305763244628906e+01,-1.964100646972656250e+01,-2.863923311233520508e+00,-8.934079170227050781e+00,-1.591578197479248047e+01,-2.281895637512207031e+01,-1.468840503692626953e+01,-9.508910179138183594e+00,-1.312389850616455078e+01,-1.944757270812988281e+01,-1.688182830810546875e+01,-1.626375913619995117e+00,-9.381845593452453613e-04
4.305152297019958496e-01,-8.794261932373046875e+00,-6.186159133911132812e+00,-7.940398216247558594e+00,-2.900435686111450195e+00,-6.412220001220703125e+00,-5.294890403747558594e+00,-1.596713161468505859e+01,-1.810288810729980469e+01,-1.851761436462402344e+01,-3.127590894699096680e+00,-8.655390739440917969e+00,-1.641231918334960938e+01,-2.155416107177734375e+01,-1.463622093200683594e+01,-9.577727317810058594e+00,-1.217362689971923828e+01,-1.912122917175292969e+01,-1.707069396972656250e+01,-2.648996114730834961e+00,4.332713142503052950e-04
-3.511767983436584473e-01,-7.648956298828125000e+00,-5.595513343811035156e+00,-7.384607791900634766e+00,-2.847290515899658203e+00,-4.841753482818603516e+00,-5.794857025146484375e+00,-1.434342288970947266e+01,-1.872379302978515625e+01,-1.814095687866210938e+01,-4.072305679321289062e+00,-8.426468849182128906e+00,-1.722090721130371094e+01,-2.049375534057617188e+01,-1.488148689270019531e+01,-9.941733360290527344e+00,-1.194503593444824219e+01,-1.962004470825195312e+01,-1.751650810241699219e+01,-3.702585697174072266e+00,2.562636975198984146e-03
-1.876242637634277344e+00,-7.345000743865966797e+00,-5.948558330535888672e+00,-7.702901840209960938e+00,-3.709237337112426758e+00,-3.836774110794067383e+00,-6.878362655639648438e+00,-1.285665416717529297e+01,-1.972150039672851562e+01,-1.834162139892578125e+01,-5.361471176147460938e+00,-7.979682922363281250e+00,-1.798828125000000000e+01,-1.941108894348144531e+01,-1.513371086120605469e+01,-1.025322151184082031e+01,-1.237828254699707031e+01,-2.072081947326660156e+01,-1.789643859863281250e+01,-4.551398277282714844e+00,5.955185741186141968e-03
-3.701285362243652344e+00,-7.720689773559570312e+00,-6.994269847869873047e+00,-8.681044578552246094e+00,-5.066097259521484375e+00,-3.511371135711669922e+00,-8.164200782775878906e+00,-1.149971008300781250e+01,-2.073722839355468750e+01,-1.880545234680175781e+01,-6.599025249481201172e+00,-7.055145740509033203e+00,-1.836706161499023438e+01,-1.801273155212402344e+01,-1.506761074066162109e+01,-1.013369750976562500e+01,-1.328187847137451172e+01,-2.208030319213867188e+01,-1.786349678039550781e+01,-4.864251613616943359e+00,1.056580338627099991e-02
-5.451881408691406250e+00,-8.637420654296875000e+00,-8.453433036804199219e+00,-1.009745407104492188e+01,-6.505996704101562500e+00,-3.950863599777221680e+00,-9.353270530700683594e+00,-1.036862659454345703e+01,-2.147117424011230469e+01,-1.925941467285156250e+01,-7.534764289855957031e+00,-5.558855056762695312e+00,-1.821005439758300781e+01,-1.613071441650390625e+01,-1.450923919677734375e+01,-9.347733497619628906e+00,-1.445236396789550781e+01,-2.338905906677246094e+01,-1.719367790222167969e+01,-4.333981037139892578e+00,1.573583111166954041e-02
-7.001032829284667969e+00,-1.004048061370849609e+01,-1.015556716918945312e+01,-1.179787921905517578e+01,-7.809711933135986328e+00,-5.174101352691650391e+00,-1.032534694671630859e+01,-9.643026351928710938e+00,-2.180538177490234375e+01,-1.958014869689941406e+01,-8.141760826110839844e+00,-3.621308326721191406e+00,-1.760753822326660156e+01,-1.380348873138427734e+01,-1.348816680908203125e+01,-7.902573585510253906e+00,-1.574971103668212891e+01,-2.446954345703125000e+01,-1.588258934020996094e+01,-2.857565164566040039e+00,2.049983665347099304e-02
-8.483401298522949219e+00,-1.189704227447509766e+01,-1.206174182891845703e+01,-1.368928146362304688e+01,-9.010457992553710938e+00,-7.074931144714355469e+00,-1.113174438476562500e+01,-9.443841934204101562e+00,-2.181193542480468750e+01,-1.977587890625000000e+01,-8.582702636718750000e+00,-1.534464359283447266e+00,-1.680876159667968750e+01,-1.125973033905029297e+01,-1.220617198944091797e+01,-6.019157886505126953e+00,-1.710929298400878906e+01,-2.528286552429199219e+01,-1.411690235137939453e+01,-6.574780344963073730e-01,2.415404468774795532e-02
-1.013218021392822266e+01,-1.408430767059326172e+01,-1.418001270294189453e+01,-1.565903282165527344e+01,-1.028594017028808594e+01,-9.380530357360839844e+00,-1.189708995819091797e+01,-9.739061355590820312e+00,-2.167923545837402344e+01,-1.989923858642578125e+01,-9.070767402648925781e+00,3.798584043979644775e-01,-1.606297683715820312e+01,-8.817154884338378906e+00,-1.092591762542724609e+01,-4.041571140289306641e+00,-1.848682785034179688e+01,-2.585608100891113281e+01,-1.218211364746093750e+01,1.753706216812133789e+00,2.674356848001480103e-02
-1.205685043334960938e+01,-1.631777381896972656e+01,-1.643654823303222656e+01,-1.750024223327636719e+01,-1.176569843292236328e+01,-1.167720127105712891e+01,-1.267123126983642578e+01,-1.027970504760742188e+01,-2.157602500915527344e+01,-1.991733169555664062e+01,-9.694593429565429688e+00,1.911537766456604004e+00,-1.546634769439697266e+01,-6.728723526000976562e+00,-9.837005615234375000e+00,-2.284923553466796875e+00,-1.977579879760742188e+01,-2.618242454528808594e+01,-1.032638549804687500e+01,3.751544475555419922e+00,2.904436737298965454e-02
-1.412165641784667969e+01,-1.819378852844238281e+01,-1.862327957153320312e+01,-1.893746185302734375e+01,-1.340157032012939453e+01,-1.352445888519287109e+01,-1.336473369598388672e+01,-1.070119380950927734e+01,-2.154162025451660156e+01,-1.967554664611816406e+01,-1.035881137847900391e+01,2.998643159866333008e+00,-1.492663478851318359e+01,-5.117878437042236328e+00,-9.000317573547363281e+00,-9.520445466041564941e-01,-2.080505943298339844e+01,-2.617735099792480469e+01,-8.694662094116210938e+00,4.865176677703857422e+00,3.203991428017616272e-02
-1.596749973297119141e+01,-1.932207298278808594e+01,-2.042743492126464844e+01,-1.971483421325683594e+01,-1.495772457122802734e+01,-1.460582828521728516e+01,-1.380458736419677734e+01,-1.069585800170898438e+01,-2.149738693237304688e+01,-1.896828651428222656e+01,-1.084014415740966797e+01,3.669927835464477539e+00,-1.423972702026367188e+01,-4.002834320068359375e+00,-8.382802963256835938e+00,-1.352939754724502563e-01,-2.138551521301269531e+01,-2.571742630004882812e+01,-7.335258483886718750e+00,4.951132297515869141e+00,3.607307747006416321e-02
-1.721120071411132812e+01,-1.950323104858398438e+01,-2.158053588867187500e+01,-1.970748901367187500e+01,-1.614684486389160156e+01,-1.483301544189453125e+01,-1.385297107696533203e+01,-1.018189144134521484e+01,-2.130734825134277344e+01,-1.765080833435058594e+01,-1.092878150939941406e+01,3.969628334045410156e+00,-1.325450515747070312e+01,-3.375495195388793945e+00,-7.932279109954833984e+00,1.454074531793594360e-01,-2.139748191833496094e+01,-2.472317886352539062e+01,-6.254763603210449219e+00,4.208500385284423828e+00,4.054835438728332520e-02
-1.765350341796875000e+01,-1.883817481994628906e+01,-2.198995971679687500e+01,-1.900357055664062500e+01,-1.679289054870605469e+01,-1.437566566467285156e+01,-1.349962234497070312e+01,-9.356698989868164062e+00,-2.088467407226562500e+01,-1.574449539184570312e+01,-1.056525707244873047e+01,3.884473562240600586e+00,-1.198274421691894531e+01,-3.270264148712158203e+00,-7.634828567504882812e+00,-1.298610419034957886e-01,-2.086729431152343750e+01,-2.322673225402832031e+01,-5.464157581329345703e+00,3.061370611190795898e+00,4.423865303397178650e-02
-1.735790443420410156e+01,-1.764788436889648438e+01,-2.176846885681152344e+01,-1.785158920288085938e+01,-1.690914535522460938e+01,-1.353735542297363281e+01,-1.287942886352539062e+01,-8.579524040222167969e+00,-2.024411010742187500e+01,-1.344836711883544922e+01,-9.877477645874023438e+00,3.361380100250244141e+00,-1.061285400390625000e+01,-3.770111560821533203e+00,-7.526980876922607422e+00,-9.810201525688171387e-01,-1.995771408081054688e+01,-2.141408920288085938e+01,-5.027127742767333984e+00,1.920561432838439941e+00,4.600711166858673096e-02
-1.659372901916503906e+01,-1.632506942749023438e+01,-2.116171455383300781e+01,-1.653189277648925781e+01,-1.667663574218750000e+01,-1.260678291320800781e+01,-1.220205497741699219e+01,-8.190047264099121094e+00,-1.948558998107910156e+01,-1.105683994293212891e+01,-9.090963363647460938e+00,2.378230094909667969e+00,-9.413709640502929688e+00,-4.947889804840087891e+00,-7.643526077270507812e+00,-2.391771078109741211e+00,-1.889135169982910156e+01,-1.954057312011718750e+01,-5.005166530609130859e+00,1.000961661338806152e+00,4.555597528815269470e-02
-1.563796329498291016e+01,-1.513842582702636719e+01,-2.038447761535644531e+01,-1.521342086791992188e+01,-1.629631614685058594e+01,-1.171986103057861328e+01,-1.158332729339599609e+01,-8.326986312866210938e+00,-1.868119812011718750e+01,-8.834727287292480469e+00,-8.352694511413574219e+00,1.024601459503173828e+00,-8.554093360900878906e+00,-6.748960018157958984e+00,-7.923581600189208984e+00,-4.228101730346679688e+00,-1.785012245178222656e+01,-1.784629249572753906e+01,-5.378508567810058594e+00,2.602256238460540771e-01,4.369729012250900269e-02
-1.462526702880859375e+01,-1.412929248809814453e+01,-1.951596069335937500e+01,-1.390596580505371094e+01,-1.587779808044433594e+01,-1.083095550537109375e+01,-1.095287132263183594e+01,-8.874743461608886719e+00,-1.779980850219726562e+01,-6.941572189331054688e+00,-7.629011631011962891e+00,-5.103957056999206543e-01,-7.986904144287109375e+00,-8.950717926025390625e+00,-8.168848037719726562e+00,-6.223798274993896484e+00,-1.691660690307617188e+01,-1.649526405334472656e+01,-6.026366233825683594e+00,-5.266484022140502930e-01,4.193785786628723145e-02
-1.353264999389648438e+01,-1.318095111846923828e+01,-1.851320457458496094e+01,-1.252750778198242188e+01,-1.540115356445312500e+01,-9.831928253173828125e+00,-1.009222507476806641e+01,-9.619906425476074219e+00,-1.671035766601562500e+01,-5.449746608734130859e+00,-6.726932048797607422e+00,-2.033227920532226562e+00,-7.460928916931152344e+00,-1.122330379486083984e+01,-8.102747917175292969e+00,-8.038396835327148438e+00,-1.607524490356445312e+01,-1.552468681335449219e+01,-6.724734783172607422e+00,-1.591614365577697754e+00,4.172131046652793884e-02
-1.219260692596435547e+01,-1.211467456817626953e+01,-1.723391914367675781e+01,-1.098500442504882812e+01,-1.471525001525878906e+01,-8.667222976684570312e+00,-8.711085319519042969e+00,-1.037929725646972656e+01,-1.520150852203369141e+01,-4.367473602294921875e+00,-5.367081165313720703e+00,-3.408974409103393555e+00,-6.613088607788085938e+00,-1.320043373107910156e+01,-7.448704719543457031e+00,-9.335056304931640625e+00,-1.523508071899414062e+01,-1.487199974060058594e+01,-7.194706439971923828e+00,-2.990290880203247070e+00,4.376947134733200073e-02
-1.044529533386230469e+01,-1.080523300170898438e+01,-1.555997562408447266e+01,-9.266216278076171875e+00,-1.365567016601562500e+01,-7.397357940673828125e+00,-6.614450454711914062e+00,-1.111734676361083984e+01,-1.310124397277832031e+01,-3.719425916671752930e+00,-3.367696523666381836e+00,-4.645377159118652344e+00,-5.147031307220458984e+00,-1.462307643890380859e+01,-6.051905155181884766e+00,-9.878349304199218750e+00,-1.430635261535644531e+01,-1.444927501678466797e+01,-7.221059799194335938e+00,-4.572255134582519531e+00,4.783872514963150024e-02
-8.301663398742675781e+00,-9.296396255493164062e+00,-1.352359008789062500e+01,-7.507028579711914062e+00,-1.217923355102539062e+01,-6.224716663360595703e+00,-3.852171421051025391e+00,-1.198522186279296875e+01,-1.040628623962402344e+01,-3.596066713333129883e+00,-8.017073273658752441e-01,-5.871826648712158203e+00,-3.001916408538818359e+00,-1.544873523712158203e+01,-3.987146854400634766e+00,-9.642922401428222656e+00,-1.324238300323486328e+01,-1.419733142852783203e+01,-6.731323242187500000e+00,-6.037926673889160156e+00,5.311702564358711243e-02
-5.986146926879882812e+00,-7.822819232940673828e+00,-1.133417415618896484e+01,-5.959629058837890625e+00,-1.042544555664062500e+01,-5.450891971588134766e+00,-7.468066215515136719e-01,-1.321056175231933594e+01,-7.349271297454833984e+00,-4.137202739715576172e+00,1.994289636611938477e+00,-7.257526397705078125e+00,-3.857791125774383545e-01,-1.586358833312988281e+01,-1.553619384765625000e+00,-8.815305709838867188e+00,-1.206352043151855469e+01,-1.408911418914794922e+01,-5.811145782470703125e+00,-7.042850017547607422e+00,5.865698680281639099e-02
-3.798723220825195312e+00,-6.661707878112792969e+00,-9.245435714721679688e+00,-4.846823692321777344e+00,-8.616852760314941406e+00,-5.275293827056884766e+00,2.270587444305419922e+00,-1.486806106567382812e+01,-4.285702705383300781e+00,-5.402047634124755859e+00,4.597304344177246094e+00,-8.872148513793945312e+00,2.340263366699218750e+00,-1.614083290100097656e+01,8.538157939910888672e-01,-7.694311618804931641e+00,-1.081643867492675781e+01,-1.409249591827392578e+01,-4.640609264373779297e+00,-7.375296592712402344e+00,6.371874362230300903e-02
-1.958353042602539062e+00,-5.990573883056640625e+00,-7.437254428863525391e+00,-4.245737552642822266e+00,-6.959390640258789062e+00,-5.688992023468017578e+00,4.829068183898925781e+00,-1.679054641723632812e+01,-1.564532995223999023e+00,-7.293557643890380859e+00,6.680838584899902344e+00,-1.063827991485595703e+01,4.824906826019287109e+00,-1.650711631774902344e+01,2.876826763153076172e+00,-6.576938629150390625e+00,-9.535846710205078125e+00,-1.414153194427490234e+01,-3.443719387054443359e+00,-7.040321826934814453e+00,6.780604273080825806e-02
-5.537160634994506836e-01,-5.876286506652832031e+00,-5.983460426330566406e+00,-4.098832130432128906e+00,-5.614156246185302734e+00,-6.512420177459716797e+00,6.682316780090332031e+00,-1.867746353149414062e+01,5.390081405639648438e-01,-9.588041305541992188e+00,8.090056419372558594e+00,-1.238671684265136719e+01,6.803201198577880859e+00,-1.710207748413085938e+01,4.261449813842773438e+00,-5.700426101684570312e+00,-8.266025543212890625e+00,-1.415336799621582031e+01,-2.431304454803466797e+00,-6.239543437957763672e+00,7.038654386997222900e-02
4.688334763050079346e-01,-6.253191471099853516e+00,-4.839755058288574219e+00,-4.243288993835449219e+00,-4.662527084350585938e+00,-7.449938297271728516e+00,7.764356136322021484e+00,-2.019980049133300781e+01,1.905326843261718750e+00,-1.197134399414062500e+01,8.855253219604492188e+00,-1.393056106567382812e+01,8.157390594482421875e+00,-1.792571258544921875e+01,4.922451019287109375e+00,-5.196974277496337891e+00,-7.065619468688964844e+00,-1.403838729858398438e+01,-1.772465944290161133e+00,-5.295926570892333984e+00,7.081060856580734253e-02
1.193595528602600098e+00,-7.009433269500732422e+00,-3.943047523498535156e+00,-4.519959926605224609e+00,-4.167613506317138672e+00,-8.237651824951171875e+00,8.122103691101074219e+00,-2.117793846130371094e+01,2.545891284942626953e+00,-1.415727138519287109e+01,9.077406883239746094e+00,-1.516917610168457031e+01,8.879625320434570312e+00,-1.889909934997558594e+01,4.901576995849609375e+00,-5.102803707122802734e+00,-6.032768249511718750e+00,-1.376784324645996094e+01,-1.581402778625488281e+00,-4.534965515136718750e+00,6.841056048870086670e-02
1.638087034225463867e+00,-8.022213935852050781e+00,-3.281255722045898438e+00,-4.846823692321777344e+00,-4.207472324371337891e+00,-8.753534317016601562e+00,7.824469566345214844e+00,-2.169902038574218750e+01,2.531146764755249023e+00,-1.598299026489257812e+01,8.805886268615722656e+00,-1.612799644470214844e+01,8.995418548583984375e+00,-1.993319702148437500e+01,4.308415889739990234e+00,-5.416102409362792969e+00,-5.287152290344238281e+00,-1.337724494934082031e+01,-1.919606566429138184e+00,-4.183558464050292969e+00,6.293376535177230835e-02
1.786980748176574707e+00,-9.161439895629882812e+00,-2.857064723968505859e+00,-5.183481216430664062e+00,-4.808675765991210938e+00,-9.009491920471191406e+00,6.957958221435546875e+00,-2.206359863281250000e+01,1.992155313491821289e+00,-1.737941741943359375e+01,8.050786972045898438e+00,-1.692535400390625000e+01,8.549909591674804688e+00,-2.094301033020019531e+01,3.292561531066894531e+00,-6.071676254272460938e+00,-4.899384021759033203e+00,-1.292408466339111328e+01,-2.756331443786621094e+00,-4.313124179840087891e+00,5.487646162509918213e-02
1.664362430572509766e+00,-1.026783943176269531e+01,-2.639599800109863281e+00,-5.489532947540283203e+00,-5.874898910522460938e+00,-9.087865829467773438e+00,5.661857128143310547e+00,-2.259357070922851562e+01,1.104211926460266113e+00,-1.833175277709960938e+01,6.837916851043701172e+00,-1.764640426635742188e+01,7.617677688598632812e+00,-2.182735633850097656e+01,2.026222944259643555e+00,-6.949999809265136719e+00,-4.832362174987792969e+00,-1.244556045532226562e+01,-3.959809541702270508e+00,-4.830122470855712891e+00,4.548379033803939819e-02
1.387376308441162109e+00,-1.115174198150634766e+01,-2.525497674942016602e+00,-5.681733608245849609e+00,-7.163667201995849609e+00,-9.064056396484375000e+00,4.119437694549560547e+00,-2.345255470275878906e+01,6.882408261299133301e-02,-1.883012390136718750e+01,5.264888286590576172e+00,-1.830331230163574219e+01,6.320403099060058594e+00,-2.247695541381835938e+01,6.903049945831298828e-01,-7.873598098754882812e+00,-4.924517154693603516e+00,-1.192138099670410156e+01,-5.310428619384765625e+00,-5.525352478027343750e+00,3.629864752292633057e-02
1.159656524658203125e+00,-1.162712955474853516e+01,-2.355015993118286133e+00,-5.636437892913818359e+00,-8.351127624511718750e+00,-8.944014549255371094e+00,2.537431955337524414e+00,-2.454095458984375000e+01,-9.223304390907287598e-01,-1.885644149780273438e+01,3.528048753738403320e+00,-1.880649948120117188e+01,4.811168670654296875e+00,-2.281288528442382812e+01,-5.603784322738647461e-01,-8.663184165954589844e+00,-4.940075874328613281e+00,-1.128053092956542969e+01,-6.551240921020507812e+00,-6.168756008148193359e+00,2.847593463957309723e-02
1.155277252197265625e+00,-1.160524463653564453e+01,-2.005997896194458008e+00,-5.271624088287353516e+00,-9.168232917785644531e+00,-8.698969841003417969e+00,1.099111437797546387e+00,-2.554932594299316406e+01,-1.749657750129699707e+00,-1.842715072631835938e+01,1.855162978172302246e+00,-1.904426956176757812e+01,3.250906705856323242e+00,-2.280479049682617188e+01,-1.616240620613098145e+00,-9.190177917480468750e+00,-4.682760238647460938e+00,-1.046889877319335938e+01,-7.482398986816406250e+00,-6.597270965576171875e+00,2.243070118129253387e-02
1.370954275131225586e+00,-1.120280742645263672e+01,-1.517372846603393555e+00,-4.658295631408691406e+00,-9.546891212463378906e+00,-8.366621971130371094e+00,-1.530045419931411743e-01,-2.618422698974609375e+01,-2.460667848587036133e+00,-1.768534851074218750e+01,3.640394210815429688e-01,-1.899118614196777344e+01,1.708308219909667969e+00,-2.258218765258789062e+01,-2.489457607269287109e+00,-9.485367774963378906e+00,-4.103501796722412109e+00,-9.518613815307617188e+00,-8.044608116149902344e+00,-6.735684871673583984e+00,1.788324303925037384e-02
1.653414368629455566e+00,-1.064717578887939453e+01,-1.051568031311035156e+00,-3.975187301635742188e+00,-9.623287200927734375e+00,-8.044195175170898438e+00,-1.299555659294128418e+00,-2.628915405273437500e+01,-3.214272737503051758e+00,-1.688269042968750000e+01,-9.643957614898681641e-01,-1.873019218444824219e+01,1.676722615957260132e-01,-2.236970138549804688e+01,-3.308751106262207031e+00,-9.695441246032714844e+00,-3.313603639602661133e+00,-8.563255310058593750e+00,-8.343281745910644531e+00,-6.607383251190185547e+00,1.411173865199089050e-02
1.751946926116943359e+00,-1.021920585632324219e+01,-8.461844325065612793e-01,-3.472037553787231445e+00,-9.661485671997070312e+00,-7.912248611450195312e+00,-2.510618686676025391e+00,-2.595302963256835938e+01,-4.205427169799804688e+00,-1.633333015441894531e+01,-2.272635221481323242e+00,-1.845150375366210938e+01,-1.469130754470825195e+00,-2.244255447387695312e+01,-4.268941879272460938e+00,-1.003952693939208984e+01,-2.540461063385009766e+00,-7.802350997924804688e+00,-8.613405227661132812e+00,-6.271144866943359375e+00,1.025000773370265961e-02
1.482624530792236328e+00,-1.011464500427246094e+01,-1.079757928848266602e+00,-3.341047286987304688e+00,-9.893995285034179688e+00,-8.104712486267089844e+00,-3.918149471282958984e+00,-2.544084167480468750e+01,-5.548810482025146484e+00,-1.629056549072265625e+01,-3.707659244537353516e+00,-1.835086631774902344e+01,-3.292380094528198242e+00,-2.298287391662597656e+01,-5.526583194732666016e+00,-1.068966770172119141e+01,-2.011468648910522461e+00,-7.430353641510009766e+00,-9.103141784667968750e+00,-5.792068004608154297e+00,5.657435394823551178e-03
8.410677313804626465e-01,-1.035902595520019531e+01,-1.780478596687316895e+00,-3.628736257553100586e+00,-1.038890838623046875e+01,-8.663254737854003906e+00,-5.552937984466552734e+00,-2.506559181213378906e+01,-7.210018157958984375e+00,-1.685472869873046875e+01,-5.331177711486816406e+00,-1.853776359558105469e+01,-5.327589511871337891e+00,-2.400685310363769531e+01,-7.125162124633789062e+00,-1.169294834136962891e+01,-1.853489041328430176e+00,-7.552098274230957031e+00,-9.972808837890625000e+00,-5.204914569854736328e+00,3.627092519309371710e-05
3.419518470764160156e-02,-1.081617546081542969e+01,-2.804712057113647461e+00,-4.224925994873046875e+00,-1.102000617980957031e+01,-9.492635726928710938e+00,-7.321148395538330078e+00,-2.504069519042968750e+01,-9.028499603271484375e+00,-1.793042373657226562e+01,-7.054553031921386719e+00,-1.898897361755371094e+01,-7.513918876647949219e+00,-2.534854888916015625e+01,-8.969006538391113281e+00,-1.294252204895019531e+01,-2.053357362747192383e+00,-8.159131050109863281e+00,-1.124217033386230469e+01,-4.509684562683105469e+00,-6.622508168220520020e-03
-5.788965821266174316e-01,-1.122347640991210938e+01,-3.873244047164916992e+00,-4.871307849884033203e+00,-1.151159858703613281e+01,-1.033094596862792969e+01,-9.018982887268066406e+00,-2.536081314086914062e+01,-1.075687694549560547e+01,-1.924132156372070312e+01,-8.669095039367675781e+00,-1.954856300354003906e+01,-9.704173088073730469e+00,-2.669429397583007812e+01,-1.083720493316650391e+01,-1.420296192169189453e+01,-2.485407590866088867e+00,-9.146615982055664062e+00,-1.281459808349609375e+01,-3.743667364120483398e+00,-1.405724231153726578e-02
-6.938512921333312988e-01,-1.133411598205566406e+01,-4.716256618499755859e+00,-5.299780845642089844e+00,-1.163283538818359375e+01,-1.086170959472656250e+01,-1.047196483612060547e+01,-2.584988021850585938e+01,-1.219691753387451172e+01,-2.046504592895507812e+01,-9.975090980529785156e+00,-2.001414871215820312e+01,-1.175508403778076172e+01,-2.772029685974121094e+01,-1.249840450286865234e+01,-1.521892070770263672e+01,-2.983282804489135742e+00,-1.035729980468750000e+01,-1.452318572998046875e+01,-3.012411832809448242e+00,-2.173559181392192841e-02
-2.296532392501831055e-01,-1.104596614837646484e+01,-5.202197074890136719e+00,-5.357318401336669922e+00,-1.134718036651611328e+01,-1.087361431121826172e+01,-1.164197444915771484e+01,-2.628915405273437500e+01,-1.330438995361328125e+01,-2.136639213562011719e+01,-1.091082954406738281e+01,-2.022537612915039062e+01,-1.358029556274414062e+01,-2.824847412109375000e+01,-1.381518745422363281e+01,-1.584370708465576172e+01,-3.440466165542602539e+00,-1.165083789825439453e+01,-1.620761680603027344e+01,-2.461283922195434570e+00,-2.884550765156745911e-02
6.538558006286621094e-01,-1.040036392211914062e+01,-5.348515987396240234e+00,-5.040248394012451172e+00,-1.082403373718261719e+01,-1.031011199951171875e+01,-1.261551666259765625e+01,-2.647944641113281250e+01,-1.415465259552001953e+01,-2.184667205810546875e+01,-1.156831550598144531e+01,-2.010593795776367188e+01,-1.516214656829833984e+01,-2.826061630249023438e+01,-1.479103374481201172e+01,-1.608275604248046875e+01,-3.828234434127807617e+00,-1.290717506408691406e+01,-1.774710273742675781e+01,-2.236282348632812500e+00,-3.447569534182548523e-02
1.636992216110229492e+00,-9.560230255126953125e+00,-5.288109302520751953e+00,-4.472216129302978516e+00,-1.033908557891845703e+01,-9.303148269653320312e+00,-1.354654026031494141e+01,-2.632472229003906250e+01,-1.488368415832519531e+01,-2.193384552001953125e+01,-1.213604164123535156e+01,-1.965583419799804688e+01,-1.650652313232421875e+01,-2.787207221984863281e+01,-1.554422760009765625e+01,-1.605740356445312500e+01,-4.168129920959472656e+00,-1.401809597015380859e+01,-1.905599403381347656e+01,-2.387336730957031250e+00,-3.785019740462303162e-02
2.447149276733398438e+00,-8.669032096862792969e+00,-5.118969440460205078e+00,-3.787883281707763672e+00,-1.009661102294921875e+01,-8.071973800659179688e+00,-1.453914260864257812e+01,-2.578407859802246094e+01,-1.556684303283691406e+01,-2.170192909240722656e+01,-1.276547813415527344e+01,-1.888501930236816406e+01,-1.761342620849609375e+01,-2.722854232788085938e+01,-1.623480033874511719e+01,-1.591252422332763672e+01,-4.470923900604248047e+00,-1.487030887603759766e+01,-2.007938957214355469e+01,-2.831651926040649414e+00,-3.873442485928535461e-02
2.985794067382812500e+00,-7.769322872161865234e+00,-4.846467018127441406e+00,-3.046013116836547852e+00,-1.013480854034423828e+01,-6.783258914947509766e+00,-1.556693267822265625e+01,-2.480594062805175781e+01,-1.614351463317871094e+01,-2.119039916992187500e+01,-1.348130702972412109e+01,-1.777911376953125000e+01,-1.843379020690917969e+01,-2.638871765136718750e+01,-1.697755622863769531e+01,-1.570245170593261719e+01,-4.700712680816650391e+00,-1.537588787078857422e+01,-2.078654289245605469e+01,-3.410588979721069336e+00,-3.758853673934936523e-02
3.302193403244018555e+00,-6.873261451721191406e+00,-4.424960613250732422e+00,-2.256398677825927734e+00,-1.033244228363037109e+01,-5.549108505249023438e+00,-1.648476028442382812e+01,-2.333695602416992188e+01,-1.645642471313476562e+01,-2.039596557617187500e+01,-1.419264793395996094e+01,-1.629388236999511719e+01,-1.889303588867187500e+01,-2.531414794921875000e+01,-1.778293418884277344e+01,-1.538734149932861328e+01,-4.792867660522460938e+00,-1.547226905822753906e+01,-2.114670944213867188e+01,-3.897249937057495117e+00,-3.541405871510505676e-02
3.522249460220336914e+00,-6.024616718292236328e+00,-3.839684486389160156e+00,-1.441075801849365234e+00,-1.047859096527099609e+01,-4.466746330261230469e+00,-1.711375045776367188e+01,-2.137178802490234375e+01,-1.636468124389648438e+01,-1.931204795837402344e+01,-1.476037502288818359e+01,-1.440499496459960938e+01,-1.892836380004882812e+01,-2.392185974121093750e+01,-1.856048011779785156e+01,-1.486215782165527344e+01,-4.685153961181640625e+00,-1.514592552185058594e+01,-2.112913894653320312e+01,-4.036295890808105469e+00,-3.327567130327224731e-02
3.736831665039062500e+00,-5.354698181152343750e+00,-3.160441875457763672e+00,-6.943086385726928711e-01,-1.039389133453369141e+01,-3.639349699020385742e+00,-1.732634735107421875e+01,-1.900469398498535156e+01,-1.583879661560058594e+01,-1.797154235839843750e+01,-1.508575153350830078e+01,-1.216111183166503906e+01,-1.852995681762695312e+01,-2.217138099670410156e+01,-1.917277526855468750e+01,-1.403997421264648438e+01,-4.376375675201416016e+00,-1.444420242309570312e+01,-2.070089530944824219e+01,-3.620422124862670898e+00,-3.197639435529708862e-02
3.866018772125244141e+00,-5.148008346557617188e+00,-2.622148752212524414e+00,-2.462483644485473633e-01,-1.006505584716796875e+01,-3.264342546463012695e+00,-1.715187072753906250e+01,-1.654156494140625000e+01,-1.505242538452148438e+01,-1.651754760742187500e+01,-1.521926784515380859e+01,-9.756873130798339844e+00,-1.777828407287597656e+01,-2.017603874206542969e+01,-1.952066993713378906e+01,-1.296425437927246094e+01,-3.958687305450439453e+00,-1.347362709045410156e+01,-1.986856269836425781e+01,-2.525118827819824219e+00,-3.182300925254821777e-02
3.699608087539672852e+00,-5.718229293823242188e+00,-2.525497674942016602e+00,-3.784628808498382568e-01,-9.654842376708984375e+00,-3.552046537399291992e+00,-1.675746917724609375e+01,-1.439677619934082031e+01,-1.433977699279785156e+01,-1.516552925109863281e+01,-1.533146667480468750e+01,-7.474283695220947266e+00,-1.681857490539550781e+01,-1.818069648742675781e+01,-1.958329200744628906e+01,-1.180885124206542969e+01,-3.590068101882934570e+00,-1.235256099700927734e+01,-1.866288757324218750e+01,-7.819874286651611328e-01,-3.271625936031341553e-02
3.116076231002807617e+00,-7.123720645904541016e+00,-2.991302490234375000e+00,-1.182767868041992188e+00,-9.347597122192382812e+00,-4.505437850952148438e+00,-1.630148887634277344e+01,-1.287088108062744141e+01,-1.396788978576660156e+01,-1.404213619232177734e+01,-1.554913330078125000e+01,-5.551114082336425781e+00,-1.574699878692626953e+01,-1.642009925842285156e+01,-1.937977218627929688e+01,-1.074399662017822266e+01,-3.385412693023681641e+00,-1.116724014282226562e+01,-1.715195083618164062e+01,1.337832212448120117e+00,-3.452080860733985901e-02
2.199723005294799805e+00,-9.083627700805664062e+00,-3.869216918945312500e+00,-2.463289737701416016e+00,-9.242968559265136719e+00,-5.833836078643798828e+00,-1.582791233062744141e+01,-1.202790451049804688e+01,-1.398918724060058594e+01,-1.310131549835205078e+01,-1.583299636840820312e+01,-4.090212345123291016e+00,-1.456551742553710938e+01,-1.496507740020751953e+01,-1.889793777465820312e+01,-9.820398330688476562e+00,-3.371050834655761719e+00,-9.954865455627441406e+00,-1.542579460144042969e+01,3.362215757369995117e+00,-3.702912852168083191e-02
1.219870924949645996e+00,-1.104961299896240234e+01,-4.790087223052978516e+00,-3.779313802719116211e+00,-9.322685241699218750e+00,-7.022350788116455078e+00,-1.526490020751953125e+01,-1.166688251495361328e+01,-1.422509860992431641e+01,-1.213746833801269531e+01,-1.597661113739013672e+01,-3.038496017456054688e+00,-1.319562721252441406e+01,-1.369421005249023438e+01,-1.808386230468750000e+01,-8.938452720642089844e+00,-3.473977088928222656e+00,-8.722200393676757812e+00,-1.357885074615478516e+01,4.750147819519042969e+00,-3.990738093852996826e-02
5.082464814186096191e-01,-1.244173049926757812e+01,-5.340461730957031250e+00,-4.641156673431396484e+00,-9.475478172302246094e+00,-7.562043666839599609e+00,-1.449369049072265625e+01,-1.144635677337646484e+01,-1.435779857635498047e+01,-1.088084697723388672e+01,-1.569611358642578125e+01,-2.236714363098144531e+00,-1.154704856872558594e+01,-1.235858535766601562e+01,-1.686623001098632812e+01,-7.893518924713134766e+00,-3.561344623565673828e+00,-7.469244003295898438e+00,-1.170116138458251953e+01,5.116723537445068359e+00,-4.263224825263023376e-02
2.772422730922698975e-01,-1.293170738220214844e+01,-5.267973423004150391e+00,-4.746438503265380859e+00,-9.571803092956542969e+00,-7.207870006561279297e+00,-1.343804264068603516e+01,-1.107644271850585938e+01,-1.410878086090087891e+01,-9.139013290405273438e+00,-1.477608203887939453e+01,-1.528934836387634277e+00,-9.598193168640136719e+00,-1.072952747344970703e+01,-1.523460102081298828e+01,-6.531664371490478516e+00,-3.502700567245483398e+00,-6.184160709381103516e+00,-9.841040611267089844e+00,4.418333530426025391e+00,-4.448190703988075256e-02
5.213841795921325684e-01,-1.256209754943847656e+01,-4.598127365112304688e+00,-4.111074447631835938e+00,-9.536927223205566406e+00,-6.097729682922363281e+00,-1.213167858123779297e+01,-1.043442916870117188e+01,-1.335681438446044922e+01,-6.887294292449951172e+00,-1.317724800109863281e+01,-8.565441966056823730e-01,-7.419714450836181641e+00,-8.732160568237304688e+00,-1.325507640838623047e+01,-4.869187355041503906e+00,-3.221448898315429688e+00,-4.851732254028320312e+00,-8.013862609863281250e+00,2.989319562911987305e+00,-4.483379423618316650e-02
9.910562634468078613e-01,-1.173047447204589844e+01,-3.634300947189331055e+00,-3.075394153594970703e+00,-9.409046173095703125e+00,-4.711791038513183594e+00,-1.074907207489013672e+01,-9.607458114624023438e+00,-1.222476863861083984e+01,-4.296747684478759766e+00,-1.108922576904296875e+01,-2.726259529590606689e-01,-5.186283111572265625e+00,-6.532426834106445312e+00,-1.112769699096679688e+01,-3.165058374404907227e+00,-2.703227996826171875e+00,-3.434758901596069336e+00,-6.213037014007568359e+00,1.413043498992919922e+00,-4.355256631970405579e-02
1.369859457015991211e+00,-1.093046283721923828e+01,-2.748332262039184570e+00,-2.072767257690429688e+00,-9.277844429016113281e+00,-3.607603073120117188e+00,-9.479362487792968750e+00,-8.732468605041503906e+00,-1.096002292633056641e+01,-1.604224324226379395e+00,-8.808221817016601562e+00,1.310296207666397095e-01,-3.094158172607421875e+00,-4.450066089630126953e+00,-9.113383293151855469e+00,-1.808636665344238281e+00,-1.993516445159912109e+00,-1.877440929412841797e+00,-4.447350025177001953e+00,2.608576416969299316e-01,-4.135102033615112305e-02
1.516563534736633301e+00,-1.041009044647216797e+01,-2.118757486343383789e+00,-1.341914892196655273e+00,-9.178197860717773438e+00,-3.062949895858764648e+00,-8.394391059875488281e+00,-7.795235157012939453e+00,-9.732956886291503906e+00,1.038955330848693848e+00,-6.554145812988281250e+00,3.334103524684906006e-01,-1.253245472908020020e+00,-2.766369104385375977e+00,-7.427830696105957031e+00,-1.113221526145935059e+00,-1.148564934730529785e+00,-1.408875584602355957e-01,-2.789273262023925781e+00,-1.859856694936752319e-01,-3.956451639533042908e-02
1.585536360740661621e+00,-9.984552383422851562e+00,-1.595230698585510254e+00,-7.518464326858520508e-01,-9.022084236145019531e+00,-2.872470140457153320e+00,-7.370998382568359375e+00,-6.548553943634033203e+00,-8.496061325073242188e+00,3.660752773284912109e+00,-4.344949245452880859e+00,4.440009295940399170e-01,3.541186451911926270e-01,-1.566330313682556152e+00,-6.137139320373535156e+00,-1.131331205368041992e+00,-2.066712528467178345e-01,1.749537587165832520e+00,-1.381555199623107910e+00,-8.612534403800964355e-02,-3.952842578291893005e-02
1.899745821952819824e+00,-9.221015930175781250e+00,-8.461844325065612793e-01,6.714899837970733643e-02,-8.658371925354003906e+00,-2.537146091461181641e+00,-6.196589946746826172e+00,-4.707876205444335938e+00,-7.059297084808349609e+00,6.369724273681640625e+00,-2.069555044174194336e+00,6.308990120887756348e-01,1.820176005363464355e+00,-7.568606734275817871e-01,-5.187385559082031250e+00,-1.674624323844909668e+00,7.998504042625427246e-01,3.668708086013793945e+00,-4.086703658103942871e-01,1.110671758651733398e-01,-4.176606610417366028e-02
2.766832828521728516e+00,-7.723121643066406250e+00,4.237039685249328613e-01,1.482333898544311523e+00,-7.922645092010498047e+00,-1.567881703376770020e+00,-4.679095745086669922e+00,-2.155825614929199219e+00,-5.227708816528320312e+00,9.231660842895507812e+00,4.033090174198150635e-01,1.021283745765686035e+00,3.260719776153564453e+00,-1.457110494375228882e-01,-4.423755168914794922e+00,-2.422557830810546875e+00,1.823127508163452148e+00,5.412024974822998047e+00,-1.556342095136642456e-02,-5.136384442448616028e-02,-4.549245536327362061e-02
4.275476455688476562e+00,-5.427647590637207031e+00,2.239939689636230469e+00,3.580627202987670898e+00,-6.748471260070800781e+00,1.702466756105422974e-01,-2.792124748229980469e+00,8.621741533279418945e-01,-2.991467952728271484e+00,1.211004543304443359e+01,3.059057474136352539e+00,1.596354722976684570e+00,4.715001583099365234e+00,3.865152597427368164e-01,-3.717527866363525391e+00,-3.128838777542114258e+00,2.787760496139526367e+00,6.744453430175781250e+00,-2.505491375923156738e-01,-7.567062973976135254e-01,-4.892109334468841553e-02
6.192482948303222656e+00,-2.732168197631835938e+00,4.260216712951660156e+00,6.035165309906005859e+00,-5.238819122314453125e+00,2.325049638748168945e+00,-7.629345655441284180e-01,3.705887556076049805e+00,-6.274414658546447754e-01,1.462657642364501953e+01,5.636266708374023438e+00,2.133824825286865234e+00,6.094704627990722656e+00,7.467292547225952148e-01,-3.070442676544189453e+00,-3.786223411560058594e+00,3.575265169143676758e+00,7.466467380523681641e+00,-1.054332017898559570e+00,-1.815352082252502441e+00,-5.010307207703590393e-02
8.026284217834472656e+00,-3.345652222633361816e-01,5.885835170745849609e+00,8.216704368591308594e+00,-3.671039342880249023e+00,4.218935012817382812e+00,1.018471598625183105e+00,5.580355167388916016e+00,1.376165032386779785e+00,1.626807785034179688e+01,7.704092502593994141e+00,2.315193414688110352e+00,7.207495212554931641e+00,6.516165733337402344e-01,-2.625136852264404297e+00,-4.626516819000244141e+00,4.055188179016113281e+00,7.479994297027587891e+00,-2.273183107376098633e+00,-2.812059164047241211e+00,-4.788348078727722168e-02
9.210865020751953125e+00,1.049041390419006348e+00,6.499300956726074219e+00,9.438464164733886719e+00,-2.432094812393188477e+00,5.158436775207519531e+00,2.148894786834716797e+00,5.868461608886718750e+00,2.532784938812255859e+00,1.657729911804199219e+01,8.822715759277343750e+00,1.848501205444335938e+00,7.841413021087646484e+00,-2.307053655385971069e-01,-2.600784063339233398e+00,-6.006481170654296875e+00,4.109044551849365234e+00,6.825616359710693359e+00,-3.716039419174194336e+00,-3.340434074401855469e+00,-4.247885942459106445e-02
9.370707511901855469e+00,1.057552099227905273e+00,5.777102470397949219e+00,9.306249618530273438e+00,-1.857463598251342773e+00,4.789382457733154297e+00,2.392280340194702148e+00,4.419039249420166016e+00,2.604868888854980469e+00,1.537660121917724609e+01,8.764371871948242188e+00,6.419580578804016113e-01,7.886552810668945312e+00,-2.090461969375610352e+00,-3.178290367126464844e+00,-8.170598030090332031e+00,3.691356182098388672e+00,5.677495956420898438e+00,-5.205014228820800781e+00,-3.246261835098266602e+00,-3.520653396844863892e-02
8.493766784667968750e+00,-1.424651890993118286e-01,3.877639293670654297e+00,7.909428119659423828e+00,-2.076687097549438477e+00,3.278440952301025391e+00,1.801410675048828125e+00,1.648241281509399414e+00,1.774265170097351074e+00,1.288474273681640625e+01,7.653603076934814453e+00,-1.125279307365417480e+00,7.401792049407958984e+00,-4.800161838531494141e+00,-4.373310565948486328e+00,-1.106634998321533203e+01,2.881112098693847656e+00,4.307868003845214844e+00,-6.595163345336914062e+00,-2.688813924789428711e+00,-2.780789136886596680e-02
6.921624183654785156e+00,-1.960120558738708496e+00,1.387530446052551270e+00,5.779305458068847656e+00,-2.935312271118164062e+00,1.201020240783691406e+00,7.032433748245239258e-01,-1.652529358863830566e+00,6.045389771461486816e-01,9.656017303466796875e+00,5.932471752166748047e+00,-3.066143751144409180e+00,6.620679855346679688e+00,-7.920667171478271484e+00,-5.999721050262451172e+00,-1.430256652832031250e+01,1.863819241523742676e+00,3.021093606948852539e+00,-7.778876304626464844e+00,-2.006856441497802734e+00,-2.166340872645378113e-02
5.220294952392578125e+00,-3.601481676101684570e+00,-8.837709426879882812e-01,3.692030191421508789e+00,-4.054680347442626953e+00,-6.998096108436584473e-01,-4.403754174709320068e-01,-4.634960651397705078e+00,-1.687253415584564209e-01,6.379592895507812500e+00,4.188900470733642578e+00,-4.729425907135009766e+00,5.843492984771728516e+00,-1.084285259246826172e+01,-7.725281238555908203e+00,-1.727256774902343750e+01,9.075638055801391602e-01,2.072499275207519531e+00,-8.696858406066894531e+00,-1.550532579421997070e+00,-1.710692793130874634e-02
3.917474746704101562e+00,-4.424593925476074219e+00,-2.232859611511230469e+00,2.333158731460571289e+00,-4.993022918701171875e+00,-1.848641037940979004e+00,-1.232111454010009766e+00,-6.744181632995605469e+00,5.571790412068367004e-02,3.639370441436767578e+00,2.899734973907470703e+00,-5.789989471435546875e+00,5.317517757415771484e+00,-1.302639770507812500e+01,-9.202096939086914062e+00,-1.939322280883789062e+01,2.935975492000579834e-01,1.626101970672607422e+00,-9.305185317993164062e+00,-1.490490078926086426e+00,-1.336249150335788727e-02
3.327373981475830078e+00,-4.165623664855957031e+00,-2.295951366424560547e+00,2.065057277679443359e+00,-5.399914741516113281e+00,-2.058962583541870117e+00,-1.443241119384765625e+00,-7.857480049133300781e+00,1.541630506515502930e+00,1.754439592361450195e+00,2.301714658737182617e+00,-6.133926391601562500e+00,5.148734569549560547e+00,-1.417989158630371094e+01,-1.016750621795654297e+01,-2.029508781433105469e+01,2.337567657232284546e-01,1.742774009704589844e+00,-9.557740211486816406e+00,-1.742036938667297363e+00,-8.869169279932975769e-03
3.509111881256103516e+00,-2.940073966979980469e+00,-1.113317370414733887e+00,2.857120037078857422e+00,-5.115921020507812500e+00,-1.504388451576232910e+00,-1.041508316993713379e+00,-8.209609985351562500e+00,4.157950878143310547e+00,7.544064521789550781e-01,2.344350337982177734e+00,-5.851920127868652344e+00,5.307704925537109375e+00,-1.431547832489013672e+01,-1.049974632263183594e+01,-1.990391731262207031e+01,8.297708034515380859e-01,2.395461082458496094e+00,-9.404011726379394531e+00,-2.057418584823608398e+00,-1.975799212232232094e-03
4.264528274536132812e+00,-1.177130579948425293e+00,9.311223626136779785e-01,4.351878643035888672e+00,-4.248991966247558594e+00,-5.996092557907104492e-01,-1.940575242042541504e-01,-8.230951309204101562e+00,7.411558628082275391e+00,4.188690483570098877e-01,2.748266458511352539e+00,-5.181741237640380859e+00,5.613869667053222656e+00,-1.374480152130126953e+01,-1.024056434631347656e+01,-1.842797088623046875e+01,2.038554191589355469e+00,3.479327440261840820e+00,-8.815448760986328125e+00,-2.183824062347412109e+00,8.418392390012741089e-03
5.243285655975341797e+00,5.627121329307556152e-01,3.274912118911743164e+00,6.019250392913818359e+00,-3.109694480895996094e+00,1.920724958181381226e-01,8.308008313179016113e-01,-8.344770431518554688e+00,1.063895416259765625e+01,4.007763266563415527e-01,3.137596607208251953e+00,-4.406501293182373047e+00,5.835642337799072266e+00,-1.293735599517822266e+01,-9.553470611572265625e+00,-1.626385498046875000e+01,3.676994323730468750e+00,4.821901321411132812e+00,-7.818407058715820312e+00,-1.984735369682312012e+00,2.229536138474941254e-02
6.111467361450195312e+00,1.821088910102844238e+00,5.416003227233886719e+00,7.383018493652343750e+00,-2.073365449905395508e+00,5.690637826919555664e-01,1.777951717376708984e+00,-8.808941841125488281e+00,1.321267986297607422e+01,3.629461526870727539e-01,3.198184013366699219e+00,-3.779453039169311523e+00,5.772839546203613281e+00,-1.233025360107421875e+01,-8.621111869812011719e+00,-1.383714485168457031e+01,5.465036392211914062e+00,6.193220138549804688e+00,-6.522691249847412109e+00,-1.525251507759094238e+00,3.835583105683326721e-02
6.677482604980468750e+00,2.393741607666015625e+00,7.071153640747070312e+00,8.181202888488769531e+00,-1.404069781303405762e+00,4.906893074512481689e-01,2.474386215209960938e+00,-9.721277236938476562e+00,1.471333694458007812e+01,8.662119507789611816e-02,2.793145895004272461e+00,-3.478646516799926758e+00,5.339106559753417969e+00,-1.219871425628662109e+01,-7.587862968444824219e+00,-1.147925281524658203e+01,7.111854076385498047e+00,7.358249664306640625e+00,-5.125953674316406250e+00,-1.049335002899169922e+00,5.437118560075759888e-02
6.872358322143554688e+00,2.291612386703491211e+00,8.162506103515625000e+00,8.359936714172363281e+00,-1.209758043289184570e+00,8.988800644874572754e-02,2.826268911361694336e+00,-1.107110786437988281e+01,1.496726894378662109e+01,-5.334651470184326172e-01,1.931458234786987305e+00,-3.602508068084716797e+00,4.546218395233154297e+00,-1.261154460906982422e+01,-6.542437553405761719e+00,-9.405684471130371094e+00,8.363722801208496094e+00,8.095481872558593750e+00,-3.850003242492675781e+00,-8.281254172325134277e-01,6.776092946529388428e-02
6.754118919372558594e+00,1.710449099540710449e+00,8.782684326171875000e+00,8.040418624877929688e+00,-1.414034366607666016e+00,-4.101215302944183350e-01,2.821870565414428711e+00,-1.274816894531250000e+01,1.406949615478515625e+01,-1.467706561088562012e+00,7.342958450317382812e-01,-4.154355049133300781e+00,3.490343093872070312e+00,-1.344732189178466797e+01,-5.528322696685791016e+00,-7.717854022979736328e+00,9.085402488708496094e+00,8.278099060058593750e+00,-2.894687414169311523e+00,-1.036694407463073730e+00,7.623327523469924927e-02
6.413634300231933594e+00,9.116533398628234863e-01,9.063241004943847656e+00,7.408727169036865234e+00,-1.860785245895385742e+00,-8.208436369895935059e-01,2.497845172882080078e+00,-1.456928443908691406e+01,1.230835342407226562e+01,-2.607547044754028320e+00,-6.502388119697570801e-01,-5.042397022247314453e+00,2.301011562347412109e+00,-1.448546695709228516e+01,-4.571610927581787109e+00,-6.444737434387207031e+00,9.266121864318847656e+00,7.911173820495605469e+00,-2.361028194427490234e+00,-1.676306009292602539e+00,7.833557575941085815e-02
5.926445007324218750e+00,1.347424536943435669e-01,9.118278503417968750e+00,6.636251449584960938e+00,-2.407182931900024414e+00,-1.063903808593750000e+00,1.920171022415161133e+00,-1.629792022705078125e+01,1.007866573333740234e+01,-3.785217523574829102e+00,-2.091994762420654297e+00,-6.080842494964599609e+00,1.094016432762145996e+00,-1.550742244720458984e+01,-3.712309598922729492e+00,-5.582712650299072266e+00,9.023168563842773438e+00,7.158723831176757812e+00,-2.220476150512695312e+00,-2.587689399719238281e+00,7.406781613826751709e-02
5.361524581909179688e+00,-4.488525688648223877e-01,9.009545326232910156e+00,5.863775730133056641e+00,-2.958563089370727539e+00,-1.128389239311218262e+00,1.200277686119079590e+00,-1.762463188171386719e+01,7.842424392700195312e+00,-4.783606052398681641e+00,-3.470919609069824219e+00,-7.006485939025878906e+00,-1.092375162988901138e-02,-1.632094001770019531e+01,-2.957376718521118164e+00,-5.077449798583984375e+00,8.573165893554687500e+00,6.313274383544921875e+00,-2.290752172470092773e+00,-3.534466266632080078e+00,6.494583189487457275e-02
4.797699451446533203e+00,-7.430817484855651855e-01,8.797450065612792969e+00,5.194133758544921875e+00,-3.476727485656738281e+00,-1.047038435935974121e+00,4.774519503116607666e-01,-1.825063896179199219e+01,6.033771991729736328e+00,-5.393823623657226562e+00,-4.664716243743896484e+00,-7.541744232177734375e+00,-8.901656866073608398e-01,-1.679650306701660156e+01,-2.277241468429565430e+00,-4.825724124908447266e+00,8.157871246337890625e+00,5.709623336791992188e+00,-2.323694229125976562e+00,-4.289106845855712891e+00,5.366741493344306946e-02
4.410137653350830078e+00,-6.373051404953002930e-01,8.632337570190429688e+00,4.782799720764160156e+00,-3.885280370712280273e+00,-7.871128320693969727e-01,-7.529711723327636719e-02,-1.793763542175292969e+01,5.014767169952392578e+00,-5.426719188690185547e+00,-5.508451938629150391e+00,-7.456589221954345703e+00,-1.423991084098815918e+00,-1.684506988525390625e+01,-1.590148448944091797e+00,-4.655492305755615234e+00,7.985529422760009766e+00,5.603096485137939453e+00,-2.104081392288208008e+00,-4.735950469970703125e+00,4.347172006964683533e-02
4.374009132385253906e+00,-4.641516879200935364e-02,8.683347702026367188e+00,4.779127120971679688e+00,-4.112807750701904297e+00,-2.503962516784667969e-01,-3.436076641082763672e-01,-1.663582229614257812e+01,4.965618610382080078e+00,-4.795119285583496094e+00,-5.852902412414550781e+00,-6.666972637176513672e+00,-1.533896327018737793e+00,-1.643628883361816406e+01,-8.056446313858032227e-01,-4.382034778594970703e+00,8.144705772399902344e+00,6.063021183013916016e+00,-1.544068574905395508e+00,-4.932510852813720703e+00,3.761596605181694031e-02
4.772518634796142578e+00,1.024724841117858887e+00,9.036393165588378906e+00,5.256568431854248047e+00,-4.112807750701904297e+00,6.533908247947692871e-01,-3.098855912685394287e-01,-1.452482318878173828e+01,5.781478404998779297e+00,-3.582908153533935547e+00,-5.648700714111328125e+00,-5.273531436920166016e+00,-1.239507317543029785e+00,-1.561872386932373047e+01,1.197567954659461975e-01,-3.900314807891845703e+00,8.575559616088867188e+00,6.921998023986816406e+00,-7.336973547935485840e-01,-5.057651996612548828e+00,3.877087682485580444e-02
5.544357299804687500e+00,2.455748558044433594e+00,9.655228614807128906e+00,6.162482738494873047e+00,-3.871994018554687500e+00,1.903414607048034668e+00,-7.822947204113006592e-02,-1.197632980346679688e+01,7.115031719207763672e+00,-2.030225276947021484e+00,-4.983360767364501953e+00,-3.517353296279907227e+00,-6.507292389869689941e-01,-1.451582145690917969e+01,1.146047830581665039e+00,-3.219387531280517578e+00,9.108141899108886719e+00,7.858756065368652344e+00,1.052236258983612061e-01,-5.282021999359130859e+00,4.838911443948745728e-02
6.480417251586914062e+00,3.991333007812500000e+00,1.035058021545410156e+01,7.296099662780761719e+00,-3.443511962890625000e+00,3.329036951065063477e+00,1.930134445428848267e-01,-9.424279212951660156e+00,8.474797248840332031e+00,-4.742526412010192871e-01,-4.061085700988769531e+00,-1.682655692100524902e+00,4.795405641198158264e-02,-1.329959392547607422e+01,2.149725675582885742e+00,-2.476886987686157227e+00,9.540192604064941406e+00,8.521588325500488281e+00,7.157472372055053711e-01,-5.668822765350341797e+00,6.628119945526123047e-02
7.294953346252441406e+00,5.289832115173339844e+00,1.085934066772460938e+01,8.353816032409667969e+00,-2.941955327987670898e+00,4.648506641387939453e+00,3.498944938182830811e-01,-7.226136684417724609e+00,9.397144317626953125e+00,7.461825013160705566e-01,-3.141054630279541016e+00,-1.826764829456806183e-02,6.524328589439392090e-01,-1.215824127197265625e+01,2.951624155044555664e+00,-1.893752574920654297e+00,9.710140228271484375e+00,8.650096893310546875e+00,8.804568648338317871e-01,-6.141579151153564453e+00,9.006512910127639771e-02
7.744919300079345703e+00,6.043642044067382812e+00,1.093585586547851562e+01,9.036924362182617188e+00,-2.506829977035522461e+00,5.583048343658447266e+00,3.029767870903015137e-01,-5.559745311737060547e+00,9.582268714904785156e+00,1.379427194595336914e+00,-2.430835723876953125e+00,1.327619552612304688e+00,9.919615387916564941e-01,-1.125163555145263672e+01,3.369098424911499023e+00,-1.687301158905029297e+00,9.536602020263671875e+00,8.139445304870605469e+00,4.961344301700592041e-01,-6.543548583984375000e+00,1.148686334490776062e-01
7.723022937774658203e+00,6.098354339599609375e+00,1.047139358520507812e+01,9.155672073364257812e+00,-2.257712364196777344e+00,5.985833644866943359e+00,5.519272014498710632e-02,-4.410878181457519531e+00,8.964640617370605469e+00,1.341596961021423340e+00,-2.005601644515991211e+00,2.329570055007934570e+00,9.566348791122436523e-01,-1.066679286956787109e+01,3.285603761672973633e+00,-1.991545319557189941e+00,9.054285049438476562e+00,7.058960437774658203e+00,-4.042780995368957520e-01,-6.739476680755615234e+00,1.335547119379043579e-01
7.250066280364990234e+00,5.475852966308593750e+00,9.487431526184082031e+00,8.663540840148925781e+00,-2.280963420867919922e+00,5.890594005584716797e+00,-3.436076641082763672e-01,-3.639038324356079102e+00,7.663852691650390625e+00,7.001283764839172363e-01,-1.802521705627441406e+00,3.029608488082885742e+00,5.209391117095947266e-01,-1.039966869354248047e+01,2.676786899566650391e+00,-2.810106754302978516e+00,8.342180252075195312e+00,5.574351310729980469e+00,-1.686816930770874023e+00,-6.700291156768798828e+00,1.380751132965087891e-01
6.457426548004150391e+00,4.392554759979248047e+00,8.154451370239257812e+00,7.671931743621826172e+00,-2.591529846191406250e+00,5.503681659698486328e+00,-8.054537177085876465e-01,-3.027257680892944336e+00,5.920731544494628906e+00,-3.295110166072845459e-01,-1.662273049354553223e+00,3.526160001754760742e+00,-2.483975738286972046e-01,-1.033693408966064453e+01,1.641798615455627441e+00,-3.994485616683959961e+00,7.498425483703613281e+00,3.888525009155273438e+00,-3.151634454727172852e+00,-6.522691726684570312e+00,1.216627508401870728e-01
5.539978504180908203e+00,3.185242414474487305e+00,6.720793247222900391e+00,6.414669513702392578e+00,-3.104712009429931641e+00,5.106848716735839844e+00,-1.248239398002624512e+00,-2.371016025543212891e+00,4.000676631927490234e+00,-1.449613928794860840e+00,-1.394117593765258789e+00,3.957463264465332031e+00,-1.204180598258972168e+00,-1.028431892395019531e+01,3.789387643337249756e-01,-5.262169361114501953e+00,6.628340721130371094e+00,2.206080436706542969e+00,-4.565940856933593750e+00,-6.350780010223388672e+00,8.111457526683807373e-02
4.717778205871582031e+00,2.228389739990234375e+00,5.488491535186767578e+00,5.200254917144775391e+00,-3.647788286209106445e+00,4.970933437347412109e+00,-1.547339797019958496e+00,-1.469350814819335938e+00,2.178918361663818359e+00,-2.303260564804077148e+00,-8.241471052169799805e-01,4.488297939300537109e+00,-2.118749141693115234e+00,-9.958507537841796875e+00,-8.265182971954345703e-01,-6.232852935791015625e+00,5.834852218627929688e+00,7.197800874710083008e-01,-5.694750785827636719e+00,-6.312226295471191406e+00,1.837047003209590912e-02
4.179133415222167969e+00,1.821088910102844238e+00,4.735418319702148438e+00,4.332291126251220703e+00,-4.024785995483398438e+00,5.273518562316894531e+00,-1.547339797019958496e+00,-1.657598167657852173e-01,7.224946022033691406e-01,-2.556558370590209961e+00,1.452515125274658203e-01,5.291185379028320312e+00,-2.713415145874023438e+00,-9.057971954345703125e+00,-1.671903848648071289e+00,-6.517176628112792969e+00,5.222083091735839844e+00,-3.979042172431945801e-01,-6.333824157714843750e+00,-6.462648868560791016e+00,-5.935137718915939331e-02
4.036808490753173828e+00,2.117749691009521484e+00,4.648163795471191406e+00,4.036032676696777344e+00,-4.072948932647705078e+00,6.051311016082763672e+00,-1.088426113128662109e+00,1.626900076866149902e+00,-1.195771917700767517e-01,-1.966078400611877441e+00,1.514078259468078613e+00,6.488881587982177734e+00,-2.731078386306762695e+00,-7.339872837066650391e+00,-1.915430545806884766e+00,-5.818139553070068359e+00,4.886974811553955078e+00,-9.964824914932250977e-01,-6.347001075744628906e+00,-6.771710395812988281e+00,-1.411605179309844971e-01
4.265623092651367188e+00,3.027185440063476562e+00,5.221358299255371094e+00,4.359223842620849609e+00,-3.752417564392089844e+00,7.168395996093750000e+00,-9.289125353097915649e-02,3.839270114898681641e+00,-1.801932454109191895e-01,-4.874109923839569092e-01,3.167890310287475586e+00,8.099080085754394531e+00,-2.044170618057250977e+00,-4.751593589782714844e+00,-1.454469323158264160e+00,-4.054247856140136719e+00,4.871416091918945312e+00,-9.863370656967163086e-01,-5.696947097778320312e+00,-7.124381542205810547e+00,-2.152552306652069092e-01
4.664133071899414062e+00,4.210181236267089844e+00,6.208005428314208984e+00,5.113336086273193359e+00,-3.196055173873901367e+00,8.325163841247558594e+00,1.351294040679931641e+00,6.217034339904785156e+00,5.177105665206909180e-01,1.685358405113220215e+00,4.876679897308349609e+00,9.983543395996093750e+00,-7.233452200889587402e-01,-1.487407088279724121e+00,-3.881703019142150879e-01,-1.428331494331359863e+00,5.116763114929199219e+00,-3.843770325183868408e-01,-4.460526943206787109e+00,-7.367712020874023438e+00,-2.718368172645568848e-01
4.943308830261230469e+00,5.221745967864990234e+00,7.195994853973388672e+00,5.959264278411865234e+00,-2.639692783355712891e+00,9.174386978149414062e+00,3.000744104385375977e+00,8.395613670349121094e+00,1.756244182586669922e+00,4.183796405792236328e+00,6.371169567108154297e+00,1.188791275024414062e+01,9.860737919807434082e-01,2.054022789001464844e+00,1.041679263114929199e+00,1.648518204689025879e+00,5.478201389312744141e+00,6.825802922248840332e-01,-2.795861721038818359e+00,-7.377192497253417969e+00,-3.050495088100433350e-01
4.853534698486328125e+00,5.657010555267333984e+00,7.747711658477783203e+00,6.530969619750976562e+00,-2.330786943435668945e+00,9.427367210388183594e+00,4.522636890411376953e+00,1.000509548187255859e+01,3.161881446838378906e+00,6.576967716217041016e+00,7.437058925628662109e+00,1.353792476654052734e+01,2.764183521270751953e+00,5.391061782836914062e+00,2.537628889083862305e+00,4.692770481109619141e+00,5.761846542358398438e+00,1.993027091026306152e+00,-8.984069228172302246e-01,-7.094044208526611328e+00,-3.133504092693328857e-01
4.284235000610351562e+00,5.289832115173339844e+00,7.551724433898925781e+00,6.565247535705566406e+00,-2.422130107879638672e+00,8.950176239013671875e+00,5.629601001739501953e+00,1.079471969604492188e+01,4.308671951293945312e+00,8.529335021972656250e+00,7.994687557220458984e+00,1.472787857055664062e+01,4.369585037231445312e+00,8.147305488586425781e+00,3.892680883407592773e+00,7.316875934600830078e+00,5.792963981628417969e+00,3.301782846450805664e+00,1.082500696182250977e+00,-6.561244964599609375e+00,-2.988418638706207275e-01
3.344890832901000977e+00,4.161548137664794922e+00,6.555680751800537109e+00,6.013129234313964844e+00,-2.880506277084350586e+00,7.813249588012695312e+00,6.213140010833740234e+00,1.072358226776123047e+01,4.891896724700927734e+00,9.901090621948242188e+00,8.157376289367675781e+00,1.539252853393554688e+01,5.755176067352294922e+00,1.015883827209472656e+01,5.066827297210693359e+00,9.352414131164550781e+00,5.491366386413574219e+00,4.419467449188232422e+00,3.067800521850585938e+00,-5.895088195800781250e+00,-2.658727765083312988e-01
2.342047691345214844e+00,2.550582647323608398e+00,4.999866485595703125e+00,5.064367771148681641e+00,-3.493335485458374023e+00,6.244767189025878906e+00,6.372953414916992188e+00,9.937515258789062500e+00,4.829642295837402344e+00,1.076954078674316406e+01,8.191036224365234375e+00,1.559490871429443359e+01,7.074038982391357422e+00,1.151267623901367188e+01,6.167915821075439453e+00,1.085371398925781250e+01,4.908517360687255859e+00,5.269989490509033203e+00,5.044315814971923828e+00,-5.220715045928955078e+00,-2.199290096759796143e-01
1.633707880973815918e+00,8.545096516609191895e-01,3.307129144668579102e+00,4.051947593688964844e+00,-3.973301887512207031e+00,4.562195301055908203e+00,6.368555068969726562e+00,8.729959487915039062e+00,4.293927192687988281e+00,1.136331081390380859e+01,8.397481918334960938e+00,1.546662425994873047e+01,8.612712860107421875e+00,1.244356632232666016e+01,7.385549545288085938e+00,1.201273918151855469e+01,4.205986499786376953e+00,5.904076576232910156e+00,7.036204338073730469e+00,-4.655050754547119141e+00,-1.670648008584976196e-01
1.446495890617370605e+00,-5.777298212051391602e-01,1.890921711921691895e+00,3.294162511825561523e+00,-4.111146926879882812e+00,3.050261974334716797e+00,6.491714000701904297e+00,7.460158348083496094e+00,3.636980295181274414e+00,1.195707988739013672e+01,9.012331962585449219e+00,1.514922904968261719e+01,1.064792156219482422e+01,1.321053886413574219e+01,8.883238792419433594e+00,1.301239776611328125e+01,3.595610857009887695e+00,6.473909378051757812e+00,9.076407432556152344e+00,-4.260665893554687500e+00,-1.134607270359992981e-01
1.822014570236206055e+00,-1.504186987876892090e+00,1.049251556396484375e+00,3.034630298614501953e+00,-3.825492143630981445e+00,1.923256278038024902e+00,6.972620010375976562e+00,6.531816959381103516e+00,3.312602519989013672e+00,1.279098987579345703e+01,1.012758922576904297e+01,1.478649234771728516e+01,1.334648799896240234e+01,1.399977207183837891e+01,1.077230930328369141e+01,1.398308181762695312e+01,3.308375358581542969e+00,7.212832450866699219e+00,1.120884799957275391e+01,-4.050200462341308594e+00,-6.508081406354904175e-02
2.606991052627563477e+00,-1.842185735702514648e+00,8.734002113342285156e-01,3.350476026535034180e+00,-3.214323759078979492e+00,1.293283939361572266e+00,7.887515068054199219e+00,6.325518608093261719e+00,3.722170352935791016e+00,1.401964855194091797e+01,1.168378829956054688e+01,1.451886272430419922e+01,1.671233558654785156e+01,1.487602233886718750e+01,1.306493949890136719e+01,1.496825313568115234e+01,3.522605180740356445e+00,8.357571601867675781e+00,1.349062442779541016e+01,-3.992686271667480469e+00,-2.689659595489501953e-02
3.543050765991210938e+00,-1.642790794372558594e+00,1.268058896064758301e+00,4.170695781707763672e+00,-2.501847743988037109e+00,1.170265793800354004e+00,9.161623954772949219e+00,7.116920948028564453e+00,5.096680641174316406e+00,1.567266368865966797e+01,1.350141048431396484e+01,1.446024990081787109e+01,2.057864570617675781e+01,1.580488872528076172e+01,1.570198535919189453e+01,1.595704650878906250e+01,4.302928924560546875e+00,1.004677963256835938e+01,1.594369983673095703e+01,-4.040720462799072266e+00,-2.102117519825696945e-03
4.365250587463378906e+00,-1.030015945434570312e+00,2.009050846099853516e+00,5.305536746978759766e+00,-1.963753819465637207e+00,1.488724231719970703e+00,1.059114742279052734e+01,8.959377288818359375e+00,7.413197040557861328e+00,1.764312362670898438e+01,1.531678867340087891e+01,1.465488910675048828e+01,2.464513969421386719e+01,1.666899871826171875e+01,1.852167701721191406e+01,1.690056610107421875e+01,5.558388233184814453e+00,1.224833011627197266e+01,1.851975822448730469e+01,-4.177237987518310547e+00,8.770279586315155029e-03
4.908274650573730469e+00,-1.643500030040740967e-01,2.834612607955932617e+00,6.523624420166015625e+00,-1.844177365303039551e+00,2.110759735107421875e+00,1.191070747375488281e+01,1.159323501586914062e+01,1.036372470855712891e+01,1.969911384582519531e+01,1.683596229553222656e+01,1.503089714050292969e+01,2.852518653869628906e+01,1.730443191528320312e+01,2.124569702148437500e+01,1.768834114074707031e+01,7.038848400115966797e+00,1.472549724578857422e+01,2.102114868164062500e+01,-4.411720275878906250e+00,7.886051200330257416e-03
5.146942615509033203e+00,7.766969799995422363e-01,3.527278900146484375e+00,7.589910030364990234e+00,-2.237782955169677734e+00,2.856805801391601562e+00,1.288131713867187500e+01,1.448141002655029297e+01,1.344859123229980469e+01,2.151496315002441406e+01,1.779077529907226562e+01,1.537704563140869141e+01,3.181056785583496094e+01,1.754322624206542969e+01,2.351049423217773438e+01,1.817006111145019531e+01,8.406808853149414062e+00,1.709275627136230469e+01,2.312504005432128906e+01,-4.744166851043701172e+00,-8.569799247197806835e-04
5.218105316162109375e+00,1.665463566780090332e+00,3.971605777740478516e+00,8.340349197387695312e+00,-3.041602373123168945e+00,3.570112943649291992e+00,1.336075687408447266e+01,1.693031120300292969e+01,1.611897468566894531e+01,2.277651786804199219e+01,1.798712348937988281e+01,1.540690517425537109e+01,3.415979385375976562e+01,1.724979209899902344e+01,2.493164634704589844e+01,1.814470672607421875e+01,9.370244979858398438e+00,1.896458053588867188e+01,2.446248054504394531e+01,-5.142975807189941406e+00,-1.311887800693511963e-02
5.373567581176757812e+00,2.461827754974365234e+00,4.191755294799804688e+00,8.741889953613281250e+00,-3.976623535156250000e+00,4.187188148498535156e+00,1.331383991241455078e+01,1.832282447814941406e+01,1.797022056579589844e+01,2.328146934509277344e+01,1.733188247680664062e+01,1.486611747741699219e+01,3.534323883056640625e+01,1.634116363525390625e+01,2.518039131164550781e+01,1.743842506408691406e+01,9.809475898742675781e+00,2.010762786865234375e+01,2.475676155090332031e+01,-5.541785240173339844e+00,-2.516422979533672333e-02
5.924255371093750000e+00,3.267918348312377930e+00,4.356867790222167969e+00,8.924297332763671875e+00,-4.649240970611572266e+00,4.798311233520507812e+00,1.285199356079101562e+01,1.836906242370605469e+01,1.891222763061523438e+01,2.306271171569824219e+01,1.590583324432373047e+01,1.367726898193359375e+01,3.535697555541992188e+01,1.490435409545898438e+01,2.415757942199707031e+01,1.602405357360839844e+01,9.860939025878906250e+00,2.056417083740234375e+01,2.399031448364257812e+01,-5.867279052734375000e+00,-3.456592187285423279e-02
7.167955875396728516e+00,4.340274333953857422e+00,4.779716491699218750e+00,9.204640388488769531e+00,-4.654222965240478516e+00,5.656462192535400391e+00,1.225965785980224609e+01,1.726109886169433594e+01,1.927100944519042969e+01,2.244591522216796875e+01,1.400518321990966797e+01,1.202946949005126953e+01,3.447184371948242188e+01,1.325505924224853516e+01,2.210847663879394531e+01,1.414606952667236328e+01,9.893253326416015625e+00,2.067577171325683594e+01,2.248596572875976562e+01,-6.089752674102783203e+00,-4.026829078793525696e-02
9.265605926513671875e+00,5.964613914489746094e+00,5.806634902954101562e+00,9.984461784362792969e+00,-3.719202041625976562e+00,7.063235282897949219e+00,1.188871479034423828e+01,1.558937358856201172e+01,1.964945030212402344e+01,2.195905685424804688e+01,1.208097267150878906e+01,1.033853912353515625e+01,3.317260742187500000e+01,1.190729236602783203e+01,1.956188392639160156e+01,1.229706192016601562e+01,1.036958503723144531e+01,2.096829605102539062e+01,2.084106636047363281e+01,-6.249023914337158203e+00,-4.226231575012207031e-02
1.211319828033447266e+01,8.249145507812500000e+00,7.641663551330566406e+00,1.154532718658447266e+01,-1.834212660789489746e+00,9.164465904235839844e+00,1.202800178527832031e+01,1.405992126464843750e+01,2.063568878173828125e+01,2.209228515625000000e+01,1.057975101470947266e+01,9.075594902038574219e+00,3.197346305847167969e+01,1.137506675720214844e+01,1.717532157897949219e+01,1.104205513000488281e+01,1.162025737762451172e+01,2.188476371765136719e+01,1.969029426574707031e+01,-6.408294677734375000e+00,-4.115251824259757996e-02
1.532864570617675781e+01,1.100298404693603516e+01,1.021768474578857422e+01,1.388356590270996094e+01,7.366802692413330078e-01,1.180638122558593750e+01,1.276988792419433594e+01,1.320271682739257812e+01,2.251642608642578125e+01,2.305942153930664062e+01,9.774162292480468750e+00,8.545866012573242188e+00,3.119823837280273438e+01,1.193157672882080078e+01,1.545150089263916016e+01,1.076316452026367188e+01,1.366561508178710938e+01,2.358580780029296875e+01,1.943993568420410156e+01,-6.578310012817382812e+00,-3.786824271082878113e-02
1.837220764160156250e+01,1.377506065368652344e+01,1.321387004852294922e+01,1.668455505371093750e+01,3.561673164367675781e+00,1.455643367767333984e+01,1.396922111511230469e+01,1.319026756286621094e+01,2.510817146301269531e+01,2.468118667602539062e+01,9.664207458496093750e+00,8.782529830932617188e+00,3.087637329101562500e+01,1.347159290313720703e+01,1.458002376556396484e+01,1.149842166900634766e+01,1.620645332336425781e+01,2.584823036193847656e+01,2.010975456237792969e+01,-6.690178871154785156e+00,-3.353732824325561523e-02
2.072823143005371094e+01,1.602068519592285156e+01,1.614830589294433594e+01,1.943290138244628906e+01,6.200658321380615234e+00,1.684814453125000000e+01,1.530051040649414062e+01,1.380027008056640625e+01,2.785883140563964844e+01,2.644769096374511719e+01,9.995194435119628906e+00,9.542286872863769531e+00,3.074488067626953125e+01,1.550538539886474609e+01,1.438520240783691406e+01,1.290555095672607422e+01,1.874968528747558594e+01,2.817152595520019531e+01,2.133299827575683594e+01,-6.595374584197998047e+00,-2.918837033212184906e-02
2.205404281616210938e+01,1.729851531982421875e+01,1.854981803894042969e+01,2.158628463745117188e+01,8.343069076538085938e+00,1.819340705871582031e+01,1.638841438293457031e+01,1.460056495666503906e+01,3.007377433776855469e+01,2.772405052185058594e+01,1.038564682006835938e+01,1.043585872650146484e+01,3.040927696228027344e+01,1.735502433776855469e+01,1.446869659423828125e+01,1.441952705383300781e+01,2.078905868530273438e+01,2.997571563720703125e+01,2.254086875915527344e+01,-6.144739151000976562e+00,-2.566048130393028259e-02
2.226972007751464844e+01,1.745535659790039062e+01,2.010965919494628906e+01,2.278478431701660156e+01,9.866007804870605469e+00,1.840670585632324219e+01,1.696315574645996094e+01,1.516432762145996094e+01,3.122056388854980469e+01,2.800366401672363281e+01,1.049672317504882812e+01,1.110935592651367188e+01,2.953003501892089844e+01,1.840733337402343750e+01,1.439563846588134766e+01,1.547170448303222656e+01,2.201100730895996094e+01,3.083469200134277344e+01,2.319970703125000000e+01,-5.309198856353759766e+00,-2.348600141704082489e-02
2.147379493713378906e+01,1.658604431152343750e+01,2.070298957824707031e+01,2.290720558166503906e+01,1.075784778594970703e+01,1.757434844970703125e+01,1.688544845581054688e+01,1.519989681243896484e+01,3.107639694213867188e+01,2.706284332275390625e+01,1.012534523010253906e+01,1.135707855224609375e+01,2.793052101135253906e+01,1.829198455810546875e+01,1.384944343566894531e+01,1.569626617431640625e+01,2.233175468444824219e+01,3.060134887695312500e+01,2.299107551574707031e+01,-4.188614845275878906e+00,-2.307095564901828766e-02
1.986005020141601562e+01,1.494468212127685547e+01,2.039290046691894531e+01,2.207229614257812500e+01,1.106841468811035156e+01,1.599594497680664062e+01,1.619634628295898438e+01,1.462012767791748047e+01,2.977888488769531250e+01,2.501836776733398438e+01,9.272633552551269531e+00,1.115580368041992188e+01,2.566176223754882812e+01,1.698266792297363281e+01,1.275357341766357422e+01,1.504431438446044922e+01,2.186380004882812500e+01,2.940757369995117188e+01,2.190838432312011719e+01,-2.995347023010253906e+00,-2.457775361835956573e-02
1.762335968017578125e+01,1.280361843109130859e+01,1.932168388366699219e+01,2.051999855041503906e+01,1.083092308044433594e+01,1.401674079895019531e+01,1.505419254302978516e+01,1.349437999725341797e+01,2.769172668457031250e+01,2.222222328186035156e+01,8.095666885375976562e+00,1.058626174926757812e+01,2.293964576721191406e+01,1.473638916015625000e+01,1.124196815490722656e+01,1.373135566711425781e+01,2.078786277770996094e+01,2.752898406982421875e+01,2.017783546447753906e+01,-1.967038631439208984e+00,-2.800639159977436066e-02
1.493998908996582031e+01,1.035616683959960938e+01,1.765176773071289062e+01,1.849883079528808594e+01,1.007360553741455078e+01,1.188177967071533203e+01,1.363346672058105469e+01,1.195603561401367188e+01,2.519336128234863281e+01,1.908231544494628906e+01,6.803135395050048828e+00,9.753515243530273438e+00,2.001930618286132812e+01,1.193360042572021484e+01,9.551197052001953125e+00,1.210328769683837891e+01,1.924397087097167969e+01,2.522428894042968750e+01,1.811127853393554688e+01,-1.249687671661376953e+00,-3.317641839385032654e-02
1.201247596740722656e+01,7.728773117065429688e+00,1.554826259613037109e+01,1.621323394775390625e+01,8.876180648803710938e+00,9.716063499450683594e+00,1.208078384399414062e+01,1.016515445709228516e+01,2.253936195373535156e+01,1.593089580535888672e+01,5.572313308715820312e+00,8.738293647766113281e+00,1.711663055419921875e+01,8.924396514892578125e+00,7.921308040618896484e+00,1.047521972656250000e+01,1.731829452514648438e+01,2.266765022277832031e+01,1.598542690277099609e+01,-8.527745008468627930e-01,-3.952842578291893005e-02
9.132039070129394531e+00,5.064904689788818359e+00,1.319776153564453125e+01,1.383337306976318359e+01,7.419673442840576172e+00,7.587054729461669922e+00,1.049731159210205078e+01,8.237333297729492188e+00,1.983948898315429688e+01,1.295711326599121094e+01,4.508667469024658203e+00,7.572669029235839844e+00,1.436899948120117188e+01,5.959713935852050781e+00,6.517550468444824219e+00,9.055413246154785156e+00,1.507067584991455078e+01,1.991486549377441406e+01,1.396059608459472656e+01,-6.802310347557067871e-01,-4.606088623404502869e-02
6.673103332519531250e+00,2.605294704437255859e+00,1.083920478820800781e+01,1.155144882202148438e+01,5.994720935821533203e+00,5.610826492309570312e+00,8.960757255554199219e+00,6.266830444335937500e+00,1.712651062011718750e+01,1.022675991058349609e+01,3.655955553054809570e+00,6.287606716156005859e+00,1.188631820678710938e+01,3.213588237762451172e+00,5.435596466064453125e+00,7.948906898498535156e+00,1.261720466613769531e+01,1.700482940673828125e+01,1.209827995300292969e+01,-6.296688318252563477e-01,-5.123091489076614380e-02
4.968489170074462891e+00,6.125608682632446289e-01,8.733016014099121094e+00,9.578023910522460938e+00,4.886978149414062500e+00,3.953056812286376953e+00,7.532700061798095703e+00,4.328339099884033203e+00,1.447087287902832031e+01,7.776020526885986328e+00,3.032129526138305664e+00,4.959414005279541016e+00,9.764755249023437500e+00,8.195815682411193848e-01,4.722411155700683594e+00,7.197351455688476562e+00,1.015535545349121094e+01,1.402884674072265625e+01,1.042043781280517578e+01,-6.606381535530090332e-01,-5.328809842467308044e-02
4.139720439910888672e+00,-7.771247625350952148e-01,7.063099384307861328e+00,8.086938858032226562e+00,4.249237537384033203e+00,2.746684551239013672e+00,6.271787166595458984e+00,2.553463459014892578e+00,1.201674079895019531e+01,5.642726421356201172e+00,2.648409366607666016e+00,3.745129346847534180e+00,8.120100975036621094e+00,-1.070530176162719727e+00,4.421481609344482422e+00,6.835155963897705078e+00,7.908933162689208984e+00,1.116784572601318359e+01,8.977581024169921875e+00,-7.769312262535095215e-01,-5.082489177584648132e-02
4.028050422668457031e+00,-1.641574978828430176e+00,5.905970573425292969e+00,7.149194717407226562e+00,4.043300151824951172e+00,2.017504215240478516e+00,5.220537662506103516e+00,1.144944906234741211e+00,9.975454330444335938e+00,3.937077760696411133e+00,2.526112556457519531e+00,2.865934371948242188e+00,7.060300827026367188e+00,-2.278663635253906250e+00,4.569337368011474609e+00,6.902162075042724609e+00,6.077805995941162109e+00,8.665314674377441406e+00,7.864144325256347656e+00,-9.734916687011718750e-01,-4.344429448246955872e-02
4.219641208648681641e+00,-2.293256044387817383e+00,5.183772087097167969e+00,6.687668323516845703e+00,4.036657333374023438e+00,1.620671153068542480e+00,4.368688106536865234e+00,3.464287221431732178e-01,8.509201049804687500e+00,2.769275903701782227e+00,2.657385349273681641e+00,2.549645423889160156e+00,6.606941699981689453e+00,-2.681374788284301758e+00,5.159019470214843750e+00,7.409235954284667969e+00,4.752931118011474609e+00,6.744453430175781250e+00,7.196521282196044922e+00,-1.164363980293273926e+00,-3.208466991782188416e-02
4.187891960144042969e+00,-3.143116235733032227e+00,4.689777374267578125e+00,6.467310905456542969e+00,3.882204294204711914e+00,1.276418566703796387e+00,3.610674142837524414e+00,3.375365734100341797e-01,7.604875087738037109e+00,2.187019824981689453e+00,2.947980403900146484e+00,2.913488388061523438e+00,6.636380672454833984e+00,-2.294852972030639648e+00,6.053110599517822266e+00,8.242284774780273438e+00,3.863697528839111328e+00,5.476279258728027344e+00,6.994477748870849609e+00,-1.187116980552673340e+00,-1.892952062189579010e-02
3.520059823989868164e+00,-4.482953071594238281e+00,4.167592525482177734e+00,6.182070255279541016e+00,3.294286966323852539e+00,7.029949426651000977e-01,2.799877882003784180e+00,1.162729263305664062e+00,7.067521572113037109e+00,2.114648818969726562e+00,3.218379735946655273e+00,3.920968532562255859e+00,6.887592792510986328e+00,-1.295158028602600098e+00,6.999385833740234375e+00,9.145962715148925781e+00,3.217417240142822266e+00,4.752574443817138672e+00,7.135029792785644531e+00,-8.565666675567626953e-01,-6.604462862014770508e-03
2.196438550949096680e+00,-6.236169815063476562e+00,3.480295896530151367e+00,5.640970230102539062e+00,2.252975702285766602e+00,-1.878950595855712891e-01,1.835132718086242676e+00,2.713522195816040039e+00,6.597337722778320312e+00,2.404132127761840820e+00,3.308139085769653320e+00,5.406199932098388672e+00,7.077964305877685547e+00,5.260901898145675659e-02,7.710831642150878906e+00,9.812401771545410156e+00,2.622600078582763672e+00,4.334922313690185547e+00,7.380996227264404297e+00,-6.969263404607772827e-02,2.580682514235377312e-03
6.133479475975036621e-01,-7.961422920227050781e+00,2.689635992050170898e+00,4.856252193450927734e+00,1.048907637596130371e+00,-1.215692400932312012e+00,7.325668931007385254e-01,4.726707935333251953e+00,5.930561065673828125e+00,2.887700796127319336e+00,3.146572589874267578e+00,7.130306720733642578e+00,7.023011684417724609e+00,1.491441369056701660e+00,7.970013618469238281e+00,1.000617694854736328e+01,1.991878390312194824e+00,3.973069906234741211e+00,7.464448928833007812e+00,1.122310876846313477e+00,7.290550507605075836e-03
-6.161200404167175293e-01,-9.073901176452636719e+00,1.967437267303466797e+00,4.005427360534667969e+00,1.338158398866653442e-01,-2.038128852844238281e+00,-3.934577107429504395e-01,6.825258255004882812e+00,4.926300525665283203e+00,3.415678739547729492e+00,2.757242202758789062e+00,8.843355178833007812e+00,6.675632476806640625e+00,2.829090118408203125e+00,7.709092140197753906e+00,9.643980979919433594e+00,1.361156821250915527e+00,3.486090898513793945e+00,7.170167922973632812e+00,2.531731843948364258e+00,7.434914354234933853e-03
-9.949231743812561035e-01,-9.166303634643554688e+00,1.481496810913085938e+00,3.296610832214355469e+00,-1.252663880586624146e-01,-2.348650455474853516e+00,-1.403654336929321289e+00,8.587684631347656250e+00,3.592746973037719727e+00,3.876220464706420898e+00,2.210833549499511719e+00,1.032858562469482422e+01,6.130031585693359375e+00,3.950205564498901367e+00,7.009822368621826172e+00,8.810932159423828125e+00,8.489198088645935059e-01,2.833403825759887695e+00,6.445445537567138672e+00,3.903863191604614258e+00,3.970183897763490677e-03
-3.599352538585662842e-01,-8.177839279174804688e+00,1.331150650978088379e+00,2.907312631607055664e+00,3.746294677257537842e-01,-2.028208017349243164e+00,-2.167532920837402344e+00,9.699205398559570312e+00,2.119940519332885742e+00,4.244653701782226562e+00,1.634131193161010742e+00,1.147098636627197266e+01,5.586393356323242188e+00,4.848716735839843750e+00,6.110513210296630859e+00,7.755132198333740234e+00,5.928013324737548828e-01,2.140135288238525391e+00,5.439619064331054688e+00,4.997902393341064453e+00,-1.578798866830766201e-03
9.877718687057495117e-01,-6.485413551330566406e+00,1.469415426254272461e+00,2.852223157882690430e+00,1.384385824203491211e+00,-1.255375742912292480e+00,-2.616183519363403320e+00,1.000331687927246094e+01,8.044081926345825195e-01,4.555519104003906250e+00,1.142699837684631348e+00,1.224180316925048828e+01,5.272377967834472656e+00,5.593429088592529297e+00,5.329488277435302734e+00,6.800747394561767578e+00,6.610198020935058594e-01,1.631174683570861816e+00,4.471126556396484375e+00,5.679227828979492188e+00,-7.660123053938150406e-03
2.395693302154541016e+00,-4.741923809051513672e+00,1.700304269790649414e+00,2.973419904708862305e+00,2.372552156448364258e+00,-4.438523352146148682e-01,-2.771598339080810547e+00,9.503577232360839844e+00,-9.172656387090682983e-02,4.838423252105712891e+00,8.094691038131713867e-01,1.266978836059570312e+01,5.333218574523925781e+00,6.247076034545898438e+00,4.922451019287109375e+00,6.181393623352050781e+00,9.937344789505004883e-01,1.517884373664855957e+00,3.884760141372680664e+00,5.920662403106689453e+00,-1.300158258527517319e-02
3.193807363510131836e+00,-3.561359405517578125e+00,1.795613050460815430e+00,3.043199777603149414e+00,2.781104803085327148e+00,-3.511437773704528809e-02,-2.711484909057617188e+00,8.352931976318359375e+00,-4.144661426544189453e-01,5.103234767913818359e+00,6.770743727684020996e-01,1.280139160156250000e+01,5.786577701568603516e+00,6.819775581359863281e+00,5.011164188385009766e+00,5.983996868133544922e+00,1.417407035827636719e+00,1.894954919815063477e+00,3.906721591949462891e+00,5.767079830169677734e+00,-1.677308604121208191e-02
3.029586553573608398e+00,-3.219713211059570312e+00,1.609022617340087891e+00,2.892621994018554688e+00,2.291173696517944336e+00,-2.444437593221664429e-01,-2.495956897735595703e+00,6.805695533752441406e+00,-1.556191742420196533e-01,5.330215930938720703e+00,7.780534029006958008e-01,1.268637657165527344e+01,6.538250923156738281e+00,7.283196926116943359e+00,5.571275711059570312e+00,6.134307861328125000e+00,1.713020443916320801e+00,2.681222915649414062e+00,4.541402339935302734e+00,5.252609252929687500e+00,-1.874906569719314575e-02
2.035501956939697266e+00,-3.567438602447509766e+00,1.143217921257019043e+00,2.508220672607421875e+00,9.857978224754333496e-01,-9.369173049926757812e-01,-2.120615243911743164e+00,5.180208206176757812e+00,5.865179896354675293e-01,5.507853507995605469e+00,1.156163811683654785e+00,1.237782955169677734e+01,7.443006515502929688e+00,7.602937698364257812e+00,6.479282379150390625e+00,6.478393554687500000e+00,1.702249169349670410e+00,3.651798963546752930e+00,5.575778961181640625e+00,4.369667053222656250e+00,-1.920922473073005676e-02
7.304922938346862793e-01,-4.168055057525634766e+00,5.203551054000854492e-01,2.014864683151245117e+00,-7.048798203468322754e-01,-1.722646594047546387e+00,-1.542941212654113770e+00,3.771689653396606445e+00,1.633373737335205078e+00,5.634502410888671875e+00,1.847309112548828125e+00,1.193325519561767578e+01,8.365426063537597656e+00,7.770902633666992188e+00,7.568194389343261719e+00,6.867753505706787109e+00,1.307300090789794922e+00,4.520921230316162109e+00,6.676039218902587891e+00,3.116357088088989258e+00,-1.873102039098739624e-02
-2.614026367664337158e-01,-4.570492744445800781e+00,-9.176868945360183716e-02,1.597409486770629883e+00,-2.211210489273071289e+00,-2.169083595275878906e+00,-7.218815684318542480e-01,2.806000709533691406e+00,2.781802415847778320e+00,5.734834671020507812e+00,2.845879554748535156e+00,1.142122077941894531e+01,9.232892036437988281e+00,7.817447185516357422e+00,8.679719924926757812e+00,7.237193107604980469e+00,5.640777945518493652e-01,5.056936264038085938e+00,7.541313648223876953e+00,1.564098000526428223e+00,-1.800017803907394409e-02
-5.690433382987976074e-01,-4.580219268798828125e+00,-6.058989763259887695e-01,1.355016231536865234e+00,-3.101390600204467773e+00,-2.060946702957153320e+00,2.956458926200866699e-01,2.370284795761108398e+00,3.828658103942871094e+00,5.845035552978515625e+00,4.031822204589843750e+00,1.090918636322021484e+01,1.002381706237792969e+01,7.803281307220458984e+00,9.685136795043945312e+00,7.590333461761474609e+00,-4.089330434799194336e-01,5.165153503417968750e+00,8.009088516235351562e+00,-8.359723538160324097e-02,-1.753099635243415833e-02
-2.679714858531951904e-01,-4.367450237274169922e+00,-1.079757928848266602e+00,1.226474404335021973e+00,-3.279094457626342773e+00,-1.549032092094421387e+00,1.346895456314086914e+00,2.368506431579589844e+00,4.572433471679687500e+00,5.963460445404052734e+00,5.169518947601318359e+00,1.042369365692138672e+01,1.073231315612792969e+01,7.752689361572265625e+00,1.045572471618652344e+01,7.941662788391113281e+00,-1.466917753219604492e+00,4.909827709197998047e+00,8.094738006591796875e+00,-1.507554769515991211e+00,-1.749490574002265930e-02
1.885629296302795410e-01,-4.312737941741943359e+00,-1.663691878318786621e+00,1.031825304031372070e+00,-2.988457202911376953e+00,-1.047038435935974121e+00,2.178218364715576172e+00,2.562355518341064453e+00,4.852578163146972656e+00,6.062148094177246094e+00,5.972863197326660156e+00,9.939307212829589844e+00,1.134856796264648438e+01,7.621150493621826172e+00,1.087667846679687500e+01,8.273071289062500000e+00,-2.467455387115478516e+00,4.473576068878173828e+00,7.954185962677001953e+00,-2.395553112030029297e+00,-1.769340597093105316e-02
2.378292381763458252e-01,-4.779613971710205078e+00,-2.506704568862915039e+00,5.825407505035400391e-01,-2.639692783355712891e+00,-1.016283869743347168e+00,2.563823223114013672e+00,2.661947727203369141e+00,4.613390445709228516e+00,6.099978446960449219e+00,6.205114841461181641e+00,9.377507209777832031e+00,1.186472988128662109e+01,7.325694084167480469e+00,1.088711547851562500e+01,8.513931274414062500e+00,-3.290864229202270508e+00,4.091432571411132812e+00,7.800456523895263672e+00,-2.547871828079223633e+00,-1.771145127713680267e-02
-4.332872927188873291e-01,-5.831301212310791016e+00,-3.591344833374023438e+00,-1.483116894960403442e-01,-2.548349618911743164e+00,-1.682963252067565918e+00,2.423069953918457031e+00,2.482326030731201172e+00,3.961358070373535156e+00,6.091754436492919922e+00,5.796710968017578125e+00,8.681892395019531250e+00,1.230827617645263672e+01,6.815728187561035156e+00,1.054443836212158203e+01,8.608102798461914062e+00,-3.797117233276367188e+00,3.986597061157226562e+00,7.826810359954833984e+00,-1.975255012512207031e+00,-1.727836020290851593e-02
-1.681367039680480957e+00,-7.133447170257568359e+00,-4.647795200347900391e+00,-9.293566942214965820e-01,-2.742661237716674805e+00,-2.885367155075073242e+00,1.901110768318176270e+00,2.055502414703369141e+00,3.197923421859741211e+00,6.154256343841552734e+00,4.924925327301025391e+00,7.888957977294921875e+00,1.277537345886230469e+01,6.137797355651855469e+00,1.005216693878173828e+01,8.599047660827636719e+00,-3.817462921142578125e+00,4.351831436157226562e+00,8.182582855224609375e+00,-9.077608585357666016e-01,-1.646631397306919098e-02
-2.938205242156982422e+00,-8.091515541076660156e+00,-5.198169708251953125e+00,-1.330897092819213867e+00,-2.936972856521606445e+00,-4.139359474182128906e+00,1.355692505836486816e+00,1.589552998542785645e+00,2.786717176437377930e+00,6.478280544281005859e+00,3.989186286926269531e+00,7.124777317047119141e+00,1.343873023986816406e+01,5.494268894195556641e+00,9.746018409729003906e+00,8.666053771972656250e+00,-3.196315765380859375e+00,5.295352935791015625e+00,8.938051223754882812e+00,3.050995469093322754e-01,-1.564524322748184204e-02
-3.521737098693847656e+00,-8.180271148681640625e+00,-4.776663303375244141e+00,-9.464955925941467285e-01,-2.731035709381103516e+00,-4.899294376373291016e+00,1.209074735641479492e+00,1.321009755134582520e+00,3.178264141082763672e+00,7.234884262084960938e+00,3.462973594665527344e+00,6.536435604095458984e+00,1.446712875366210938e+01,5.170481204986572266e+00,9.984327316284179688e+00,9.060846328735351562e+00,-1.891787171363830566e+00,6.793489456176757812e+00,1.007564544677734375e+01,1.329615831375122070e+00,-1.527531165629625320e-02
-3.012651920318603516e+00,-7.252598285675048828e+00,-3.187289476394653320e+00,3.646316528320312500e-01,-1.864106774330139160e+00,-4.860603332519531250e+00,1.750094413757324219e+00,1.312117576599121094e+00,4.616666793823242188e+00,8.425713539123535156e+00,3.682883262634277344e+00,6.205769538879394531e+00,1.592337322235107422e+01,5.378919601440429688e+00,1.097408866882324219e+01,9.964524269104003906e+00,-3.792029991745948792e-02,8.697442054748535156e+00,1.148555946350097656e+01,1.964803338050842285e+00,-1.559110730886459351e-02
-1.424087405204772949e+00,-5.597863197326660156e+00,-5.750243067741394043e-01,2.402938604354858398e+00,-3.361859023571014404e-01,-4.067929267883300781e+00,3.044729471206665039e+00,1.456170558929443359e+00,7.057692050933837891e+00,9.897801399230957031e+00,4.747651100158691406e+00,6.115085124969482422e+00,1.774465942382812500e+01,6.202555179595947266e+00,1.271878337860107422e+01,1.140062904357910156e+01,2.079246044158935547e+00,1.077555656433105469e+01,1.302943801879882812e+01,2.198653459548950195e+00,-1.636706292629241943e-02
8.180767893791198730e-01,-3.792365789413452148e+00,2.614462852478027344e+00,4.705674648284912109e+00,1.577036738395690918e+00,-2.850644111633300781e+00,4.933166503906250000e+00,1.561098098754882812e+00,1.019334411621093750e+01,1.139127159118652344e+01,6.481124401092529297e+00,6.167062759399414062e+00,1.975239372253417969e+01,7.564487934112548828e+00,1.499401855468750000e+01,1.320073986053466797e+01,4.113831996917724609e+00,1.278772640228271484e+01,1.455794334411621094e+01,2.168948173522949219e+00,-1.697158627212047577e-02
3.067904710769653320e+00,-2.442802190780639648e+00,5.786499023437500000e+00,6.728066921234130859e+00,3.438775062561035156e+00,-1.646256208419799805e+00,7.062057018280029297e+00,1.489960789680480957e+00,1.354033374786376953e+01,1.265940570831298828e+01,8.467044830322265625e+00,6.245582103729248047e+00,2.167377281188964844e+01,9.229971885681152344e+00,1.740319252014160156e+01,1.502258300781250000e+01,5.785782814025878906e+00,1.457500743865966797e+01,1.595028877258300781e+01,2.072880029678344727e+00,-1.669188216328620911e-02
4.809741973876953125e+00,-1.830027461051940918e+00,8.486019134521484375e+00,8.145700454711914062e+00,4.893621444702148438e+00,-7.206433415412902832e-01,9.073653221130371094e+00,1.351243019104003906e+00,1.664813613891601562e+01,1.362818813323974609e+01,1.023754405975341797e+01,6.336266517639160156e+00,2.326936149597167969e+01,1.093795299530029297e+01,1.954622840881347656e+01,1.650758361816406250e+01,7.011321544647216797e+00,1.612217903137207031e+01,1.715157127380371094e+01,2.054551124572753906e+00,-1.515801623463630676e-02
