Fp1,Fp2,F7,F3,Fz,F4,F8,T3,C3,Cz,C4,T4,T5,P3,Pz,P4,T6,O1,Oz,O2,A1
-1.305050373077392578e+01,-1.788757514953613281e+01,-4.434912681579589844e+00,1.139673948287963867e+00,-1.014508819580078125e+01,-6.983944892883300781e+00,3.459299802780151367e+00,1.014115333557128906e+01,2.718428373336791992e+00,2.309965610504150391e+00,3.228390216827392578e+00,-8.860564827919006348e-01,3.398405551910400391e+00,3.498801946640014648e+00,6.172981262207031250e+00,-2.083763360977172852e+00,7.077471256256103516e+00,5.462058067321777344e+00,4.300953388214111328e+00,-2.692119121551513672e+00,6.284258514642715454e-02
-1.359292030334472656e+01,-1.947597312927246094e+01,-4.785467147827148438e+00,-3.547149896621704102e-01,-1.078889179229736328e+01,-8.395161628723144531e+00,2.626101016998291016e+00,1.037472629547119141e+01,2.282203674316406250e+00,1.204566001892089844e+00,2.861052513122558594e+00,-6.179750561714172363e-01,2.623274087905883789e+00,2.931944608688354492e+00,5.627861499786376953e+00,-2.555472135543823242e+00,5.808391094207763672e+00,5.393185138702392578e+00,3.122555494308471680e+00,-2.171634674072265625e+00,5.880184471607208252e-02
-1.388756752014160156e+01,-2.075298881530761719e+01,-5.047677993774414062e+00,-1.576775670051574707e+00,-1.118167209625244141e+01,-9.591581344604492188e+00,1.796305656433105469e+00,1.089008522033691406e+01,2.277493000030517578e+00,5.246370434761047363e-01,2.666619300842285156e+00,7.481952756643295288e-02,2.340018272399902344e+00,2.574621915817260742e+00,5.486101150512695312e+00,-2.450507402420043945e+00,4.730511665344238281e+00,5.371320724487304688e+00,2.446507692337036133e+00,-1.501859188079833984e+00,5.414777621626853943e-02
-1.384337043762207031e+01,-2.158917236328125000e+01,-5.101248264312744141e+00,-2.379119157791137695e+00,-1.123876762390136719e+01,-1.028107929229736328e+01,1.044112086296081543e+00,1.174042606353759766e+01,2.752346515655517578e+00,3.567152023315429688e-01,2.616833448410034180e+00,1.254076480865478516e+00,2.591801166534423828e+00,2.584744453430175781e+00,5.772544860839843750e+00,-1.737253427505493164e+00,4.017143249511718750e+00,5.493761539459228516e+00,2.520235776901245117e+00,-7.455300092697143555e-01,4.916900396347045898e-02
-1.342416858673095703e+01,-2.191454887390136719e+01,-4.860652923583984375e+00,-2.669016838073730469e+00,-1.093163204193115234e+01,-1.025100803375244141e+01,4.307851195335388184e-01,1.289250183105468750e+01,3.668135404586791992e+00,7.141929864883422852e-01,2.655181884765625000e+00,2.904734849929809570e+00,3.340855121612548828e+00,3.073658943176269531e+00,6.436041831970214844e+00,-4.523845314979553223e-01,3.777862787246704102e+00,5.833753108978271484e+00,3.469951629638671875e+00,2.590252086520195007e-02,4.421428591012954712e-02
-1.265942668914794922e+01,-2.174311256408691406e+01,-4.300517559051513672e+00,-2.425971269607543945e+00,-1.028881168365478516e+01,-9.419743537902832031e+00,-1.508521940559148788e-02,1.424407005310058594e+01,4.906146526336669922e+00,1.543500185012817383e+00,2.709004402160644531e+00,4.937183380126953125e+00,4.479273319244384766e+00,4.077806472778320312e+00,7.366983413696289062e+00,1.302928566932678223e+00,4.037269592285156250e+00,6.419720172882080078e+00,5.270663261413574219e+00,7.502823472023010254e-01,3.968047723174095154e-02
-1.163352203369140625e+01,-2.115358734130859375e+01,-3.465953588485717773e+00,-1.711475729942321777e+00,-9.386107444763183594e+00,-7.861390590667724609e+00,-3.009868264198303223e-01,1.564468193054199219e+01,6.288309097290039062e+00,2.728224754333496094e+00,2.704967737197875977e+00,7.194036960601806641e+00,5.831706523895263672e+00,5.550623416900634766e+00,8.429454803466796875e+00,3.371870994567871094e+00,4.740574836730957031e+00,7.214491844177246094e+00,7.739924907684326172e+00,1.380556583404541016e+00,3.590430691838264465e-02
-1.047100734710693359e+01,-2.025792694091796875e+01,-2.458461523056030273e+00,-6.524214744567871094e-01,-8.324913978576660156e+00,-5.783229351043701172e+00,-4.616362750530242920e-01,1.692725944519042969e+01,7.622421741485595703e+00,4.108686447143554688e+00,2.590595006942749023e+00,9.459174156188964844e+00,7.199427127838134766e+00,7.372664928436279297e+00,9.477312088012695312e+00,5.576129436492919922e+00,5.763665676116943359e+00,8.117492675781250000e+00,1.057157802581787109e+01,1.883614301681518555e+00,3.310224786400794983e-02
-9.305814743041992188e+00,-1.915759277343750000e+01,-1.419955492019653320e+00,5.774478912353515625e-01,-7.211545467376708984e+00,-3.477383136749267578e+00,-5.365152955055236816e-01,1.793719482421875000e+01,8.729471206665039062e+00,5.506661415100097656e+00,2.348394393920898438e+00,1.148710441589355469e+01,8.390000343322753906e+00,9.375898361206054688e+00,1.038633251190185547e+01,7.727272987365722656e+00,6.939940929412841797e+00,8.985510826110839844e+00,1.338823604583740234e+01,2.233895778656005859e+00,3.129834309220314026e-02
-8.259819030761718750e+00,-1.791906166076660156e+01,-4.876496195793151855e-01,1.790723800659179688e+00,-6.136569976806640625e+00,-1.253159761428833008e+00,-5.555753707885742188e-01,1.854066276550292969e+01,9.486033439636230469e+00,6.754228115081787109e+00,2.003931283950805664e+00,1.303007888793945312e+01,9.251457214355468750e+00,1.137305831909179688e+01,1.108051967620849609e+01,9.664693832397460938e+00,8.084908485412597656e+00,9.662215232849121094e+00,1.581750965118408203e+01,2.407584190368652344e+00,3.038436733186244965e-02
-7.414719581604003906e+00,-1.657732009887695312e+01,2.247373759746551514e-01,2.813662767410278320e+00,-5.164957046508789062e+00,6.209443807601928711e-01,-5.290274024009704590e-01,1.864955329895019531e+01,9.835577964782714844e+00,7.715400218963623047e+00,1.625156164169311523e+00,1.388477611541748047e+01,9.696573257446289062e+00,1.319307613372802734e+01,1.151164627075195312e+01,1.126192760467529297e+01,9.026375770568847656e+00,1.002188491821289062e+01,1.756823539733886719e+01,2.377958536148071289e+00,3.014384768903255463e-02
-6.808015823364257812e+00,-1.515685939788818359e+01,6.598761081695556641e-01,3.510588884353637695e+00,-4.330177307128906250e+00,1.960203886032104492e+00,-4.459797739982604980e-01,1.822978591918945312e+01,9.796949386596679688e+00,8.305702209472656250e+00,1.305585861206054688e+00,1.394276046752929688e+01,9.710061073303222656e+00,1.470435810089111328e+01,1.167678928375244141e+01,1.244309616088867188e+01,9.630167007446289062e+00,9.993460655212402344e+00,1.849045944213867188e+01,2.119458913803100586e+00,3.039639256894588470e-02
-6.430332660675048828e+00,-1.371190643310546875e+01,8.111878633499145508e-01,3.801462650299072266e+00,-3.642074346542358398e+00,2.682996034622192383e+00,-2.894146144390106201e-01,1.730962181091308594e+01,9.449288368225097656e+00,8.499379158020019531e+00,1.143445849418640137e+00,1.321909141540527344e+01,9.340479850769042969e+00,1.582288932800292969e+01,1.159202575683593750e+01,1.317026138305664062e+01,9.809068679809570312e+00,9.583502769470214844e+00,1.858917999267578125e+01,1.616982102394104004e+00,3.104579821228981018e-02
-6.241490840911865234e+00,-1.235092258453369141e+01,7.237842082977294922e-01,3.666762828826904297e+00,-3.085882663726806641e+00,2.805430173873901367e+00,-4.503681510686874390e-02,1.599379539489746094e+01,8.918847084045410156e+00,8.318064689636230469e+00,1.215433359146118164e+00,1.185910511016845703e+01,8.681348800659179688e+00,1.650919151306152344e+01,1.127489185333251953e+01,1.344342231750488281e+01,9.539598464965820312e+00,8.869628906250000000e+00,1.801810073852539062e+01,8.745945096015930176e-01,3.220029547810554504e-02
-6.189258098602294922e+00,-1.122434902191162109e+01,4.709714055061340332e-01,3.149436712265014648e+00,-2.641913652420043945e+00,2.429535388946533203e+00,2.851114571094512939e-01,1.446018886566162109e+01,8.347891807556152344e+00,7.822540760040283203e+00,1.558550953865051270e+00,1.011883544921875000e+01,7.853163242340087891e+00,1.677035140991210938e+01,1.073561763763427734e+01,1.328660774230957031e+01,8.855301856994628906e+00,7.979747295379638672e+00,1.703714370727539062e+01,-7.343103736639022827e-02,3.395609557628631592e-02
-6.229437351226806641e+00,-1.048962783813476562e+01,1.335743963718414307e-01,2.349045515060424805e+00,-2.291463613510131836e+00,1.722853183746337891e+00,6.806086897850036621e-01,1.294071292877197266e+01,7.873038768768310547e+00,7.098313331604003906e+00,2.151269912719726562e+00,8.301755905151367188e+00,6.966527938842773438e+00,1.663066101074218750e+01,9.978588104248046875e+00,1.274787330627441406e+01,7.838919162750244141e+00,7.066906929016113281e+00,1.593247509002685547e+01,-1.161453008651733398e+00,3.642142564058303833e-02
-6.327206134796142578e+00,-1.024646949768066406e+01,-2.188597917556762695e-01,1.401265144348144531e+00,-2.030595064163208008e+00,8.937366008758544922e-01,1.106738209724426270e+00,1.168307209014892578e+01,7.591330051422119141e+00,6.240160465240478516e+00,2.918238878250122070e+00,6.711339950561523438e+00,6.121256828308105469e+00,1.614174652099609375e+01,9.012572288513183594e+00,1.189424514770507812e+01,6.603383064270019531e+00,6.269948482513427734e+00,1.496526432037353516e+01,-2.296527624130249023e+00,3.943995758891105652e-02
-6.465154170989990234e+00,-1.049137687683105469e+01,-5.459187030792236328e-01,4.515327215194702148e-01,-1.877027034759521484e+00,1.505388468503952026e-01,1.517211198806762695e+00,1.089590358734130859e+01,7.540452957153320312e+00,5.338739871978759766e+00,3.734993457794189453e+00,5.573500156402587891e+00,5.381195068359375000e+00,1.537142753601074219e+01,7.865336418151855469e+00,1.081551170349121094e+01,5.275042057037353516e+00,5.680702209472656250e+00,1.430546092987060547e+01,-3.368284463882446289e+00,4.268698394298553467e-02
-6.639263629913330078e+00,-1.110714340209960938e+01,-8.438431024551391602e-01,-3.722845613956451416e-01,-1.871120572090148926e+00,-3.273845613002777100e-01,1.859612345695495605e+00,1.069807243347167969e+01,7.681778430938720703e+00,4.468224525451660156e+00,4.458231449127197266e+00,5.019264698028564453e+00,4.773319721221923828e+00,1.439663505554199219e+01,6.588032245635986328e+00,9.624225616455078125e+00,3.966827154159545898e+00,5.327591896057128906e+00,1.401929664611816406e+01,-4.267514705657958984e+00,4.570551216602325439e-02
-6.846855640411376953e+00,-1.188909721374511719e+01,-1.140827655792236328e+00,-9.872192740440368652e-01,-2.062096118927001953e+00,-4.283391833305358887e-01,2.083568572998046875e+00,1.108625411987304688e+01,7.909783363342285156e+00,3.684246063232421875e+00,4.948688030242919922e+00,5.054657459259033203e+00,4.293133735656738281e+00,1.330442237854003906e+01,5.269807338714599609e+00,8.440526962280273438e+00,2.770425796508789062e+00,5.170167922973632812e+00,1.406928157806396484e+01,-4.903597831726074219e+00,4.809869080781936646e-02
-7.081233501434326172e+00,-1.260107707977294922e+01,-1.484803438186645508e+00,-1.363988757133483887e+00,-2.485392570495605469e+00,-1.340672224760055542e-01,2.147556066513061523e+00,1.192662048339843750e+01,8.076547622680664062e+00,3.019770145416259766e+00,5.106118679046630859e+00,5.592326164245605469e+00,3.910963296890258789e+00,1.218285465240478516e+01,4.020270347595214844e+00,7.378233909606933594e+00,1.745098352432250977e+00,5.113320350646972656e+00,1.433545207977294922e+01,-5.221930027008056641e+00,4.969815164804458618e-02
-7.323647022247314453e+00,-1.305240631103515625e+01,-1.919002294540405273e+00,-1.525043129920959473e+00,-3.141009569168090820e+00,4.781043231487274170e-01,2.029111146926879883e+00,1.299972915649414062e+01,8.038860321044921875e+00,2.491279840469360352e+00,4.896883964538574219e+00,6.473380088806152344e+00,3.595335483551025391e+00,1.111189937591552734e+01,2.960721492767333984e+00,6.535987377166748047e+00,9.255073666572570801e-01,5.045540809631347656e+00,1.467035198211669922e+01,-5.216701984405517578e+00,5.068428441882133484e-02
-7.540614128112792969e+00,-1.313812446594238281e+01,-2.457521915435791016e+00,-1.518210530281066895e+00,-3.969882965087890625e+00,1.256743550300598145e+00,1.739125251770019531e+00,1.404707050323486328e+01,7.704390048980712891e+00,2.104956626892089844e+00,4.363369941711425781e+00,7.502029418945312500e+00,3.330064296722412109e+00,1.015836429595947266e+01,2.208076477050781250e+00,5.975754261016845703e+00,3.306609988212585449e-01,4.868438720703125000e+00,1.492777538299560547e+01,-4.930319309234619141e+00,5.157420784235000610e-02
-7.686597824096679688e+00,-1.285822963714599609e+01,-3.065588235855102539e+00,-1.389366984367370605e+00,-4.848961353302001953e+00,2.010681152343750000e+00,1.334097981452941895e+00,1.484421348571777344e+01,7.066541194915771484e+00,1.866981506347656250e+00,3.626003026962280273e+00,8.477212905883789062e+00,3.127738952636718750e+00,9.368812561035156250e+00,1.861713528633117676e+00,5.720297813415527344e+00,-2.490505762398242950e-02,4.537192821502685547e+00,1.500650215148925781e+01,-4.449916362762451172e+00,5.296922475099563599e-02
-7.705348014831542969e+00,-1.229319381713867188e+01,-3.651098966598510742e+00,-1.165843129158020020e+00,-5.609910488128662109e+00,2.564857482910156250e+00,9.134142398834228516e-01,1.523987579345703125e+01,6.213877677917480469e+00,1.789716839790344238e+00,2.858361482620239258e+00,9.221967697143554688e+00,3.040514230728149414e+00,8.770575523376464844e+00,1.994705200195312500e+00,5.759501457214355469e+00,-1.255369633436203003e-01,4.074759960174560547e+00,1.486654376983642578e+01,-3.902129650115966797e+00,5.544658750295639038e-02
-7.539274692535400391e+00,-1.156022167205810547e+01,-4.083418369293212891e+00,-8.447105884552001953e-01,-6.070614337921142578e+00,2.797912359237670898e+00,6.104947328567504883e-01,1.518335247039794922e+01,5.303741931915283203e+00,1.884494900703430176e+00,2.253532409667968750e+00,9.584931373596191406e+00,3.139428853988647461e+00,8.375800132751464844e+00,2.643587589263916016e+00,6.056690692901611328e+00,4.218287765979766846e-02,3.565318822860717773e+00,1.453914165496826172e+01,-3.417660713195800781e+00,5.931896343827247620e-02
-7.138823509216308594e+00,-1.078526592254638672e+01,-4.223452091217041016e+00,-4.054715037345886230e-01,-6.080458164215087891e+00,2.672255992889404297e+00,5.655673146247863770e-01,1.471121788024902344e+01,4.516088008880615234e+00,2.155436277389526367e+00,1.979038357734680176e+00,9.474234580993652344e+00,3.499118566513061523e+00,8.178412437438964844e+00,3.803976297378540039e+00,6.563809394836425781e+00,4.804907441139221191e-01,3.133496284484863281e+00,1.410802078247070312e+01,-3.127211809158325195e+00,6.459838151931762695e-02
-6.482565402984619141e+00,-1.004704570770263672e+01,-3.962180852890014648e+00,1.704197078943252563e-01,-5.558721065521240234e+00,2.239439964294433594e+00,8.889083862304687500e-01,1.391989326477050781e+01,3.996010303497314453e+00,2.588118314743041992e+00,2.141850948333740234e+00,8.862768173217773438e+00,4.160947799682617188e+00,8.163228988647460938e+00,5.430566310882568359e+00,7.234065532684326172e+00,1.174850940704345703e+00,2.901733160018920898e+00,1.369189453125000000e+01,-3.130116224288940430e+00,7.105635851621627808e-02
-5.574518203735351562e+00,-9.401539802551269531e+00,-3.260131835937500000e+00,8.917478919029235840e-01,-4.514261722564697266e+00,1.622972607612609863e+00,1.632933259010314941e+00,1.293240070343017578e+01,3.817940235137939453e+00,3.141333103179931641e+00,2.762153863906860352e+00,7.792702198028564453e+00,5.117722511291503906e+00,8.298869132995605469e+00,7.429825305938720703e+00,8.018138885498046875e+00,2.091719388961791992e+00,2.962953567504882812e+00,1.341697692871093750e+01,-3.475169658660888672e+00,7.833209633827209473e-02
-4.454861640930175781e+00,-8.852248191833496094e+00,-2.160537242889404297e+00,1.749728202819824219e+00,-3.041584253311157227e+00,9.936172366142272949e-01,2.771774530410766602e+00,1.187591552734375000e+01,3.970571756362915039e+00,3.758420228958129883e+00,3.769305229187011719e+00,6.379250526428222656e+00,6.302000999450683594e+00,8.540796279907226562e+00,9.668762207031250000e+00,8.874297142028808594e+00,3.183016538619995117e+00,3.349954128265380859e+00,1.338448715209960938e+01,-4.150173187255859375e+00,8.602874726057052612e-02
-3.191899776458740234e+00,-8.372929573059082031e+00,-7.846341729164123535e-01,2.726791143417358398e+00,-1.297209382057189941e+00,5.393214821815490723e-01,4.201963424682617188e+00,1.085600471496582031e+01,4.373820304870605469e+00,4.375507354736328125e+00,5.018657207489013672e+00,4.791847229003906250e+00,7.605876445770263672e+00,8.838396072387695312e+00,1.198807811737060547e+01,9.757012367248535156e+00,4.404016971588134766e+00,4.037590503692626953e+00,1.365565586090087891e+01,-5.079029083251953125e+00,9.374944865703582764e-02
-1.871347784996032715e+00,-7.897109985351562500e+00,6.974691152572631836e-01,3.812199592590332031e+00,5.367467403411865234e-01,4.287010133266448975e-01,5.762169361114501953e+00,9.967427253723144531e+00,4.913683891296386719e+00,4.947265625000000000e+00,6.321158885955810547e+00,3.221763610839843750e+00,8.899860382080078125e+00,9.134984016418457031e+00,1.421970653533935547e+01,1.061443424224853516e+01,5.724531173706054688e+00,4.947150707244873047e+00,1.422423553466796875e+01,-6.126968860626220703e+00,1.010853201150894165e-01
-5.842784047126770020e-01,-7.330324649810791016e+00,2.111905097961425781e+00,5.004001617431640625e+00,2.283090353012084961e+00,7.863380908966064453e-01,7.267917633056640625e+00,9.275018692016601562e+00,5.469563961029052734e+00,5.457212448120117188e+00,7.483049392700195312e+00,1.850482225418090820e+00,1.006435585021972656e+01,9.376911163330078125e+00,1.621165847778320312e+01,1.139344978332519531e+01,7.132259845733642578e+00,5.961660385131835938e+00,1.502524566650390625e+01,-7.132503509521484375e+00,1.076274737715721130e-01
5.728787183761596680e-01,-6.564115047454833984e+00,3.318639755249023438e+00,6.300244808197021484e+00,3.802035331726074219e+00,1.667005896568298340e+00,8.540860176086425781e+00,8.818676948547363281e+00,5.943475246429443359e+00,5.919769763946533203e+00,8.339497566223144531e+00,8.120433688163757324e-01,1.100854110717773438e+01,9.520649909973144531e+00,1.784409523010253906e+01,1.202576637268066406e+01,8.621611595153808594e+00,6.953212261199951172e+00,1.592997550964355469e+01,-7.937628269195556641e+00,1.130271553993225098e-01
1.517086744308471680e+00,-5.502267360687255859e+00,4.235908508300781250e+00,7.677503585815429688e+00,4.995140552520751953e+00,3.038485050201416016e+00,9.442131042480468750e+00,8.598402976989746094e+00,6.262870788574218750e+00,6.362753868103027344e+00,8.782187461853027344e+00,1.719613820314407349e-01,1.167666530609130859e+01,9.534821510314941406e+00,1.902786636352539062e+01,1.244436073303222656e+01,1.017469787597656250e+01,7.788433074951171875e+00,1.676847457885742188e+01,-8.419773101806640625e+00,1.170438453555107117e-01
2.173344850540161133e+00,-4.102797508239746094e+00,4.844914913177490234e+00,9.075260162353515625e+00,5.812201023101806641e+00,4.771897315979003906e+00,9.882555961608886719e+00,8.573466300964355469e+00,6.374989032745361328e+00,6.809858798980712891e+00,8.770076751708984375e+00,-7.428191602230072021e-02,1.204264926910400391e+01,9.397155761718750000e+00,1.971474647521972656e+01,1.257588291168212891e+01,1.173561000823974609e+01,8.352535247802734375e+00,1.735704803466796875e+01,-8.524334907531738281e+00,1.197617202997207642e-01
2.486741542816162109e+00,-2.416436672210693359e+00,5.172913551330566406e+00,1.038126373291015625e+01,6.249279022216796875e+00,6.659963130950927734e+00,9.831501960754394531e+00,8.664069175720214844e+00,6.239316463470458984e+00,7.249752044677734375e+00,8.328061103820800781e+00,1.156436838209629059e-02,1.209390544891357422e+01,9.091457366943359375e+00,1.988865852355957031e+01,1.236468887329101562e+01,1.320036411285400391e+01,8.553688049316406250e+00,1.752324867248535156e+01,-8.266416549682617188e+00,1.216377839446067810e-01
2.427812337875366211e+00,-5.883793234825134277e-01,5.273474693298339844e+00,1.144617462158203125e+01,6.338860034942626953e+00,8.449222564697265625e+00,9.313475608825683594e+00,8.770465850830078125e+00,5.829472541809082031e+00,7.636075496673583984e+00,7.527452945709228516e+00,3.413948416709899902e-01,1.182503700256347656e+01,8.604567527770996094e+00,1.954960250854492188e+01,1.177789878845214844e+01,1.442471885681152344e+01,8.335043907165527344e+00,1.714086341857910156e+01,-7.725600242614746094e+00,1.233815550804138184e-01
2.009949922561645508e+00,1.155709743499755859e+00,5.199228763580322266e+00,1.211088943481445312e+01,6.147884845733642578e+00,9.892658233642578125e+00,8.390421867370605469e+00,8.799558639526367188e+00,5.143573284149169922e+00,7.886412620544433594e+00,6.472534179687500000e+00,8.278571367263793945e-01,1.123874282836914062e+01,7.932436466217041016e+00,1.872826957702636719e+01,1.082562828063964844e+01,1.524878215789794922e+01,7.690043449401855469e+00,1.615990638732910156e+01,-7.018647670745849609e+00,1.258589178323745728e-01
1.285387516021728516e+00,2.574422121047973633e+00,4.995286464691162109e+00,1.224949455261230469e+01,5.768886566162109375e+00,1.080554580688476562e+01,7.163767814636230469e+00,8.692331314086914062e+00,4.209882736206054688e+00,7.909077167510986328e+00,5.279695510864257812e+00,1.406943082809448242e+00,1.034761142730712891e+01,7.087211608886718750e+00,1.748019409179687500e+01,9.567317008972167969e+00,1.554285049438476562e+01,6.663508415222167969e+00,1.462911415100097656e+01,-6.270450592041015625e+00,1.297433227300643921e-01
3.559117317199707031e-01,3.471832275390625000e+00,4.693603038787841797e+00,1.180147075653076172e+01,5.303260803222656250e+00,1.111055755615234375e+01,5.749235630035400391e+00,8.443795204162597656e+00,3.107544422149658203e+00,7.634015083312988281e+00,4.057927608489990234e+00,2.044012784957885742e+00,9.196604728698730469e+00,6.109382629394531250e+00,1.591206169128417969e+01,8.121839523315429688e+00,1.524542808532714844e+01,5.354922294616699219e+00,1.268969440460205078e+01,-5.586153030395507812e+00,1.352873146533966064e-01
-6.432077288627624512e-01,3.758723497390747070e+00,4.325191974639892578e+00,1.078829193115234375e+01,4.850431919097900391e+00,1.085494899749755859e+01,4.275480747222900391e+00,8.099668502807617188e+00,1.954328656196594238e+00,7.041652679443359375e+00,2.905456066131591797e+00,2.738313674926757812e+00,7.863953590393066406e+00,5.080941200256347656e+00,1.415832614898681641e+01,6.654862880706787109e+00,1.438446617126464844e+01,3.911870002746582031e+00,1.056782913208007812e+01,-5.034299850463867188e+00,1.422142982482910156e-01
-1.568665504455566406e+00,3.487576246261596680e+00,3.925766229629516602e+00,9.311472892761230469e+00,4.493091106414794922e+00,1.019337463378906250e+01,2.869117259979248047e+00,7.747230052947998047e+00,9.009830355644226074e-01,6.180409431457519531e+00,1.897632002830505371e+00,3.497375488281250000e+00,6.465659618377685547e+00,4.121332645416259766e+00,1.239435958862304688e+01,5.354818344116210938e+00,1.307960510253906250e+01,2.509266853332519531e+00,8.533437728881835938e+00,-4.643355369567871094e+00,1.497546136379241943e-01
-2.281174182891845703e+00,2.826326847076416016e+00,3.547956943511962891e+00,7.530114173889160156e+00,4.287349224090576172e+00,9.342778205871582031e+00,1.639740467071533203e+00,7.487888813018798828e+00,9.542793780565261841e-02,5.160515785217285156e+00,1.091641902923583984e+00,4.329482078552246094e+00,5.134807586669921875e+00,3.376320123672485352e+00,1.080430603027343750e+01,4.407607078552246094e+00,1.151981067657470703e+01,1.323121428489685059e+00,6.855189323425292969e+00,-4.406929969787597656e+00,1.568619906902313232e-01
-2.686982870101928711e+00,2.023380994796752930e+00,3.248152971267700195e+00,5.629673480987548828e+00,4.258801460266113281e+00,8.532993316650390625e+00,6.676750183105468750e-01,7.404766082763671875e+00,-3.398544490337371826e-01,4.136501789093017578e+00,5.211246609687805176e-01,5.228609085083007812e+00,4.008079528808593750e+00,2.976483345031738281e+00,9.546000480651855469e+00,3.951073646545410156e+00,9.920881271362304688e+00,5.097646713256835938e-01,5.736773967742919922e+00,-4.293654918670654297e+00,1.624661087989807129e-01
-2.744572877883911133e+00,1.344638228416442871e+00,3.081804037094116211e+00,3.792677879333496094e+00,4.409416198730468750e+00,7.950893402099609375e+00,-3.513011615723371506e-03,7.545243263244628906e+00,-3.332592844963073730e-01,3.272167921066284180e+00,1.934809237718582153e-01,6.171411991119384766e+00,3.184390068054199219e+00,3.014948606491088867e+00,8.710052490234375000e+00,4.045921325683593750e+00,8.481845855712890625e+00,1.686795502901077271e-01,5.285658836364746094e+00,-4.257639408111572266e+00,1.657011061906814575e-01
-2.471355199813842773e+00,1.014013528823852539e+00,3.086503028869628906e+00,2.180182456970214844e+00,4.718521118164062500e+00,7.715690612792968750e+00,-3.745043575763702393e-01,7.901837825775146484e+00,1.189821735024452209e-01,2.707620859146118164e+00,9.121839702129364014e-02,7.103672504425048828e+00,2.718591928482055664e+00,3.513985633850097656e+00,8.319846153259277344e+00,4.655475139617919922e+00,7.354768276214599609e+00,3.370356559753417969e-01,5.481850147247314453e+00,-4.246021270751953125e+00,1.660618931055068970e-01
-1.936973571777343750e+00,1.178451180458068848e+00,3.270708560943603516e+00,9.141978621482849121e-01,5.156583786010742188e+00,7.862826347351074219e+00,-4.847806990146636963e-01,8.423846244812011719e+00,9.584553837776184082e-01,2.532487630844116211e+00,1.706064045429229736e-01,7.964394569396972656e+00,2.608886480331420898e+00,4.408810615539550781e+00,8.300848007202148438e+00,5.649478435516357422e+00,6.620155334472656250e+00,9.743837714195251465e-01,6.182890415191650391e+00,-4.205358505249023438e+00,1.633440107107162476e-01
-1.237857818603515625e+00,1.883434057235717773e+00,3.617503881454467773e+00,7.573928683996200562e-02,5.685211658477783203e+00,8.349341392517089844e+00,-4.024138152599334717e-01,9.022326469421386719e+00,2.074926376342773438e+00,2.772523164749145508e+00,3.690764307975769043e-01,8.686557769775390625e+00,2.795025825500488281e+00,5.561758041381835938e+00,8.527372360229492188e+00,6.834441184997558594e+00,6.292542457580566406e+00,1.974681496620178223e+00,7.162597179412841797e+00,-4.089759826660156250e+00,1.577759683132171631e-01
-4.744556248188018799e-01,3.076482057571411133e+00,4.088356018066406250e+00,-3.010302186012268066e-01,6.264045238494873047e+00,9.071060180664062500e+00,-2.077284455299377441e-01,9.603351593017578125e+00,3.328954219818115234e+00,3.389610290527343750e+00,6.139682531356811523e-01,9.211424827575683594e+00,3.186188459396362305e+00,6.791635990142822266e+00,8.838660240173339844e+00,7.990317344665527344e+00,6.324968338012695312e+00,3.184877634048461914e+00,8.157299995422363281e+00,-3.859724044799804688e+00,1.498387902975082397e-01
2.755536139011383057e-01,4.617648124694824219e+00,4.633454322814941406e+00,-2.268476337194442749e-01,6.854691028594970703e+00,9.878696441650390625e+00,2.439643070101737976e-02,1.007382392883300781e+01,4.572618484497070312e+00,4.302363395690917969e+00,8.306033015251159668e-01,9.506615638732910156e+00,3.672668933868408203e+00,7.909154891967773438e+00,9.095874786376953125e+00,8.921088218688964844e+00,6.633572578430175781e+00,4.437709331512451172e+00,8.928318977355957031e+00,-3.496082067489624023e+00,1.402059495449066162e-01
9.626156687736511230e-01,6.298760890960693359e+00,5.203927516937255859e+00,2.475305646657943726e-01,7.417773723602294922e+00,1.060578441619873047e+01,2.381419092416763306e-01,1.037472629547119141e+01,5.676841259002685547e+00,5.404672145843505859e+00,9.557403326034545898e-01,9.563846588134765625e+00,4.150156974792480469e+00,8.764502525329589844e+00,9.204021453857421875e+00,9.497761726379394531e+00,7.116605758666992188e+00,5.581219196319580078e+00,9.304456710815429688e+00,-3.001156806945800781e+00,1.296952068805694580e-01
1.566640973091125488e+00,7.878412246704101562e+00,5.753725051879882812e+00,1.035232663154602051e+00,7.925729274749755859e+00,1.109444808959960938e+01,4.049178361892700195e-01,1.047946071624755859e+01,6.538926601409912109e+00,6.585276126861572266e+00,9.416120052337646484e-01,9.410226821899414062e+00,4.531428337097167969e+00,9.272649765014648438e+00,9.117795944213867188e+00,9.669752120971679688e+00,7.666727066040039062e+00,6.500618457794189453e+00,9.213233947753906250e+00,-2.402832031250000000e+00,1.191363707184791565e-01
2.086290121078491211e+00,9.134436607360839844e+00,6.236794948577880859e+00,2.028888940811157227e+00,8.357885360717773438e+00,1.123191833496093750e+01,5.240435004234313965e-01,1.039384460449218750e+01,7.100459575653076172e+00,7.743215560913085938e+00,7.626525759696960449e-01,9.087926864624023438e+00,4.751738071441650391e+00,9.422461509704589844e+00,8.848890304565429688e+00,9.472469329833984375e+00,8.177713394165039062e+00,7.133593559265136719e+00,8.687141418457031250e+00,-1.753968954086303711e+00,1.091547757387161255e-01
2.516206264495849609e+00,9.902395248413085938e+00,6.606145858764648438e+00,3.108441114425659180e+00,8.706366539001464844e+00,1.097630977630615234e+01,6.173018813133239746e-01,1.015279006958007812e+01,7.343539237976074219e+00,8.790924072265625000e+00,4.202076792716979980e-01,8.642881393432617188e+00,4.776017189025878906e+00,9.272649765014648438e+00,8.442607879638671875e+00,8.996966361999511719e+00,8.552288055419921875e+00,7.460466861724853516e+00,7.836145877838134766e+00,-1.124275445938110352e+00,1.000029742717742920e-01
2.847013950347900391e+00,1.012281227111816406e+01,6.806328296661376953e+00,4.158710479736328125e+00,8.977079391479492188e+00,1.036736011505126953e+01,7.248553633689880371e-01,9.797026634216308594e+00,7.290777683258056641e+00,9.655258178710937500e+00,-5.208368599414825439e-02,8.108978271484375000e+00,4.602467060089111328e+00,8.923424720764160156e+00,7.967638015747070312e+00,8.370972633361816406e+00,8.700999259948730469e+00,7.496542930603027344e+00,6.826447963714599609e+00,-5.956583023071289062e-01,9.151261299848556519e-02
3.061302185058593750e+00,9.855163574218750000e+00,6.790351390838623047e+00,5.071351528167724609e+00,9.179867744445800781e+00,9.516763687133789062e+00,8.923119902610778809e-01,9.365621566772460938e+00,6.994936466217041016e+00,1.027646636962890625e+01,-5.896347165107727051e-01,7.494499206542968750e+00,4.268854618072509766e+00,8.498281478881835938e+00,7.482437610626220703e+00,7.718420982360839844e+00,8.545578956604003906e+00,7.273526191711425781e+00,5.837993621826171875e+00,-2.494431287050247192e-01,8.308237046003341675e-02
3.145678281784057617e+00,9.253391265869140625e+00,6.524381160736083984e+00,5.755588531494140625e+00,9.330482482910156250e+00,8.568434715270996094e+00,1.165279984474182129e+00,8.883512496948242188e+00,6.533273220062255859e+00,1.060818862915039062e+01,-1.096910595893859863e+00,6.785890579223632812e+00,3.848916769027709961e+00,8.108567237854003906e+00,7.042541980743408203e+00,7.143012046813964844e+00,8.025647163391113281e+00,6.823118686676025391e+00,5.030735015869140625e+00,-1.530140638351440430e-01,7.390651851892471313e-02
3.100142002105712891e+00,8.516920089721679688e+00,6.005598068237304688e+00,6.138214588165283203e+00,9.434830665588378906e+00,7.650177478790283203e+00,1.573030114173889160e+00,8.361504554748535156e+00,5.983046054840087891e+00,1.061849117279052734e+01,-1.466266632080078125e+00,5.956796169281005859e+00,3.440669059753417969e+00,7.839310169219970703e+00,6.690333366394042969e+00,6.711771488189697266e+00,7.113251686096191406e+00,6.177024841308593750e+00,4.513389587402343750e+00,-3.452912867069244385e-01,6.326349824666976929e-02
2.940764904022216797e+00,7.831180572509765625e+00,5.266895771026611328e+00,6.160664558410644531e+00,9.484050750732421875e+00,6.835022926330566406e+00,2.115562438964843750e+00,7.790453910827636719e+00,5.409265041351318359e+00,1.029500961303710938e+01,-1.601495385169982910e+00,4.993661403656005859e+00,3.145723342895507812e+00,7.725938796997070312e+00,6.443348884582519531e+00,6.451256752014160156e+00,5.812863826751708984e+00,5.360388278961181641e+00,4.330944061279296875e+00,-8.227894306182861328e-01,5.074441432952880859e-02
2.692994117736816406e+00,7.304629802703857422e+00,4.369363307952880859e+00,5.783895015716552734e+00,9.449596405029296875e+00,6.122970581054687500e+00,2.748630285263061523e+00,7.160386562347412109e+00,4.843020915985107422e+00,9.638774871826171875e+00,-1.450119972229003906e+00,3.912299156188964844e+00,3.029723405838012695e+00,7.753269195556640625e+00,6.288435459136962891e+00,6.347556591033935547e+00,4.172563552856445312e+00,4.393980503082275391e+00,4.447159290313720703e+00,-1.530904054641723633e+00,3.646953031420707703e-02
2.378257989883422852e+00,6.946015834808349609e+00,3.380668163299560547e+00,4.996192932128906250e+00,9.284214973449707031e+00,5.447433948516845703e+00,3.381698131561279297e+00,6.465484142303466797e+00,4.275835037231445312e+00,8.668331146240234375e+00,-1.029632687568664551e+00,2.766175985336303711e+00,3.097165346145629883e+00,7.859554767608642578e+00,6.175904273986816406e+00,6.350085735321044922e+00,2.278447389602661133e+00,3.301852226257324219e+00,4.757066726684570312e+00,-2.369139909744262695e+00,2.104015275835990906e-02
2.004592657089233398e+00,6.678367137908935547e+00,2.361898422241210938e+00,3.813175678253173828e+00,8.933765411376953125e+00,4.718197822570800781e+00,3.888833045959472656e+00,5.712396144866943359e+00,3.663424491882324219e+00,7.415613651275634766e+00,-4.342225790023803711e-01,1.646409034729003906e+00,3.277010202407836914e+00,7.946608066558837891e+00,6.022452354431152344e+00,6.382966518402099609e+00,2.468010932207107544e-01,2.108054399490356445e+00,5.103213310241699219e+00,-3.200404882431030273e+00,5.346200428903102875e-03
1.566640973091125488e+00,6.375731945037841797e+00,1.352526783943176270e+00,2.294384717941284180e+00,8.355916976928710938e+00,3.863305568695068359e+00,4.131849288940429688e+00,4.932708740234375000e+00,2.943606853485107422e+00,5.928011417388916016e+00,1.780069917440414429e-01,6.606827974319458008e-01,3.433475255966186523e+00,7.910167217254638672e+00,5.731624603271484375e+00,6.370320320129394531e+00,-1.788199663162231445e+00,8.442904353141784668e-01,5.319398403167724609e+00,-3.880055665969848633e+00,-9.662268683314323425e-03
1.069759845733642578e+00,5.931400299072265625e+00,3.732296526432037354e-01,5.423088073730468750e-01,7.538856029510498047e+00,2.862351417541503906e+00,4.009320259094238281e+00,4.182114124298095703e+00,2.067389011383056641e+00,4.272487640380859375e+00,6.227144002914428711e-01,-8.858963102102279663e-02,3.407397747039794922e+00,7.667228221893310547e+00,5.217195034027099609e+00,6.255238533020019531e+00,-3.680079460144042969e+00,-4.435244798660278320e-01,5.269413471221923828e+00,-4.276808738708496094e+00,-2.323964051902294159e-02
5.420747399330139160e-01,5.294641494750976562e+00,-5.562567710876464844e-01,-1.299567103385925293e+00,6.519007205963134766e+00,1.764738559722900391e+00,3.473594903945922852e+00,3.533760070800781250e+00,1.025349378585815430e+00,2.542789697647094727e+00,7.391052842140197754e-01,-5.306227207183837891e-01,3.068390130996704102e+00,7.188436508178710938e+00,4.448474407196044922e+00,6.023810386657714844e+00,-5.293544292449951172e+00,-1.686517357826232910e+00,4.884528636932373047e+00,-4.307015419006347656e+00,-3.502513840794563293e-02
5.590805038809776306e-02,4.500442504882812500e+00,-1.400219202041625977e+00,-3.058475494384765625e+00,5.382997989654541016e+00,6.767916083335876465e-01,2.572324275970458984e+00,3.069106340408325195e+00,-1.278662830591201782e-01,8.584203124046325684e-01,4.323177337646484375e-01,-6.405662298202514648e-01,2.359801292419433594e+00,6.506182670593261719e+00,3.453228950500488281e+00,5.707651615142822266e+00,-6.511190414428710938e+00,-2.790671110153198242e+00,4.190986156463623047e+00,-3.945116043090820312e+00,-4.505483433604240417e-02
-2.882926166057586670e-01,3.650264501571655273e+00,-2.100388526916503906e+00,-4.562625408172607422e+00,4.248957633972167969e+00,-2.736853063106536865e-01,1.434163570404052734e+00,2.853819608688354492e+00,-1.283908486366271973e+00,-6.539064049720764160e-01,-2.969755232334136963e-01,-4.553189575672149658e-01,1.322995543479919434e+00,5.710557937622070312e+00,2.323530673980712891e+00,5.376317024230957031e+00,-7.256984710693359375e+00,-3.643383741378784180e+00,3.297503232955932617e+00,-3.234678030014038086e+00,-5.367748811841011047e-02
-3.914188742637634277e-01,2.877057552337646484e+00,-2.584398031234741211e+00,-5.671460151672363281e+00,3.246827840805053711e+00,-9.664057493209838867e-01,2.456298023462295532e-01,2.906186580657958984e+00,-2.307104825973510742e+00,-1.878808617591857910e+00,-1.347857475280761719e+00,-6.675154715776443481e-02,8.026748150587081909e-02,4.919994354248046875e+00,1.185063719749450684e+00,5.104420661926269531e+00,-7.523100376129150391e+00,-4.137519836425781250e+00,2.356534719467163086e+00,-2.280843496322631836e+00,-6.143426895141601562e-02
-1.945414543151855469e-01,2.292778968811035156e+00,-2.792099237442016602e+00,-6.314701080322265625e+00,2.478987932205200195e+00,-1.344448566436767578e+00,-7.992724776268005371e-01,3.185477495193481445e+00,-3.073088645935058594e+00,-2.756535053253173828e+00,-2.542041540145874023e+00,3.828119039535522461e-01,-1.203824996948242188e+00,4.234704494476318359e+00,1.547437608242034912e-01,4.927371978759765625e+00,-7.376625061035156250e+00,-4.214045524597167969e+00,1.518035411834716797e+00,-1.232903480529785156e+00,-6.887837499380111694e-02
2.795715332031250000e-01,1.951658129692077637e+00,-2.713154077529907227e+00,-6.507966518402099609e+00,1.995642542839050293e+00,-1.417479515075683594e+00,-1.543297290802001953e+00,3.574490070343017578e+00,-3.514966249465942383e+00,-3.299448013305664062e+00,-3.661546945571899414e+00,7.201727628707885742e-01,-2.377312660217285156e+00,3.696189880371093750e+00,-6.958182454109191895e-01,4.829995155334472656e+00,-6.971860885620117188e+00,-3.892638206481933594e+00,8.744778633117675781e-01,-2.662891745567321777e-01,-7.641868293285369873e-02
9.224365949630737305e-01,1.836201906204223633e+00,-2.404891729354858398e+00,-6.356672763824462891e+00,1.778087973594665527e+00,-1.275713443756103516e+00,-1.903397202491760254e+00,3.902823209762573242e+00,-3.646870136260986328e+00,-3.614687681198120117e+00,-4.494448184967041016e+00,7.593306899070739746e-01,-3.343978881835937500e+00,3.263961076736450195e+00,-1.368083715438842773e+00,4.717442512512207031e+00,-6.523489952087402344e+00,-3.284807205200195312e+00,4.296108782291412354e-01,4.522816538810729980e-01,-8.425965160131454468e-02
1.565301656723022461e+00,1.869439363479614258e+00,-1.997947573661804199e+00,-6.034564018249511719e+00,1.747571229934692383e+00,-1.064138412475585938e+00,-1.883656382560729980e+00,3.975139617919921875e+00,-3.566785573959350586e+00,-3.879447937011718750e+00,-4.874568939208984375e+00,3.383826911449432373e-01,-4.084939956665039062e+00,2.817560672760009766e+00,-1.919049143791198730e+00,4.458192348480224609e+00,-6.267437458038330078e+00,-2.598263978958129883e+00,1.022087782621383667e-01,7.909451723098754883e-01,-9.235315769910812378e-02
2.032718181610107422e+00,1.948159456253051758e+00,-1.658670902252197266e+00,-5.738810062408447266e+00,1.782025575637817383e+00,-9.492219686508178711e-01,-1.565080285072326660e+00,3.619375944137573242e+00,-3.432055234909057617e+00,-4.301827907562255859e+00,-4.713101863861083984e+00,-6.496026515960693359e-01,-4.646055698394775391e+00,2.200091123580932617e+00,-2.433478355407714844e+00,3.914399385452270508e+00,-6.406085968017578125e+00,-2.089915990829467773e+00,-2.426880747079849243e-01,6.782509684562683105e-01,-1.004947721958160400e-01
2.197452306747436523e+00,1.983146309852600098e+00,-1.551530957221984863e+00,-5.641201019287109375e+00,1.746586799621582031e+00,-1.060916423797607422e+00,-1.078366875648498535e+00,2.731629610061645508e+00,-3.412269830703735352e+00,-5.071383953094482422e+00,-4.010719776153564453e+00,-2.225710391998291016e+00,-5.106458663940429688e+00,1.268825411796569824e+00,-2.982982397079467773e+00,2.997539043426513672e+00,-7.052366733551025391e+00,-1.996992230415344238e+00,-7.387897372245788574e-01,1.217506900429725647e-01,-1.083477586507797241e-01
2.020664453506469727e+00,1.920170068740844727e+00,-1.777088880538940430e+00,-5.849107742309570312e+00,1.530016541481018066e+00,-1.472252726554870605e+00,-5.773583650588989258e-01,1.303588271141052246e+00,-3.642159223556518555e+00,-6.300406932830810547e+00,-2.858920812606811523e+00,-4.304094314575195312e+00,-5.538985729217529297e+00,-4.810583591461181641e-02,-3.582175493240356445e+00,1.708876252174377441e+00,-8.204042434692382812e+00,-2.479102849960327148e+00,-1.467321872711181641e+00,-7.908400297164916992e-01,-1.156475543975830078e-01
1.557265877723693848e+00,1.755732417106628418e+00,-2.343802928924560547e+00,-6.379122734069824219e+00,1.069312691688537598e+00,-2.146715402603149414e+00,-1.886683255434036255e-01,-5.650013685226440430e-01,-4.186733245849609375e+00,-7.991987705230712891e+00,-1.415135383605957031e+00,-6.697247505187988281e+00,-5.979605674743652344e+00,-1.720335125923156738e+00,-4.185752868652343750e+00,1.470523625612258911e-01,-9.742592811584472656e+00,-3.564671754837036133e+00,-2.417037963867187500e+00,-1.907906889915466309e+00,-1.222137585282325745e-01
9.251151680946350098e-01,1.517822623252868652e+00,-3.158630847930908203e+00,-7.161944389343261719e+00,3.644749522209167480e-01,-2.969388246536254883e+00,-3.513011615723371506e-03,-2.702076196670532227e+00,-5.015842437744140625e+00,-1.003074455261230469e+01,1.255301684141159058e-01,-9.142360687255859375e+00,-6.409434795379638672e+00,-3.604123830795288086e+00,-4.689951896667480469e+00,-1.507089972496032715e+00,-1.144998073577880859e+01,-5.136724472045898438e+00,-3.482969045639038086e+00,-3.046467065811157227e+00,-1.280824542045593262e-01
2.621605992317199707e-01,1.246675372123718262e+00,-4.047704696655273438e+00,-8.065800666809082031e+00,-5.155877470970153809e-01,-3.765211105346679688e+00,-5.320543050765991211e-02,-4.884037017822265625e+00,-6.012658119201660156e+00,-1.220445632934570312e+01,1.569988250732421875e+00,-1.134876060485839844e+01,-6.766427040100097656e+00,-5.481839179992675781e+00,-4.970550060272216797e+00,-3.041091918945312500e+00,-1.307798194885253906e+01,-6.962404251098632812e+00,-4.490168094635009766e+00,-4.033412456512451172e+00,-1.333859264850616455e-01
-3.164179623126983643e-01,9.720293879508972168e-01,-4.800504207611083984e+00,-8.928661346435546875e+00,-1.452746152877807617e+00,-4.349459171295166016e+00,-3.043904006481170654e-01,-6.887284755706787109e+00,-6.998167514801025391e+00,-1.424733352661132812e+01,2.764172315597534180e+00,-1.306116867065429688e+01,-6.962457656860351562e+00,-7.111554145812988281e+00,-4.925244808197021484e+00,-4.258934974670410156e+00,-1.438843250274658203e+01,-8.737795829772949219e+00,-5.243692398071289062e+00,-4.742689132690429688e+00,-1.383526772260665894e-01
-7.423160672187805176e-01,7.148768305778503418e-01,-5.226244926452636719e+00,-9.599233627319335938e+00,-2.304260969161987305e+00,-4.574995994567871094e+00,-6.685745716094970703e-01,-8.521469116210937500e+00,-7.767920017242431641e+00,-1.589358615875244141e+01,3.619948148727416992e+00,-1.410939693450927734e+01,-6.913000583648681641e+00,-8.281709671020507812e+00,-4.504348278045654297e+00,-5.025303840637207031e+00,-1.520131492614746094e+01,-1.016772937774658203e+01,-5.578592300415039062e+00,-5.115625381469726562e+00,-1.431390196084976196e-01
-9.833904504776000977e-01,4.874629974365234375e-01,-5.192410945892333984e+00,-9.962337493896484375e+00,-2.935267925262451172e+00,-4.377382755279541016e+00,-1.019144415855407715e+00,-9.662738800048828125e+00,-8.133481979370117188e+00,-1.692996215820312500e+01,4.124532699584960938e+00,-1.444299221038818359e+01,-6.559605598449707031e+00,-8.861725807189941406e+00,-3.725397348403930664e+00,-5.289612770080566406e+00,-1.541935062408447266e+01,-1.101278972625732422e+01,-5.402395248413085938e+00,-5.164421081542968750e+00,-1.477570235729217529e-01
-1.027587413787841797e+00,3.212759792804718018e-01,-4.653891563415527344e+00,-9.953553199768066406e+00,-3.248310327529907227e+00,-3.773802995681762695e+00,-1.222679138183593750e+00,-1.026205062866210938e+01,-7.959180831909179688e+00,-1.723386955261230469e+01,4.337131500244140625e+00,-1.413500022888183594e+01,-5.882489204406738281e+00,-8.817187309265136719e+00,-2.671694278717041016e+00,-5.083477020263671875e+00,-1.502353191375732422e+01,-1.114506912231445312e+01,-4.716350078582763672e+00,-4.957621574401855469e+00,-1.520382761955261230e-01
-8.641925454139709473e-01,2.670465111732482910e-01,-3.650159120559692383e+00,-9.568974494934082031e+00,-3.204996347427368164e+00,-2.860915660858154297e+00,-1.162775874137878418e+00,-1.034600448608398438e+01,-7.186601638793945312e+00,-1.678367424011230469e+01,4.365387916564941406e+00,-1.335108852386474609e+01,-4.900536537170410156e+00,-8.206803321838378906e+00,-1.457231998443603516e+00,-4.499215602874755859e+00,-1.406193828582763672e+01,-1.054489135742187500e+01,-3.600434064865112305e+00,-4.587589263916015625e+00,-1.556220352649688721e-01
-4.731163084506988525e-01,3.895001113414764404e-01,-2.291172981262207031e+00,-8.853503227233886719e+00,-2.827967166900634766e+00,-1.779412508010864258e+00,-7.727244496345520020e-01,-1.000686550140380859e+01,-5.838356494903564453e+00,-1.565664100646972656e+01,4.341167926788330078e+00,-1.230737781524658203e+01,-3.665002107620239258e+00,-7.155080318450927734e+00,-1.974648982286453247e-01,-3.656969070434570312e+00,-1.262513828277587891e+01,-9.298618316650390625e+00,-2.194604396820068359e+00,-4.147849559783935547e+00,-1.580753326416015625e-01
1.617129296064376831e-01,7.551115751266479492e-01,-7.273048758506774902e-01,-7.888153076171875000e+00,-2.192038297653198242e+00,-6.753557920455932617e-01,-5.184399709105491638e-02,-9.375135421752929688e+00,-4.016200542449951172e+00,-1.400111675262451172e+01,4.384225845336914062e+00,-1.120944881439208984e+01,-2.245126724243164062e+00,-5.813855648040771484e+00,1.021381616592407227e+00,-2.670553922653198242e+00,-1.082270908355712891e+01,-7.558209896087646484e+00,-6.500662565231323242e-01,-3.702300786972045898e+00,-1.590013355016708374e-01
1.029580712318420410e+00,1.393619656562805176e+00,8.835543990135192871e-01,-6.771509647369384766e+00,-1.410416603088378906e+00,3.277464210987091064e-01,9.317936301231384277e-01,-8.597942352294921875e+00,-1.873706698417663574e+00,-1.199944782257080078e+01,4.576641082763671875e+00,-1.021694564819335938e+01,-7.209414243698120117e-01,-4.332940578460693359e+00,2.158387184143066406e+00,-1.633553385734558105e+00,-8.764226913452148438e+00,-5.511699199676513672e+00,8.882237076759338379e-01,-3.282892465591430664e+00,-1.580993980169296265e-01
2.080933094024658203e+00,2.291029691696166992e+00,2.397611618041992188e+00,-5.591420650482177734e+00,-6.061534881591796875e-01,1.159011006355285645e+00,2.052255630493164062e+00,-7.807448863983154297e+00,3.978644013404846191e-01,-9.839127540588378906e+00,4.945324420928955078e+00,-9.414960861206054688e+00,8.230268359184265137e-01,-2.841902971267700195e+00,3.206244468688964844e+00,-6.142577528953552246e-01,-6.554797649383544922e+00,-3.349307298660278320e+00,2.311547994613647461e+00,-2.885558128356933594e+00,-1.553694903850555420e-01
3.219339847564697266e+00,3.386114597320556641e+00,3.708666801452636719e+00,-4.412307739257812500e+00,1.065595000982284546e-01,1.802328109741210938e+00,3.152296066284179688e+00,-7.099246501922607422e+00,2.601599216461181641e+00,-7.686019420623779297e+00,5.452600002288818359e+00,-8.822319984436035156e+00,2.295956373214721680e+00,-1.445004463195800781e+00,4.167876243591308594e+00,3.316890299320220947e-01,-4.286107063293457031e+00,-1.242669343948364258e+00,3.537431478500366211e+00,-2.482995986938476562e+00,-1.510280966758728027e-01
4.321585655212402344e+00,4.589658737182617188e+00,4.751872062683105469e+00,-3.260525465011596680e+00,6.332189440727233887e-01,2.294213294982910156e+00,4.069903850555419922e+00,-6.521546363830566406e+00,4.552832603454589844e+00,-5.670957565307617188e+00,6.004952430725097656e+00,-8.408902168273925781e+00,3.596234798431396484e+00,-2.252487689256668091e-01,5.028668403625488281e+00,1.149907708168029785e+00,-2.036425113677978516e+00,6.650021076202392578e-01,4.507141590118408203e+00,-2.035704374313354492e+00,-1.455682814121246338e-01
5.264454364776611328e+00,5.805448055267333984e+00,5.509370803833007812e+00,-2.123384237289428711e+00,9.118070006370544434e-01,2.711993455886840820e+00,4.675743103027343750e+00,-6.078504562377929688e+00,6.103643894195556641e+00,-3.885629177093505859e+00,6.469842910766601562e+00,-8.117476463317871094e+00,4.620451450347900391e+00,7.454945445060729980e-01,5.740393161773681641e+00,1.772108078002929688e+00,1.215702742338180542e-01,2.264385223388671875e+00,5.163195133209228516e+00,-1.504763722419738770e+00,-1.396394520998001099e-01
5.959552288055419922e+00,6.965258598327636719e+00,6.005598068237304688e+00,-9.628170728683471680e-01,9.147602319717407227e-01,3.148031473159790039e+00,4.896296024322509766e+00,-5.741027832031250000e+00,7.156047344207763672e+00,-2.390815734863281250e+00,6.706661701202392578e+00,-7.899095535278320312e+00,5.270590782165527344e+00,1.407503008842468262e+00,6.210978984832763672e+00,2.124941110610961914e+00,2.125263452529907227e+00,3.486606836318969727e+00,5.463105678558349609e+00,-8.669376969337463379e-01,-1.339391171932220459e-01
6.365360736846923828e+00,8.023607254028320312e+00,6.296003818511962891e+00,2.611957788467407227e-01,6.479851007461547852e-01,3.689320087432861328e+00,4.722712516784667969e+00,-5.465062141418457031e+00,7.674241065979003906e+00,-1.216392993927001953e+00,6.598343849182128906e+00,-7.713848590850830078e+00,5.475613594055175781e+00,1.721299052238464355e+00,6.332279205322265625e+00,2.135058164596557617e+00,3.920983791351318359e+00,4.303243160247802734e+00,5.374382019042968750e+00,-1.175792813301086426e-01,-1.291166841983795166e-01
6.493933677673339844e+00,8.963001251220703125e+00,6.451074600219726562e+00,1.571104288101196289e+00,1.449514925479888916e-01,4.392780303955078125e+00,4.211493492126464844e+00,-5.220682144165039062e+00,7.687431335449218750e+00,-3.613309264183044434e-01,6.076939582824707031e+00,-7.539143562316894531e+00,5.213939666748046875e+00,1.673723578453063965e+00,6.013683795928955078e+00,1.756932377815246582e+00,5.466242790222167969e+00,4.732879161834716797e+00,4.894525527954101562e+00,7.253037095069885254e-01,-1.256050914525985718e-01
6.392146587371826172e+00,9.769446372985839844e+00,6.538478374481201172e+00,2.955195426940917969e+00,-5.451200604438781738e-01,5.262708187103271484e+00,3.464745759963989258e+00,-4.987108707427978516e+00,7.283240318298339844e+00,2.052764892578125000e-01,5.143794059753417969e+00,-7.362179756164550781e+00,4.517040729522705078e+00,1.291094779968261719e+00,5.209887981414794922e+00,9.880344867706298828e-01,6.739795207977294922e+00,4.830175876617431641e+00,4.067273139953613281e+00,1.626276493072509766e+00,-1.235606744885444641e-01
6.125625610351562500e+00,1.042719650268554688e+01,6.603326320648193359e+00,4.364664554595947266e+00,-1.372024536132812500e+00,6.245404720306396484e+00,2.605679512023925781e+00,-4.764340877532958984e+00,6.585092544555664062e+00,5.462711453437805176e-01,3.868876695632934570e+00,-7.176179885864257812e+00,3.469444274902343750e+00,6.381965279579162598e-01,3.945736408233642578e+00,-1.235794872045516968e-01,7.739405632019042969e+00,4.681498050689697266e+00,2.980098247528076172e+00,2.539448022842407227e+00,-1.228872165083885193e-01
5.765353202819824219e+00,1.091176319122314453e+01,6.653137207031250000e+00,5.726305961608886719e+00,-2.289494752883911133e+00,7.232397079467773438e+00,1.752739667892456055e+00,-4.563184738159179688e+00,5.724891662597656250e+00,7.440686225891113281e-01,2.374632835388183594e+00,-6.976624488830566406e+00,2.195243120193481445e+00,-1.898201853036880493e-01,2.310377597808837891e+00,-1.486855745315551758e+00,8.494144439697265625e+00,4.384141445159912109e+00,1.751715540885925293e+00,3.416604042053222656e+00,-1.231758370995521545e-01
5.374277114868164062e+00,1.120215320587158203e+01,6.663475036621093750e+00,6.960079669952392578e+00,-3.265045404434204102e+00,8.082993507385253906e+00,9.971425533294677734e-01,-4.393615245819091797e+00,4.822293281555175781e+00,8.924167752265930176e-01,8.104199171066284180e-01,-6.768033027648925781e+00,8.239260315895080566e-01,-1.088694095611572266e+00,4.411873221397399902e-01,-2.986712694168090820e+00,9.053211212158203125e+00,4.034310817718505859e+00,5.120862126350402832e-01,4.215919971466064453e+00,-1.238492950797080994e-01
5.008647441864013672e+00,1.129486751556396484e+01,6.585469722747802734e+00,7.996684074401855469e+00,-4.268159389495849609e+00,8.667241096496582031e+00,3.960685133934020996e-01,-4.249813556671142578e+00,3.958323717117309570e+00,1.075791597366333008e+00,-6.804599761962890625e-01,-6.563207149505615234e+00,-5.303058624267578125e-01,-1.958212852478027344e+00,-1.505459666252136230e+00,-4.496686458587646484e+00,9.480337142944335938e+00,3.705250978469848633e+00,-6.263233423233032227e-01,4.906607627868652344e+00,-1.243183091282844543e-01
4.714001178741455078e+00,1.121789741516113281e+01,6.370249748229980469e+00,8.791218757629394531e+00,-5.265366554260253906e+00,8.887408256530761719e+00,-3.006101772189140320e-02,-4.113492965698242188e+00,3.173496246337890625e+00,1.349823474884033203e+00,-1.986998200416564941e+00,-6.382478237152099609e+00,-1.785623073577880859e+00,-2.714360237121582031e+00,-3.381957292556762695e+00,-5.908019065856933594e+00,9.838139533996582031e+00,3.448343992233276367e+00,-1.583537101745605469e+00,5.469497680664062500e+00,-1.240777894854545593e-01
4.526498794555664062e+00,1.103596591949462891e+01,5.996199607849121094e+00,9.321233749389648438e+00,-6.214338302612304688e+00,8.716645240783691406e+00,-2.887338995933532715e-01,-3.951404571533203125e+00,2.471579790115356445e+00,1.735116481781005859e+00,-3.049317359924316406e+00,-6.244672298431396484e+00,-2.888971328735351562e+00,-3.292352199554443359e+00,-5.064082622528076172e+00,-7.123332977294921875e+00,1.016910743713378906e+01,3.288733720779418945e+00,-2.322066307067871094e+00,5.899362087249755859e+00,-1.228992417454719543e-01
4.462212085723876953e+00,1.083304309844970703e+01,5.479296207427978516e+00,9.585753440856933594e+00,-7.059946537017822266e+00,8.205428123474121094e+00,-4.078595638275146484e-01,-3.724480628967285156e+00,1.836557507514953613e+00,2.217247962951660156e+00,-3.863380908966064453e+00,-6.155060768127441406e+00,-3.812474966049194336e+00,-3.641576766967773438e+00,-6.450995445251464844e+00,-8.068015098571777344e+00,1.049001121520996094e+01,3.231886148452758789e+00,-2.834413051605224609e+00,6.202590942382812500e+00,-1.208427920937538147e-01
4.509088039398193359e+00,1.070184230804443359e+01,4.877808570861816406e+00,9.592585563659667969e+00,-7.749033451080322266e+00,7.474043846130371094e+00,-4.310039579868316650e-01,-3.405290842056274414e+00,1.246759295463562012e+00,2.757070302963256836e+00,-4.469555377960205078e+00,-6.092558383941650391e+00,-4.533652782440185547e+00,-3.720531940460205078e+00,-7.478392601013183594e+00,-8.682627677917480469e+00,1.078407955169677734e+01,3.271242141723632812e+00,-3.139321804046630859e+00,6.398934364318847656e+00,-1.182571947574615479e-01
4.628285884857177734e+00,1.071933555603027344e+01,4.281960010528564453e+00,9.350516319274902344e+00,-8.244192123413085938e+00,6.666407108306884766e+00,-4.078595638275146484e-01,-2.984692096710205078e+00,6.899369955062866211e-01,3.301013469696044922e+00,-4.931755065917968750e+00,-6.013489723205566406e+00,-5.029125690460205078e+00,-3.496825695037841797e+00,-8.105353355407714844e+00,-8.929231643676757812e+00,1.101888751983642578e+01,3.388216733932495117e+00,-3.266783714294433594e+00,6.520923137664794922e+00,-1.156355291604995728e-01
4.754179954528808594e+00,1.092225933074951172e+01,3.789491891860961914e+00,8.870281219482421875e+00,-8.541483879089355469e+00,5.918913364410400391e+00,-3.922030329704284668e-01,-2.493439197540283203e+00,1.679749935865402222e-01,3.799628019332885742e+00,-5.312548637390136719e+00,-5.864387989044189453e+00,-5.279109954833984375e+00,-2.963372468948364258e+00,-8.333338737487792969e+00,-8.795180320739746094e+00,1.115641784667968750e+01,3.554386377334594727e+00,-3.251788139343261719e+00,6.604572296142578125e+00,-1.134227365255355835e-01
4.810431003570556641e+00,1.130011558532714844e+01,3.478409767150878906e+00,8.166522979736328125e+00,-8.675363540649414062e+00,5.326073646545410156e+00,-4.323654174804687500e-01,-1.989717841148376465e+00,-3.059363365173339844e-01,4.207585334777832031e+00,-5.648265361785888672e+00,-5.603837013244628906e+00,-5.272815227508544922e+00,-2.146490573883056641e+00,-8.198885917663574219e+00,-8.309560775756835938e+00,1.117766284942626953e+01,3.730395078659057617e+00,-3.138072252273559570e+00,6.682993412017822266e+00,-1.118473336100578308e-01
4.722036838531494141e+00,1.179867744445800781e+01,3.390066385269165039e+00,7.261690616607666016e+00,-8.714739799499511719e+00,4.913663387298583984e+00,-5.610211491584777832e-01,-1.566625237464904785e+00,-7.129536271095275879e-01,4.498100280761718750e+00,-5.938906192779541016e+00,-5.228824615478515625e+00,-5.023730278015136719e+00,-1.126147150993347168e+00,-7.786757469177246094e+00,-7.540662288665771484e+00,1.108150291442871094e+01,3.870327472686767578e+00,-2.976870536804199219e+00,6.774194717407226562e+00,-1.108491718769073486e-01
4.434086799621582031e+00,1.233222484588623047e+01,3.513183355331420898e+00,6.188971042633056641e+00,-8.749194145202636719e+00,4.645166873931884766e+00,-7.890616655349731445e-01,-1.328064203262329102e+00,-1.037060022354125977e+00,4.637176513671875000e+00,-6.149486541748046875e+00,-4.785284996032714844e+00,-4.582211017608642578e+00,-3.393440321087837219e-02,-7.216793537139892578e+00,-6.598509311676025391e+00,1.089365673065185547e+01,3.928268194198608398e+00,-2.821916818618774414e+00,6.873528003692626953e+00,-1.100674793124198914e-01
3.922473430633544922e+00,1.280979347229003906e+01,3.785732507705688477e+00,4.990336418151855469e+00,-8.866338729858398438e+00,4.436813831329345703e+00,-1.101511240005493164e+00,-1.366300463676452637e+00,-1.272602438926696777e+00,4.613482475280761719e+00,-6.222819328308105469e+00,-4.358313083648681641e+00,-4.029188156127929688e+00,9.651517868041992188e-01,-6.621984481811523438e+00,-5.613358974456787109e+00,1.064207744598388672e+01,3.860488414764404297e+00,-2.730694055557250977e+00,6.955434799194335938e+00,-1.090212166309356689e-01
3.204607486724853516e+00,1.315616226196289062e+01,4.113731384277343750e+00,3.716543197631835938e+00,-9.129177093505859375e+00,4.184427261352539062e+00,-1.460930466651916504e+00,-1.727882623672485352e+00,-1.424291729927062988e+00,4.424956321716308594e+00,-6.102391719818115234e+00,-4.050320625305175781e+00,-3.463575839996337891e+00,1.704090833663940430e+00,-6.119246959686279297e+00,-4.709145069122314453e+00,1.034912681579589844e+01,3.644030570983886719e+00,-2.748188734054565430e+00,6.982155799865722656e+00,-1.073375716805458069e-01
2.331382513046264648e+00,1.333284568786621094e+01,4.387220382690429688e+00,2.424204111099243164e+00,-9.557394981384277344e+00,3.796718597412109375e+00,-1.817626714706420898e+00,-2.396186113357543945e+00,-1.507202744483947754e+00,4.099414825439453125e+00,-5.755237579345703125e+00,-3.945648193359375000e+00,-2.976196289062500000e+00,2.050278902053833008e+00,-5.786036968231201172e+00,-3.979450941085815430e+00,1.001145076751708984e+01,3.284360885620117188e+00,-2.896894454956054688e+00,6.920000076293945312e+00,-1.048241406679153442e-01
1.393870949745178223e+00,1.335383796691894531e+01,4.518795490264892578e+00,1.176765203475952148e+00,-1.012047767639160156e+01,3.215692520141601562e+00,-2.121907711029052734e+00,-3.283101081848144531e+00,-1.541120767593383789e+00,3.699698925018310547e+00,-5.182029247283935547e+00,-4.083454132080078125e+00,-2.628196477890014648e+00,1.953103303909301758e+00,-5.642815113067626953e+00,-3.468538522720336914e+00,9.610040664672851562e+00,2.815368652343750000e+00,-3.173061847686767578e+00,6.750377655029296875e+00,-1.016492694616317749e-01
5.085921883583068848e-01,1.327511787414550781e+01,4.463346004486083984e+00,4.645667970180511475e-02,-1.073179626464843750e+01,2.432757377624511719e+00,-2.331568956375122070e+00,-4.233189105987548828e+00,-1.544889450073242188e+00,3.304104089736938477e+00,-4.423806190490722656e+00,-4.447924613952636719e+00,-2.433964014053344727e+00,1.427747964859008789e+00,-5.661814212799072266e+00,-3.175143241882324219e+00,9.105763435363769531e+00,2.299368143081665039e+00,-3.547949552536010742e+00,6.478517532348632812e+00,-9.816172719001770020e-02
-2.012379765510559082e-01,1.318240261077880859e+01,4.234028816223144531e+00,-8.847301602363586426e-01,-1.126436233520507812e+01,1.485502481460571289e+00,-2.423465728759765625e+00,-5.069399833679199219e+00,-1.532641291618347168e+00,3.003287076950073242e+00,-3.546501636505126953e+00,-4.977309703826904297e+00,-2.368320465087890625e+00,5.663270950317382812e-01,-5.784575462341308594e+00,-3.072707891464233398e+00,8.467309951782226562e+00,1.807418584823608398e+00,-3.985318899154663086e+00,6.126493453979492188e+00,-9.484254568815231323e-02
-6.311540007591247559e-01,1.315441322326660156e+01,3.898511409759521484e+00,-1.546517014503479004e+00,-1.157445144653320312e+01,4.512546956539154053e-01,-2.391472101211547852e+00,-5.618838310241699219e+00,-1.522277355194091797e+00,2.864210605621337891e+00,-2.638248920440673828e+00,-5.585764408111572266e+00,-2.384506464004516602e+00,-5.026040077209472656e-01,-5.967256546020507812e+00,-3.133410215377807617e+00,7.671199321746826172e+00,1.400740146636962891e+00,-4.451429367065429688e+00,5.723350048065185547e+00,-9.205251187086105347e-02
-7.235658168792724609e-01,1.324362945556640625e+01,3.546077251434326172e+00,-1.890099525451660156e+00,-1.153310585021972656e+01,-5.701051950454711914e-01,-2.258732080459594727e+00,-5.763471126556396484e+00,-1.536409974098205566e+00,2.900267362594604492e+00,-1.789201021194458008e+00,-6.191959381103515625e+00,-2.442956209182739258e+00,-1.649477958679199219e+00,-6.198164939880371094e+00,-3.354721307754516602e+00,6.719668865203857422e+00,1.102290749549865723e+00,-4.940033435821533203e+00,5.294647216796875000e+00,-8.997200429439544678e-02
-4.905272424221038818e-01,1.344480323791503906e+01,3.264129877090454102e+00,-1.912549614906311035e+00,-1.106649589538574219e+01,-1.480844616889953613e+00,-2.064046621322631836e+00,-5.461737155914306641e+00,-1.605188369750976562e+00,3.054796695709228516e+00,-1.089510083198547363e+00,-6.731887340545654297e+00,-2.539173126220703125e+00,-2.777119398117065430e+00,-6.509453296661376953e+00,-3.758139848709106445e+00,5.637316703796386719e+00,8.923921585083007812e-01,-5.473623752593994141e+00,4.857811927795410156e+00,-8.854091167449951172e-02
-1.239636074751615524e-02,1.369845676422119141e+01,3.101540327072143555e+00,-1.667551755905151367e+00,-1.017658901214599609e+01,-2.201488733291625977e+00,-1.875487804412841797e+00,-4.746053695678710938e+00,-1.767241477966308594e+00,3.215507268905639648e+00,-6.158730983734130859e-01,-7.170155525207519531e+00,-2.701033592224121094e+00,-3.824793338775634766e+00,-6.963963031768798828e+00,-4.381604671478271484e+00,4.474459171295166016e+00,7.054513096809387207e-01,-6.095937728881835938e+00,4.426785945892333984e+00,-8.748262375593185425e-02
5.742180347442626953e-01,1.391712474822998047e+01,3.058308362960815430e+00,-1.254667043685913086e+00,-8.950014114379882812e+00,-2.682634115219116211e+00,-1.767934322357177734e+00,-3.714505910873413086e+00,-2.054603338241577148e+00,3.243322372436523438e+00,-4.207669794559478760e-01,-7.488690376281738281e+00,-2.980692386627197266e+00,-4.758083343505859375e+00,-7.620152950286865234e+00,-5.241556644439697266e+00,3.307129144668579102e+00,4.594764709472656250e-01,-6.848212718963623047e+00,4.017833709716796875e+00,-8.653256297111511230e-02
1.121992588043212891e+00,1.401508712768554688e+01,3.091202259063720703e+00,-7.949301600456237793e-01,-7.537385463714599609e+00,-2.907097101211547852e+00,-1.811500310897827148e+00,-2.490114212036132812e+00,-2.474810838699340820e+00,3.020800352096557617e+00,-5.223567485809326172e-01,-7.685233116149902344e+00,-3.418614625930786133e+00,-5.548646926879882812e+00,-8.488251686096191406e+00,-6.310173034667968750e+00,2.232604026794433594e+00,8.668793737888336182e-02,-7.732948303222656250e+00,3.654772281646728516e+00,-8.542617410421371460e-02
1.511729598045349121e+00,1.394686317443847656e+01,3.145711898803710938e+00,-3.976628184318542480e-01,-6.115897178649902344e+00,-2.874877452850341797e+00,-2.047028779983520508e+00,-1.200055837631225586e+00,-2.994888544082641602e+00,2.490249633789062500e+00,-8.836394548416137695e-01,-7.766561031341552734e+00,-4.014800548553466797e+00,-6.152957439422607422e+00,-9.509803771972656250e+00,-7.495135784149169922e+00,1.367169618606567383e+00,-4.304058253765106201e-01,-8.702657699584960938e+00,3.364904165267944336e+00,-8.411533385515213013e-02
1.693874597549438477e+00,1.373344421386718750e+01,3.178605794906616211e+00,-1.243585124611854553e-01,-4.846992492675781250e+00,-2.593493223190307617e+00,-2.468393325805664062e+00,5.010376870632171631e-02,-3.536636114120483398e+00,1.673304796218872070e+00,-1.413789868354797363e+00,-7.756771564483642578e+00,-4.709900856018066406e+00,-6.514329433441162109e+00,-1.055766105651855469e+01,-8.661128997802734375e+00,8.204029798507690430e-01,-1.043703079223632812e+00,-9.642376899719238281e+00,3.167398929595947266e+00,-8.269626647233963013e-02
1.688517451286315918e+00,1.345879840850830078e+01,3.180485486984252930e+00,2.498277090489864349e-02,-3.835018873214721680e+00,-2.071536540985107422e+00,-3.017732620239257812e+00,1.187216997146606445e+00,-3.998299360275268555e+00,6.637133955955505371e-01,-1.972869873046875000e+00,-7.698787689208984375e+00,-5.400505065917968750e+00,-6.580125331878662109e+00,-1.146521854400634766e+01,-9.655131340026855469e+00,6.672188043594360352e-01,-1.649347782135009766e+00,-1.040589904785156250e+01,3.059351921081542969e+00,-8.140948414802551270e-02
1.582712531089782715e+00,1.324362945556640625e+01,3.170147418975830078e+00,1.011175438761711121e-01,-3.116399288177490234e+00,-1.328338742256164551e+00,-3.599746704101562500e+00,2.161410570144653320e+00,-4.278123855590820312e+00,-4.087198972702026367e-01,-2.398739337921142578e+00,-7.661889076232910156e+00,-5.969714164733886719e+00,-6.336174011230468750e+00,-1.208779525756835938e+01,-1.036585617065429688e+01,9.087353944778442383e-01,-2.123805999755859375e+00,-1.085201549530029297e+01,3.005909204483032227e+00,-8.054360747337341309e-02
1.480925559997558594e+00,1.320164585113525391e+01,3.178605794906616211e+00,1.782284080982208252e-01,-2.663570642471313477e+00,-3.982675969600677490e-01,-4.106201171875000000e+00,2.947747707366943359e+00,-4.321463584899902344e+00,-1.421401858329772949e+00,-2.549442052841186523e+00,-7.724390983581542969e+00,-6.333899974822998047e+00,-5.837137222290039062e+00,-1.234939384460449219e+01,-1.075409984588623047e+01,1.452147722244262695e+00,-2.365407943725585938e+00,-1.090450000762939453e+01,2.946076631546020508e+00,-8.031511306762695312e-02
1.479586243629455566e+00,1.339582157135009766e+01,3.222777605056762695e+00,3.217131793498992920e-01,-2.401717662811279297e+00,6.445720195770263672e-01,-4.452005863189697266e+00,3.531266450881958008e+00,-4.141509056091308594e+00,-2.295007467269897461e+00,-2.344244241714477539e+00,-7.962350845336914062e+00,-6.475977420806884766e+00,-5.212581634521484375e+00,-1.227193737030029297e+01,-1.087550449371337891e+01,2.110727548599243164e+00,-2.349009513854980469e+00,-1.059209346771240234e+01,2.810727596282958984e+00,-8.078412711620330811e-02
1.638963222503662109e+00,1.382266044616699219e+01,3.290444850921630859e+00,5.628066062927246094e-01,-2.237321138381958008e+00,1.685263752937316895e+00,-4.599721431732177734e+00,3.911966562271118164e+00,-3.825882196426391602e+00,-3.007902622222900391e+00,-1.788528203964233398e+00,-8.416432380676269531e+00,-6.455295562744140625e+00,-4.654834270477294922e+00,-1.197526359558105469e+01,-1.086032867431640625e+01,2.635131597518920898e+00,-2.127085447311401367e+00,-1.005100536346435547e+01,2.548161506652832031e+00,-8.184242248535156250e-02
1.973788857460021973e+00,1.441043758392333984e+01,3.340255737304687500e+00,8.907718062400817871e-01,-2.078830957412719727e+00,2.584189414978027344e+00,-4.568408489227294922e+00,4.100654125213623047e+00,-3.507428884506225586e+00,-3.590993165969848633e+00,-9.791741371154785156e-01,-9.077599525451660156e+00,-6.383357524871826172e+00,-4.364320278167724609e+00,-1.163913154602050781e+01,-1.086918163299560547e+01,2.784961462020874023e+00,-1.827542901039123535e+00,-9.499919891357421875e+00,2.146761178970336914e+00,-8.320136368274688721e-02
2.472009181976318359e+00,1.504894542694091797e+01,3.323338747024536133e+00,1.266565203666687012e+00,-1.847494721412658691e+00,3.210322618484497070e+00,-4.416608333587646484e+00,4.130578041076660156e+00,-3.319937229156494141e+00,-4.097849369049072266e+00,-7.563097774982452393e-02,-9.881843566894531250e+00,-6.383357524871826172e+00,-4.490850925445556641e+00,-1.143891334533691406e+01,-1.104623031616210938e+01,2.384670019149780273e+00,-1.602339267730712891e+00,-9.177515983581542969e+00,1.643703460693359375e+00,-8.450017124414443970e-02
3.112195730209350586e+00,1.563322448730468750e+01,3.202101469039916992e+00,1.640406489372253418e+00,-1.486216187477111816e+00,3.485262870788574219e+00,-4.220561504364013672e+00,4.040806293487548828e+00,-3.350086688995361328e+00,-4.579980850219726562e+00,7.411236166954040527e-01,-1.071244430541992188e+01,-6.538923263549804688e+00,-5.091112136840820312e+00,-1.149444770812988281e+01,-1.146861839294433594e+01,1.391768574714660645e+00,-1.579381585121154785e+00,-9.263740539550781250e+00,1.119152545928955078e+00,-8.539009839296340942e-02
3.872919321060180664e+00,1.608630180358886719e+01,2.970904588699340820e+00,1.978132486343383789e+00,-9.615255594253540039e-01,3.414379835128784180e+00,-4.051743507385253906e+00,3.881211280822753906e+00,-3.606356620788574219e+00,-5.065202713012695312e+00,1.319714188575744629e+00,-1.143310165405273438e+01,-6.868039131164550781e+00,-6.100320816040039062e+00,-1.183058071136474609e+01,-1.213381576538085938e+01,-9.758365899324417114e-02,-1.822076797485351562e+00,-9.826072692871093750e+00,6.712802052497863770e-01,-8.563061803579330444e-02
4.730072975158691406e+00,1.638718795776367188e+01,2.655123710632324219e+00,2.263149976730346680e+00,-2.763760685920715332e-01,3.090036392211914062e+00,-3.950997114181518555e+00,3.698342323303222656e+00,-4.018085002899169922e+00,-5.549394607543945312e+00,1.571333765983581543e+00,-1.191655158996582031e+01,-7.320349216461181641e+00,-7.351456165313720703e+00,-1.238300800323486328e+01,-1.296847534179687500e+01,-1.866468906402587891e+00,-2.315119743347167969e+00,-1.080078029632568359e+01,3.883828818798065186e-01,-8.517362922430038452e-02
5.647494792938232422e+00,1.655162620544433594e+01,2.299870014190673828e+00,2.496434688568115234e+00,5.337935090065002441e-01,2.667960166931152344e+00,-3.936021327972412109e+00,3.524616479873657227e+00,-4.464673519134521484e+00,-6.007831573486328125e+00,1.486563563346862793e+00,-1.207318305969238281e+01,-7.805930137634277344e+00,-8.624860763549804688e+00,-1.302604389190673828e+01,-1.386004257202148438e+01,-3.637590408325195312e+00,-2.974332332611083984e+00,-1.201666736602783203e+01,3.262267708778381348e-01,-8.405520766973495483e-02
6.567595481872558594e+00,1.662334823608398438e+01,1.944616198539733887e+00,2.678962945938110352e+00,1.398105621337890625e+00,2.323210954666137695e+00,-4.004774093627929688e+00,3.376658916473388672e+00,-4.825524330139160156e+00,-6.414758682250976562e+00,1.121917009353637695e+00,-1.187513446807861328e+01,-8.230363845825195312e+00,-9.705939292907714844e+00,-1.361793041229248047e+01,-1.469723033905029297e+01,-5.148187160491943359e+00,-3.687112569808959961e+00,-1.325004863739013672e+01,4.888782203197479248e-01,-8.244372159242630005e-02
7.407337665557861328e+00,1.666008567810058594e+01,1.613798022270202637e+00,2.805854082107543945e+00,2.227963447570800781e+00,2.199702501296997070e+00,-4.145682811737060547e+00,3.254469156265258789e+00,-5.023379802703857422e+00,-6.750602245330810547e+00,5.729286670684814453e-01,-1.136382198333740234e+01,-8.542395591735839844e+00,-1.044487762451171875e+01,-1.405198001861572266e+01,-1.540795516967773438e+01,-6.209294795989990234e+00,-4.346325397491455078e+00,-1.430098438262939453e+01,8.327698111534118652e-01,-8.056766539812088013e-02
8.075649261474609375e+00,1.671781349182128906e+01,1.309294819831848145e+00,2.862467050552368164e+00,2.940676450729370117e+00,2.373688220977783203e+00,-4.350578784942626953e+00,3.149734973907470703e+00,-5.045049667358398438e+00,-7.014332294464111328e+00,-5.544758215546607971e-02,-1.064617729187011719e+01,-8.744720458984375000e+00,-1.078904151916503906e+01,-1.427850437164306641e+01,-1.596945285797119141e+01,-6.741525650024414062e+00,-4.891842842102050781e+00,-1.504326248168945312e+01,1.274833202362060547e+00,-7.861945033073425293e-02
8.505565643310546875e+00,1.686125946044921875e+01,1.027347564697265625e+00,2.830256223678588867e+00,3.488992929458618164e+00,2.845167636871337891e+00,-4.603806018829345703e+00,3.054144382476806641e+00,-4.946122169494628906e+00,-7.222431659698486328e+00,-6.757504940032958984e-01,-9.875819206237792969e+00,-8.895790100097656250e+00,-1.077993106842041016e+01,-1.430773258209228516e+01,-1.640828132629394531e+01,-6.771715164184570312e+00,-5.298521041870117188e+00,-1.545563888549804688e+01,1.714573025703430176e+00,-7.685162127017974854e-02
8.681014060974121094e+00,1.716214561462402344e+01,7.707754373550415039e-01,2.701412916183471680e+00,3.875865936279296875e+00,3.558293819427490234e+00,-4.889707565307617188e+00,2.966865777969360352e+00,-4.817986965179443359e+00,-7.398595333099365234e+00,-1.228775501251220703e+00,-9.222935676574707031e+00,-9.086425781250000000e+00,-1.053496742248535156e+01,-1.419812393188476562e+01,-1.678387832641601562e+01,-6.404967784881591797e+00,-5.587131500244140625e+00,-1.560309505462646484e+01,2.054398298263549805e+00,-7.549268007278442383e-02
8.640834808349609375e+00,1.769919204711914062e+01,5.649538636207580566e-01,2.483745574951171875e+00,4.152485370635986328e+00,4.426074028015136719e+00,-5.178331851959228516e+00,2.895380735397338867e+00,-4.757688045501708984e+00,-7.566516876220703125e+00,-1.686265707015991211e+00,-8.843404769897460938e+00,-9.398456573486328125e+00,-1.020295143127441406e+01,-1.403005790710449219e+01,-1.717085647583007812e+01,-5.786640644073486328e+00,-5.797029972076416016e+00,-1.561184215545654297e+01,2.218211650848388672e+00,-7.484328001737594604e-02
8.473422050476074219e+00,1.852837753295898438e+01,4.502952694892883301e-01,2.202632427215576172e+00,4.396618843078613281e+00,5.360441207885742188e+00,-5.443131446838378906e+00,2.849663496017456055e+00,-4.841541290283203125e+00,-7.751952171325683594e+00,-2.045530080795288086e+00,-8.841145515441894531e+00,-9.892130851745605469e+00,-9.928632736206054688e+00,-1.388391304016113281e+01,-1.763118362426757812e+01,-5.058736801147460938e+00,-5.970852375030517578e+00,-1.561434173583984375e+01,2.166511535644531250e+00,-7.515595853328704834e-02
8.280563354492187500e+00,1.964620399475097656e+01,4.681519269943237305e-01,1.888332486152648926e+00,4.676191329956054688e+00,6.278698444366455078e+00,-5.665045261383056641e+00,2.842182397842407227e+00,-5.113828182220458984e+00,-7.973443984985351562e+00,-2.328097581863403320e+00,-9.243268013000488281e+00,-1.058813095092773438e+01,-9.828420639038085938e+00,-1.381814861297607422e+01,-1.820532798767089844e+01,-4.347604751586914062e+00,-6.151233673095703125e+00,-1.571681022644042969e+01,1.903945684432983398e+00,-7.661110162734985352e-02
8.135918617248535156e+00,2.096345520019531250e+01,6.279221177101135254e-01,1.556463003158569336e+00,5.018766403198242188e+00,7.101371288299560547e+00,-5.851562023162841797e+00,2.872937679290771484e+00,-5.584913253784179688e+00,-8.253657341003417969e+00,-2.570971012115478516e+00,-9.981997489929199219e+00,-1.147027015686035156e+01,-9.970134735107421875e+00,-1.386491489410400391e+01,-1.890087699890136719e+01,-3.747167587280273438e+00,-6.376437664031982422e+00,-1.597673320770263672e+01,1.478147506713867188e+00,-7.919669896364212036e-02
8.067613601684570312e+00,2.227545738220214844e+01,8.976517319679260254e-01,1.207999944686889648e+00,5.398748397827148438e+00,7.740392208099365234e+00,-6.040801525115966797e+00,2.937772989273071289e+00,-6.249142646789550781e+00,-8.608044624328613281e+00,-2.831336736679077148e+00,-1.090145683288574219e+01,-1.249808311462402344e+01,-1.036794757843017578e+01,-1.402128887176513672e+01,-1.967989158630371094e+01,-3.327867746353149414e+00,-6.683632850646972656e+00,-1.640160560607910156e+01,9.756707549095153809e-01,-8.262410759925842285e-02
8.042166709899902344e+00,2.329706954956054688e+01,1.199335455894470215e+00,8.292782902717590332e-01,5.749198436737060547e+00,8.101251602172851562e+00,-6.294028759002685547e+00,3.030038833618164062e+00,-7.081078529357910156e+00,-9.039696693420410156e+00,-3.170417785644531250e+00,-1.178552246093750000e+01,-1.361222267150878906e+01,-1.098642921447753906e+01,-1.425073623657226562e+01,-2.045890617370605469e+01,-3.137785434722900391e+00,-7.104523181915283203e+00,-1.694394302368164062e+01,5.028197765350341797e-01,-8.638825267553329468e-02
7.997970104217529297e+00,2.370641517639160156e+01,1.435231328010559082e+00,4.115131497383117676e-01,5.994316577911376953e+00,8.101251602172851562e+00,-6.673188686370849609e+00,3.157215833663940430e+00,-8.038322448730468750e+00,-9.528008460998535156e+00,-3.650782585144042969e+00,-1.239473056793212891e+01,-1.473625278472900391e+01,-1.173751544952392578e+01,-1.447579956054687500e+01,-2.111145782470703125e+01,-3.199282646179199219e+00,-7.648947238922119141e+00,-1.752127075195312500e+01,1.670607328414916992e-01,-8.986376971006393433e-02
7.872075557708740234e+00,2.324633979797363281e+01,1.516996145248413086e+00,-2.479765750467777252e-02,6.079960346221923828e+00,7.693136692047119141e+00,-7.216402053833007812e+00,3.340085029602050781e+00,-9.053039550781250000e+00,-1.001632118225097656e+01,-4.310106754302978516e+00,-1.251672267913818359e+01,-1.578025245666503906e+01,-1.248860168457031250e+01,-1.459125328063964844e+01,-2.148452568054199219e+01,-3.500060319900512695e+00,-8.289574623107910156e+00,-1.801487350463867188e+01,5.552832037210464478e-02,-9.243734180927276611e-02
7.637697696685791016e+00,2.180138587951660156e+01,1.405156970024108887e+00,-4.162084758281707764e-01,6.009082794189453125e+00,6.905905723571777344e+00,-7.915499210357666016e+00,3.626857042312622070e+00,-1.002724266052246094e+01,-1.041809749603271484e+01,-5.149063110351562500e+00,-1.201971721649169922e+01,-1.663901138305664062e+01,-1.308582592010498047e+01,-1.448310661315917969e+01,-2.143014526367187500e+01,-3.984211444854736328e+00,-8.950974464416503906e+00,-1.829228973388671875e+01,2.146943658590316772e-01,-9.374817460775375366e-02
7.316265106201171875e+00,1.946077346801757812e+01,1.117570638656616211e+00,-6.670627593994140625e-01,5.832873344421386719e+00,5.854474067687988281e+00,-8.711258888244628906e+00,4.059924125671386719e+00,-1.084881496429443359e+01,-1.062619686126708984e+01,-6.116520404815673828e+00,-1.088263034820556641e+01,-1.720372390747070312e+01,-1.337431621551513672e+01,-1.405490303039550781e+01,-2.084461975097656250e+01,-4.557813167572021484e+00,-9.518356323242187500e+00,-1.822855949401855469e+01,6.399117112159729004e-01,-9.367602318525314331e-02
6.966707229614257812e+00,1.651489067077636719e+01,7.284833192825317383e-01,-6.738954186439514160e-01,5.635991573333740234e+00,4.727863788604736328e+00,-9.509060859680175781e+00,4.667548656463623047e+00,-1.141600131988525391e+01,-1.054584217071533203e+01,-7.118289470672607422e+00,-9.210134506225585938e+00,-1.738536834716796875e+01,-1.323563861846923828e+01,-1.325256824493408203e+01,-1.969886207580566406e+01,-5.096753120422363281e+00,-9.863814353942871094e+00,-1.773370742797851562e+01,1.275414109230041504e+00,-9.243734180927276611e-02
6.658668041229248047e+00,1.340631771087646484e+01,3.393959701061248779e-01,-3.654519617557525635e-01,5.504080295562744141e+00,3.741945266723632812e+00,-1.019794750213623047e+01,5.431442737579345703e+00,-1.167132949829101562e+01,-1.012243175506591797e+01,-8.033942222595214844e+00,-7.218349933624267578e+00,-1.714167785644531250e+01,-1.262322998046875000e+01,-1.209217929840087891e+01,-1.806242370605468750e+01,-5.479154586791992188e+00,-9.885678291320800781e+00,-1.678649139404296875e+01,2.021287202835083008e+00,-9.040494263172149658e-02
6.448397636413574219e+00,1.061787414550781250e+01,4.241142421960830688e-02,2.602196931838989258e-01,5.489314079284667969e+00,3.078222513198852539e+00,-1.068942546844482422e+01,6.274302959442138672e+00,-1.162516307830810547e+01,-9.362147331237792969e+00,-8.741033554077148438e+00,-5.193431854248046875e+00,-1.648884010314941406e+01,-1.157251930236816406e+01,-1.066142368316650391e+01,-1.608453559875488281e+01,-5.608857631683349609e+00,-9.543499946594238281e+00,-1.544939041137695312e+01,2.756123065948486328e+00,-8.797568827867507935e-02
6.350628376007080078e+00,8.572898864746093750e+00,-1.032613813877105713e-01,1.128937005996704102e+00,5.602521419525146484e+00,2.835501909255981445e+00,-1.093039989471435547e+01,7.064795970916748047e+00,-1.135947132110595703e+01,-8.335042953491210938e+00,-9.148738861083984375e+00,-3.434335708618164062e+00,-1.551138401031494141e+01,-1.020193862915039062e+01,-9.094752311706542969e+00,-1.397133064270019531e+01,-5.432192802429199219e+00,-8.868982315063476562e+00,-1.386236476898193359e+01,3.363742351531982422e+00,-8.548630028963088989e-02
6.342592716217041016e+00,7.525046348571777344e+00,-8.352506160736083984e-02,2.101119518280029297e+00,5.810232162475585938e+00,3.005191564559936523e+00,-1.091542434692382812e+01,7.639171123504638672e+00,-1.100050449371337891e+01,-7.156499385833740234e+00,-9.216016769409179688e+00,-2.188811540603637695e+00,-1.434508991241455078e+01,-8.684583663940429688e+00,-7.541234493255615234e+00,-1.192894554138183594e+01,-4.940214633941650391e+00,-7.957235813140869141e+00,-1.220785999298095703e+01,3.755848646163940430e+00,-8.312920480966567993e-02
6.376075267791748047e+00,7.518048763275146484e+00,7.342563569545745850e-02,3.008880138397216797e+00,6.058303356170654297e+00,3.486336946487426758e+00,-1.067785358428955078e+01,7.849470615386962891e+00,-1.067451381683349609e+01,-5.957351684570312500e+00,-8.955650329589843750e+00,-1.599183082580566406e+00,-1.314012908935546875e+01,-7.200631618499755859e+00,-6.136784553527832031e+00,-1.012684059143066406e+01,-4.159758090972900391e+00,-6.930700778961181641e+00,-1.066707038879394531e+01,3.891778707504272461e+00,-8.106072992086410522e-02
6.397503852844238281e+00,8.387469291687011719e+00,3.215393126010894775e-01,3.705806255340576172e+00,6.289639949798583984e+00,4.125358104705810547e+00,-1.027486801147460938e+01,7.600103855133056641e+00,-1.046723651885986328e+01,-4.849892139434814453e+00,-8.430882453918457031e+00,-1.680511116981506348e+00,-1.203498268127441406e+01,-5.903945446014404297e+00,-4.974934101104736328e+00,-8.669981002807617188e+00,-3.132194757461547852e+00,-5.900886058807373047e+00,-9.364959716796875000e+00,3.783150672912597656e+00,-7.940113544464111328e-02
6.366700172424316406e+00,9.818427085876464844e+00,6.128848791122436523e-01,4.098193168640136719e+00,6.463880538940429688e+00,4.762231349945068359e+00,-9.764329910278320312e+00,6.876108169555664062e+00,-1.038997840881347656e+01,-3.895931005477905273e+00,-7.731191635131835938e+00,-2.319840192794799805e+00,-1.112586688995361328e+01,-4.891699790954589844e+00,-4.106834888458251953e+00,-7.603894233703613281e+00,-1.917903065681457520e+00,-4.935571670532226562e+00,-8.345265388488769531e+00,3.483407497406005859e+00,-7.834284752607345581e-02
6.262234687805175781e+00,1.142956638336181641e+01,9.089296460151672363e-01,4.161638736724853516e+00,6.567243576049804688e+00,5.276669979095458984e+00,-9.199334144592285156e+00,5.746476173400878906e+00,-1.038715171813964844e+01,-3.105771303176879883e+00,-6.955476760864257812e+00,-3.308578491210937500e+00,-1.045774269104003906e+01,-4.197299480438232422e+00,-3.551485061645507812e+00,-6.928579330444335938e+00,-5.817349553108215332e-01,-4.052248477935791016e+00,-7.565498352050781250e+00,3.068646192550659180e+00,-7.809030264616012573e-02
6.089464664459228516e+00,1.285877513885498047e+01,1.188057541847229004e+00,3.931282281875610352e+00,6.608588695526123047e+00,5.594569683074951172e+00,-8.618000030517578125e+00,4.354177474975585938e+00,-1.035982894897460938e+01,-2.440265178680419922e+00,-6.187161922454833984e+00,-4.394458770751953125e+00,-1.002611541748046875e+01,-3.801511764526367188e+00,-3.308884859085083008e+00,-6.617478847503662109e+00,7.913315296173095703e-01,-3.234519004821777344e+00,-6.933187484741210938e+00,2.614383935928344727e+00,-7.877578586339950562e-02
5.868479728698730469e+00,1.383490562438964844e+01,1.438990712165832520e+00,3.485210657119750977e+00,6.618432521820068359e+00,5.690154552459716797e+00,-8.043474197387695312e+00,2.872937679290771484e+00,-1.020248699188232422e+01,-1.827298879623413086e+00,-5.486125469207763672e+00,-5.333496570587158203e+00,-9.793216705322265625e+00,-3.651699304580688477e+00,-3.373188495635986328e+00,-6.637713432312011719e+00,2.085010528564453125e+00,-2.446306228637695312e+00,-6.339614868164062500e+00,2.180453062057495117e+00,-8.033917099237442017e-02
5.630084037780761719e+00,1.421101284027099609e+01,1.654210448265075684e+00,2.921032428741455078e+00,6.641074180603027344e+00,5.560202121734619141e+00,-7.494134902954101562e+00,1.485626220703125000e+00,-9.846346855163574219e+00,-1.191668391227722168e+00,-4.888024330139160156e+00,-5.938185691833496094e+00,-9.703293800354003906e+00,-3.679029941558837891e+00,-3.726858615875244141e+00,-6.943754673004150391e+00,3.166244506835937500e+00,-1.673398613929748535e+00,-5.716051101684570312e+00,1.802869439125061035e+00,-8.246777206659317017e-02
5.411777496337890625e+00,1.398010063171386719e+01,1.821499228477478027e+00,2.338308572769165039e+00,6.721795558929443359e+00,5.219748973846435547e+00,-6.986999988555908203e+00,3.435255289077758789e-01,-9.275391578674316406e+00,-4.725920259952545166e-01,-4.413714885711669922e+00,-6.103101253509521484e+00,-9.697898864746093750e+00,-3.816695213317871094e+00,-4.331897735595703125e+00,-7.478695392608642578e+00,3.903093814849853516e+00,-9.278215765953063965e-01,-5.054998874664306641e+00,1.502545237541198730e+00,-8.470461517572402954e-02
5.244364738464355469e+00,1.325412559509277344e+01,1.925819754600524902e+00,1.825863003730773926e+00,6.897020816802978516e+00,4.689200401306152344e+00,-6.546575069427490234e+00,-4.444740116596221924e-01,-8.533904075622558594e+00,3.567152023315429688e-01,-4.082034111022949219e+00,-5.816946983337402344e+00,-9.728471755981445312e+00,-4.006997585296630859e+00,-5.122540473937988281e+00,-8.164127349853515625e+00,4.201634883880615234e+00,-2.543971538543701172e-01,-4.420188903808593750e+00,1.298069119453430176e+00,-8.652053773403167725e-02
5.146595954895019531e+00,1.221851825714111328e+01,1.940856933593750000e+00,1.459830403327941895e+00,7.176593303680419922e+00,3.999701738357543945e+00,-6.204854965209960938e+00,-8.268366456031799316e-01,-7.714216709136962891e+00,1.276679635047912598e+00,-3.915184974670410156e+00,-5.153520584106445312e+00,-9.768937110900878906e+00,-4.209446430206298828e+00,-6.018407344818115234e+00,-8.920378684997558594e+00,4.043978214263916016e+00,2.812813520431518555e-01,-3.935333728790283203e+00,1.213838934898376465e+00,-8.749464899301528931e-02
5.113113403320312500e+00,1.108844566345214844e+01,1.835596561431884766e+00,1.288039088249206543e+00,7.528027534484863281e+00,3.197434902191162109e+00,-5.998597145080566406e+00,-8.143683075904846191e-01,-6.932215690612792969e+00,2.221368789672851562e+00,-3.946132898330688477e+00,-4.251381397247314453e+00,-9.816596031188964844e+00,-4.399748802185058594e+00,-6.928888320922851562e+00,-9.677895545959472656e+00,3.507274866104125977e+00,6.114342808723449707e-01,-3.749139547348022461e+00,1.287032008171081543e+00,-8.750667423009872437e-02
5.109095096588134766e+00,1.005283832550048828e+01,1.577144861221313477e+00,1.325130462646484375e+00,7.873555660247802734e+00,2.333950757980346680e+00,-5.956392765045166016e+00,-4.752292633056640625e-01,-6.309441566467285156e+00,3.089823484420776367e+00,-4.205825805664062500e+00,-3.288999557495117188e+00,-9.893030166625976562e+00,-4.571830272674560547e+00,-7.777988910675048828e+00,-1.039747238159179688e+01,2.753653764724731445e+00,6.814004182815551758e-01,-3.996565580368041992e+00,1.553664207458496094e+00,-8.670093119144439697e-02
5.075612545013427734e+00,9.227150917053222656e+00,1.138246774673461914e+00,1.543773889541625977e+00,8.098001480102539062e+00,1.456504821777343750e+00,-6.093897819519042969e+00,7.005312293767929077e-02,-5.938226699829101562e+00,3.766661643981933594e+00,-4.708392143249511719e+00,-2.443338155746459961e+00,-1.003420829772949219e+01,-4.730752944946289062e+00,-8.513096809387207031e+00,-1.107405185699462891e+01,1.998914361000061035e+00,4.627561271190643311e-01,-4.752589225769042969e+00,2.034647703170776367e+00,-8.542617410421371460e-02
4.939003944396972656e+00,8.628877639770507812e+00,5.076245665550231934e-01,1.884428143501281738e+00,8.078312873840332031e+00,6.016126275062561035e-01,-6.395455837249755859e+00,6.701962351799011230e-01,-5.867564201354980469e+00,4.156075477600097656e+00,-5.434994220733642578e+00,-1.861240148544311523e+00,-1.027070426940917969e+01,-4.881577491760253906e+00,-9.096214294433593750e+00,-1.171775150299072266e+01,1.458856463432312012e+00,-3.137997910380363464e-02,-6.000966072082519531e+00,2.720688343048095703e+00,-8.406723290681838989e-02
4.639000415802001953e+00,8.177549362182617188e+00,-2.921661138534545898e-01,2.273886919021606445e+00,7.720972061157226562e+00,-2.167640924453735352e-01,-6.817501068115234375e+00,1.169761419296264648e+00,-6.083320617675781250e+00,4.213766574859619141e+00,-6.329791545867919922e+00,-1.624786376953125000e+00,-1.060881233215332031e+01,-5.012156963348388672e+00,-9.493727684020996094e+00,-1.232983398437500000e+01,1.303436160087585449e+00,-7.397875189781188965e-01,-7.620481967926025391e+00,3.562990427017211914e+00,-8.293678611516952515e-02
4.155512332916259766e+00,7.726220130920410156e+00,-1.194397687911987305e+00,2.655536651611328125e+00,7.008259296417236328e+00,-9.975513219833374023e-01,-7.287196636199951172e+00,1.441571354866027832e+00,-6.500701904296875000e+00,3.969610214233398438e+00,-7.291866302490234375e+00,-1.738494992256164551e+00,-1.101616096496582031e+01,-5.090099811553955078e+00,-9.664716720581054688e+00,-1.287109756469726562e+01,1.627694487571716309e+00,-1.556423902511596680e+00,-9.389952659606933594e+00,4.480228424072265625e+00,-8.215509355068206787e-02
3.524700880050659180e+00,7.113952159881591797e+00,-2.089110612869262695e+00,3.017664909362792969e+00,6.015973567962646484e+00,-1.732157230377197266e+00,-7.717410564422607422e+00,1.418297052383422852e+00,-6.980266571044921875e+00,3.527656316757202148e+00,-8.204828262329101562e+00,-2.127062559127807617e+00,-1.141901397705078125e+01,-5.056695938110351562e+00,-9.555108070373535156e+00,-1.326060581207275391e+01,2.442812919616699219e+00,-2.340263843536376953e+00,-1.103446102142333984e+01,5.377715587615966797e+00,-8.165000379085540771e-02
2.853710412979125977e+00,6.232285976409912109e+00,-2.832511901855468750e+00,3.404195308685302734e+00,4.916387557983398438e+00,-2.395879983901977539e+00,-8.023053169250488281e+00,1.111575722694396973e+00,-7.353365421295166016e+00,3.052736282348632812e+00,-8.950268745422363281e+00,-2.659460067749023438e+00,-1.172115325927734375e+01,-4.847161293029785156e+00,-9.116674423217773438e+00,-1.338706874847412109e+01,3.697357416152954102e+00,-2.932789802551269531e+00,-1.227534008026123047e+01,6.165413379669189453e+00,-8.116896450519561768e-02
2.292542695999145508e+00,5.060230255126953125e+00,-3.278928518295288086e+00,3.912736654281616211e+00,3.942806005477905273e+00,-2.935020685195922852e+00,-8.140816688537597656e+00,5.987110733985900879e-01,-7.456061840057373047e+00,2.731315374374389648e+00,-9.438706398010253906e+00,-3.188092470169067383e+00,-1.182546329498291016e+01,-4.404809951782226562e+00,-8.330415725708007812e+00,-1.315437602996826172e+01,5.297404766082763672e+00,-3.192976474761962891e+00,-1.289890289306640625e+01,6.779422760009765625e+00,-8.042334765195846558e-02
2.008610725402832031e+00,3.695747375488281250e+00,-3.310882568359375000e+00,4.654562473297119141e+00,3.338377952575683594e+00,-3.280843973159790039e+00,-8.029179573059082031e+00,4.386493004858493805e-03,-7.174353122711181641e+00,2.729254961013793945e+00,-9.621702194213867188e+00,-3.588708400726318359e+00,-1.165910720825195312e+01,-3.709397315979003906e+00,-7.231408119201660156e+00,-1.252079391479492188e+01,7.137850284576416016e+00,-3.022433996200561523e+00,-1.279893302917480469e+01,7.188955783843994141e+00,-7.914859056472778320e-02
2.134505033493041992e+00,2.336512327194213867e+00,-2.876683473587036133e+00,5.721425533294677734e+00,3.290142059326171875e+00,-3.363540649414062500e+00,-7.679290294647216797e+00,-5.392334461212158203e-01,-6.468668460845947266e+00,3.156785964965820312e+00,-9.495220184326171875e+00,-3.793534755706787109e+00,-1.118881225585937500e+01,-2.778131484985351562e+00,-5.902952671051025391e+00,-1.151667404174804688e+01,9.113590240478515625e+00,-2.383992671966552734e+00,-1.200042152404785156e+01,7.396336078643798828e+00,-7.718835026025772095e-02
2.735851764678955078e+00,1.234429955482482910e+00,-2.005466222763061523e+00,7.141631603240966797e+00,3.874881505966186523e+00,-3.132633924484252930e+00,-7.101360321044921875e+00,-9.382205605506896973e-01,-5.377635955810546875e+00,4.044814586639404297e+00,-9.092225074768066406e+00,-3.801064968109130859e+00,-1.041637897491455078e+01,-1.667698383331298828e+00,-4.461966514587402344e+00,-1.023559951782226562e+01,1.111951923370361328e+01,-1.312635540962219238e+00,-1.063832950592041016e+01,7.427124023437500000e+00,-7.451857626438140869e-02
3.776489496231079102e+00,6.291593313217163086e-01,-8.156483769416809082e-01,8.856616020202636719e+00,5.034516811370849609e+00,-2.578457593917846680e+00,-6.324661254882812500e+00,-1.156001091003417969e+00,-4.014316082000732422e+00,5.339769840240478516e+00,-8.465867042541503906e+00,-3.664765357971191406e+00,-9.368782043457031250e+00,-4.509795010089874268e-01,-3.016595602035522461e+00,-8.806561470031738281e+00,1.305388832092285156e+01,9.652693569660186768e-02,-8.913845062255859375e+00,7.321400642395019531e+00,-7.130762934684753418e-02
5.118470191955566406e+00,6.711434125900268555e-01,5.095041990280151367e-01,1.072484683990478516e+01,6.579056262969970703e+00,-1.733231186866760254e+00,-5.387993335723876953e+00,-1.226655006408691406e+00,-2.529456853866577148e+00,6.912878036499023438e+00,-7.676023483276367188e+00,-3.469728469848632812e+00,-8.081092834472656250e+00,7.991435527801513672e-01,-1.632605552673339844e+00,-7.348437786102294922e+00,1.481271076202392578e+01,1.704655766487121582e+00,-7.038156032562255859e+00,7.124475955963134766e+00,-6.788021326065063477e-02
6.548845291137695312e+00,1.379624962806701660e+00,1.750072598457336426e+00,1.254134368896484375e+01,8.224005699157714844e+00,-6.839476227760314941e-01,-4.343091011047363281e+00,-1.232473611831665039e+00,-1.089821577072143555e+00,8.583854675292968750e+00,-6.784590721130371094e+00,-3.292764663696289062e+00,-6.594675064086914062e+00,2.021935939788818359e+00,-3.275336623191833496e-01,-5.948487281799316406e+00,1.629759025573730469e+01,3.346674442291259766e+00,-5.189958572387695312e+00,6.880498886108398438e+00,-6.465724110603332520e-02
7.814485549926757812e+00,2.609408855438232422e+00,2.688017368316650391e+00,1.407477664947509766e+01,9.650416374206542969e+00,4.426628351211547852e-01,-3.253941774368286133e+00,-1.284840583801269531e+00,1.500737816095352173e-01,1.014666175842285156e+01,-5.851445198059082031e+00,-3.185080289840698242e+00,-4.959885120391845703e+00,3.170834541320800781e+00,9.220032691955566406e-01,-4.650971889495849609e+00,1.741572189331054688e+01,4.856413364410400391e+00,-3.496715068817138672e+00,6.627808094024658203e+00,-6.204759702086448669e-02
8.679675102233886719e+00,4.068356037139892578e+00,3.150411128997802734e+00,1.511333274841308594e+01,1.056493282318115234e+01,1.482280492782592773e+00,-2.193383216857910156e+00,-1.480178117752075195e+00,1.065862655639648438e+00,1.139010715484619141e+01,-4.937137126922607422e+00,-3.160230159759521484e+00,-3.254955768585205078e+00,4.199275493621826172e+00,2.135004043579101562e+00,-3.491301774978637695e+00,1.809890174865722656e+01,6.075355052947998047e+00,-2.035901784896850586e+00,6.395449161529541016e+00,-6.036395579576492310e-02
8.970303535461425781e+00,5.389105796813964844e+00,3.031053304672241211e+00,1.549107837677001953e+01,1.076673698425292969e+01,2.258771896362304688e+00,-1.240377783775329590e+00,-1.888308644294738770e+00,1.571807861328125000e+00,1.213081741333007812e+01,-4.102890491485595703e+00,-3.208424568176269531e+00,-1.591390609741210938e+00,5.043488502502441406e+00,3.285162687301635742e+00,-2.513739109039306641e+00,1.829904747009277344e+01,6.872313499450683594e+00,-8.637523651123046875e-01,6.196782112121582031e+00,-5.973860248923301697e-02
8.604674339294433594e+00,6.213043689727783203e+00,2.319606304168701172e+00,1.512407016754150391e+01,1.018298149108886719e+01,2.611038923263549805e+00,-4.609555602073669434e-01,-2.533337831497192383e+00,1.631164550781250000e+00,1.223589706420898438e+01,-3.405217885971069336e+00,-3.318367958068847656e+00,-1.184611096978187561e-01,5.621480464935302734e+00,4.274561882019042969e+00,-1.804279088973999023e+00,1.799155998229980469e+01,7.155457973480224609e+00,-3.774936497211456299e-02,6.024255275726318359e+00,-6.011140719056129456e-02
7.614929676055908203e+00,6.295262336730957031e+00,1.100653886795043945e+00,1.400937843322753906e+01,8.883560180664062500e+00,2.431683301925659180e+00,1.006368547677993774e-01,-3.396978616714477539e+00,1.259007453918457031e+00,1.164147472381591797e+01,-2.881122589111328125e+00,-3.491566658020019531e+00,9.992747902870178223e-01,5.838100910186767578e+00,4.946827411651611328e+00,-1.486855745315551758e+00,1.717197036743164062e+01,6.885432243347167969e+00,3.696288168430328369e-01,5.851147651672363281e+00,-6.127793341875076294e-02
6.129643440246582031e+00,5.572785854339599609e+00,-4.594548642635345459e-01,1.222802066802978516e+01,7.064370632171630859e+00,1.698151469230651855e+00,4.328272938728332520e-01,-4.430189132690429688e+00,5.278838276863098145e-01,1.036197185516357422e+01,-2.546751022338867188e+00,-3.757388830184936523e+00,1.614344239234924316e+00,5.611358165740966797e+00,5.113432407379150391e+00,-1.689197301864624023e+00,1.585257339477539062e+01,6.088473796844482422e+00,2.759068310260772705e-01,5.636215209960937500e+00,-6.299765408039093018e-02
4.356407642364501953e+00,4.194308280944824219e+00,-2.138921260833740234e+00,9.925431251525878906e+00,5.001046657562255859e+00,4.856222271919250488e-01,5.526336431503295898e-01,-5.563146114349365234e+00,-4.453774690628051758e-01,8.492167472839355469e+00,-2.391338825225830078e+00,-4.159511089324951172e+00,1.624235749244689941e+00,4.901773929595947266e+00,4.623847961425781250e+00,-2.509945392608642578e+00,1.406579780578613281e+01,4.850947380065917969e+00,-3.963921070098876953e-01,5.339376449584960938e+00,-6.509017944335937500e-02
2.537635087966918945e+00,2.478208780288696289e+00,-3.711247682571411133e+00,7.285116672515869141e+00,2.989896774291992188e+00,-1.049102663993835449e+00,4.934111833572387695e-01,-6.712728023529052734e+00,-1.518508672714233398e+00,6.183499813079833984e+00,-2.385956525802612305e+00,-4.742362022399902344e+00,9.992747902870178223e-01,3.728581666946411133e+00,3.402078390121459961e+00,-3.975656986236572266e+00,1.186643218994140625e+01,3.298572778701782227e+00,-1.698502779006958008e+00,4.940299510955810547e+00,-6.742322444915771484e-02
9.023470282554626465e-01,8.180876970291137695e-01,-4.992228507995605469e+00,4.498388767242431641e+00,1.278992056846618652e+00,-2.712705612182617188e+00,2.898764908313751221e-01,-7.790824413299560547e+00,-2.561490535736083984e+00,3.614192724227905273e+00,-2.498310804367065430e+00,-5.527780532836914062e+00,-2.191742360591888428e-01,2.175797224044799805e+00,1.477352976799011230e+00,-6.025629997253417969e+00,9.328271865844726562e+00,1.568003058433532715e+00,-3.632924318313598633e+00,4.449440956115722656e+00,-6.998477131128311157e-02
-3.780258595943450928e-01,-4.449337124824523926e-01,-5.881302356719970703e+00,1.732158660888671875e+00,1.402494125068187714e-02,-4.333349227905273438e+00,-4.163322597742080688e-02,-8.714313507080078125e+00,-3.493296384811401367e+00,9.501076936721801758e-01,-2.707545280456542969e+00,-6.499951839447021484e+00,-1.930398225784301758e+00,3.699514865875244141e-01,-1.026105165481567383e+00,-8.520754814147949219e+00,6.536295413970947266e+00,-2.281598448753356934e-01,-6.157169342041015625e+00,3.909786462783813477e+00,-7.272669672966003418e-02
-1.229822039604187012e+00,-1.118428468704223633e+00,-6.391627311706542969e+00,-8.935149312019348145e-01,-7.922070026397705078e-01,-5.814374923706054688e+00,-5.052022337913513184e-01,-9.410046577453613281e+00,-4.308273315429687500e+00,-1.687192320823669434e+00,-3.015005588531494141e+00,-7.603905200958251953e+00,-4.006707191467285156e+00,-1.552302479743957520e+00,-3.913923978805541992e+00,-1.127007007598876953e+01,3.579953432083129883e+00,-2.027602434158325195e+00,-9.176266670227050781e+00,3.388720989227294922e+00,-7.556483894586563110e-02
-1.689202666282653809e+00,-1.216391444206237793e+00,-6.636921405792236328e+00,-3.313234090805053711e+00,-1.255864143371582031e+00,-7.137524604797363281e+00,-1.113764166831970215e+00,-9.828152656555175781e+00,-5.077083587646484375e+00,-4.233835220336914062e+00,-3.442893505096435547e+00,-8.755299568176269531e+00,-6.311419486999511719e+00,-3.475568532943725586e+00,-6.972732067108154297e+00,-1.407882404327392578e+01,5.408698916435241699e-01,-3.815019607543945312e+00,-1.255275726318359375e+01,2.954790115356445312e+00,-7.835487276315689087e-02
-1.891437411308288574e+00,-9.452441334724426270e-01,-6.800450801849365234e+00,-5.514309883117675781e+00,-1.577766299247741699e+00,-8.364015579223632812e+00,-1.885017752647399902e+00,-9.951173782348632812e+00,-5.919383525848388672e+00,-6.678488731384277344e+00,-4.017447471618652344e+00,-9.856240272521972656e+00,-8.721341133117675781e+00,-5.326965332031250000e+00,-1.000377273559570312e+01,-1.677502632141113281e+01,-2.512749433517456055e+00,-5.618834972381591797e+00,-1.610919380187988281e+01,2.656789541244506836e+00,-8.085628598928451538e-02
-2.033403396606445312e+00,-6.321128010749816895e-01,-7.084278106689453125e+00,-7.515287876129150391e+00,-1.987280964851379395e+00,-9.577619552612304688e+00,-2.812155961990356445e+00,-9.795734405517578125e+00,-6.961422920227050781e+00,-9.032485008239746094e+00,-4.754141330718994141e+00,-1.081109237670898438e+01,-1.112676620483398438e+01,-7.075113296508789062e+00,-1.284628582000732422e+01,-1.922588729858398438e+01,-5.519407272338867188e+00,-7.462006568908691406e+00,-1.963438987731933594e+01,2.509822368621826172e+00,-8.286463469266891479e-02
-2.310638904571533203e+00,-6.041234135627746582e-01,-7.646293163299560547e+00,-9.342522621154785156e+00,-2.665539503097534180e+00,-1.084062576293945312e+01,-3.860461711883544922e+00,-9.414203643798828125e+00,-8.282344818115234375e+00,-1.130509567260742188e+01,-5.636155605316162109e+00,-1.153852653503417969e+01,-1.342338466644287109e+01,-8.710901260375976562e+00,-1.538189601898193359e+01,-2.133909225463867188e+01,-8.407543182373046875e+00,-9.344533920288085938e+00,-2.289341545104980469e+01,2.493557214736938477e+00,-8.423559367656707764e-02
-2.854395627975463867e+00,-1.099185824394226074e+00,-8.559802055358886719e+00,-1.100967884063720703e+01,-3.698185682296752930e+00,-1.215625762939453125e+01,-4.968670845031738281e+00,-8.873076438903808594e+00,-9.881206512451171875e+00,-1.346747589111328125e+01,-6.611013412475585938e+00,-1.197980690002441406e+01,-1.551138401031494141e+01,-1.022623252868652344e+01,-1.752583885192871094e+01,-2.305393791198730469e+01,-1.108994197845458984e+01,-1.121612930297851562e+01,-2.564759063720703125e+01,2.562103271484375000e+00,-8.493310958147048950e-02
-3.691459417343139648e+00,-2.183774948120117188e+00,-9.791912078857421875e+00,-1.249821090698242188e+01,-5.045843124389648438e+00,-1.346544551849365234e+01,-6.056458473205566406e+00,-8.244671821594238281e+00,-1.167038726806640625e+01,-1.544957160949707031e+01,-7.589235305786132812e+00,-1.210556411743164062e+01,-1.728735160827636719e+01,-1.159782505035400391e+01,-1.921380996704101562e+01,-2.432236671447753906e+01,-1.345367431640625000e+01,-1.298714733123779297e+01,-2.768448257446289062e+01,2.659693956375122070e+00,-8.504134416580200195e-02
-4.721383094787597656e+00,-3.742434263229370117e+00,-1.121292686462402344e+01,-1.375931549072265625e+01,-6.555928707122802734e+00,-1.466293907165527344e+01,-7.044860839843750000e+00,-7.588006019592285156e+00,-1.349725437164306641e+01,-1.714321327209472656e+01,-8.463849067687988281e+00,-1.191805744171142578e+01,-1.865417289733886719e+01,-1.278620147705078125e+01,-2.039173507690429688e+01,-2.511276245117187500e+01,-1.537127113342285156e+01,-1.454061508178710938e+01,-2.886038017272949219e+01,2.740438938140869141e+00,-8.466853201389312744e-02
-5.744609832763671875e+00,-5.507515430450439453e+00,-1.262454319000244141e+01,-1.472076129913330078e+01,-7.999073982238769531e+00,-1.562737751007080078e+01,-7.864445686340332031e+00,-6.943808078765869141e+00,-1.517808437347412109e+01,-1.843198776245117188e+01,-9.128555297851562500e+00,-1.145719814300537109e+01,-1.953721237182617188e+01,-1.374277305603027344e+01,-2.102600288391113281e+01,-2.541121673583984375e+01,-1.673203849792480469e+01,-1.576611709594726562e+01,-2.912155151367187500e+01,2.774711847305297852e+00,-8.398304879665374756e-02
-6.514708518981933594e+00,-7.134398937225341797e+00,-1.380308341979980469e+01,-1.530153274536132812e+01,-9.131145477294921875e+00,-1.625458526611328125e+01,-8.468242645263671875e+00,-6.329534053802490234e+00,-1.654234695434570312e+01,-1.921390533447265625e+01,-9.498583793640136719e+00,-1.079904365539550781e+01,-1.989870071411132812e+01,-1.442907619476318359e+01,-2.110638236999511719e+01,-2.523669624328613281e+01,-1.746329689025878906e+01,-1.658056640625000000e+01,-2.852922821044921875e+01,2.753218650817871094e+00,-8.311717957258224487e-02
-6.808015823364257812e+00,-8.269719123840332031e+00,-1.455024433135986328e+01,-1.543720817565917969e+01,-9.747385978698730469e+00,-1.647153091430664062e+01,-8.834468841552734375e+00,-5.755990028381347656e+00,-1.746755790710449219e+01,-1.943333625793457031e+01,-9.532222747802734375e+00,-1.004901790618896484e+01,-1.975032806396484375e+01,-1.482688808441162109e+01,-2.065479660034179688e+01,-2.464358329772949219e+01,-1.755833816528320312e+01,-1.694679641723632812e+01,-2.724711227416992188e+01,2.681768178939819336e+00,-8.219117671251296997e-02
-6.479886531829833984e+00,-8.652823448181152344e+00,-1.472693061828613281e+01,-1.510143470764160156e+01,-9.732620239257812500e+00,-1.626102828979492188e+01,-8.958359718322753906e+00,-5.232319355010986328e+00,-1.788964843750000000e+01,-1.909749221801757812e+01,-9.234854698181152344e+00,-9.324596405029296875e+00,-1.915683937072753906e+01,-1.494936943054199219e+01,-1.973700714111328125e+01,-2.372292900085449219e+01,-1.708089447021484375e+01,-1.686808395385742188e+01,-2.551513099670410156e+01,2.574882984161376953e+00,-8.137340843677520752e-02
-5.503535270690917969e+00,-8.157761573791503906e+00,-1.428521347045898438e+01,-1.432642173767089844e+01,-9.085862159729003906e+00,-1.563919162750244141e+01,-8.861697196960449219e+00,-4.782627582550048828e+00,-1.781521797180175781e+01,-1.827951812744140625e+01,-8.658282279968261719e+00,-8.734214782714843750e+00,-1.823153877258300781e+01,-1.482891273498535156e+01,-1.845531845092773438e+01,-2.259108161926269531e+01,-1.615955352783203125e+01,-1.639472007751464844e+01,-2.359695434570312500e+01,2.449989795684814453e+00,-8.082021027803421021e-02
-3.976730823516845703e+00,-6.828265190124511719e+00,-1.326926326751708984e+01,-1.321075439453125000e+01,-7.918352127075195312e+00,-1.468227100372314453e+01,-8.577157020568847656e+00,-4.442657470703125000e+00,-1.730550384521484375e+01,-1.711127662658691406e+01,-7.894677162170410156e+00,-8.354683876037597656e+00,-1.711739921569824219e+01,-1.451511669158935547e+01,-1.693395233154296875e+01,-2.136565017700195312e+01,-1.497209739685058594e+01,-1.561743831634521484e+01,-2.173875999450683594e+01,2.320449590682983398e+00,-8.074805140495300293e-02
-2.090993404388427734e+00,-4.856761932373046875e+00,-1.180971527099609375e+01,-1.191451168060302734e+01,-6.430908203125000000e+00,-1.350733089447021484e+01,-8.158515930175781250e+00,-4.253138542175292969e+00,-1.647451019287109375e+01,-1.576893234252929688e+01,-7.044283390045166016e+00,-8.219889640808105469e+00,-1.596639156341552734e+01,-1.406061840057373047e+01,-1.529859352111816406e+01,-2.014780616760253906e+01,-1.371084403991699219e+01,-1.465103054046630859e+01,-2.011924362182617188e+01,2.193813800811767578e+00,-8.133732527494430542e-02
-9.409379214048385620e-02,-2.547636985778808594e+00,-1.009077644348144531e+01,-1.063388538360595703e+01,-4.875540256500244141e+00,-1.225828647613525391e+01,-7.669760227203369141e+00,-4.243164062500000000e+00,-1.546167755126953125e+01,-1.444204044342041016e+01,-6.202636241912841797e+00,-8.317784309387207031e+00,-1.490800476074218750e+01,-1.351906681060791016e+01,-1.366323471069335938e+01,-1.900078201293945312e+01,-1.255693149566650391e+01,-1.362996196746826172e+01,-1.883337783813476562e+01,2.066597223281860352e+00,-8.274437487125396729e-02
1.766196966171264648e+00,-2.315145730972290039e-01,-8.315447807312011719e+00,-9.561165809631347656e+00,-3.503272533416748047e+00,-1.107797622680664062e+01,-7.178962230682373047e+00,-4.409408569335937500e+00,-1.441586971282958984e+01,-1.330573463439941406e+01,-5.437012672424316406e+00,-8.597914695739746094e+00,-1.403305912017822266e+01,-1.293601417541503906e+01,-1.210533237457275391e+01,-1.794354820251464844e+01,-1.165348052978515625e+01,-1.268541908264160156e+01,-1.787991333007812500e+01,1.926019906997680664e+00,-8.495716005563735962e-02
3.279608488082885742e+00,1.806463241577148438e+00,-6.661356925964355469e+00,-8.838861465454101562e+00,-2.522799968719482422e+00,-1.007380008697509766e+01,-6.748748779296875000e+00,-4.696180343627929688e+00,-1.346616268157958984e+01,-1.248879051208496094e+01,-4.772306442260742188e+00,-8.989494323730468750e+00,-1.337392807006835938e+01,-1.234789943695068359e+01,-1.067457675933837891e+01,-1.696598625183105469e+01,-1.108211517333984375e+01,-1.191797733306884766e+01,-1.718137359619140625e+01,1.754655003547668457e+00,-8.781935274600982666e-02
4.308192729949951172e+00,3.389613389968872070e+00,-5.250680446624755859e+00,-8.524561882019042969e+00,-2.058158397674560547e+00,-9.282273292541503906e+00,-6.425407409667968750e+00,-5.004564285278320312e+00,-1.269923591613769531e+01,-1.204786682128906250e+01,-4.199098110198974609e+00,-9.412701606750488281e+00,-1.290812969207763672e+01,-1.178711509704589844e+01,-9.388503074645996094e+00,-1.603647804260253906e+01,-1.085066223144531250e+01,-1.137027359008789062e+01,-1.661529159545898438e+01,1.535075545310974121e+00,-9.103029966354370117e-02
4.797038078308105469e+00,4.472453117370605469e+00,-4.141687393188476562e+00,-8.578246116638183594e+00,-2.135926961898803711e+00,-8.663658142089843750e+00,-6.234806537628173828e+00,-5.209045410156250000e+00,-1.214524078369140625e+01,-1.196545124053955078e+01,-3.677693605422973633e+00,-9.797503471374511719e+00,-1.257361793518066406e+01,-1.127390670776367188e+01,-8.251497268676757812e+00,-1.513100051879882812e+01,-1.089762306213378906e+01,-1.102481555938720703e+01,-1.605545997619628906e+01,1.263215303421020508e+00,-9.419313818216323853e-02
4.774269580841064453e+00,5.137201309204101562e+00,-3.331558704376220703e+00,-8.876929283142089844e+00,-2.689165353775024414e+00,-8.118073463439941406e+00,-6.181710243225097656e+00,-5.194083213806152344e+00,-1.177779483795166016e+01,-1.215603733062744141e+01,-3.166381120681762695e+00,-1.008968257904052734e+01,-1.228946304321289062e+01,-1.082244586944580078e+01,-7.267943859100341797e+00,-1.424196243286132812e+01,-1.110783195495605469e+01,-1.080726432800292969e+01,-1.540815258026123047e+01,9.518539309501647949e-01,-9.687493741512298584e-02
4.332300186157226562e+00,5.529052734375000000e+00,-2.781761169433593750e+00,-9.255650520324707031e+00,-3.577103376388549805e+00,-7.532751083374023438e+00,-6.255228042602539062e+00,-4.887362003326416016e+00,-1.153565692901611328e+01,-1.249806213378906250e+01,-2.630848407745361328e+00,-1.025685691833496094e+01,-1.198642444610595703e+01,-1.044386577606201172e+01,-6.453918457031250000e+00,-1.339339256286621094e+01,-1.134152221679687500e+01,-1.061923027038574219e+01,-1.463713359832763672e+01,6.358454227447509766e-01,-9.870289266109466553e-02
3.605058908462524414e+00,5.807197093963623047e+00,-2.438725233078002930e+00,-9.556285858154296875e+00,-4.630422115325927734e+00,-6.823921203613281250e+00,-6.434257030487060547e+00,-4.289712429046630859e+00,-1.134156990051269531e+01,-1.286378097534179688e+01,-2.061676740646362305e+00,-1.029149627685546875e+01,-1.162673473358154297e+01,-1.014727783203125000e+01,-5.828419208526611328e+00,-1.263081741333007812e+01,-1.147793388366699219e+01,-1.038309383392333984e+01,-1.376989269256591797e+01,3.581761717796325684e-01,-9.944850951433181763e-02
2.738530397415161133e+00,6.073096275329589844e+00,-2.263917922973632812e+00,-9.667559623718261719e+00,-5.683741092681884766e+00,-5.987286567687988281e+00,-6.690887451171875000e+00,-3.472620010375976562e+00,-1.113617706298828125e+01,-1.315120601654052734e+01,-1.466939449310302734e+00,-1.020715618133544922e+01,-1.120769596099853516e+01,-9.938755035400390625e+00,-5.408983707427978516e+00,-1.200608825683593750e+01,-1.144550800323486328e+01,-1.006715297698974609e+01,-1.287641048431396484e+01,1.548618823289871216e-01,-9.897949546575546265e-02
1.861287474632263184e+00,6.344244003295898438e+00,-2.231963872909545898e+00,-9.544572830200195312e+00,-6.612040042877197266e+00,-5.100174903869628906e+00,-6.992445468902587891e+00,-2.555780887603759766e+00,-1.089592361450195312e+01,-1.330161476135253906e+01,-8.715294003486633301e-01,-1.003395748138427734e+01,-1.075628566741943359e+01,-9.818298339843750000e+00,-5.191228389739990234e+00,-1.155208396911621094e+01,-1.124089050292968750e+01,-9.707483291625976562e+00,-1.204540824890136719e+01,4.042497277259826660e-02,-9.729585051536560059e-02
1.076456308364868164e+00,6.559412002563476562e+00,-2.331585407257080078e+00,-9.202941894531250000e+00,-7.347394466400146484e+00,-4.304351806640625000e+00,-7.298088073730468750e+00,-1.670528173446655273e+00,-1.063494300842285156e+01,-1.329852390289306641e+01,-3.077399730682373047e-01,-9.812563896179199219e+00,-1.031656455993652344e+01,-9.779832839965820312e+00,-5.143000602722167969e+00,-1.126880550384521484e+01,-1.092893123626708984e+01,-9.388262748718261719e+00,-1.134436798095703125e+01,-1.980582019314169884e-03,-9.446974098682403564e-02
4.496628940105438232e-01,6.592649459838867188e+00,-2.551504373550415039e+00,-8.707090377807617188e+00,-7.870116233825683594e+00,-3.768433094024658203e+00,-7.560164451599121094e+00,-9.265834689140319824e-01,-1.039468955993652344e+01,-1.316459846496582031e+01,1.901170164346694946e-01,-9.579875946044921875e+00,-9.927200317382812500e+00,-9.803114891052246094e+00,-5.205842971801757812e+00,-1.111578464508056641e+01,-1.060690879821777344e+01,-9.216627120971679688e+00,-1.080452919006347656e+01,-1.534123625606298447e-02,-9.058533608913421631e-02
1.974689215421676636e-02,6.314505100250244141e+00,-2.866345405578613281e+00,-8.143887519836425781e+00,-8.195956230163574219e+00,-3.629889011383056641e+00,-7.728982448577880859e+00,-3.846259415149688721e-01,-1.022980976104736328e+01,-1.294207572937011719e+01,5.884026288986206055e-01,-9.358482360839843750e+00,-9.615169525146484375e+00,-9.862836837768554688e+00,-5.306682586669921875e+00,-1.102093696594238281e+01,-1.038104629516601562e+01,-9.276754379272460938e+00,-1.041089725494384766e+01,-5.600409582257270813e-02,-8.582302927970886230e-02
-1.851663440465927124e-01,5.635762214660644531e+00,-3.228178024291992188e+00,-7.603135585784912109e+00,-8.349523544311523438e+00,-3.958528518676757812e+00,-7.765060901641845703e+00,-6.211135908961296082e-02,-1.018741226196289062e+01,-1.268761825561523438e+01,8.521322607994079590e-01,-9.152903556823730469e+00,-9.396657943725585938e+00,-9.924583435058593750e+00,-5.378293514251708984e+00,-1.089953231811523438e+01,-1.031507682800292969e+01,-9.607999801635742188e+00,-1.011848449707031250e+01,-1.681174039840698242e-01,-8.041132241487503052e-02
-1.463265866041183472e-01,4.547674655914306641e+00,-3.568394422531127930e+00,-7.168776988983154297e+00,-8.347555160522460938e+00,-4.732872009277343750e+00,-7.645254135131835938e+00,6.007844582200050354e-02,-1.028539752960205078e+01,-1.245170307159423828e+01,9.469942450523376465e-01,-8.947323799133300781e+00,-9.267169952392578125e+00,-9.957987785339355469e+00,-5.373908996582031250e+00,-1.066936874389648438e+01,-1.041347217559814453e+01,-1.017647552490234375e+01,-9.868559837341308594e+00,-3.650418221950531006e-01,-7.469896972179412842e-02
1.643915325403213501e-01,3.146455526351928711e+00,-3.805230140686035156e+00,-6.909138202667236328e+00,-8.187096595764160156e+00,-5.838002681732177734e+00,-7.371605396270751953e+00,1.685484126210212708e-02,-1.050303840637207031e+01,-1.227450942993164062e+01,8.501139283180236816e-01,-8.705598831176757812e+00,-9.210518836975097656e+00,-9.929645538330078125e+00,-5.271607875823974609e+00,-1.026721477508544922e+01,-1.060914516448974609e+01,-1.088925552368164062e+01,-9.599889755249023438e+00,-6.229605078697204590e-01,-6.916699558496475220e-02
7.684168219566345215e-01,1.629780173301696777e+00,-3.852221488952636719e+00,-6.862286090850830078e+00,-7.853381156921386719e+00,-7.078455448150634766e+00,-6.965897560119628906e+00,-1.452336758375167847e-01,-1.077438354492187500e+01,-1.216118812561035156e+01,5.588003396987915039e-01,-8.383298873901367188e+00,-9.186240196228027344e+00,-9.801090240478515625e+00,-5.058236598968505859e+00,-9.645014762878417969e+00,-1.078022003173828125e+01,-1.159766292572021484e+01,-9.253743171691894531e+00,-8.837837576866149902e-01,-6.440469622611999512e-02
1.675124406814575195e+00,2.722945213317871094e-01,-3.633242368698120117e+00,-7.030172824859619141e+00,-7.328690528869628906e+00,-8.214732170104980469e+00,-6.457401275634765625e+00,-3.721576035022735596e-01,-1.099014091491699219e+01,-1.207465171813964844e+01,1.073651090264320374e-01,-7.938253879547119141e+00,-9.116999626159667969e+00,-9.517661094665527344e+00,-4.708950996398925781e+00,-8.766093254089355469e+00,-1.077239227294921875e+01,-1.212240982055664062e+01,-8.761390686035156250e+00,-1.077222824096679688e+00,-6.094120442867279053e-02
2.864424705505371094e+00,-6.408594846725463867e-01,-3.090023756027221680e+00,-7.360090255737304688e+00,-6.609086513519287109e+00,-9.000888824462890625e+00,-5.869941711425781250e+00,-5.932629704475402832e-01,-1.100521564483642578e+01,-1.192424297332763672e+01,-4.268220067024230957e-01,-7.334317684173583984e+00,-8.895790100097656250e+00,-9.004452705383300781e+00,-4.166754245758056641e+00,-7.593777179718017578e+00,-1.043695259094238281e+01,-1.228092670440673828e+01,-8.041605949401855469e+00,-1.140540599822998047e+00,-5.914932489395141602e-02
4.282745838165283203e+00,-8.647746443748474121e-01,-2.188731908798217773e+00,-7.747596740722656250e+00,-5.712288856506347656e+00,-9.230721473693847656e+00,-5.206241607666015625e+00,-7.254274487495422363e-01,-1.066886043548583984e+01,-1.157912731170654297e+01,-9.307340383529663086e-01,-6.551911354064941406e+00,-8.383232116699218750e+00,-8.177448272705078125e+00,-3.343959569931030273e+00,-6.087596893310546875e+00,-9.665441513061523438e+00,-1.191688442230224609e+01,-7.003166198730468750e+00,-1.040626168251037598e+00,-5.906514450907707214e-02
