Fp1,Fp2,F7,F3,Fz,F4,F8,T3,C3,Cz,C4,T4,T5,P3,Pz,P4,T6,O1,Oz,O2,A1
1.598808765411376953e+00,-1.123692703247070312e+01,3.515570878982543945e+00,9.868972897529602051e-01,-6.192106246948242188e+00,3.338693380355834961e-01,2.221749305725097656e+00,-4.651283740997314453e+00,3.184165716171264648e+00,-1.382828056812286377e-01,-6.829638004302978516e+00,-1.097215938568115234e+01,9.089007377624511719e-01,-2.919764518737792969e+00,-3.954270362854003906e+00,-9.327915906906127930e-01,-5.303439870476722717e-02,-7.375938415527343750e+00,-2.228790283203125000e+00,-1.908104324340820312e+01,-1.973433047533035278e-02
2.351095676422119141e+00,-1.116716384887695312e+01,3.272245407104492188e+00,1.297119140625000000e+00,-5.664792537689208984e+00,3.529476225376129150e-01,1.906792402267456055e+00,-4.782235622406005859e+00,2.410245895385742188e+00,-5.145961046218872070e-01,-6.992361545562744141e+00,-1.058229064941406250e+01,3.022599266842007637e-03,-2.912059307098388672e+00,-4.580422878265380859e+00,-1.818734645843505859e+00,-1.574412882328033447e-01,-8.192423820495605469e+00,-1.378682136535644531e+00,-2.052593994140625000e+01,-2.744827046990394592e-02
2.899585962295532227e+00,-1.118881416320800781e+01,2.727528333663940430e+00,1.145429730415344238e+00,-5.349337577819824219e+00,3.112580478191375732e-01,1.501272916793823242e+00,-5.151982307434082031e+00,1.409451007843017578e+00,-1.173423647880554199e+00,-7.177556514739990234e+00,-1.004136657714843750e+01,-1.096972346305847168e+00,-3.076066017150878906e+00,-5.320421218872070312e+00,-2.766896486282348633e+00,-5.692684650421142578e-01,-9.112622261047363281e+00,-7.122657299041748047e-01,-2.187683486938476562e+01,-3.459049016237258911e-02
3.112188816070556641e+00,-1.135720825195312500e+01,1.876811146736145020e+00,5.295481681823730469e-01,-5.326005458831787109e+00,2.625024318695068359e-01,9.830531477928161621e-01,-5.738269805908203125e+00,2.082851976156234741e-01,-2.132631778717041016e+00,-7.410794258117675781e+00,-9.481739997863769531e+00,-2.361427307128906250e+00,-3.442604541778564453e+00,-6.198093891143798828e+00,-3.647429227828979492e+00,-1.304950356483459473e+00,-1.013856697082519531e+01,-2.541044950485229492e-01,-2.316102027893066406e+01,-3.974449634552001953e-02
2.909650087356567383e+00,-1.169159126281738281e+01,7.717081308364868164e-01,-4.615650773048400879e-01,-5.619994163513183594e+00,2.526099979877471924e-01,3.481082022190093994e-01,-6.471771717071533203e+00,-1.122220635414123535e+00,-3.356487512588500977e+00,-7.693623542785644531e+00,-9.022817611694335938e+00,-3.747205018997192383e+00,-4.013875961303710938e+00,-7.222707271575927734e+00,-4.345362663269042969e+00,-2.315183639526367188e+00,-1.121941852569580078e+01,7.356252172030508518e-05,-2.440426826477050781e+01,-4.203137382864952087e-02
2.283163547515869141e+00,-1.214384937286376953e+01,-4.873165488243103027e-01,-1.671658515930175781e+00,-6.197705745697021484e+00,3.084316253662109375e-01,-3.894744515419006348e-01,-7.260050296783447266e+00,-2.483471393585205078e+00,-4.769058227539062500e+00,-8.002798080444335938e+00,-8.739407539367675781e+00,-5.199036598205566406e+00,-4.774470806121826172e+00,-8.392937660217285156e+00,-4.807946681976318359e+00,-3.497494935989379883e+00,-1.226875019073486328e+01,7.696776092052459717e-02,-2.561870765686035156e+01,-4.126339033246040344e-02
1.295629501342773438e+00,-1.261054134368896484e+01,-1.775835275650024414e+00,-2.911405324935913086e+00,-6.977010250091552734e+00,4.370333850383758545e-01,-1.193469762802124023e+00,-8.004678726196289062e+00,-3.766269683837890625e+00,-6.270961761474609375e+00,-8.306549072265625000e+00,-8.657405853271484375e+00,-6.661652565002441406e+00,-5.682561397552490234e+00,-9.682308197021484375e+00,-5.040591239929199219e+00,-4.721375942230224609e+00,-1.318081378936767578e+01,5.413437262177467346e-03,-2.678918075561523438e+01,-3.792694211006164551e-02
6.278462707996368408e-02,-1.296898078918457031e+01,-2.966655015945434570e+00,-4.002884387969970703e+00,-7.841244220733642578e+00,6.094444990158081055e-01,-2.018596410751342773e+00,-8.623490333557128906e+00,-4.866720199584960938e+00,-7.754998683929443359e+00,-8.561483383178710938e+00,-8.750916481018066406e+00,-8.071694374084472656e+00,-6.672105312347412109e+00,-1.103786945343017578e+01,-5.124451637268066406e+00,-5.853416919708251953e+00,-1.385698223114013672e+01,-1.846861094236373901e-01,-2.785958671569824219e+01,-3.296066448092460632e-02
-1.284538745880126953e+00,-1.312534618377685547e+01,-3.959312200546264648e+00,-4.817216873168945312e+00,-8.670013427734375000e+00,7.691367864608764648e-01,-2.808504104614257812e+00,-9.063420295715332031e+00,-5.706369876861572266e+00,-9.124019622802734375e+00,-8.728856086730957031e+00,-8.963833808898925781e+00,-9.369850158691406250e+00,-7.661648750305175781e+00,-1.238019180297851562e+01,-5.174497127532958984e+00,-6.795012474060058594e+00,-1.422607803344726562e+01,-4.655635356903076172e-01,-2.874805450439453125e+01,-2.754213474690914154e-02
-2.638152122497558594e+00,-1.307723426818847656e+01,-4.694818496704101562e+00,-5.308781623840332031e+00,-9.360653877258300781e+00,8.299046754837036133e-01,-3.511874198913574219e+00,-9.310773849487304688e+00,-6.238572120666503906e+00,-1.030655956268310547e+01,-8.781547546386718750e+00,-9.248682022094726562e+00,-1.050085067749023438e+01,-8.565336227416992188e+00,-1.361264038085937500e+01,-5.320576667785644531e+00,-7.499759197235107422e+00,-1.426064872741699219e+01,-8.083834648132324219e-01,-2.937877464294433594e+01,-2.278918772935867310e-02
-3.935155391693115234e+00,-1.290884017944335938e+01,-5.173174381256103516e+00,-5.514075756072998047e+00,-9.843169212341308594e+00,7.069557309150695801e-01,-4.091475486755371094e+00,-9.398930549621582031e+00,-6.458026409149169922e+00,-1.127246761322021484e+01,-8.711809158325195312e+00,-9.573812484741210938e+00,-1.142290496826171875e+01,-9.307219505310058594e+00,-1.464122486114501953e+01,-5.680364131927490234e+00,-7.981190681457519531e+00,-1.398204708099365234e+01,-1.185378670692443848e+00,-2.970323371887207031e+01,-1.957220211625099182e-02
-5.160452365875244141e+00,-1.276931381225585938e+01,-5.441385269165039062e+00,-5.542588710784912109e+00,-1.008582687377929688e+01,3.402287662029266357e-01,-4.527182579040527344e+00,-9.387804031372070312e+00,-6.396536827087402344e+00,-1.202844429016113281e+01,-8.532813072204589844e+00,-9.934907913208007812e+00,-1.211849021911621094e+01,-9.838865280151367188e+00,-1.539975643157958984e+01,-6.325546741485595703e+00,-8.307945251464843750e+00,-1.346348285675048828e+01,-1.571985602378845215e+00,-2.972900772094726562e+01,-1.841169781982898712e-02
-6.321590900421142578e+00,-1.281261444091796875e+01,-5.584246635437011719e+00,-5.536886215209960938e+00,-1.008302688598632812e+01,-2.837017178535461426e-01,-4.813964366912841797e+00,-9.361271858215332031e+00,-6.123014450073242188e+00,-1.261915493011474609e+01,-8.280978202819824219e+00,-1.034347820281982422e+01,-1.260108566284179688e+01,-1.015036773681640625e+01,-1.586043548583984375e+01,-7.277766704559326172e+00,-8.574763298034667969e+00,-1.281578540802001953e+01,-1.955388665199279785e+00,-2.951523017883300781e+01,-1.937593892216682434e-02
-7.413539409637451172e+00,-1.312053585052490234e+01,-5.684710502624511719e+00,-5.631549358367919922e+00,-9.843169212341308594e+00,-1.116786718368530273e+00,-4.964901924133300781e+00,-9.395507812500000000e+00,-5.720151901245117188e+00,-1.310825061798095703e+01,-8.014421463012695312e+00,-1.081822586059570312e+01,-1.292056941986083984e+01,-1.027364730834960938e+01,-1.604576492309570312e+01,-8.504560470581054688e+00,-8.873482704162597656e+00,-1.217215442657470703e+01,-2.335587739944458008e+00,-2.916499710083007812e+01,-2.214920334517955780e-02
-8.388493537902832031e+00,-1.367383003234863281e+01,-5.810060024261474609e+00,-5.916679859161376953e+00,-9.377453804016113281e+00,-2.051622629165649414e+00,-4.998108386993408203e+00,-9.557271003723144531e+00,-5.279123783111572266e+00,-1.356496334075927734e+01,-7.805205345153808594e+00,-1.136058902740478516e+01,-1.314569091796875000e+01,-1.026704311370849609e+01,-1.601267051696777344e+01,-9.935595512390136719e+00,-9.259208679199218750e+00,-1.166172409057617188e+01,-2.737146377563476562e+00,-2.880112075805664062e+01,-2.608297206461429596e-02
-9.153360366821289062e+00,-1.435221767425537109e+01,-5.992554187774658203e+00,-6.415087699890136719e+00,-8.693346023559570312e+00,-2.949714899063110352e+00,-4.935720443725585938e+00,-9.873952865600585938e+00,-4.873081207275390625e+00,-1.403730964660644531e+01,-7.719194412231445312e+00,-1.195474243164062500e+01,-1.336676788330078125e+01,-1.020650386810302734e+01,-1.584190177917480469e+01,-1.147618961334228516e+01,-9.742573738098144531e+00,-1.138515567779541016e+01,-3.201715469360351562e+00,-2.852972793579101562e+01,-3.028979897499084473e-02
-9.596178054809570312e+00,-1.498008728027343750e+01,-6.224819183349609375e+00,-7.086854934692382812e+00,-7.803912639617919922e+00,-3.666210412979125977e+00,-4.805913925170898438e+00,-1.034555053710937500e+01,-4.556091785430908203e+00,-1.454650497436523438e+01,-7.804430484771728516e+00,-1.256328296661376953e+01,-1.366333580017089844e+01,-1.016467666625976562e+01,-1.561288642883300781e+01,-1.303707218170166016e+01,-1.028587627410888672e+01,-1.139939117431640625e+01,-3.789101600646972656e+00,-2.842814636230468750e+01,-3.382251039147377014e-02
-9.608757972717285156e+00,-1.540107250213623047e+01,-6.470909595489501953e+00,-7.853285312652587891e+00,-6.739952564239501953e+00,-4.090878963470458984e+00,-4.640888690948486328e+00,-1.094382095336914062e+01,-4.347239494323730469e+00,-1.508138370513916016e+01,-8.077960968017578125e+00,-1.313154125213623047e+01,-1.409605407714843750e+01,-1.019769859313964844e+01,-1.539181327819824219e+01,-1.454385185241699219e+01,-1.082337856292724609e+01,-1.170646286010742188e+01,-4.564451694488525391e+00,-2.852669525146484375e+01,-3.582779318094253540e-02
-9.142038345336914062e+00,-1.553338241577148438e+01,-6.683819293975830078e+00,-8.619715690612792969e+00,-5.555596828460693359e+00,-4.170724868774414062e+00,-4.475863456726074219e+00,-1.161655330657958984e+01,-4.236982822418212891e+00,-1.560509586334228516e+01,-8.508791923522949219e+00,-1.358758640289306641e+01,-1.468514442443847656e+01,-1.034409332275390625e+01,-1.521574974060058594e+01,-1.595053958892822266e+01,-1.128160858154296875e+01,-1.225451469421386719e+01,-5.588639259338378906e+00,-2.880415153503417969e+01,-3.572539612650871277e-02
-8.228726387023925781e+00,-1.539626121520996094e+01,-6.819307327270507812e+00,-9.305169105529785156e+00,-4.332042694091796875e+00,-3.929066896438598633e+00,-4.348069667816162109e+00,-1.230897235870361328e+01,-4.186094760894775391e+00,-1.606404113769531250e+01,-9.024083137512207031e+00,-1.384510135650634766e+01,-1.540229797363281250e+01,-1.061156749725341797e+01,-1.509131336212158203e+01,-1.723684883117675781e+01,-1.160062980651855469e+01,-1.294898509979248047e+01,-6.899044990539550781e+00,-2.919683647155761719e+01,-3.328492492437362671e-02
-6.980785369873046875e+00,-1.508834075927734375e+01,-6.841428279876708984e+00,-9.852619171142578125e+00,-3.169152736663818359e+00,-3.445750236511230469e+00,-4.281656742095947266e+00,-1.295945262908935547e+01,-4.134146690368652344e+00,-1.639457130432128906e+01,-9.513804435729980469e+00,-1.380481910705566406e+01,-1.616798019409179688e+01,-1.098250865936279297e+01,-1.499467658996582031e+01,-1.839736557006835938e+01,-1.174177265167236328e+01,-1.366684150695800781e+01,-8.495667457580566406e+00,-2.960165023803710938e+01,-2.874530479311943054e-02
-5.565529823303222656e+00,-1.473952484130859375e+01,-6.724373817443847656e+00,-1.022556972503662109e+01,-2.163990259170532227e+00,-2.845844268798828125e+00,-4.280650615692138672e+00,-1.350636863708496094e+01,-4.000566005706787109e+00,-1.653192138671875000e+01,-9.849325180053710938e+00,-1.336316013336181641e+01,-1.685547828674316406e+01,-1.140958690643310547e+01,-1.486891651153564453e+01,-1.941856765747070312e+01,-1.167893505096435547e+01,-1.427996826171875000e+01,-1.033044815063476562e+01,-2.988213920593261719e+01,-2.272092178463935852e-02
-4.172918319702148438e+00,-1.444363212585449219e+01,-6.446946144104003906e+00,-1.039436721801757812e+01,-1.392152547836303711e+00,-2.260776996612548828e+00,-4.320900917053222656e+00,-1.387868309020996094e+01,-3.695238828659057617e+00,-1.640685462951660156e+01,-9.912090301513671875e+00,-1.242949008941650391e+01,-1.730976486206054688e+01,-1.181354904174804688e+01,-1.462931060791015625e+01,-2.026528549194335938e+01,-1.139278221130371094e+01,-1.466838359832763672e+01,-1.230513381958007812e+01,-2.988972091674804688e+01,-1.614188775420188904e-02
-2.976555585861206055e+00,-1.423193645477294922e+01,-5.986102104187011719e+00,-1.032479572296142578e+01,-8.909713625907897949e-01,-1.793712377548217773e+00,-4.352094650268554688e+00,-1.399936389923095703e+01,-3.131231546401977539e+00,-1.594567584991455078e+01,-9.612213134765625000e+00,-1.094914150238037109e+01,-1.736368560791015625e+01,-1.208762741088867188e+01,-1.417260360717773438e+01,-2.086312675476074219e+01,-1.086108112335205078e+01,-1.474464225769042969e+01,-1.427768421173095703e+01,-2.948490715026855469e+01,-1.010897196829319000e-02
-2.080855846405029297e+00,-1.405151462554931641e+01,-5.325252532958984375e+00,-9.975795745849609375e+00,-6.520469188690185547e-01,-1.494112730026245117e+00,-4.311844348907470703e+00,-1.378282260894775391e+01,-2.238573312759399414e+00,-1.509143352508544922e+01,-8.911726951599121094e+00,-8.927867889404296875e+00,-1.687300109863281250e+01,-1.210854148864746094e+01,-1.338759613037109375e+01,-2.110253524780273438e+01,-1.006062793731689453e+01,-1.446299076080322266e+01,-1.608362960815429688e+01,-2.857369613647460938e+01,-5.654682870954275131e-03
-1.523559689521789551e+00,-1.380132865905761719e+01,-4.450571537017822266e+00,-9.310872077941894531e+00,-6.277812123298645020e-01,-1.352085471153259277e+00,-4.142794132232666016e+00,-1.315973186492919922e+01,-9.822790026664733887e-01,-1.380839443206787109e+01,-7.841624259948730469e+00,-6.433285236358642578e+00,-1.574604606628417969e+01,-1.176621818542480469e+01,-1.218691825866699219e+01,-2.085771751403808594e+01,-8.978857040405273438e+00,-1.383664608001708984e+01,-1.757452201843261719e+01,-2.714850997924804688e+01,-3.640866838395595551e-03
-1.263152718544006348e+00,-1.337553215026855469e+01,-3.374040842056274414e+00,-8.323180198669433594e+00,-7.463100552558898926e-01,-1.306156277656555176e+00,-3.822806119918823242e+00,-1.208729553222656250e+01,6.206889748573303223e-01,-1.210884284973144531e+01,-6.481719017028808594e+00,-3.599186658859252930e+00,-1.396529483795166016e+01,-1.098801231384277344e+01,-1.052688598632812500e+01,-2.002722930908203125e+01,-7.634134769439697266e+00,-1.293271636962890625e+01,-1.862754631042480469e+01,-2.530031585693359375e+01,-4.553910810500383377e-03
-1.198994398117065430e+00,-1.272120094299316406e+01,-2.138058423995971680e+00,-7.048077106475830078e+00,-9.367029666900634766e-01,-1.266586542129516602e+00,-3.372005224227905273e+00,-1.058434486389160156e+01,2.495059013366699219e+00,-1.006089496612548828e+01,-4.968388557434082031e+00,-6.025227308273315430e-01,-1.160893344879150391e+01,-9.776124000549316406e+00,-8.433974266052246094e+00,-1.857320213317871094e+01,-6.084465503692626953e+00,-1.186609935760498047e+01,-1.919250488281250000e+01,-2.322166633605957031e+01,-8.479145355522632599e-03
-1.200252413749694824e+00,-1.184795665740966797e+01,-8.200456500053405762e-01,-5.581366539001464844e+00,-1.147628426551818848e+00,-1.150703668594360352e+00,-2.855798006057739258e+00,-8.735612869262695312e+00,4.513611316680908203e+00,-7.797431468963623047e+00,-3.456607818603515625e+00,2.378316164016723633e+00,-8.836029052734375000e+00,-8.216409683227539062e+00,-6.016734600067138672e+00,-1.655379295349121094e+01,-4.435223579406738281e+00,-1.077507972717285156e+01,-1.929182624816894531e+01,-2.117333793640136719e+01,-1.502404827624559402e-02
-1.139868140220642090e+00,-1.084240341186523438e+01,4.832200706005096436e-01,-4.055348396301269531e+00,-1.361353754997253418e+00,-9.019793868064880371e-01,-2.368772029876708984e+00,-6.687457084655761719e+00,6.513080596923828125e+00,-5.488185405731201172e+00,-2.098252296447753906e+00,5.177887916564941406e+00,-5.870357036590576172e+00,-6.478379249572753906e+00,-3.459172964096069336e+00,-1.414078140258789062e+01,-2.812083005905151367e+00,-9.794890403747558594e+00,-1.901522064208984375e+01,-1.941914558410644531e+01,-2.341210469603538513e-02
-9.285233616828918457e-01,-9.827227592468261719e+00,1.671274900436401367e+00,-2.627415418624877930e+00,-1.595611572265625000e+00,-5.041618943214416504e-01,-2.004508733749389648e+00,-4.621327400207519531e+00,8.330202102661132812e+00,-3.310704708099365234e+00,-1.013427734375000000e+00,7.681101799011230469e+00,-2.959953784942626953e+00,-4.770067691802978516e+00,-9.889813065528869629e-01,-1.158980655670166016e+01,-1.341686129570007324e+00,-9.025177955627441406e+00,-1.849832153320312500e+01,-1.817741394042968750e+01,-3.252547606825828552e-02
-5.272197127342224121e-01,-8.932332992553710938e+00,2.661166906356811523e+00,-1.423024773597717285e+00,-1.888667345046997070e+00,2.155079133808612823e-02,-1.826402187347412109e+00,-2.719529867172241211e+00,9.830333709716796875e+00,-1.413504838943481445e+00,-2.726473808288574219e-01,9.814588546752929688e+00,-3.326376080513000488e-01,-3.302813529968261719e+00,1.164824604988098145e+00,-9.194378852844238281e+00,-1.197387948632240295e-01,-8.510680198669433594e+00,-1.789064407348632812e+01,-1.756033897399902344e+01,-4.106713086366653442e-02
4.014053195714950562e-02,-8.251540184020996094e+00,3.402203321456909180e+00,-5.242937803268432617e-01,-2.287185668945312500e+00,6.313492059707641602e-01,-1.849545955657958984e+00,-1.119006991386413574e+00,1.093290424346923828e+01,1.151982769370079041e-01,1.124653965234756470e-01,1.155101394653320312e+01,1.836347460746765137e+00,-2.228514671325683594e+00,2.814266681671142578e+00,-7.222310543060302734e+00,8.102558851242065430e-01,-8.233095169067382812e+00,-1.731820869445800781e+01,-1.754821014404296875e+01,-4.775709658861160278e-02
7.068831920623779297e-01,-7.823338031768798828e+00,3.880558967590332031e+00,4.710752516984939575e-02,-2.824765682220458984e+00,1.273651361465454102e+00,-2.037715196609497070e+00,1.066340580582618713e-01,1.161458969116210938e+01,1.257538080215454102e+00,1.806543767452239990e-01,1.287742900848388672e+01,3.451290845870971680e+00,-1.608811736106872559e+00,3.848146438598632812e+00,-5.844026565551757812e+00,1.450231432914733887e+00,-8.136500358581542969e+00,-1.686645507812500000e+01,-1.802731513977050781e+01,-5.154580250382423401e-02
1.379915952682495117e+00,-7.642915725708007812e+00,4.109137535095214844e+00,3.208326995372772217e-01,-3.512606620788574219e+00,1.899701714515686035e+00,-2.317453145980834961e+00,9.591050148010253906e-01,1.190931606292724609e+01,2.052597761154174805e+00,8.632172830402851105e-03,1.379239749908447266e+01,4.491972446441650391e+00,-1.405179262161254883e+00,4.251902103424072266e+00,-5.112278461456298828e+00,1.839823842048645020e+00,-8.131416320800781250e+00,-1.655994606018066406e+01,-1.879903793334960938e+01,-5.183592811226844788e-02
1.963630199432373047e+00,-7.676594257354736328e+00,4.116510868072509766e+00,3.561888635158538818e-01,-4.333909034729003906e+00,2.457918167114257812e+00,-2.600209951400756836e+00,1.500030398368835449e+00,1.188069152832031250e+01,2.568493127822875977e+00,-3.121660053730010986e-01,1.428728580474853516e+01,5.004224777221679688e+00,-1.492135763168334961e+00,4.094371318817138672e+00,-4.949968338012695312e+00,2.026402711868286133e+00,-8.143617630004882812e+00,-1.638052749633789062e+01,-1.965415000915527344e+01,-4.861894249916076660e-02
2.383803844451904297e+00,-7.893101215362548828e+00,3.935860157012939453e+00,2.181857526302337646e-01,-5.247608184814453125e+00,2.907317638397216797e+00,-2.806491613388061523e+00,1.825270295143127441e+00,1.160398864746093750e+01,2.882273674011230469e+00,-6.949541568756103516e-01,1.435777854919433594e+01,5.078366756439208984e+00,-1.701271891593933105e+00,3.514551401138305664e+00,-5.189375877380371094e+00,2.049604415893554688e+00,-8.129382133483886719e+00,-1.625557327270507812e+01,-2.041222763061523438e+01,-4.256042465567588806e-02
2.600180864334106445e+00,-8.270785331726074219e+00,3.605896234512329102e+00,-3.615054860711097717e-02,-6.193039417266845703e+00,3.192785263061523438e+00,-2.878941774368286133e+00,2.041811704635620117e+00,1.115129852294921875e+01,3.063172101974487305e+00,-1.067668914794921875e+00,1.400531387329101562e+01,4.833024501800537109e+00,-1.858674168586730957e+00,2.685858964920043945e+00,-5.616792678833007812e+00,1.936496853828430176e+00,-8.068374633789062500e+00,-1.609858131408691406e+01,-2.093530273437500000e+01,-3.481235355138778687e-02
2.607728719711303711e+00,-8.792806625366210938e+00,3.173624992370605469e+00,-3.543560504913330078e-01,-7.099272251129150391e+00,3.269098281860351562e+00,-2.782341480255126953e+00,2.246370553970336914e+00,1.058835124969482422e+01,3.167021274566650391e+00,-1.382268071174621582e+00,1.325866603851318359e+01,4.394914150238037109e+00,-1.822350621223449707e+00,1.797596096992492676e+00,-6.025273323059082031e+00,1.706415057182312012e+00,-7.971779346466064453e+00,-1.580275249481201172e+01,-2.116120910644531250e+01,-2.683388628065586090e-02
2.436640024185180664e+00,-9.435110092163085938e+00,2.703564405441284180e+00,-6.873883605003356934e-01,-7.896308898925781250e+00,3.107286214828491211e+00,-2.499584674835205078e+00,2.515121459960937500e+00,9.971335411071777344e+00,3.247420549392700195e+00,-1.610856175422668457e+00,1.217537879943847656e+01,3.894793748855590820e+00,-1.500941514968872070e+00,1.019207715988159180e+00,-6.255212306976318359e+00,1.387393951416015625e+00,-7.848747253417968750e+00,-1.526449298858642578e+01,-2.108085250854492188e+01,-1.999885775148868561e-02
2.141008853912353516e+00,-1.014236545562744141e+01,2.274980068206787109e+00,-9.770808219909667969e-01,-8.516952514648437500e+00,2.710881948471069336e+00,-2.027652502059936523e+00,2.902841567993164062e+00,9.352199554443359375e+00,3.356852769851684570e+00,-1.744909524917602539e+00,1.084608554840087891e+01,3.456683158874511719e+00,-8.647277355194091797e-01,4.817491173744201660e-01,-6.215987682342529297e+00,1.023903369903564453e+00,-7.703345775604248047e+00,-1.439622879028320312e+01,-2.073365402221679688e+01,-1.533977407962083817e-02
1.783735513687133789e+00,-1.081353569030761719e+01,1.967136383056640625e+00,-1.166407465934753418e+00,-8.920137405395507812e+00,2.139240026473999023e+00,-1.380632638931274414e+00,3.430072546005249023e+00,8.771229743957519531e+00,3.542217731475830078e+00,-1.795276403427124023e+00,9.381561279296875000e+00,3.177640199661254883e+00,6.097439676523208618e-02,2.646476030349731445e-01,-5.885956764221191406e+00,6.700800061225891113e-01,-7.533541202545166016e+00,-1.314776611328125000e+01,-2.019845008850097656e+01,-1.326622627675533295e-02
1.425204038619995117e+00,-1.133555793762207031e+01,1.835335135459899902e+00,-1.217730879783630371e+00,-9.093730926513671875e+00,1.489165306091308594e+00,-6.007873415946960449e-01,4.087399482727050781e+00,8.239027976989746094e+00,3.829198598861694336e+00,-1.790627121925354004e+00,7.892580509185791016e+00,3.110238552093505859e+00,1.195812582969665527e+00,3.758459389209747314e-01,-5.311108589172363281e+00,3.723269999027252197e-01,-7.340350627899169922e+00,-1.152337646484375000e+01,-1.958289146423339844e+01,-1.358195114880800247e-02
1.116992831230163574e+00,-1.160017681121826172e+01,1.884184598922729492e+00,-1.128770232200622559e+00,-9.066665649414062500e+00,8.899659514427185059e-01,2.404392510652542114e-01,4.826036453247070312e+00,7.738630294799804688e+00,4.197695255279541016e+00,-1.779003977775573730e+00,6.471215248107910156e+00,3.249085903167724609e+00,2.415405750274658203e+00,7.504784464836120605e-01,-4.591533184051513672e+00,1.470788121223449707e-01,-7.138008594512939453e+00,-9.598885536193847656e+00,-1.900978469848632812e+01,-1.560430042445659637e-02
8.892939090728759766e-01,-1.155447006225585938e+01,2.055618286132812500e+00,-9.531298875808715820e-01,-8.904271125793457031e+00,4.645909070968627930e-01,1.036384582519531250e+00,5.565529346466064453e+00,7.200067043304443359e+00,4.579591751098632812e+00,-1.825496435165405273e+00,5.185081005096435547e+00,3.515996456146240234e+00,3.568956136703491211e+00,1.265432596206665039e+00,-3.854374647140502930e+00,-3.369978815317153931e-02,-6.967186927795410156e+00,-7.516334533691406250e+00,-1.859890556335449219e+01,-1.836049742996692657e-02
7.572034001350402832e-01,-1.122249317169189453e+01,2.240877628326416016e+00,-7.820516228675842285e-01,-8.690546035766601562e+00,2.907665371894836426e-01,1.671329498291015625e+00,6.198891639709472656e+00,6.537464618682861328e+00,4.867689609527587891e+00,-1.996743798255920410e+00,4.068705081939697266e+00,3.784255027770996094e+00,4.501262664794921875e+00,1.763177514076232910e+00,-3.238948583602905273e+00,-2.357464581727981567e-01,-6.883810043334960938e+00,-5.458346366882324219e+00,-1.845335388183593750e+01,-2.092896774411201477e-02
7.144312262535095215e-01,-1.070768833160400391e+01,2.313690900802612305e+00,-7.216039896011352539e-01,-8.501086235046386719e+00,3.797985315322875977e-01,2.047667741775512695e+00,6.631118297576904297e+00,5.663889408111572266e+00,4.951438426971435547e+00,-2.346212387084960938e+00,3.136473655700683594e+00,3.909622192382812500e+00,5.089045047760009766e+00,2.099420070648193359e+00,-2.861577510833740234e+00,-5.325326919555664062e-01,-6.934649944305419922e+00,-3.603274106979370117e+00,-1.862013244628906250e+01,-2.260999195277690887e-02
7.433653473854064941e-01,-1.016401576995849609e+01,2.177281141281127930e+00,-8.504829406738281250e-01,-8.377890586853027344e+00,6.709190011024475098e-01,2.115086555480957031e+00,6.804008960723876953e+00,4.535874843597412109e+00,4.761607170104980469e+00,-2.897148370742797852e+00,2.392702579498291016e+00,3.778862953186035156e+00,5.271763801574707031e+00,2.185466527938842773e+00,-2.780422449111938477e+00,-9.665946960449218750e-01,-7.132924556732177734e+00,-2.071797847747802734e+00,-1.908559226989746094e+01,-2.305371500551700592e-02
8.163296580314636230e-01,-9.743030548095703125e+00,1.795702576637268066e+00,-1.178953170776367188e+00,-8.307893753051757812e+00,1.055311083793640137e+00,1.907798647880554199e+00,6.719275474548339844e+00,3.178864717483520508e+00,4.300427913665771484e+00,-3.625530719757080078e+00,1.837391734123229980e+00,3.344796419143676758e+00,5.070332527160644531e+00,2.006754875183105469e+00,-2.984662532806396484e+00,-1.519564509391784668e+00,-7.437962532043457031e+00,-8.884816169738769531e-01,-1.976937866210937500e+01,-2.232839912176132202e-02
9.043899774551391602e-01,-9.557797431945800781e+00,1.219648122787475586e+00,-1.636302232742309570e+00,-8.226696968078613281e+00,1.399426698684692383e+00,1.524416685104370117e+00,6.441109657287597656e+00,1.689334392547607422e+00,3.653883457183837891e+00,-4.463170528411865234e+00,1.460471034049987793e+00,2.649211406707763672e+00,4.584917068481445312e+00,1.638741374015808105e+00,-3.383675098419189453e+00,-2.106369972229003906e+00,-7.757236003875732422e+00,1.502521242946386337e-02,-2.054413414001464844e+01,-2.084363624453544617e-02
9.836443066596984863e-01,-9.629965782165527344e+00,5.670936107635498047e-01,-2.090229749679565430e+00,-8.045637130737304688e+00,1.590916156768798828e+00,1.115878462791442871e+00,6.075642585754394531e+00,2.167665064334869385e-01,2.961556434631347656e+00,-5.311658382415771484e+00,1.231729030609130859e+00,1.812082886695861816e+00,3.961911678314208984e+00,1.209833502769470215e+00,-3.827322959899902344e+00,-2.595535516738891602e+00,-7.968729019165039062e+00,7.828992009162902832e-01,-2.127340507507324219e+01,-1.928207464516162872e-02
1.041512489318847656e+00,-9.923453330993652344e+00,-1.725608669221401215e-02,-2.386765480041503906e+00,-7.684450149536132812e+00,1.556999206542968750e+00,8.321154117584228516e-01,5.731573104858398438e+00,-1.081934452056884766e+00,2.375311613082885742e+00,-6.070260524749755859e+00,1.087866187095642090e+00,9.897827506065368652e-01,3.354316473007202148e+00,8.682957291603088379e-01,-4.146533012390136719e+00,-2.855586051940917969e+00,-7.958560943603515625e+00,1.581744551658630371e+00,-2.184196281433105469e+01,-1.840316317975521088e-02
1.074220657348632812e+00,-1.037090015411376953e+01,-4.071297645568847656e-01,-2.399311304092407227e+00,-7.113271713256835938e+00,1.270824909210205078e+00,7.868340611457824707e-01,5.485931396484375000e+00,-2.082729339599609375e+00,2.010164737701416016e+00,-6.656840801239013672e+00,9.253010749816894531e-01,3.359867334365844727e-01,2.876605749130249023e+00,7.359167337417602539e-01,-4.188463211059570312e+00,-2.808216094970703125e+00,-7.657589912414550781e+00,2.542922019958496094e+00,-2.219219589233398438e+01,-1.884688623249530792e-02
1.081768751144409180e+00,-1.090735530853271484e+01,-5.398527383804321289e-01,-2.071981430053710938e+00,-6.369432926177978516e+00,7.444056868553161621e-01,1.023303270339965820e+00,5.357547283172607422e+00,-2.729429244995117188e+00,1.906315684318542480e+00,-7.031880378723144531e+00,6.231890320777893066e-01,-4.415855556726455688e-02,2.575009584426879883e+00,8.762384653091430664e-01,-3.862490177154541016e+00,-2.459226369857788086e+00,-7.061748981475830078e+00,3.727306127548217773e+00,-2.233168220520019531e+01,-2.099723182618618011e-02
1.060382604598999023e+00,-1.149673461914062500e+01,-4.301719367504119873e-01,-1.423024773597717285e+00,-5.555596828460693359e+00,1.165834907442331314e-02,1.513347983360290527e+00,5.312184810638427734e+00,-3.044298171997070312e+00,2.025798082351684570e+00,-7.210101604461669922e+00,6.643966585397720337e-02,-1.142562702298164368e-01,2.425312280654907227e+00,1.286613225936889648e+00,-3.153735637664794922e+00,-1.901422977447509766e+00,-6.231028556823730469e+00,5.117809772491455078e+00,-2.230439186096191406e+01,-2.473473921418190002e-02
9.949663281440734863e-01,-1.213903808593750000e+01,-1.619609743356704712e-01,-5.607904791831970215e-01,-4.809891223907470703e+00,-8.765416741371154785e-01,2.165399074554443359e+00,5.285652160644531250e+00,-3.110028266906738281e+00,2.272579193115234375e+00,-7.252719402313232422e+00,-8.111239075660705566e-01,9.468884021043777466e-02,2.352664947509765625e+00,1.902175545692443848e+00,-2.123066186904907227e+00,-1.283682227134704590e+00,-5.269141674041748047e+00,6.631130218505859375e+00,-2.217248535156250000e+01,-2.945355325937271118e-02
8.540697693824768066e-01,-1.283426570892333984e+01,1.449608653783798218e-01,3.835613727569580078e-01,-4.267644882202148438e+00,-1.858013272285461426e+00,2.862731695175170898e+00,5.218036174774169922e+00,-3.043237924575805664e+00,2.533876895904541016e+00,-7.251169681549072266e+00,-2.006624460220336914e+00,5.017948150634765625e-01,2.271212100982666016e+00,2.618345737457275391e+00,-8.881562948226928711e-01,-7.635812759399414062e-01,-4.299120426177978516e+00,8.150858879089355469e+00,-2.197993469238281250e+01,-3.414677083492279053e-02
5.961787700653076172e-01,-1.355836009979248047e+01,3.716959059238433838e-01,1.281151890754699707e+00,-4.016587734222412109e+00,-2.850084066390991211e+00,3.486608028411865234e+00,5.078525543212890625e+00,-2.960545063018798828e+00,2.708075284957885742e+00,-7.308510780334472656e+00,-3.429428339004516602e+00,9.965229034423828125e-01,2.114910364151000977e+00,3.312011480331420898e+00,4.157353639602661133e-01,-4.590611755847930908e-01,-3.430778503417968750e+00,9.562721252441406250e+00,-2.172825241088867188e+01,-3.767948225140571594e-02
1.911011338233947754e-01,-1.421990871429443359e+01,4.306838810443878174e-01,2.037317752838134766e+00,-4.076318740844726562e+00,-3.751002788543701172e+00,3.942440032958984375e+00,4.879958152770996094e+00,-2.958424806594848633e+00,2.731524944305419922e+00,-7.520051479339599609e+00,-4.932795524597167969e+00,1.469682455062866211e+00,1.856242060661315918e+00,3.868003129959106445e+00,1.651997804641723633e+00,-4.213587045669555664e-01,-2.749526500701904297e+00,1.076632881164550781e+01,-2.138711738586425781e+01,-3.912157937884330750e-02
-3.724851310253143311e-01,-1.468660068511962891e+01,2.813705503940582275e-01,2.606437921524047852e+00,-4.389906883239746094e+00,-4.442767143249511719e+00,4.170859336853027344e+00,4.662560939788818359e+00,-3.098366498947143555e+00,2.580776453018188477e+00,-7.952431678771972656e+00,-6.345529079437255859e+00,1.824215173721313477e+00,1.517221570014953613e+00,4.181741237640380859e+00,2.719187021255493164e+00,-6.272723078727722168e-01,-2.309254884719848633e+00,1.169119548797607422e+01,-2.090497970581054688e+01,-3.806347027420997620e-02
-1.065645933151245117e+00,-1.481409931182861328e+01,-6.702719628810882568e-02,2.988512516021728516e+00,-4.846290111541748047e+00,-4.818679809570312500e+00,4.148721694946289062e+00,4.474264144897460938e+00,-3.406874179840087891e+00,2.263645887374877930e+00,-8.641295433044433594e+00,-7.512257099151611328e+00,1.985979080200195312e+00,1.146280288696289062e+00,4.188360214233398438e+00,3.557789564132690430e+00,-1.000430226325988770e+00,-2.133349657058715820e+00,1.229566955566406250e+01,-2.025151634216308594e+01,-3.476115316152572632e-02
-1.829254984855651855e+00,-1.449896144866943359e+01,-5.721117854118347168e-01,3.212054729461669922e+00,-5.310139179229736328e+00,-4.808787345886230469e+00,3.884077548980712891e+00,4.351015090942382812e+00,-3.882887840270996094e+00,1.813633203506469727e+00,-9.578119277954101562e+00,-8.323643684387207031e+00,1.910489201545715332e+00,8.105619549751281738e-01,3.862708091735839844e+00,4.156984806060791016e+00,-1.441259264945983887e+00,-2.211642742156982422e+00,1.257013893127441406e+01,-1.941914558410644531e+01,-3.009353764355182648e-02
-2.586574077606201172e+00,-1.373637676239013672e+01,-1.166599988937377930e+00,3.318123340606689453e+00,-5.655459403991699219e+00,-4.413089752197265625e+00,3.416170358657836914e+00,4.291102409362792969e+00,-4.494602680206298828e+00,1.266471385955810547e+00,-1.071563529968261719e+01,-8.742284774780273438e+00,1.585613250732421875e+00,5.706058740615844727e-01,3.235231637954711914e+00,4.557349681854248047e+00,-1.856953382492065430e+00,-2.502445697784423828e+00,1.254450798034667969e+01,-1.845032310485839844e+01,-2.525525912642478943e-02
-3.260864734649658203e+00,-1.262738132476806641e+01,-1.774913549423217773e+00,3.344355344772338867e+00,-5.796387672424316406e+00,-3.714259386062622070e+00,2.811412811279296875e+00,4.274840354919433594e+00,-5.182649135589599609e+00,6.779932975769042969e-01,-1.197403144836425781e+01,-8.773934364318847656e+00,1.041007995605468750e+00,4.704407453536987305e-01,2.394625186920166016e+00,4.814341068267822266e+00,-2.181774854660034180e+00,-2.929499149322509766e+00,1.229139709472656250e+01,-1.741630363464355469e+01,-2.144948765635490417e-02
-3.804322957992553711e+00,-1.137885951995849609e+01,-2.322395801544189453e+00,3.321544885635375977e+00,-5.697458267211914062e+00,-2.863509416580200195e+00,2.153324127197265625e+00,4.264569759368896484e+00,-5.866454601287841797e+00,1.129649654030799866e-01,-1.323707771301269531e+01,-8.457436561584472656e+00,3.400308489799499512e-01,5.320808291435241699e-01,1.470620036125183105e+00,5.007760524749755859e+00,-2.376087665557861328e+00,-3.382989168167114258e+00,1.192294597625732422e+01,-1.641109275817871094e+01,-1.954660192131996155e-02
-4.200594425201416016e+00,-1.023377895355224609e+01,-2.738998413085937500e+00,3.279345512390136719e+00,-5.373603343963623047e+00,-2.050209283828735352e+00,1.540516734123229980e+00,4.230334281921386719e+00,-6.449544906616210938e+00,-3.549142181873321533e-01,-1.437691879272460938e+01,-7.848896026611328125e+00,-4.175636768341064453e-01,7.599290013313293457e-01,6.154518723487854004e-01,5.212000846862792969e+00,-2.425390958786010742e+00,-3.729715824127197266e+00,1.157799053192138672e+01,-1.552717304229736328e+01,-1.987086050212383270e-02
-4.462259292602539062e+00,-9.418271064758300781e+00,-2.967576742172241211e+00,3.246270418167114258e+00,-4.881755352020263672e+00,-1.450303316116333008e+00,1.071603298187255859e+00,4.163574218750000000e+00,-6.830143928527832031e+00,-6.474782824516296387e-01,-1.526105022430419922e+01,-6.987157344818115234e+00,-1.119888901710510254e+00,1.141877412796020508e+00,-3.717646747827529907e-02,5.486575603485107422e+00,-2.337418556213378906e+00,-3.844613552093505859e+00,1.139109420776367188e+01,-1.483277416229248047e+01,-2.220040187239646912e-02
-4.619510173797607422e+00,-9.071860313415527344e+00,-2.974950313568115234e+00,3.249691963195800781e+00,-4.299376964569091797e+00,-1.184620618820190430e+00,8.250716328620910645e-01,4.072849273681640625e+00,-6.929799079895019531e+00,-7.021944522857666016e-01,-1.577711677551269531e+01,-5.915379047393798828e+00,-1.664494156837463379e+00,1.651508927345275879e+00,-3.826855719089508057e-01,5.873414516448974609e+00,-2.125704526901245117e+00,-3.632103681564331055e+00,1.146158123016357422e+01,-1.437034606933593750e+01,-2.586111053824424744e-02
-4.702538490295410156e+00,-9.221009254455566406e+00,-2.761118888854980469e+00,3.315842390060424805e+00,-3.707665920257568359e+00,-1.289904475212097168e+00,8.431841731071472168e-01,3.982980489730834961e+00,-6.706104755401611328e+00,-4.911463260650634766e-01,-1.585150527954101562e+01,-4.675281047821044922e+00,-1.983978033065795898e+00,2.246996164321899414e+00,-3.959234952926635742e-01,6.390101909637451172e+00,-1.823117852210998535e+00,-3.059648752212524414e+00,1.182042026519775391e+01,-1.415505218505859375e+01,-2.993994206190109253e-02
-4.730214595794677734e+00,-9.783926010131835938e+00,-2.363871574401855469e+00,3.454985857009887695e+00,-3.177552461624145508e+00,-1.715279459953308105e+00,1.120909690856933594e+00,3.918788433074951172e+00,-6.169661521911621094e+00,-3.666704148054122925e-02,-1.546794223785400391e+01,-3.327285766601562500e+00,-2.064859867095947266e+00,2.877706527709960938e+00,-1.179276406764984131e-01,7.042047977447509766e+00,-1.474128127098083496e+00,-2.170970916748046875e+00,1.242169094085693359e+01,-1.416263294219970703e+01,-3.346411883831024170e-02
-4.702538490295410156e+00,-1.060665225982666016e+01,-1.855100393295288086e+00,3.660279750823974609e+00,-2.752901554107666016e+00,-2.345569372177124023e+00,1.599885582923889160e+00,3.899958848953247070e+00,-5.384079933166503906e+00,5.897774100303649902e-01,-1.467524528503417969e+01,-1.937570333480834961e+00,-1.951625227928161621e+00,3.479798078536987305e+00,3.480463325977325439e-01,7.810316085815429688e+00,-1.139639377593994141e+00,-1.088085532188415527e+00,1.314257335662841797e+01,-1.432789421081542969e+01,-3.562299907207489014e-02
-4.614478111267089844e+00,-1.149673461914062500e+01,-1.329738616943359375e+00,3.903210878372192383e+00,-2.452379465103149414e+00,-3.047226190567016602e+00,2.178480386734008789e+00,3.931626796722412109e+00,-4.453256130218505859e+00,1.275404691696166992e+00,-1.358034706115722656e+01,-5.924523472785949707e-01,-1.733243823051452637e+00,3.991631031036376953e+00,8.682957291603088379e-01,8.658386230468750000e+00,-8.824891448020935059e-01,1.615249738097190857e-02,1.381753349304199219e+01,-1.455228519439697266e+01,-3.586192801594734192e-02
-4.452195644378662109e+00,-1.229540443420410156e+01,-8.827203512191772461e-01,4.142720222473144531e+00,-2.263853311538696289e+00,-3.696594476699829102e+00,2.731919050216674805e+00,4.007801532745361328e+00,-3.496988058090209961e+00,1.896265745162963867e+00,-1.232814979553222656e+01,6.246276497840881348e-01,-1.518906593322753906e+00,4.364773750305175781e+00,1.314412832260131836e+00,9.530803680419921875e+00,-7.587476372718811035e-01,9.485523700714111328e-01,1.427889919281005859e+01,-1.470238494873046875e+01,-3.403583914041519165e-02
-4.210658550262451172e+00,-1.288959503173828125e+01,-5.831720232963562012e-01,4.334328174591064453e+00,-2.155590534210205078e+00,-4.222307205200195312e+00,3.143476009368896484e+00,4.115643978118896484e+00,-2.624473094940185547e+00,2.342928409576416016e+00,-1.106742858886718750e+01,1.643176913261413574e+00,-1.394887566566467285e+00,4.570607662200927734e+00,1.596380114555358887e+00,1.035858535766601562e+01,-8.051506876945495605e-01,1.542359948158264160e+00,1.439744377136230469e+01,-1.464173793792724609e+01,-3.048606216907501221e-02
-3.893641233444213867e+00,-1.323600578308105469e+01,-4.651960730552673340e-01,4.444958686828613281e+00,-2.087459802627563477e+00,-4.615178108215332031e+00,3.328626394271850586e+00,4.238037109375000000e+00,-1.909922599792480469e+00,2.547276735305786133e+00,-9.917513847351074219e+00,2.415720462799072266e+00,-1.405671834945678711e+00,4.612434864044189453e+00,1.682426452636718750e+00,1.106328201293945312e+01,-1.023631811141967773e+00,1.689795017242431641e+00,1.411549854278564453e+01,-1.424753761291503906e+01,-2.599764056503772736e-02
-3.516239643096923828e+00,-1.334666442871093750e+01,-5.140454769134521484e-01,4.460926055908203125e+00,-2.019329071044921875e+00,-4.914778232574462891e+00,3.256176233291625977e+00,4.353582859039306641e+00,-1.387261629104614258e+00,2.492560386657714844e+00,-8.945046424865722656e+00,2.920679330825805664e+00,-1.529690861701965332e+00,4.516672611236572266e+00,1.602998971939086914e+00,1.157726478576660156e+01,-1.388089179992675781e+00,1.357303500175476074e+00,1.345976257324218750e+01,-1.345307159423828125e+01,-2.169694751501083374e-02
-3.102355957031250000e+00,-1.327690124511718750e+01,-6.790274977684020996e-01,4.385651588439941406e+00,-1.924132704734802246e+00,-5.188233375549316406e+00,2.956313133239746094e+00,4.433181285858154297e+00,-1.042708396911621094e+00,2.212279558181762695e+00,-8.154673576354980469e+00,3.155175685882568359e+00,-1.694150924682617188e+00,4.328450202941894531e+00,1.430906295776367188e+00,1.185319137573242188e+01,-1.850186347961425781e+00,5.865737795829772949e-01,1.252955627441406250e+01,-1.226440525054931641e+01,-1.879568770527839661e-02
-2.679666280746459961e+00,-1.309407329559326172e+01,-8.882504701614379883e-01,4.238524436950683594e+00,-1.792537569999694824e+00,-5.503378391265869141e+00,2.513562440872192383e+00,4.446019649505615234e+00,-8.306755423545837402e-01,1.780133485794067383e+00,-7.497580051422119141e+00,3.135035037994384766e+00,-1.787165164947509766e+00,4.091796398162841797e+00,1.264108896255493164e+00,1.188024330139160156e+01,-2.348052501678466797e+00,-5.186810493469238281e-01,1.147332859039306641e+01,-1.076644325256347656e+01,-1.824103482067584991e-02
-2.273330688476562500e+00,-1.284869956970214844e+01,-1.060606002807617188e+00,4.052619457244873047e+00,-1.625477194786071777e+00,-5.897662639617919922e+00,2.048673868179321289e+00,4.363853454589843750e+00,-6.843729019165039062e-01,1.278754591941833496e+00,-6.893177509307861328e+00,2.883274793624877930e+00,-1.695498943328857422e+00,3.843034505844116211e+00,1.201890707015991211e+00,1.169493961334228516e+01,-2.823683977127075195e+00,-1.802891612052917480e+00,1.045448017120361328e+01,-9.110800743103027344e+00,-2.040844783186912537e-02
-1.894671201705932617e+00,-1.256964588165283203e+01,-1.123280763626098633e+00,3.865573644638061523e+00,-1.425751328468322754e+00,-6.373913288116455078e+00,1.695479512214660645e+00,4.172988891601562500e+00,-5.242881774902343750e-01,8.019421696662902832e-01,-6.256230354309082031e+00,2.434422731399536133e+00,-1.328833937644958496e+00,3.611884117126464844e+00,1.313089013099670410e+00,1.137302398681640625e+01,-3.222943544387817383e+00,-3.107438087463378906e+00,9.615052223205566406e+00,-7.474868297576904297e+00,-2.493100054562091827e-02
-1.541171789169311523e+00,-1.225450897216796875e+01,-1.016365051269531250e+00,3.721868038177490234e+00,-1.184027075767517090e+00,-6.902452468872070312e+00,1.569698095321655273e+00,3.888832092285156250e+00,-2.698487937450408936e-01,4.334454536437988281e-01,-5.510800838470458984e+00,1.838830351829528809e+00,-6.372930407524108887e-01,3.422560930252075195e+00,1.642712712287902832e+00,1.102946758270263672e+01,-3.493628025054931641e+00,-4.264549255371093750e+00,9.056501388549804688e+00,-6.025423049926757812e+00,-3.079325333237648010e-02
-1.192704439163208008e+00,-1.188404178619384766e+01,-6.993045806884765625e-01,3.667122840881347656e+00,-8.751052618026733398e-01,-7.438057422637939453e+00,1.747804641723632812e+00,3.558456897735595703e+00,1.510363370180130005e-01,2.413804829120635986e-01,-4.607296943664550781e+00,1.166990756988525391e+00,3.750796914100646973e-01,3.306985855102539062e+00,2.200028181076049805e+00,1.078870773315429688e+01,-3.588367700576782227e+00,-5.123740196228027344e+00,8.827954292297363281e+00,-4.870112419128417969e+00,-3.661284223198890686e-02
-8.215929269790649414e-01,-1.144621658325195312e+01,-1.518224179744720459e-01,3.742397308349609375e+00,-4.597874879837036133e-01,-7.934092998504638672e+00,2.252943038940429688e+00,3.252902507781982422e+00,7.881948947906494141e-01,2.737635374069213867e-01,-3.526346683502197266e+00,5.009055733680725098e-01,1.657059073448181152e+00,3.298180103302001953e+00,2.959883451461791992e+00,1.075624561309814453e+01,-3.467526435852050781e+00,-5.579263687133789062e+00,8.918732643127441406e+00,-4.052904129028320312e+00,-4.108419641852378845e-02
-4.026772379875183105e-01,-1.094584560394287109e+01,6.214731335639953613e-01,3.970501661300659180e+00,9.925825893878936768e-02,-8.356641769409179688e+00,3.050900936126708984e+00,3.044919967651367188e+00,1.657529473304748535e+00,5.495777726173400879e-01,-2.278023242950439453e+00,-8.030047267675399780e-02,3.111586570739746094e+00,3.422560930252075195e+00,3.861384391784667969e+00,1.098753738403320312e+01,-3.107902526855468750e+00,-5.575196266174316406e+00,9.267960548400878906e+00,-3.535894870758056641e+00,-4.335400462150573730e-02
6.530063599348068237e-02,-1.041660690307617188e+01,1.576341032981872559e+00,4.342311859130859375e+00,8.206979036331176758e-01,-8.684505462646484375e+00,4.049102783203125000e+00,2.986719369888305664e+00,2.724054336547851562e+00,1.039790034294128418e+00,-9.095944762229919434e-01,-5.205208659172058105e-01,4.609251022338867188e+00,3.677927017211914062e+00,4.801274776458740234e+00,1.146229457855224609e+01,-2.517230272293090820e+00,-5.130857467651367188e+00,9.765636444091796875e+00,-3.231147527694702148e+00,-4.323454201221466064e-02
5.546646118164062500e-01,-9.916235923767089844e+00,2.637202978134155273e+00,4.809925556182861328e+00,1.684932231903076172e+00,-8.904258728027343750e+00,5.126798629760742188e+00,3.086003065109252930e+00,3.898716211318969727e+00,1.681867718696594238e+00,4.983530342578887939e-01,-8.082466721534729004e-01,5.996376991271972656e+00,4.022450923919677734e+00,5.647176742553710938e+00,1.207772064208984375e+01,-1.751579761505126953e+00,-4.336741447448730469e+00,1.026865291595458984e+01,-3.041627883911132812e+00,-4.119512811303138733e-02
1.007546424865722656e+00,-9.512090682983398438e+00,3.695299863815307617e+00,5.284382343292236328e+00,2.631296873092651367e+00,-9.001770019531250000e+00,6.134056568145751953e+00,3.305112123489379883e+00,5.057475566864013672e+00,2.364145040512084961e+00,1.835012078285217285e+00,-9.923911690711975098e-01,7.116592407226562500e+00,4.363673210144042969e+00,6.244205951690673828e+00,1.266203784942626953e+01,-9.114910364151000977e-01,-3.341300487518310547e+00,1.062322044372558594e+01,-2.905173778533935547e+00,-3.808053955435752869e-02
1.342175722122192383e+00,-9.259498596191406250e+00,4.626204013824462891e+00,5.653911590576171875e+00,3.565528392791748047e+00,-8.959373474121093750e+00,6.942077159881591797e+00,3.569583415985107422e+00,6.058270454406738281e+00,2.954856395721435547e+00,2.974077939987182617e+00,-1.173658370971679688e+00,7.835093975067138672e+00,4.578312873840332031e+00,6.453364372253417969e+00,1.301370906829833984e+01,-1.303728371858596802e-01,-2.322473287582397461e+00,1.068836688995361328e+01,-2.805107593536376953e+00,-3.483795374631881714e-02
1.481814265251159668e+00,-9.196952819824218750e+00,5.311939239501953125e+00,5.803319931030273438e+00,4.379364490509033203e+00,-8.764350891113281250e+00,7.450234413146972656e+00,3.797251462936401367e+00,6.781301975250244141e+00,3.332286357879638672e+00,3.796995162963867188e+00,-1.477209091186523438e+00,8.061563491821289062e+00,4.545291423797607422e+00,6.189930438995361328e+00,1.295554828643798828e+01,4.457985162734985352e-01,-1.451080918312072754e+00,1.037011051177978516e+01,-2.779332876205444336e+00,-3.219268471002578735e-02
1.368593811988830566e+00,-9.334074020385742188e+00,5.661258697509765625e+00,5.636803627014160156e+00,4.977609157562255859e+00,-8.426594734191894531e+00,7.611234664916992188e+00,3.918788433074951172e+00,7.151299476623535156e+00,3.402635812759399414e+00,4.220851421356201172e+00,-2.015256166458129883e+00,7.778476715087890625e+00,4.176551342010498047e+00,5.452579498291015625e+00,1.238205242156982422e+01,6.894145607948303223e-01,-8.521893620491027832e-01,9.642819404602050781e+00,-2.896076917648315430e+00,-3.054579347372055054e-02
9.798703193664550781e-01,-9.658833503723144531e+00,5.626234531402587891e+00,5.092774868011474609e+00,5.293997287750244141e+00,-7.988501071929931641e+00,7.433127880096435547e+00,3.899958848953247070e+00,7.154479980468750000e+00,3.125704765319824219e+00,4.222401142120361328e+00,-2.846783638000488281e+00,7.037058353424072266e+00,3.448978185653686523e+00,4.336624622344970703e+00,1.128510665893554688e+01,5.154030919075012207e-01,-5.857894420623779297e-01,8.557757377624511719e+00,-3.202340364456176758e+00,-2.999967336654663086e-02
3.307397067546844482e-01,-1.014958190917968750e+01,5.205945014953613281e+00,4.152985095977783203e+00,5.315463066101074219e+00,-7.528502464294433594e+00,6.976289749145507812e+00,3.738194704055786133e+00,6.829009532928466797e+00,2.512660264968872070e+00,3.845812082290649414e+00,-3.953089237213134766e+00,5.951891899108886719e+00,2.403297901153564453e+00,3.012835025787353516e+00,9.755332946777343750e+00,-1.013709157705307007e-01,-6.437466740608215332e-01,7.227060317993164062e+00,-3.699639558792114258e+00,-3.037513047456741333e-02
-5.309937596321105957e-01,-1.077504634857177734e+01,4.449240207672119141e+00,2.840244770050048828e+00,5.076538562774658203e+00,-7.148350238800048828e+00,6.346375942230224609e+00,3.457461357116699219e+00,6.246979713439941406e+00,1.619334936141967773e+00,3.197242021560668945e+00,-5.234907627105712891e+00,4.676652908325195312e+00,1.127568125724792480e+00,1.678454995155334473e+00,7.952337265014648438e+00,-1.125138521194458008e+00,-9.691206812858581543e-01,5.795973777770996094e+00,-4.322779655456542969e+00,-3.133937343955039978e-02
-1.533623814582824707e+00,-1.148711299896240234e+01,3.440914154052734375e+00,1.212720513343811035e+00,4.657487392425537109e+00,-6.944848537445068359e+00,5.667155742645263672e+00,3.093706130981445312e+00,5.488962173461914062e+00,5.250113010406494141e-01,2.421592235565185547e+00,-6.528234958648681641e+00,3.355580568313598633e+00,-2.659382522106170654e-01,5.095486640930175781e-01,6.061423778533935547e+00,-2.462126731872558594e+00,-1.473450422286987305e+00,4.394790649414062500e+00,-4.951984405517578125e+00,-3.242307901382446289e-02
-2.601670026779174805e+00,-1.221842384338378906e+01,2.293413639068603516e+00,-6.394864320755004883e-01,4.169372558593750000e+00,-6.976645469665527344e+00,5.069442272186279297e+00,2.682020902633666992e+00,4.632349491119384766e+00,-6.966111660003662109e-01,1.668413996696472168e+00,-7.643172264099121094e+00,2.109998226165771484e+00,-1.680358290672302246e+00,-3.893045485019683838e-01,4.244902610778808594e+00,-3.976026535034179688e+00,-2.063190698623657227e+00,3.113220691680908203e+00,-5.465961456298828125e+00,-3.307159617543220520e-02
-3.662168264389038086e+00,-1.289440631866455078e+01,1.127479434013366699e+00,-2.606886148452758789e+00,3.725122451782226562e+00,-7.245154857635498047e+00,4.655872821807861328e+00,2.248938083648681641e+00,3.733330488204956055e+00,-1.967366576194763184e+00,1.064786553382873535e+00,-8.409961700439453125e+00,9.992189407348632812e-01,-3.040843248367309570e+00,-9.982478022575378418e-01,2.609627723693847656e+00,-5.513127803802490234e+00,-2.665132761001586914e+00,1.973691344261169434e+00,-5.761611938476562500e+00,-3.269613906741142273e-02
-4.661024093627929688e+00,-1.343326759338378906e+01,5.279213935136795044e-02,-4.562880516052246094e+00,3.413400888442993164e+00,-7.692434787750244141e+00,4.486822605133056641e+00,1.808152437210083008e+00,2.834311485290527344e+00,-3.237005233764648438e+00,6.866475939750671387e-01,-8.730775833129882812e+00,2.863522619009017944e-02,-4.304465293884277344e+00,-1.371556520462036133e+00,1.200234532356262207e+00,-6.922620773315429688e+00,-3.217251777648925781e+00,9.420275092124938965e-01,-5.822257995605468750e+00,-3.086151927709579468e-02
-5.568046092987060547e+00,-1.377486705780029297e+01,-8.504613041877746582e-01,-6.389996051788330078e+00,3.274339437484741211e+00,-8.219560623168945312e+00,4.556253910064697266e+00,1.364799022674560547e+00,1.962856650352478027e+00,-4.467561244964599609e+00,5.541440248489379883e-01,-8.581158638000488281e+00,-8.448901176452636719e-01,-5.447008132934570312e+00,-1.605867266654968262e+00,4.918412887491285801e-04,-8.088498115539550781e+00,-3.690060853958129883e+00,-5.439316108822822571e-02,-5.696417331695556641e+00,-2.745680324733257294e-02
-6.383233070373535156e+00,-1.391198730468750000e+01,-1.553708672523498535e+00,-7.990148067474365234e+00,3.279005765914916992e+00,-8.721248626708984375e+00,4.797754287719726562e+00,9.077513813972473145e-01,1.130627870559692383e+00,-5.636700630187988281e+00,6.300817728042602539e-01,-8.038795471191406250e+00,-1.691454887390136719e+00,-6.454163551330566406e+00,-1.795169234275817871e+00,-1.049113869667053223e+00,-8.954688072204589844e+00,-4.078475952148437500e+00,-1.097804665565490723e+00,-5.490220069885253906e+00,-2.285745181143283844e-02
-7.134262084960937500e+00,-1.390236473083496094e+01,-2.084600448608398438e+00,-9.310872077941894531e+00,3.335003852844238281e+00,-9.114826202392578125e+00,5.090573310852050781e+00,4.173237979412078857e-01,3.355048894882202148e-01,-6.731024265289306641e+00,8.377482295036315918e-01,-7.246110439300537109e+00,-2.579808473587036133e+00,-7.312721729278564453e+00,-2.000356674194335938e+00,-2.022974967956542969e+00,-9.530859947204589844e+00,-4.404866695404052734e+00,-2.248013734817504883e+00,-5.337088108062744141e+00,-1.797650754451751709e-02
-7.862647056579589844e+00,-1.385665798187255859e+01,-2.515028476715087891e+00,-1.034988689422607422e+01,3.308871507644653320e+00,-9.365670204162597656e+00,5.298867702484130859e+00,-1.355841010808944702e-01,-4.426555335521697998e-01,-7.746065139770507812e+00,1.080283999443054199e+00,-6.377178668975830078e+00,-3.566568613052368164e+00,-8.013877868652343750e+00,-2.241286277770996094e+00,-2.998188495635986328e+00,-9.890483856201171875e+00,-4.700753688812255859e+00,-3.527447700500488281e+00,-5.347701549530029297e+00,-1.406833902001380920e-02
-8.611160278320312500e+00,-1.390958213806152344e+01,-2.941769599914550781e+00,-1.115623569488525391e+01,3.066213846206665039e+00,-9.476607322692871094e+00,5.300879955291748047e+00,-7.826403975486755371e-01,-1.230357408523559570e+00,-8.679590225219726562e+00,1.261604666709899902e+00,-5.606073856353759766e+00,-4.674651622772216797e+00,-8.554328918457031250e+00,-2.503396749496459961e+00,-4.028858184814453125e+00,-1.014570045471191406e+01,-5.007825374603271484e+00,-4.911543369293212891e+00,-5.594834804534912109e+00,-1.239584758877754211e-02
-9.399929046630859375e+00,-1.417420101165771484e+01,-3.446854114532470703e+00,-1.180633258819580078e+01,2.520234346389770508e+00,-9.480140686035156250e+00,5.034223556518554688e+00,-1.542674779891967773e+00,-2.050924301147460938e+00,-9.531599044799804688e+00,1.305772542953491211e+00,-5.072342395782470703e+00,-5.891925334930419922e+00,-8.942882537841796875e+00,-2.748297929763793945e+00,-5.143387794494628906e+00,-1.041155147552490234e+01,-5.358619213104248047e+00,-6.334085941314697266e+00,-6.105779170989990234e+00,-1.384647842496633530e-02
-1.021889019012451172e+01,-1.470825099945068359e+01,-4.069914817810058594e+00,-1.238115596771240234e+01,1.665332913398742676e+00,-9.410186767578125000e+00,4.509966373443603516e+00,-2.415687322616577148e+00,-2.909657239913940430e+00,-1.029092597961425781e+01,1.170944333076477051e+00,-4.853671073913574219e+00,-7.172556877136230469e+00,-9.188342094421386719e+00,-2.934952259063720703e+00,-6.325546741485595703e+00,-1.076730823516845703e+01,-5.761269569396972656e+00,-7.703229904174804688e+00,-6.871438026428222656e+00,-1.854822784662246704e-02
-1.102778816223144531e+01,-1.548045825958251953e+01,-4.789752483367919922e+00,-1.294571399688720703e+01,5.789736509323120117e-01,-9.287237167358398438e+00,3.808608531951904297e+00,-3.373433113098144531e+00,-3.777931690216064453e+00,-1.093970394134521484e+01,8.516959547996520996e-01,-4.961567878723144531e+00,-8.445099830627441406e+00,-9.298413276672363281e+00,-3.023646116256713867e+00,-7.513116359710693359e+00,-1.123810577392578125e+01,-6.191373348236083984e+00,-8.905769348144531250e+00,-7.856939792633056641e+00,-2.577577903866767883e-02
-1.176497840881347656e+01,-1.638257026672363281e+01,-5.528945446014404297e+00,-1.352053642272949219e+01,-5.895159840583801270e-01,-9.114826202392578125e+00,3.059957265853881836e+00,-4.363703250885009766e+00,-4.595317840576171875e+00,-1.144554901123046875e+01,3.797971904277801514e-01,-5.349997997283935547e+00,-9.625976562500000000e+00,-9.271996498107910156e+00,-2.982608556747436523e+00,-8.603299140930175781e+00,-1.178527545928955078e+01,-6.591990470886230469e+00,-9.835975646972656250e+00,-9.004670143127441406e+00,-3.410410508513450623e-02
-1.236504745483398438e+01,-1.727024650573730469e+01,-6.174126625061035156e+00,-1.408737564086914062e+01,-1.672142028808593750e+00,-8.884473800659179688e+00,2.397843360900878906e+00,-5.317169666290283203e+00,-5.280183792114257812e+00,-1.177272987365722656e+01,-1.874111443758010864e-01,-5.911063194274902344e+00,-1.063700199127197266e+01,-9.088176727294921875e+00,-2.786687850952148438e+00,-9.463543891906738281e+00,-1.232761096954345703e+01,-6.881776332855224609e+00,-1.040627479553222656e+01,-1.024033737182617188e+01,-4.175831377506256104e-02
-1.277641487121582031e+01,-1.799434280395507812e+01,-6.612849712371826172e+00,-1.459148693084716797e+01,-2.524243593215942383e+00,-8.589114189147949219e+00,1.929936289787292480e+00,-6.161081790924072266e+00,-5.751956939697265625e+00,-1.188327884674072266e+01,-7.763159871101379395e-01,-6.512410163879394531e+00,-1.142425251007080078e+01,-8.720537185668945312e+00,-2.417350292205810547e+00,-9.961295127868652344e+00,-1.275973987579345703e+01,-6.977355003356933594e+00,-1.056540298461914062e+01,-1.146539115905761719e+01,-4.708297923207283020e-02
-1.296763134002685547e+01,-1.845141220092773438e+01,-6.758476257324218750e+00,-1.495075130462646484e+01,-3.064623355865478516e+00,-8.240052223205566406e+00,1.711579561233520508e+00,-6.831247329711914062e+00,-5.953388214111328125e+00,-1.175486278533935547e+01,-1.310204744338989258e+00,-7.007298469543457031e+00,-1.196481418609619141e+01,-8.142662048339843750e+00,-1.875920414924621582e+00,-9.991051673889160156e+00,-1.298885440826416016e+01,-6.813651084899902344e+00,-1.030908870697021484e+01,-1.256915283203125000e+01,-4.899439960718154907e-02
-1.293366527557373047e+01,-1.858131599426269531e+01,-6.575982093811035156e+00,-1.508419227600097656e+01,-3.282081842422485352e+00,-7.864845752716064453e+00,1.738748431205749512e+00,-7.284015655517578125e+00,-5.869635105133056641e+00,-1.138189983367919922e+01,-1.722438097000122070e+00,-7.263374328613281250e+00,-1.227890586853027344e+01,-7.353448390960693359e+00,-1.190197348594665527e+00,-9.512236595153808594e+00,-1.295115184783935547e+01,-6.361177921295166016e+00,-9.687527656555175781e+00,-1.345155525207519531e+01,-4.721950739622116089e-02
-1.268961238861083984e+01,-1.839367675781250000e+01,-6.083801269531250000e+00,-1.492223739624023438e+01,-3.239150047302246094e+00,-7.499531745910644531e+00,1.961130023002624512e+00,-7.495421409606933594e+00,-5.531443119049072266e+00,-1.078337192535400391e+01,-1.971172928810119629e+00,-7.192881584167480469e+00,-1.241910076141357422e+01,-6.388120174407958984e+00,-4.171041250228881836e-01,-8.569484710693359375e+00,-1.262536430358886719e+01,-5.640271186828613281e+00,-8.792564392089843750e+00,-1.404437255859375000e+01,-4.232149943709373474e-02
-1.226566505432128906e+01,-1.794141769409179688e+01,-5.350138187408447266e+00,-1.442611122131347656e+01,-3.031024456024169922e+00,-7.173788070678710938e+00,2.300236940383911133e+00,-7.468032836914062500e+00,-5.004541397094726562e+00,-1.000171184539794922e+01,-2.044785976409912109e+00,-6.762731552124023438e+00,-1.245549774169921875e+01,-5.320425987243652344e+00,3.546652793884277344e-01,-7.304818153381347656e+00,-1.203179168701171875e+01,-4.713972091674804688e+00,-7.755560874938964844e+00,-1.433850669860839844e+01,-3.557180240750312805e-02
-1.170333671569824219e+01,-1.728949165344238281e+01,-4.475457191467285156e+00,-1.359695148468017578e+01,-2.770634174346923828e+00,-6.900332450866699219e+00,2.674562692642211914e+00,-7.225814819335937500e+00,-4.373743534088134766e+00,-9.094986915588378906e+00,-1.967298507690429688e+00,-6.010328292846679688e+00,-1.245415019989013672e+01,-4.257134437561035156e+00,1.025826692581176758e+00,-5.902187824249267578e+00,-1.122553825378417969e+01,-3.685993671417236328e+00,-6.713217258453369141e+00,-1.438095951080322266e+01,-2.854051068425178528e-02
-1.105672168731689453e+01,-1.651247406005859375e+01,-3.577733755111694336e+00,-1.248494338989257812e+01,-2.557842254638671875e+00,-6.668566703796386719e+00,3.007632017135620117e+00,-6.812417507171630859e+00,-3.722803115844726562e+00,-8.129078865051269531e+00,-1.789852261543273926e+00,-5.027744770050048828e+00,-1.245954227447509766e+01,-3.309417963027954102e+00,1.514305114746093750e+00,-4.579360008239746094e+00,-1.028587627410888672e+01,-2.677334308624267578e+00,-5.792622566223144531e+00,-1.425966644287109375e+01,-2.281478606164455414e-02
-1.038117313385009766e+01,-1.568253135681152344e+01,-2.774022579193115234e+00,-1.117790603637695312e+01,-2.466378927230834961e+00,-6.455172538757324219e+00,3.245107412338256836e+00,-6.286898136138916016e+00,-3.115329027175903320e+00,-7.168753623962402344e+00,-1.578311443328857422e+00,-3.935825824737548828e+00,-1.247302246093750000e+01,-2.571938276290893555e+00,1.781710624694824219e+00,-3.518933534622192383e+00,-9.303678512573242188e+00,-1.808992385864257812e+00,-5.087759017944335938e+00,-1.406105041503906250e+01,-1.955513469874858856e-02
-9.740848541259765625e+00,-1.485499477386474609e+01,-2.164787292480468750e+00,-9.796733856201171875e+00,-2.537309646606445312e+00,-6.234005928039550781e+00,3.352776527404785156e+00,-5.721151828765869141e+00,-2.588427543640136719e+00,-6.265378475189208984e+00,-1.396990656852722168e+00,-2.861170053482055664e+00,-1.245549774169921875e+01,-2.099730968475341797e+00,1.847900152206420898e+00,-2.823704957962036133e+00,-8.366916656494140625e+00,-1.183664202690124512e+00,-4.645617485046386719e+00,-1.383211135864257812e+01,-1.929914206266403198e-02
-9.184810638427734375e+00,-1.408278751373291016e+01,-1.820076227188110352e+00,-8.471447944641113281e+00,-2.771567583084106445e+00,-5.990227699279785156e+00,3.324601411819458008e+00,-5.193065166473388672e+00,-2.156940698623657227e+00,-5.456918716430664062e+00,-1.284633874893188477e+00,-1.895850062370300293e+00,-1.233687114715576172e+01,-1.894997835159301758e+00,1.790977120399475098e+00,-2.501789808273315430e+00,-7.547128677368164062e+00,-8.684580922126770020e-01,-4.465129852294921875e+00,-1.355617046356201172e+01,-2.182494476437568665e-02
-8.750798225402832031e+00,-1.339477729797363281e+01,-1.766618371009826660e+00,-7.324083328247070312e+00,-3.138353824615478516e+00,-5.726665019989013672e+00,3.172657251358032227e+00,-4.771965026855468750e+00,-1.817688226699829102e+00,-4.769058227539062500e+00,-1.251314282417297363e+00,-1.085901975631713867e+00,-1.204300022125244141e+01,-1.920314311981201172e+00,1.722140073776245117e+00,-2.480148553848266602e+00,-6.895552635192871094e+00,-8.938779234886169434e-01,-4.506780624389648438e+00,-1.315438938140869141e+01,-2.621950209140777588e-02
-8.452651023864746094e+00,-1.281742572784423828e+01,-1.993353366851806641e+00,-6.453865528106689453e+00,-3.579803943634033203e+00,-5.463808536529541016e+00,2.932163238525390625e+00,-4.516052246093750000e+00,-1.560068368911743164e+00,-4.216313362121582031e+00,-1.279209733009338379e+00,-4.298872649669647217e-01,-1.152131080627441406e+01,-2.107435941696166992e+00,1.752587199211120605e+00,-2.637048482894897461e+00,-6.432488441467285156e+00,-1.253822922706604004e+00,-4.706491947174072266e+00,-1.251760387420654297e+01,-3.110044635832309723e-02
-8.295400619506835938e+00,-1.236516761779785156e+01,-2.453275442123413086e+00,-5.925803661346435547e+00,-4.021254062652587891e+00,-5.222150325775146484e+00,2.640350103378295898e+00,-4.460419178009033203e+00,-1.379840493202209473e+00,-3.804266929626464844e+00,-1.338100194931030273e+00,1.052826419472694397e-01,-1.076236820220947266e+01,-2.402427911758422852e+00,1.952479481697082520e+00,-2.858872175216674805e+00,-6.158904075622558594e+00,-1.907621264457702637e+00,-4.998049259185791016e+00,-1.155484485626220703e+01,-3.494888171553611755e-02
-8.271498680114746094e+00,-1.203800201416015625e+01,-3.080944299697875977e+00,-5.764990329742431641e+00,-4.402973175048828125e+00,-5.022888183593750000e+00,2.331430673599243164e+00,-4.605921268463134766e+00,-1.275944471359252930e+00,-3.540735960006713867e+00,-1.396990656852722168e+00,5.670825242996215820e-01,-9.803916931152343750e+00,-2.744750499725341797e+00,2.340349912643432617e+00,-3.067170381546020508e+00,-6.054497241973876953e+00,-2.795282363891601562e+00,-5.330189704895019531e+00,-1.023578834533691406e+01,-3.648484498262405396e-02
-8.378429412841796875e+00,-1.183111763000488281e+01,-3.804468631744384766e+00,-5.958878993988037109e+00,-4.695095539093017578e+00,-4.858249664306640625e+00,2.019492626190185547e+00,-4.926025867462158203e+00,-1.251560688018798828e+00,-3.422370195388793945e+00,-1.443483233451843262e+00,9.857234954833984375e-01,-8.725490570068359375e+00,-3.109087467193603516e+00,2.868541955947875977e+00,-3.251121759414672852e+00,-6.093166351318359375e+00,-3.839529514312744141e+00,-5.677281379699707031e+00,-8.613501548767089844e+00,-3.507687896490097046e-02
-8.618707656860351562e+00,-1.173729801177978516e+01,-4.563017368316650391e+00,-6.449303150177001953e+00,-4.915353775024414062e+00,-4.704210281372070312e+00,1.687429547309875488e+00,-5.359964370727539062e+00,-1.307749390602111816e+00,-3.433536767959594727e+00,-1.479902267456054688e+00,1.371276021003723145e+00,-7.626843929290771484e+00,-3.484431743621826172e+00,3.452333211898803711e+00,-3.447246551513671875e+00,-6.245909690856933594e+00,-4.954952239990234375e+00,-6.041460990905761719e+00,-6.824437618255615234e+00,-3.087858483195304871e-02
-8.992335319519042969e+00,-1.173248672485351562e+01,-5.311427116394042969e+00,-7.145021438598632812e+00,-5.123479366302490234e+00,-4.524733066558837891e+00,1.306060075759887695e+00,-5.834130287170410156e+00,-1.432848691940307617e+00,-3.542969226837158203e+00,-1.525619983673095703e+00,1.715108275413513184e+00,-6.595598697662353516e+00,-3.861977338790893555e+00,3.989791870117187500e+00,-3.721821308135986328e+00,-6.477924823760986328e+00,-6.050039291381835938e+00,-6.441951274871826172e+00,-5.050534725189208984e+00,-2.483713626861572266e-02
-9.480442047119140625e+00,-1.179262733459472656e+01,-6.009144306182861328e+00,-7.919435501098632812e+00,-5.401602268218994141e+00,-4.278835296630859375e+00,8.371466398239135742e-01,-6.259509563446044922e+00,-1.591873288154602051e+00,-3.695951223373413086e+00,-1.585285305976867676e+00,1.992763638496398926e+00,-5.693764686584472656e+00,-4.224112987518310547e+00,4.397519111633300781e+00,-4.135712146759033203e+00,-6.747642993927001953e+00,-7.034295558929443359e+00,-6.906520366668701172e+00,-3.481313228607177734e+00,-1.846289634704589844e-02
-1.004151153564453125e+01,-1.188885307312011719e+01,-6.620223045349121094e+00,-8.637964248657226562e+00,-5.817853450775146484e+00,-3.945318698883056641e+00,2.615705430507659912e-01,-6.562496185302734375e+00,-1.733935356140136719e+00,-3.819900035858154297e+00,-1.649599909782409668e+00,2.181224107742309570e+00,-4.944258213043212891e+00,-4.535615444183349609e+00,4.623887062072753906e+00,-4.715970993041992188e+00,-7.000926017761230469e+00,-7.817226886749267578e+00,-7.457595825195312500e+00,-2.268388271331787109e+00,-1.341128908097743988e-02
-1.059251785278320312e+01,-1.198748397827148438e+01,-7.103187084197998047e+00,-9.177431106567382812e+00,-6.397431850433349609e+00,-3.528422832489013672e+00,-4.015494883060455322e-01,-6.688313007354736328e+00,-1.793304562568664551e+00,-3.842233180999755859e+00,-1.682919502258300781e+00,2.266103029251098633e+00,-4.332251548767089844e+00,-4.748053550720214844e+00,4.654334545135498047e+00,-5.457187652587890625e+00,-7.177837848663330078e+00,-8.323590278625488281e+00,-8.098381042480468750e+00,-1.492116451263427734e+00,-1.106468122452497482e-02
-1.103281974792480469e+01,-1.206927490234375000e+01,-7.410109043121337891e+00,-9.453436851501464844e+00,-7.103005409240722656e+00,-3.067717790603637695e+00,-1.085800766944885254e+00,-6.618129730224609375e+00,-1.703190565109252930e+00,-3.704884529113769531e+00,-1.631777763366699219e+00,2.250278234481811523e+00,-3.818650722503662109e+00,-4.819600105285644531e+00,4.507393836975097656e+00,-6.317431449890136719e+00,-7.217473983764648438e+00,-8.503562927246093750e+00,-8.811787605285644531e+00,-1.154013633728027344e+00,-1.214838679879903793e-02
-1.126177692413330078e+01,-1.213182163238525391e+01,-7.500434398651123047e+00,-9.450015068054199219e+00,-7.845911026000976562e+00,-2.630330324172973633e+00,-1.690558195114135742e+00,-6.374199390411376953e+00,-1.418006420135498047e+00,-3.379937410354614258e+00,-1.440383672714233398e+00,2.146697044372558594e+00,-3.350883483886718750e+00,-4.724938392639160156e+00,4.220131397247314453e+00,-7.237188816070556641e+00,-7.076331138610839844e+00,-8.326640129089355469e+00,-9.560438156127929688e+00,-1.175239801406860352e+00,-1.654294319450855255e-02
-1.121271419525146484e+01,-1.218233966827392578e+01,-7.348355770111083984e+00,-9.221911430358886719e+00,-8.511352539062500000e+00,-2.292574167251586914e+00,-2.101109027862548828e+00,-6.015579700469970703e+00,-9.239699840545654297e-01,-2.880791664123535156e+00,-1.071543335914611816e+00,1.976938724517822266e+00,-2.881767988204956055e+00,-4.473975181579589844e+00,3.832260847091674805e+00,-8.151535987854003906e+00,-6.740875720977783203e+00,-7.815193176269531250e+00,-1.029947662353515625e+01,-1.436018586158752441e+00,-2.327557466924190521e-02
-1.087179470062255859e+01,-1.224488639831542969e+01,-6.956638813018798828e+00,-8.885457038879394531e+00,-9.003200531005859375e+00,-2.122989416122436523e+00,-2.224878072738647461e+00,-5.629571437835693359e+00,-2.475853413343429565e-01,-2.264397144317626953e+00,-5.275812149047851562e-01,1.764021635055541992e+00,-2.376255512237548828e+00,-4.117343425750732422e+00,3.384819984436035156e+00,-9.006369590759277344e+00,-6.230442047119140625e+00,-7.013959884643554688e+00,-1.098404884338378906e+01,-1.792315244674682617e+00,-3.080178610980510712e-02
-1.028933906555175781e+01,-1.232667732238769531e+01,-6.363072395324707031e+00,-8.586640357971191406e+00,-9.276657104492187500e+00,-2.154079914093017578e+00,-2.018596410751342773e+00,-5.317169666290283203e+00,5.454173684120178223e-01,-1.617853045463562012e+00,1.496593803167343140e-01,1.533841013908386230e+00,-1.820865988731384277e+00,-3.734294176101684570e+00,2.909579515457153320e+00,-9.775990486145019531e+00,-5.600133895874023438e+00,-6.004283428192138672e+00,-1.158745479583740234e+01,-2.118288755416870117e+00,-3.735522180795669556e-02
-9.567243576049804688e+00,-1.242771434783935547e+01,-5.630331039428710938e+00,-8.463464736938476562e+00,-9.355987548828125000e+00,-2.370300531387329102e+00,-1.505407810211181641e+00,-5.174235343933105469e+00,1.362803816795349121e+00,-1.039424777030944824e+00,8.741673231124877930e-01,1.307976365089416504e+00,-1.216947197914123535e+00,-3.417288064956665039e+00,2.430367708206176758e+00,-1.043334674835205078e+01,-4.922455787658691406e+00,-4.877676010131835938e+00,-1.210328674316406250e+01,-2.326002359390258789e+00,-4.139992222189903259e-02
-8.835084915161132812e+00,-1.250950527191162109e+01,-4.834915161132812500e+00,-8.600326538085937500e+00,-9.321455955505371094e+00,-2.717949151992797852e+00,-7.688314318656921387e-01,-5.259824752807617188e+00,2.107038974761962891e+00,-6.162118911743164062e-01,1.535910367965698242e+00,1.105129718780517578e+00,-5.874158143997192383e-01,-3.248878479003906250e+00,1.964393615722656250e+00,-1.098114395141601562e+01,-4.271846294403076172e+00,-3.727682113647460938e+00,-1.254863262176513672e+01,-2.377551555633544922e+00,-4.201430454850196838e-02
-8.208598136901855469e+00,-1.251431655883789062e+01,-4.045950889587402344e+00,-9.020038604736328125e+00,-9.280390739440917969e+00,-3.110113859176635742e+00,6.434516608715057373e-02,-5.588488578796386719e+00,2.692249536514282227e+00,-4.040471017360687256e-01,2.026406049728393555e+00,9.368100762367248535e-01,3.672342374920845032e-02,-3.279698610305786133e+00,1.512981295585632324e+00,-1.142884922027587891e+01,-3.707275390625000000e+00,-2.624460935592651367e+00,-1.294912338256835938e+01,-2.294162988662719727e+00,-3.911304473876953125e-02
-7.765780925750732422e+00,-1.238200664520263672e+01,-3.316896200180053711e+00,-9.670136451721191406e+00,-9.329854965209960938e+00,-3.459882259368896484e+00,8.592841625213623047e-01,-6.118287086486816406e+00,3.070728063583374023e+00,-4.129803776741027832e-01,2.260418415069580078e+00,8.145266771316528320e-01,6.217697262763977051e-01,-3.518553972244262695e+00,1.078778266906738281e+00,-1.178593158721923828e+01,-3.255812406539916992e+00,-1.604616761207580566e+00,-1.332932186126708984e+01,-2.118288755416870117e+00,-3.344705328345298767e-02
-7.529275894165039062e+00,-1.206446361541748047e+01,-2.672636985778808594e+00,-1.044455051422119141e+01,-9.524914741516113281e+00,-3.697300910949707031e+00,1.502279162406921387e+00,-6.759352207183837891e+00,3.244595050811767578e+00,-6.039286851882934570e-01,2.195328950881958008e+00,7.425951957702636719e-01,1.144806504249572754e+00,-3.929121017456054688e+00,6.617845296859741211e-01,-1.205374336242675781e+01,-2.912623167037963867e+00,-6.671329140663146973e-01,-1.369456958770751953e+01,-1.910575509071350098e+00,-2.641576342284679413e-02
-7.473923683166503906e+00,-1.154244232177734375e+01,-2.112251043319702148e+00,-1.120527839660644531e+01,-9.865569114685058594e+00,-3.790572643280029297e+00,1.923898696899414062e+00,-7.385867118835449219e+00,3.259437322616577148e+00,-8.976094126701354980e-01,1.843535661697387695e+00,7.253316640853881836e-01,1.599093675613403320e+00,-4.442054748535156250e+00,2.620000243186950684e-01,-1.222552108764648438e+01,-2.641938447952270508e+00,2.286624014377593994e-01,-1.402564144134521484e+01,-1.718023657798767090e+00,-1.964899897575378418e-02
-7.543113708496093750e+00,-1.084480953216552734e+01,-1.620070099830627441e+00,-1.181545734405517578e+01,-1.029861927032470703e+01,-3.743936777114868164e+00,2.104017734527587891e+00,-7.873726844787597656e+00,3.200067996978759766e+00,-1.190173506736755371e+00,1.263929367065429688e+00,7.612974047660827637e-01,1.998111367225646973e+00,-4.975901603698730469e+00,-1.099849045276641846e-01,-1.227962493896484375e+01,-2.387688398361206055e+00,1.138692855834960938e+00,-1.428516006469726562e+01,-1.567924141883850098e+00,-1.459739264100790024e-02
-7.663882255554199219e+00,-1.002930068969726562e+01,-1.171208500862121582e+00,-1.215989494323730469e+01,-1.073633575439453125e+01,-3.589190721511840820e+00,2.071817874908447266e+00,-8.133918762207031250e+00,3.161902189254760742e+00,-1.381121754646301270e+00,5.487198829650878906e-01,8.533696532249450684e-01,2.363428354263305664e+00,-5.449209690093994141e+00,-4.462274909019470215e-01,-1.219982242584228516e+01,-2.089935541152954102e+00,2.121932506561279297e+00,-1.442399692535400391e+01,-1.463309407234191895e+00,-1.215692050755023956e-02
-7.769554615020751953e+00,-9.177707672119140625e+00,-7.453889846801757812e-01,-1.216901874542236328e+01,-1.107792282104492188e+01,-3.372970104217529297e+00,1.886667370796203613e+00,-8.138197898864746094e+00,3.226572275161743164e+00,-1.396754980087280273e+00,-1.990342736244201660e-01,1.001548409461975098e+00,2.713916778564453125e+00,-5.801438808441162109e+00,-7.308422923088073730e-01,-1.198070335388183594e+01,-1.695509433746337891e+00,3.210918426513671875e+00,-1.440370464324951172e+01,-1.387501597404479980e+00,-1.248117908835411072e-02
-7.808552742004394531e+00,-8.379038810729980469e+00,-3.297080397605895996e-01,-1.182572174072265625e+01,-1.123378372192382812e+01,-3.139084577560424805e+00,1.615985631942749023e+00,-7.922513008117675781e+00,3.438605070114135742e+00,-1.209156632423400879e+00,-8.878979682922363281e-01,1.208710908889770508e+00,3.053621292114257812e+00,-5.998466968536376953e+00,-9.532389640808105469e-01,-1.163308906555175781e+01,-1.174441695213317871e+00,4.404634475708007812e+00,-1.420292568206787109e+01,-1.323823094367980957e+00,-1.502404827624559402e-02
-7.743136405944824219e+00,-7.722301483154296875e+00,7.122588157653808594e-02,-1.117106246948242188e+01,-1.114045429229736328e+01,-2.927103757858276367e+00,1.324172616004943848e+00,-7.581010818481445312e+00,3.786338806152343750e+00,-8.395432233810424805e-01,-1.452006816864013672e+00,1.470541357994079590e+00,3.363668680191040039e+00,-6.027085304260253906e+00,-1.100179672241210938e+00,-1.118403148651123047e+01,-5.276990532875061035e-01,5.656307697296142578e+00,-1.382486248016357422e+01,-1.261660695075988770e+00,-1.875302195549011230e-02
-7.550662040710449219e+00,-7.270042896270751953e+00,4.362139999866485596e-01,-1.029970359802246094e+01,-1.076900196075439453e+01,-2.765998125076293945e+00,1.053490757942199707e+00,-7.236085414886474609e+00,4.204043388366699219e+00,-3.549142181873321533e-01,-1.861140727996826172e+00,1.784162521362304688e+00,3.596878528594970703e+00,-5.894999504089355469e+00,-1.165045261383056641e+00,-1.065922832489013672e+01,2.041158974170684814e-01,6.881544113159179688e+00,-1.329087543487548828e+01,-1.184336662292480469e+00,-2.249052748084068298e-02
-7.234902381896972656e+00,-7.072781085968017578e+00,7.237803936004638672e-01,-9.346227645874023438e+00,-1.013809204101562500e+01,-2.679792642593383789e+00,8.200403451919555664e-01,-7.000714302062988281e+00,4.581461906433105469e+00,1.431147009134292603e-01,-2.120723724365234375e+00,2.133749246597290039e+00,3.693936824798583984e+00,-5.626424789428710938e+00,-1.143864631652832031e+00,-1.007220649719238281e+01,9.426979422569274902e-01,7.975614070892333984e+00,-1.262979888916015625e+01,-1.066076517105102539e+00,-2.526379190385341644e-02
-6.823534965515136719e+00,-7.154572486877441406e+00,8.777021765708923340e-01,-8.466885566711425781e+00,-9.313055992126464844e+00,-2.688271760940551758e+00,6.047024726867675781e-01,-6.952784061431884766e+00,4.783953189849853516e+00,5.462277531623840332e-01,-2.264850378036499023e+00,2.500599622726440430e+00,3.594182491302490234e+00,-5.254383087158203125e+00,-1.041932821273803711e+00,-9.416202545166015625e+00,1.578806638717651367e+00,8.826670646667480469e+00,-1.187687587738037109e+01,-8.659439086914062500e-01,-2.655229344964027405e-02
-6.370653152465820312e+00,-7.503388881683349609e+00,8.343828916549682617e-01,-7.812226295471191406e+00,-8.395624160766601562e+00,-2.801328420639038086e+00,3.702457547187805176e-01,-7.117971897125244141e+00,4.681117057800292969e+00,7.461093664169311523e-01,-2.348536968231201172e+00,2.855941057205200195e+00,3.249085903167724609e+00,-4.826204299926757812e+00,-8.844019174575805664e-01,-8.673633575439453125e+00,1.985800147056579590e+00,9.335067749023437500e+00,-1.107269096374511719e+01,-5.172280073165893555e-01,-2.638163045048713684e-02
-5.950479507446289062e+00,-8.080739974975585938e+00,5.366778969764709473e-01,-7.502004623413085938e+00,-7.505257129669189453e+00,-3.016135692596435547e+00,6.434516608715057373e-02,-7.467176914215087891e+00,4.175418853759765625e+00,6.679433584213256836e-01,-2.434548139572143555e+00,3.165246248245239258e+00,2.633034944534301758e+00,-4.396925449371337891e+00,-7.189281582832336426e-01,-7.830973625183105469e+00,2.047670841217041016e+00,9.431662559509277344e+00,-1.026636981964111328e+01,4.829820245504379272e-02,-2.530645765364170074e-02
-5.632204055786132812e+00,-8.807240486145019531e+00,-3.845489025115966797e-02,-7.597808361053466797e+00,-6.746485233306884766e+00,-3.311495780944824219e+00,-3.552618920803070068e-01,-7.937919139862060547e+00,3.225512027740478516e+00,2.748802006244659424e-01,-2.575575351715087891e+00,3.404058456420898438e+00,1.754117369651794434e+00,-4.013875961303710938e+00,-6.103774309158325195e-01,-6.901748180389404297e+00,1.689013838768005371e+00,9.089003562927246094e+00,-9.516651153564453125e+00,8.852163553237915039e-01,-2.417155355215072632e-02
-5.454825401306152344e+00,-9.598692893981933594e+00,-8.707384467124938965e-01,-8.087092399597167969e+00,-6.177173614501953125e+00,-3.648545265197753906e+00,-9.016566872596740723e-01,-8.449744224548339844e+00,1.863201260566711426e+00,-4.207969605922698975e-01,-2.801838636398315430e+00,3.550798654556274414e+00,6.554705500602722168e-01,-3.711179256439208984e+00,-6.289104819297790527e-01,-5.938707828521728516e+00,9.001618027687072754e-01,8.334542274475097656e+00,-8.884409904479980469e+00,2.002623319625854492e+00,-2.382169477641582489e-02
-5.408279418945312500e+00,-1.035887241363525391e+01,-1.881829261779785156e+00,-8.884316444396972656e+00,-5.787988185882568359e+00,-3.980648756027221680e+00,-1.545657873153686523e+00,-8.927332878112792969e+00,1.987437158823013306e-01,-1.350972056388854980e+00,-3.097840785980224609e+00,3.599712133407592773e+00,-5.874158143997192383e-01,-3.486633062362670898e+00,-8.327741026878356934e-01,-5.027065753936767578e+00,-2.531476020812988281e-01,7.253690719604492188e+00,-8.420908927917480469e+00,3.345937728881835938e+00,-2.476033754646778107e-02
-5.429665565490722656e+00,-1.100358104705810547e+01,-2.946377992630004883e+00,-9.843495368957519531e+00,-5.502398490905761719e+00,-4.266822814941406250e+00,-2.211796760559082031e+00,-9.304782867431640625e+00,-1.595053791999816895e+00,-2.401746034622192383e+00,-3.405466079711914062e+00,3.553675889968872070e+00,-1.870743155479431152e+00,-3.306115627288818359e+00,-1.240501284599304199e+00,-4.265560150146484375e+00,-1.629771709442138672e+00,5.985748767852783203e+00,-8.143235206604003906e+00,4.812060832977294922e+00,-2.688508480787277222e-02
-5.429665565490722656e+00,-1.149673461914062500e+01,-3.916914701461791992e+00,-1.079469013214111328e+01,-5.207476615905761719e+00,-4.483750343322753906e+00,-2.797435283660888672e+00,-9.539298057556152344e+00,-3.308278799057006836e+00,-3.432420253753662109e+00,-3.631729602813720703e+00,3.412690401077270508e+00,-3.081276893615722656e+00,-3.113490343093872070e+00,-1.832235336303710938e+00,-3.736699819564819336e+00,-3.047965288162231445e+00,4.696454048156738281e+00,-8.035369873046875000e+00,6.266054153442382812e+00,-2.946208789944648743e-02
-5.321476936340332031e+00,-1.184074020385742188e+01,-4.664402961730957031e+00,-1.157822895050048828e+01,-4.794025421142578125e+00,-4.633550167083740234e+00,-3.200942277908325195e+00,-9.612049102783203125e+00,-4.741620540618896484e+00,-4.307878971099853516e+00,-3.676672458648681641e+00,3.173877954483032227e+00,-4.119262218475341797e+00,-2.857023477554321289e+00,-2.547081708908081055e+00,-3.493234395980834961e+00,-4.327916622161865234e+00,3.547477245330810547e+00,-8.041777610778808594e+00,7.585110187530517578e+00,-3.121990896761417389e-02
-5.068617820739746094e+00,-1.208130359649658203e+01,-5.113264560699462891e+00,-1.208119869232177734e+01,-4.197647571563720703e+00,-4.743073463439941406e+00,-3.353892564773559570e+00,-9.532450675964355469e+00,-5.746656417846679688e+00,-4.930973529815673828e+00,-3.471330642700195312e+00,2.817097902297973633e+00,-4.917297840118408203e+00,-2.523506641387939453e+00,-3.301641941070556641e+00,-3.551395654678344727e+00,-5.336216449737548828e+00,2.655749082565307617e+00,-8.091972351074218750e+00,8.672194480895996094e+00,-3.076765500009059906e-02
-4.692474365234375000e+00,-1.228097057342529297e+01,-5.263499736785888672e+00,-1.226254177093505859e+01,-3.429543018341064453e+00,-4.852596759796142578e+00,-3.245217323303222656e+00,-9.343297958374023438e+00,-6.258715629577636719e+00,-5.274903774261474609e+00,-3.011054992675781250e+00,2.322209596633911133e+00,-5.453814983367919922e+00,-2.159169673919677734e+00,-4.021783351898193359e+00,-3.896304845809936523e+00,-6.012927532196044922e+00,2.063975095748901367e+00,-8.113332748413085938e+00,9.477272987365722656e+00,-2.703868038952350616e-02
-4.274816513061523438e+00,-1.250950527191162109e+01,-5.184234619140625000e+00,-1.215419197082519531e+01,-2.567175149917602539e+00,-5.005223274230957031e+00,-2.929254293441772461e+00,-9.115630149841308594e+00,-6.308543205261230469e+00,-5.380986213684082031e+00,-2.368683815002441406e+00,1.669072151184082031e+00,-5.754426002502441406e+00,-1.866379261016845703e+00,-4.650583744049072266e+00,-4.503615379333496094e+00,-6.376418113708496094e+00,1.731483578681945801e+00,-8.070612907409667969e+00,9.977604866027832031e+00,-1.970019750297069550e-02
-3.922575235366821289e+00,-1.281983184814453125e+01,-4.988836765289306641e+00,-1.184282970428466797e+01,-1.731873154640197754e+00,-5.235575675964355469e+00,-2.509647369384765625e+00,-8.939315795898437500e+00,-6.007456779479980469e+00,-5.355303287506103516e+00,-1.686019062995910645e+00,8.648786544799804688e-01,-5.873053073883056641e+00,-1.775019764900207520e+00,-5.157595157623291016e+00,-5.336807250976562500e+00,-6.500159740447998047e+00,1.556595087051391602e+00,-7.947796344757080078e+00,1.015802669525146484e+01,-9.358056820929050446e-03
-3.733874559402465820e+00,-1.325043964385986328e+01,-4.795282363891601562e+00,-1.144250679016113281e+01,-1.052431941032409668e+00,-5.562026500701904297e+00,-2.110165357589721680e+00,-8.902512550354003906e+00,-5.509179592132568359e+00,-5.325153350830078125e+00,-1.132758378982543945e+00,-4.865064099431037903e-02,-5.869009017944335938e+00,-1.997364401817321777e+00,-5.533551216125488281e+00,-6.351245880126953125e+00,-6.483725547790527344e+00,1.414243936538696289e+00,-7.752357006072998047e+00,1.000186252593994141e+01,2.579777501523494720e-03
-3.766582727432250977e+00,-1.381576251983642578e+01,-4.694818496704101562e+00,-1.106157207489013672e+01,-6.268478631973266602e-01,-5.991641044616699219e+00,-1.836464762687683105e+00,-9.069411277770996094e+00,-4.967435836791992188e+00,-5.406669139862060547e+00,-8.623270988464355469e-01,-9.981456398963928223e-01,-5.785430908203125000e+00,-2.584046125411987305e+00,-5.771833419799804688e+00,-7.484712123870849609e+00,-6.415087699890136719e+00,1.191566109657287598e+00,-7.499246597290039062e+00,9.474240303039550781e+00,1.424455177038908005e-02
-4.032021999359130859e+00,-1.451098918914794922e+01,-4.728920936584472656e+00,-1.077986335754394531e+01,-5.017859339714050293e-01,-6.515940666198730469e+00,-1.752945780754089355e+00,-9.463123321533203125e+00,-4.502023696899414062e+00,-5.672433853149414062e+00,-9.576367139816284180e-01,-1.890095591545104980e+00,-5.630407333374023438e+00,-3.503143787384033203e+00,-5.867146492004394531e+00,-8.645229339599609375e+00,-6.357083797454833984e+00,8.285707235336303711e-01,-7.195941925048828125e+00,8.556965827941894531e+00,2.381871268153190613e-02
-4.493709564208984375e+00,-1.531928157806396484e+01,-4.889294624328613281e+00,-1.064072036743164062e+01,-6.688463091850280762e-01,-7.117259502410888672e+00,-1.865646004676818848e+00,-1.005711364746093750e+01,-4.181854248046875000e+00,-6.138079643249511719e+00,-1.413263082504272461e+00,-2.635305166244506836e+00,-5.393153190612792969e+00,-4.647888660430908203e+00,-5.812870979309082031e+00,-9.721887588500976562e+00,-6.346449851989746094e+00,3.120394945144653320e-01,-6.849917888641357422e+00,7.268233776092529297e+00,2.999669127166271210e-02
-5.082456111907958984e+00,-1.620936393737792969e+01,-5.139993667602539062e+00,-1.064870357513427734e+01,-1.072031259536743164e+00,-7.765214443206787109e+00,-2.131296634674072266e+00,-1.078548049926757812e+01,-4.027070045471191406e+00,-6.775690555572509766e+00,-2.135446310043334961e+00,-3.180545568466186523e+00,-5.057493209838867188e+00,-5.877388000488281250e+00,-5.620921611785888672e+00,-1.060783004760742188e+01,-6.406386852264404297e+00,-3.275237977504730225e-01,-6.470787048339843750e+00,5.679301738739013672e+00,3.229210153222084045e-02
-5.711458683013916016e+00,-1.713793754577636719e+01,-5.438620090484619141e+00,-1.078898811340332031e+01,-1.620810627937316895e+00,-8.425182342529296875e+00,-2.479459762573242188e+00,-1.156519985198974609e+01,-4.029190540313720703e+00,-7.528316974639892578e+00,-2.969986438751220703e+00,-3.517184734344482422e+00,-4.624774456024169922e+00,-7.058456420898437500e+00,-5.325716495513916016e+00,-1.122866630554199219e+01,-6.562997341156005859e+00,-1.053514599800109863e+00,-6.092723846435546875e+00,3.931174039840698242e+00,3.108039684593677521e-02
-6.283850669860839844e+00,-1.804967117309570312e+01,-5.753837108612060547e+00,-1.103191852569580078e+01,-2.210655212402343750e+00,-9.054764747619628906e+00,-2.832654237747192383e+00,-1.231410789489746094e+01,-4.171252250671386719e+00,-8.341243743896484375e+00,-3.747960805892944336e+00,-3.678311109542846680e+00,-4.126002311706542969e+00,-8.103035926818847656e+00,-4.988150119781494141e+00,-1.157222270965576172e+01,-6.847216129302978516e+00,-1.835428953170776367e+00,-5.770195007324218750e+00,2.201239824295043945e+00,2.744528837502002716e-02
-6.700250625610351562e+00,-1.889404678344726562e+01,-6.080114364624023438e+00,-1.134556198120117188e+01,-2.737035512924194336e+00,-9.622167587280273438e+00,-3.132517099380493164e+00,-1.297400283813476562e+01,-4.449015617370605469e+00,-9.173152923583984375e+00,-4.331441402435302734e+00,-3.724347352981567383e+00,-3.624534130096435547e+00,-8.981407165527343750e+00,-4.691621303558349609e+00,-1.169801330566406250e+01,-7.289011955261230469e+00,-2.665132761001586914e+00,-5.576891899108886719e+00,6.668899059295654297e-01,2.282887138426303864e-02
-6.871339321136474609e+00,-1.964219856262207031e+01,-6.423903942108154297e+00,-1.170026493072509766e+01,-3.117821216583251953e+00,-1.010336399078369141e+01,-3.355905055999755859e+00,-1.350979232788085938e+01,-4.867780208587646484e+00,-9.998361587524414062e+00,-4.647590637207031250e+00,-3.712838172912597656e+00,-3.191815614700317383e+00,-9.715584754943847656e+00,-4.507614612579345703e+00,-1.171559715270996094e+01,-7.900952339172363281e+00,-3.544659376144409180e+00,-5.576891899108886719e+00,-5.308734178543090820e-01,1.869030669331550598e-02
-6.735474586486816406e+00,-2.026525688171386719e+01,-6.807325839996337891e+00,-1.206066894531250000e+01,-3.311014175415039062e+00,-1.049411582946777344e+01,-3.518918037414550781e+00,-1.390008068084716797e+01,-5.444509506225585938e+00,-1.080458831787109375e+01,-4.695632934570312500e+00,-3.679749727249145508e+00,-2.897944211959838867e+00,-1.034519386291503906e+01,-4.485109806060791016e+00,-1.174670696258544922e+01,-8.663702964782714844e+00,-4.472991943359375000e+00,-5.805438518524169922e+00,-1.310177683830261230e+00,1.613037101924419403e-02
-6.286366939544677734e+00,-2.076803398132324219e+01,-7.254343986511230469e+00,-1.239484214782714844e+01,-3.331546545028686523e+00,-1.080926036834716797e+01,-3.672874450683593750e+00,-1.412689208984375000e+01,-6.188744544982910156e+00,-1.157619762420654297e+01,-4.544532299041748047e+00,-3.627959251403808594e+00,-2.784709453582763672e+00,-1.090766048431396484e+01,-4.624107837677001953e+00,-1.188331794738769531e+01,-9.526025772094726562e+00,-5.422677516937255859e+00,-6.252920150756835938e+00,-1.654345154762268066e+00,1.565251685678958893e-02
-5.579368114471435547e+00,-2.115774536132812500e+01,-7.780627250671386719e+00,-1.267198848724365234e+01,-3.248483180999755859e+00,-1.106929016113281250e+01,-3.887206077575683594e+00,-1.416027259826660156e+01,-7.096244812011718750e+00,-1.229085826873779297e+01,-4.305095672607421875e+00,-3.524377822875976562e+00,-2.857503414154052734e+00,-1.141509056091308594e+01,-4.875627994537353516e+00,-1.215248203277587891e+01,-1.040961742401123047e+01,-6.342875957489013672e+00,-6.856325626373291016e+00,-1.601279616355895996e+00,1.704341545701026917e-02
-4.733988761901855469e+00,-2.142717552185058594e+01,-8.392627716064453125e+00,-1.286587715148925781e+01,-3.170085906982421875e+00,-1.129893684387207031e+01,-4.228325366973876953e+00,-1.396427249908447266e+01,-8.132025718688964844e+00,-1.291506958007812500e+01,-4.091230392456054688e+00,-3.321531295776367188e+00,-3.083972930908203125e+00,-1.185427570343017578e+01,-5.156271457672119141e+00,-1.249333286285400391e+01,-1.123617267608642578e+01,-7.156310558319091797e+00,-7.510994434356689453e+00,-1.219208240509033203e+00,1.944122277200222015e-02
-3.907479286193847656e+00,-2.155948638916015625e+01,-9.076519012451171875e+00,-1.295940017700195312e+01,-3.214884281158447266e+00,-1.150667762756347656e+01,-4.737489223480224609e+00,-1.350208950042724609e+01,-9.229294776916503906e+00,-1.340639781951904297e+01,-3.993596076965332031e+00,-2.969067096710205078e+00,-3.407500743865966797e+00,-1.218228912353515625e+01,-5.361458778381347656e+00,-1.277061271667480469e+01,-1.193705177307128906e+01,-7.777571678161621094e+00,-8.087700843811035156e+00,-6.006166338920593262e-01,2.162570133805274963e-02
-3.245768547058105469e+00,-2.151377868652343750e+01,-9.798200607299804688e+00,-1.294115161895751953e+01,-3.467808246612548828e+00,-1.168898105621337891e+01,-5.407652854919433594e+00,-1.275574970245361328e+01,-1.028733921051025391e+01,-1.371906185150146484e+01,-4.040088653564453125e+00,-2.429581403732299805e+00,-3.737768888473510742e+00,-1.233749008178710938e+01,-5.390582084655761719e+00,-1.280983829498291016e+01,-1.246681976318359375e+01,-8.125315666198730469e+00,-8.447608947753906250e+00,1.483644992113113403e-01,2.235954813659191132e-02
-2.845722913742065430e+00,-2.124915885925292969e+01,-1.049407482147216797e+01,-1.280314922332763672e+01,-3.952190160751342773e+00,-1.182959556579589844e+01,-6.173410415649414062e+00,-1.173809051513671875e+01,-1.118211746215820312e+01,-1.380281162261962891e+01,-4.193513870239257812e+00,-1.685810208320617676e+00,-3.973674535751342773e+00,-1.223842525482177734e+01,-5.153623580932617188e+00,-1.243787765502929688e+01,-1.279840850830078125e+01,-8.133449554443359375e+00,-8.457220077514648438e+00,9.034102559089660645e-01,2.082358673214912415e-02
-2.726212501525878906e+00,-2.074397659301757812e+01,-1.107658100128173828e+01,-1.253398609161376953e+01,-4.612031936645507812e+00,-1.190802860260009766e+01,-6.914011955261230469e+00,-1.050046730041503906e+01,-1.177686882019042969e+01,-1.360962963104248047e+01,-4.354687690734863281e+00,-7.449470162391662598e-01,-4.000635147094726562e+00,-1.179703903198242188e+01,-4.588365554809570312e+00,-1.153164577484130859e+01,-1.290668201446533203e+01,-7.754185676574707031e+00,-8.008670806884765625e+00,1.523518085479736328e+00,1.686421968042850494e-02
-2.823078870773315430e+00,-1.999823188781738281e+01,-1.143972587585449219e+01,-1.211541461944580078e+01,-5.326938629150390625e+00,-1.190237522125244141e+01,-7.477512836456298828e+00,-9.120764732360839844e+00,-1.194755554199218750e+01,-1.309485149383544922e+01,-4.387232780456542969e+00,3.627972006797790527e-01,-3.704067945480346680e+00,-1.092747306823730469e+01,-3.663036584854125977e+00,-1.004515457153320312e+01,-1.276360607147216797e+01,-6.959052562713623047e+00,-7.029337882995605469e+00,1.873750090599060059e+00,1.108729746192693710e-02
-3.013037681579589844e+00,-1.903838539123535156e+01,-1.148488807678222656e+01,-1.152690505981445312e+01,-5.941982269287109375e+00,-1.179709148406982422e+01,-7.712975978851318359e+00,-7.690565586090087891e+00,-1.160194206237792969e+01,-1.222497558593750000e+01,-4.147796154022216797e+00,1.585631728172302246e+00,-2.993654727935791016e+00,-9.569189071655273438e+00,-2.377636671066284180e+00,-8.028450965881347656e+00,-1.233631134033203125e+01,-5.750084877014160156e+00,-5.497861385345458984e+00,1.843427062034606934e+00,4.713057540357112885e-03
-3.158966302871704102e+00,-1.792698478698730469e+01,-1.113925552368164062e+01,-1.075819396972656250e+01,-6.313435077667236328e+00,-1.158157730102539062e+01,-7.505688190460205078e+00,-6.296313285827636719e+00,-1.070928382873535156e+01,-1.099442005157470703e+01,-3.530220985412597656e+00,2.853063583374023438e+00,-1.820865988731384277e+00,-7.713382244110107422e+00,-7.652608156204223633e-01,-5.614087581634521484e+00,-1.160062980651855469e+01,-4.163886547088623047e+00,-3.470845222473144531e+00,1.394644856452941895e+00,-8.164042374119162560e-04
-3.147644281387329102e+00,-1.669530105590820312e+01,-1.038808059692382812e+01,-9.825246810913085938e+00,-6.349833488464355469e+00,-1.125442028045654297e+01,-6.809361934661865234e+00,-5.007336139678955078e+00,-9.313048362731933594e+00,-9.433333396911621094e+00,-2.487239599227905273e+00,4.078775405883789062e+00,-2.045744806528091431e-01,-5.420590877532958984e+00,1.102606534957885742e+00,-2.988720417022705078e+00,-1.056622791290283203e+01,-2.287902116775512695e+00,-1.079649090766906738e+00,5.789528489112854004e-01,-4.204052966088056564e-03
-2.914913177490234375e+00,-1.540347862243652344e+01,-9.272838592529296875e+00,-8.771405220031738281e+00,-6.029712200164794922e+00,-1.081915283203125000e+01,-5.660222053527832031e+00,-3.871563911437988281e+00,-7.528791904449462891e+00,-7.619883060455322266e+00,-1.052171468734741211e+00,5.162063121795654297e+00,1.759509563446044922e+00,-2.829505681991577148e+00,3.124033451080322266e+00,-3.592956960201263428e-01,-9.294011116027832031e+00,-2.532978653907775879e-01,1.489898681640625000e+00,-4.565817713737487793e-01,-4.639241844415664673e-03
-2.456999540328979492e+00,-1.408278751373291016e+01,-7.899525165557861328e+00,-7.686769008636474609e+00,-5.403469085693359375e+00,-1.029626655578613281e+01,-4.174993991851806641e+00,-2.918953180313110352e+00,-5.533563137054443359e+00,-5.673550128936767578e+00,6.672757267951965332e-01,5.996467590332031250e+00,3.908274173736572266e+00,-1.371544748544692993e-01,5.174583911895751953e+00,2.084824800491333008e+00,-7.898052215576171875e+00,1.768088221549987793e+00,4.004979610443115234e+00,-1.493632555007934570e+00,-1.993974670767784119e-03
-1.811642885208129883e+00,-1.276931381225585938e+01,-6.409156799316406250e+00,-6.669424057006835938e+00,-4.572833538055419922e+00,-9.723211288452148438e+00,-2.521722316741943359e+00,-2.164054155349731445e+00,-3.530913352966308594e+00,-3.743967533111572266e+00,2.506828546524047852e+00,6.491355895996093750e+00,6.034121990203857422e+00,2.431916475296020508e+00,7.131145000457763672e+00,4.197562217712402344e+00,-6.527228355407714844e+00,3.595266580581665039e+00,6.251998901367187500e+00,-2.295679092407226562e+00,3.177095903083682060e-03
-1.040485739707946777e+00,-1.151116847991943359e+01,-4.947360992431640625e+00,-5.828859329223632812e+00,-3.658200979232788086e+00,-9.147330284118652344e+00,-8.825379014015197754e-01,-1.609434485435485840e+00,-1.712732076644897461e+00,-1.975183129310607910e+00,4.277417659759521484e+00,6.580551147460937500e+00,7.928108215332031250e+00,4.677377223968505859e+00,8.870604515075683594e+00,5.899113655090332031e+00,-5.329449176788330078e+00,5.075718402862548828e+00,8.065420150756835938e+00,-2.676234245300292969e+00,9.704932570457458496e-03
-2.051704525947570801e-01,-1.035887241363525391e+01,-3.633034944534301758e+00,-5.239209651947021484e+00,-2.769701004028320312e+00,-8.636456489562988281e+00,5.825648903846740723e-01,-1.241399884223937988e+00,-2.242617309093475342e-01,-4.788631200790405273e-01,5.803920745849609375e+00,6.249666213989257812e+00,9.414988517761230469e+00,6.460536956787109375e+00,1.031353569030761719e+01,7.157017707824707031e+00,-4.412022113800048828e+00,6.119965553283691406e+00,9.357669830322265625e+00,-2.533715724945068359e+00,1.600237563252449036e-02
6.452409625053405762e-01,-9.367752075195312500e+00,-2.529775381088256836e+00,-4.930128574371337891e+00,-1.981997132301330566e+00,-8.242171287536621094e+00,1.769942164421081543e+00,-1.028282165527343750e+00,8.613462448120117188e-01,6.936264634132385254e-01,6.949960708618164062e+00,5.541861057281494141e+00,1.038287639617919922e+01,7.730762958526611328e+00,1.140566158294677734e+01,7.995620250701904297e+00,-3.808782100677490234e+00,6.723940849304199219e+00,1.013195228576660156e+01,-1.889349341392517090e+00,2.026893384754657745e-02
1.483072280883789062e+00,-8.581110954284667969e+00,-1.640347242355346680e+00,-4.874242782592773438e+00,-1.329621553421020508e+00,-8.005459785461425781e+00,2.647393941879272461e+00,-9.230070710182189941e-01,1.548332571983337402e+00,1.559035420417785645e+00,7.654321670532226562e+00,4.556400299072265625e+00,1.080481052398681641e+01,8.526580810546875000e+00,1.214698410034179688e+01,8.475788116455078125e+00,-3.476226806640625000e+00,6.964920997619628906e+00,1.046088886260986328e+01,-8.613954782485961914e-01,2.081505395472049713e-02
2.307065725326538086e+00,-7.998949050903320312e+00,-9.186661839485168457e-01,-4.992857456207275391e+00,-8.041746020317077637e-01,-7.933386325836181641e+00,3.253157615661621094e+00,-8.639503717422485352e-01,1.904547691345214844e+00,2.194413185119628906e+00,7.933276653289794922e+00,3.422760725021362305e+00,1.071718883514404297e+01,8.955860137939453125e+00,1.257059669494628906e+01,8.678675651550292969e+00,-3.308982610702514648e+00,6.979156494140625000e+00,1.046195602416992188e+01,3.712394535541534424e-01,1.642049849033355713e-02
3.134832859039306641e+00,-7.592397212982177734e+00,-2.882321178913116455e-01,-5.179902553558349609e+00,-3.664576411247253418e-01,-8.000513076782226562e+00,3.671758413314819336e+00,-7.911993265151977539e-01,2.039188385009765625e+00,2.712541818618774414e+00,7.877485752105712891e+00,2.281928062438964844e+00,1.021302413940429688e+01,9.162795066833496094e+00,1.273209953308105469e+01,8.689496040344238281e+00,-3.175573825836181641e+00,6.922215938568115234e+00,1.026438140869140625e+01,1.614487409591674805e+00,6.658608559519052505e-03
4.010404586791992188e+00,-7.301316261291503906e+00,3.320633471012115479e-01,-5.320187091827392578e+00,4.139375686645507812e-02,-8.153140068054199219e+00,4.014890193939208984e+00,-6.448413729667663574e-01,2.062512159347534180e+00,3.228437185287475586e+00,7.630300521850585938e+00,1.246115326881408691e+00,9.404204368591308594e+00,9.286074638366699219e+00,1.270032787322998047e+01,8.589405059814453125e+00,-2.959992885589599609e+00,6.925266265869140625e+00,9.985639572143554688e+00,2.712184429168701172e+00,-7.822095416486263275e-03
4.987874507904052734e+00,-7.051130771636962891e+00,1.002129912376403809e+00,-5.314484119415283203e+00,4.837771952152252197e-01,-8.322017669677734375e+00,4.378147125244140625e+00,-3.829376399517059326e-01,2.066752672195434570e+00,3.831431865692138672e+00,7.349020957946777344e+00,3.872538805007934570e-01,8.410704612731933594e+00,9.439074516296386719e+00,1.253353118896484375e+01,8.446030616760253906e+00,-2.581034421920776367e+00,7.070667743682861328e+00,9.716509819030761719e+00,3.573361158370971680e+00,-2.528939209878444672e-02
6.113789081573486328e+00,-6.767266273498535156e+00,1.745009779930114746e+00,-5.094363689422607422e+00,1.012024044990539551e+00,-8.436487197875976562e+00,4.822910308837890625e+00,2.532407455146312714e-02,2.104918718338012695e+00,4.568425178527832031e+00,7.169250011444091797e+00,-2.658835947513580322e-01,7.329581737518310547e+00,9.690037727355957031e+00,1.228068733215332031e+01,8.313477516174316406e+00,-2.006796598434448242e+00,7.383840084075927734e+00,9.524274826049804688e+00,4.178307533264160156e+00,-4.316627606749534607e-02
7.400728225708007812e+00,-6.384770870208740234e+00,2.549642801284790039e+00,-4.619906902313232422e+00,1.652266740798950195e+00,-8.440727233886718750e+00,5.356224060058593750e+00,6.004852056503295898e-01,2.185491085052490234e+00,5.451700687408447266e+00,7.167700290679931641e+00,-7.046653628349304199e-01,6.244415283203125000e+00,1.006758308410644531e+01,1.198283386230468750e+01,8.230969429016113281e+00,-1.245012998580932617e+00,7.839363574981689453e+00,9.458060264587402344e+00,4.575540542602539062e+00,-5.860269069671630859e-02
8.804661750793457031e+00,-5.867560386657714844e+00,3.376396179199218750e+00,-3.880848646163940430e+00,2.393305778503417969e+00,-8.291633605957031250e+00,5.930793762207031250e+00,1.363087296485900879e+00,2.284086465835571289e+00,6.445525169372558594e+00,7.348246097564697266e+00,-9.233369827270507812e-01,5.223954200744628906e+00,1.056950950622558594e+01,1.167968654632568359e+01,8.236380577087402344e+00,-3.256523907184600830e-01,8.391482353210449219e+00,9.549905776977539062e+00,4.856029033660888672e+00,-6.914109736680984497e-02
1.021111106872558594e+01,-5.196389675140380859e+00,4.164438724517822266e+00,-2.889735460281372070e+00,3.177276372909545898e+00,-7.972956180572509766e+00,6.455050945281982422e+00,2.324256896972656250e+00,2.360418081283569336e+00,7.506349086761474609e+00,7.649672508239746094e+00,-8.960030078887939453e-01,4.326164245605468750e+00,1.117490291595458984e+01,1.141360473632812500e+01,8.368933677673339844e+00,7.126161456108093262e-01,8.988340377807617188e+00,9.817967414855957031e+00,5.142582893371582031e+00,-7.333085685968399048e-02
1.145150375366210938e+01,-4.373664379119873047e+00,4.852017402648925781e+00,-1.684204220771789551e+00,3.906182289123535156e+00,-7.488226413726806641e+00,6.817301750183105469e+00,3.486561775207519531e+00,2.366779088973999023e+00,8.581689834594726562e+00,7.968921184539794922e+00,-5.924523472785949707e-01,3.609010696411132812e+00,1.185404491424560547e+01,1.123621654510498047e+01,8.667854309082031250e+00,1.827256321907043457e+00,9.589265823364257812e+00,1.025904083251953125e+01,5.561041831970214844e+00,-7.106957584619522095e-02
1.234217166900634766e+01,-3.440279722213745117e+00,5.381065845489501953e+00,-3.212809264659881592e-01,4.459628105163574219e+00,-6.862175941467285156e+00,6.913901805877685547e+00,4.814054012298583984e+00,2.265003442764282227e+00,9.616830825805664062e+00,8.192859649658203125e+00,8.894511498510837555e-03,3.116978645324707031e+00,1.256730937957763672e+01,1.119120788574218750e+01,9.161548614501953125e+00,2.965098142623901367e+00,1.016273784637451172e+01,1.084215545654296875e+01,6.219053745269775391e+00,-6.358603388071060181e-02
1.273592758178710938e+01,-2.458782672882080078e+00,5.705499649047851562e+00,1.119197726249694824e+00,4.722818374633789062e+00,-6.135787963867187500e+00,6.666364192962646484e+00,6.233127117156982422e+00,2.027526617050170898e+00,1.055705547332763672e+01,8.230828285217285156e+00,8.691945672035217285e-01,2.872984886169433594e+00,1.326406192779541016e+01,1.129578781127929688e+01,9.855423927307128906e+00,4.056536674499511719e+00,1.067926883697509766e+01,1.149896049499511719e+01,7.177264213562011719e+00,-5.305616185069084167e-02
1.256861305236816406e+01,-1.530209422111511230e+00,5.792138099670410156e+00,2.533444404602050781e+00,4.613622665405273438e+00,-5.362057685852050781e+00,6.043494224548339844e+00,7.628235340118408203e+00,1.638446450233459473e+00,1.134541511535644531e+01,8.035560607910156250e+00,1.886305093765258789e+00,2.867592573165893555e+00,1.387936210632324219e+01,1.152745056152343750e+01,1.069943714141845703e+01,5.007799625396728516e+00,1.110022163391113281e+01,1.213120174407958984e+01,8.426576614379882812e+00,-4.202283918857574463e-02
1.188048362731933594e+01,-7.820584774017333984e-01,5.620704650878906250e+00,3.810828685760498047e+00,4.105908393859863281e+00,-4.599633216857910156e+00,5.062398433685302734e+00,8.853876113891601562e+00,1.093522191047668457e+00,1.191714382171630859e+01,7.602405071258544922e+00,2.883274793624877930e+00,3.053621292114257812e+00,1.434166336059570312e+01,1.181471252441406250e+01,1.160161113739013672e+01,5.717379570007324219e+00,1.138187313079833984e+01,1.263101387023925781e+01,9.879054069519042969e+00,-3.273027017712593079e-02
1.080866336822509766e+01,-3.442338109016418457e-01,5.193963050842285156e+00,4.848703384399414062e+00,3.240740537643432617e+00,-3.906455516815185547e+00,3.787477254867553711e+00,9.767971992492675781e+00,3.969943821430206299e-01,1.221417427062988281e+01,6.962358474731445312e+00,3.664450407028198242e+00,3.356928586959838867e+00,1.457941818237304688e+01,1.205564308166503906e+01,1.242533493041992188e+01,6.093437671661376953e+00,1.147236824035644531e+01,1.290014362335205078e+01,1.138459777832031250e+01,-2.668882347643375397e-02
9.549400329589843750e+00,-3.009324669837951660e-01,4.535878658294677734e+00,5.571794033050537109e+00,2.118916034698486328e+00,-3.334106922149658203e+00,2.316336870193481445e+00,1.027038192749023438e+01,-4.278132319450378418e-01,1.219519138336181641e+01,6.169661521911621094e+00,4.068705081939697266e+00,3.689892768859863281e+00,1.454529571533203125e+01,1.214168930053710938e+01,1.302858829498291016e+01,6.082803726196289062e+00,1.134018516540527344e+01,1.287878417968750000e+01,1.274610519409179688e+01,-2.439341321587562561e-02
8.307749748229980469e+00,-6.665882468223571777e-01,3.699908256530761719e+00,5.956149578094482422e+00,8.813623189926147461e-01,-2.918624401092529297e+00,7.707340121269226074e-01,1.032772731781005859e+01,-1.337433934211730957e+00,1.185126113891601562e+01,5.285529613494873047e+00,4.026984691619873047e+00,3.978371858596801758e+00,1.422939014434814453e+01,1.199607181549072266e+01,1.330586814880371094e+01,5.695144653320312500e+00,1.098227310180664062e+01,1.256479930877685547e+01,1.378618907928466797e+01,-2.539178915321826935e-02
7.259831428527832031e+00,-1.369032263755798340e+00,2.769926071166992188e+00,6.033705234527587891e+00,-3.141929209232330322e-01,-2.681912422180175781e+00,-7.195250988006591797e-01,9.989648818969726562e+00,-2.267197847366333008e+00,1.121700000762939453e+01,4.368077754974365234e+00,3.598273515701293945e+00,4.173836708068847656e+00,1.367242813110351562e+01,1.159893512725830078e+01,1.321118640899658203e+01,5.013599872589111328e+00,1.043523788452148438e+01,1.201265621185302734e+01,1.438810253143310547e+01,-2.848931215703487396e-02
6.526414394378662109e+00,-2.251898527145385742e+00,1.851925492286682129e+00,5.887718200683593750e+00,-1.322155237197875977e+00,-2.626090764999389648e+00,-2.035702705383300781e+00,9.383675575256347656e+00,-3.137592554092407227e+00,1.036945724487304688e+01,3.475422143936157227e+00,2.940819978713989258e+00,4.268198966979980469e+00,1.296136569976806641e+01,1.100190639495849609e+01,1.278782749176025391e+01,4.176411151885986328e+00,9.777372360229492188e+00,1.132274436950683594e+01,1.452304077148437500e+01,-3.212441876530647278e-02
6.154045104980468750e+00,-3.117925405502319336e+00,1.063882946968078613e+00,5.632241725921630859e+00,-2.025862216949462891e+00,-2.733494520187377930e+00,-3.075160741806030273e+00,8.670715332031250000e+00,-3.861684560775756836e+00,9.419182777404785156e+00,2.660253763198852539e+00,2.274734973907470703e+00,4.283027172088623047e+00,1.221508026123046875e+01,1.030691623687744141e+01,1.215211296081542969e+01,3.349856853485107422e+00,9.113406181335449219e+00,1.062108516693115234e+01,1.424861621856689453e+01,-3.477822244167327881e-02
6.127626895904541016e+00,-3.762634277343750000e+00,5.117923617362976074e-01,5.391591548919677734e+00,-2.352516651153564453e+00,-2.965966939926147461e+00,-3.766455888748168945e+00,8.022803306579589844e+00,-4.361021995544433594e+00,8.490123748779296875e+00,1.974489569664001465e+00,1.801426053047180176e+00,4.258762836456298828e+00,1.156015396118164062e+01,9.646345138549804688e+00,1.146905803680419922e+01,2.689579963684082031e+00,8.555186271667480469e+00,1.003263092041015625e+01,1.367702579498291016e+01,-3.529020771384239197e-02
6.371679782867431641e+00,-4.044093132019042969e+00,2.767621278762817383e-01,5.274117946624755859e+00,-2.274119615554809570e+00,-3.265566587448120117e+00,-4.071350097656250000e+00,7.573458194732666016e+00,-4.577295303344726562e+00,7.697297573089599609e+00,1.473145484924316406e+00,1.653247237205505371e+00,4.249326229095458984e+00,1.110775947570800781e+01,9.143305778503417969e+00,1.091990852355957031e+01,2.308688163757324219e+00,8.202359199523925781e+00,9.662043571472167969e+00,1.293562507629394531e+01,-3.313132748007774353e-02
6.764177322387695312e+00,-3.899755239486694336e+00,3.993465304374694824e-01,5.358516216278076172e+00,-1.810270190238952637e+00,-3.563046455383300781e+00,-3.988837480545043945e+00,7.397999763488769531e+00,-4.476579666137695312e+00,7.128919124603271484e+00,1.211237907409667969e+00,1.866164326667785645e+00,4.305943965911865234e+00,1.093604755401611328e+01,8.891785621643066406e+00,1.066697502136230469e+01,2.260351657867431641e+00,8.129150390625000000e+00,9.585148811340332031e+00,1.211083602905273438e+01,-2.854051068425178528e-02
7.155416965484619141e+00,-3.348865747451782227e+00,8.767805099487304688e-01,5.683565139770507812e+00,-1.019766569137573242e+00,-3.790572643280029297e+00,-3.550111770629882812e+00,7.501563072204589844e+00,-4.056754589080810547e+00,6.835238456726074219e+00,1.239908218383789062e+00,2.379754781723022461e+00,4.471751689910888672e+00,1.107363796234130859e+01,8.932823181152343750e+00,1.081981658935546875e+01,2.534903049468994141e+00,8.372163772583007812e+00,9.842531204223632812e+00,1.123752975463867188e+01,-2.255879342555999756e-02
7.400728225708007812e+00,-2.485244512557983398e+00,1.656527876853942871e+00,6.249263763427734375e+00,8.728313259780406952e-03,-3.894443273544311523e+00,-2.814541578292846680e+00,7.825091361999511719e+00,-3.346444845199584961e+00,6.819605350494384766e+00,1.594800829887390137e+00,3.070296764373779297e+00,4.779103279113769531e+00,1.149961471557617188e+01,9.255827903747558594e+00,1.142171764373779297e+01,3.073371887207031250e+00,8.922248840332031250e+00,1.043205356597900391e+01,1.030964279174804688e+01,-1.678187027573585510e-02
7.389405727386474609e+00,-1.455634951591491699e+00,2.647341489791870117e+00,7.020256519317626953e+00,1.166951656341552734e+00,-3.857699871063232422e+00,-1.865646004676818848e+00,8.260741233825683594e+00,-2.406079292297363281e+00,7.039586544036865234e+00,2.281339883804321289e+00,3.786733865737915039e+00,5.245522975921630859e+00,1.214023113250732422e+01,9.794610023498535156e+00,1.243345069885253906e+01,3.782952070236206055e+00,9.725516319274902344e+00,1.130886077880859375e+01,9.299882888793945312e+00,-1.313822902739048004e-02
7.079936504364013672e+00,-4.139970839023590088e-01,3.725715637207031250e+00,7.918987274169921875e+00,2.338241100311279297e+00,-3.705780267715454102e+00,-8.090814948081970215e-01,8.674994468688964844e+00,-1.327892541885375977e+00,7.403616905212402344e+00,3.263106346130371094e+00,4.370817184448242188e+00,5.856181621551513672e+00,1.287330818176269531e+01,1.043400001525878906e+01,1.373598957061767578e+01,4.552469253540039062e+00,1.068028545379638672e+01,1.237256336212158203e+01,8.215830802917480469e+00,-1.332595758140087128e-02
6.516350269317626953e+00,4.857085645198822021e-01,4.751553535461425781e+00,8.838247299194335938e+00,3.409667730331420898e+00,-3.503691673278808594e+00,2.374204993247985840e-01,8.928339004516601562e+00,-2.369837015867233276e-01,7.784396648406982422e+00,4.449439525604248047e+00,4.680122375488281250e+00,6.558506965637207031e+00,1.354034233093261719e+01,1.102176284790039062e+01,1.513185691833496094e+01,5.265916347503662109e+00,1.164318943023681641e+01,1.347044181823730469e+01,7.092359542846679688e+00,-1.834343187510967255e-02
5.820673465728759766e+00,1.118389248847961426e+00,5.582915306091308594e+00,9.644596099853515625e+00,4.287901401519775391e+00,-3.339759826660156250e+00,1.152103543281555176e+00,8.902662277221679688e+00,7.309460639953613281e-01,8.033411026000976562e+00,5.703186988830566406e+00,4.589488506317138672e+00,7.254091739654541016e+00,1.396962165832519531e+01,1.138712882995605469e+01,1.637217712402343750e+01,5.812119007110595703e+00,1.245560741424560547e+01,1.441880416870117188e+01,6.014372348785400391e+00,-2.794319204986095428e-02
5.157704830169677734e+00,1.395036816596984863e+00,6.100903511047363281e+00,1.020231151580810547e+01,4.911344528198242188e+00,-3.296657085418701172e+00,1.824279785156250000e+00,8.527780532836914062e+00,1.443376302719116211e+00,8.011077880859375000e+00,6.860849857330322266e+00,4.015475749969482422e+00,7.817569732666015625e+00,1.400264263153076172e+01,1.136859607696533203e+01,1.720672225952148438e+01,6.100204944610595703e+00,1.297213840484619141e+01,1.502861785888671875e+01,5.080420494079589844e+00,-4.031621664762496948e-02
4.694759368896484375e+00,1.291594624519348145e+00,6.236391544342041016e+00,1.039505958557128906e+01,5.259465217590332031e+00,-3.424552202224731445e+00,2.180492877960205078e+00,7.799414157867431641e+00,1.813373565673828125e+00,7.613548278808593750e+00,7.758929729461669922e+00,2.936504125595092773e+00,8.123573303222656250e+00,1.353043556213378906e+01,1.085496520996093750e+01,1.742448806762695312e+01,6.075069904327392578e+00,1.310127162933349609e+01,1.515997791290283203e+01,4.369343280792236328e+00,-5.210898816585540771e-02
4.557636737823486328e+00,8.441474437713623047e-01,5.986614227294921875e+00,1.016239356994628906e+01,5.356528282165527344e+00,-3.722032070159912109e+00,2.197599172592163086e+00,6.790314674377441406e+00,1.825035333633422852e+00,6.811788558959960938e+00,8.273447036743164062e+00,1.417312145233154297e+00,8.088523864746093750e+00,1.253208637237548828e+01,9.814466476440429688e+00,1.691997337341308594e+01,5.736714363098144531e+00,1.283487129211425781e+01,1.475628376007080078e+01,3.919044733047485352e+00,-5.878188461065292358e-02
4.806721687316894531e+00,1.681654006242752075e-01,5.428071975708007812e+00,9.517998695373535156e+00,5.263198375701904297e+00,-4.135395050048828125e+00,1.916854977607727051e+00,5.651119232177734375e+00,1.550452828407287598e+00,5.671682357788085938e+00,8.344735145568847656e+00,-3.737807571887969971e-01,7.701638698577880859e+00,1.108244323730468750e+01,8.313288688659667969e+00,1.570535278320312500e+01,5.147008895874023438e+00,1.226546669006347656e+01,1.387093257904052734e+01,3.723460674285888672e+00,-5.541983619332313538e-02
5.435724258422851562e+00,-5.703630447387695312e-01,4.700860500335693359e+00,8.553116798400878906e+00,5.068139076232910156e+00,-4.578434944152832031e+00,1.438885331153869629e+00,4.580394744873046875e+00,1.146530389785766602e+00,4.346210479736328125e+00,7.993717193603515625e+00,-2.179260015487670898e+00,7.041102886199951172e+00,9.356520652770996094e+00,6.522201538085937500e+00,1.392940902709960938e+01,4.426794528961181641e+00,1.156998062133789062e+01,1.265984916687011719e+01,3.740138292312622070e+00,-3.780747950077056885e-02
6.381743907928466797e+00,-1.188609957695007324e+00,3.983788013458251953e+00,7.426281929016113281e+00,4.863746643066406250e+00,-4.955760955810546875e+00,9.025530219078063965e-01,3.789548397064208984e+00,8.157591819763183594e-01,3.049772262573242188e+00,7.313376903533935547e+00,-3.692697525024414062e+00,6.268679618835449219e+00,7.589871406555175781e+00,4.654334545135498047e+00,1.182614040374755859e+01,3.731715202331542969e+00,1.096905517578125000e+01,1.133983230590820312e+01,3.916012525558471680e+00,-3.538469318300485611e-03
7.550430774688720703e+00,-1.532615065574645996e+00,3.457504510879516602e+00,6.323397636413574219e+00,4.725618362426757812e+00,-5.198832511901855469e+00,4.598021805286407471e-01,3.446334600448608398e+00,7.659314870834350586e-01,2.010164737701416016e+00,6.446291923522949219e+00,-4.637876510620117188e+00,5.583878993988037109e+00,6.032358646392822266e+00,2.951940774917602539e+00,9.670120239257812500e+00,3.216448068618774414e+00,1.068028545379638672e+01,1.013836002349853516e+01,4.198017597198486328e+00,4.712266102433204651e-02
8.829821586608886719e+00,-1.542237639427185059e+00,3.254733324050903320e+00,5.417823314666748047e+00,4.695752620697021484e+00,-5.280798435211181641e+00,2.344017475843429565e-01,3.634631395339965820e+00,1.149710893630981445e+00,1.422803282737731934e+00,5.552086353302001953e+00,-4.823459625244140625e+00,5.183513164520263672e+00,4.890915870666503906e+00,1.610941767692565918e+00,7.698051452636718750e+00,2.997000217437744141e+00,1.085415744781494141e+01,9.234852790832519531e+00,4.534604072570800781e+00,1.109333336353302002e-01
