Fp1,Fp2,F7,F3,Fz,F4,F8,T3,C3,Cz,C4,T4,T5,P3,Pz,P4,T6,O1,Oz,O2,A1
-1.109967899322509766e+01,-2.082887268066406250e+01,-8.281751632690429688e+00,4.006970226764678955e-01,1.307697868347167969e+01,-1.662225151062011719e+01,7.262674331665039062e+00,-1.161792850494384766e+01,1.102016210556030273e+00,-8.926348686218261719e+00,-4.380556583404541016e+00,-6.236843109130859375e+00,-2.103816986083984375e+00,-1.084042072296142578e+01,6.340901851654052734e+00,2.466430187225341797e+00,-1.346309852600097656e+01,-9.079034805297851562e+00,-2.040445566177368164e+00,-1.097421884536743164e+00,-5.144907906651496887e-02
-1.165224361419677734e+01,-1.915184020996093750e+01,-8.619094848632812500e+00,1.446010321378707886e-01,1.075636863708496094e+01,-1.679339027404785156e+01,5.900037765502929688e+00,-1.204945182800292969e+01,-1.073968887329101562e+00,-1.171490097045898438e+01,-6.603817462921142578e+00,-6.124894618988037109e+00,-5.530342102050781250e+00,-1.196123027801513672e+01,2.962759256362915039e+00,1.514302343130111694e-01,-1.444758319854736328e+01,-1.153966236114501953e+01,-4.483934879302978516e+00,-2.269848585128784180e+00,-5.199683830142021179e-02
-1.189574623107910156e+01,-1.665708160400390625e+01,-8.502594947814941406e+00,6.819369792938232422e-01,8.588687896728515625e+00,-1.616099739074707031e+01,4.449427127838134766e+00,-1.175258064270019531e+01,-2.809503793716430664e+00,-1.395960044860839844e+01,-8.847241401672363281e+00,-5.676054000854492188e+00,-8.853503227233886719e+00,-1.291868972778320312e+01,-5.999724864959716797e-01,-2.294735908508300781e+00,-1.477057170867919922e+01,-1.365387439727783203e+01,-6.519375801086425781e+00,-3.290293931961059570e+00,-5.278275161981582642e-02
-1.148132324218750000e+01,-1.357097244262695312e+01,-8.026465415954589844e+00,2.033192396163940430e+00,6.982933044433593750e+00,-1.485411453247070312e+01,3.281862258911132812e+00,-1.088423347473144531e+01,-3.701516151428222656e+00,-1.541466808319091797e+01,-1.076103401184082031e+01,-5.149791240692138672e+00,-1.165855026245117188e+01,-1.367721748352050781e+01,-3.934009790420532227e+00,-4.698315620422363281e+00,-1.438453674316406250e+01,-1.503239727020263672e+01,-7.943544387817382812e+00,-3.862859964370727539e+00,-5.344958603382110596e-02
-1.013620376586914062e+01,-1.013605880737304688e+01,-7.276813983917236328e+00,4.136904716491699219e+00,6.260965347290039062e+00,-1.303289794921875000e+01,2.778882026672363281e+00,-9.642676353454589844e+00,-3.435831785202026367e+00,-1.591668605804443359e+01,-1.201205730438232422e+01,-4.765818119049072266e+00,-1.358112621307373047e+01,-1.419152832031250000e+01,-6.645671844482421875e+00,-6.858300685882568359e+00,-1.329141998291015625e+01,-1.535738563537597656e+01,-8.591620445251464844e+00,-3.762366294860839844e+00,-5.364011228084564209e-02
-7.801853179931640625e+00,-6.585647106170654297e+00,-6.319489002227783203e+00,6.829171657562255859e+00,6.534815311431884766e+00,-1.087214756011962891e+01,3.195801019668579102e+00,-8.211335182189941406e+00,-1.898297429084777832e+00,-1.545650291442871094e+01,-1.238289260864257812e+01,-4.644453048706054688e+00,-1.441837692260742188e+01,-1.442927551269531250e+01,-8.465425491333007812e+00,-8.602642059326171875e+00,-1.155814647674560547e+01,-1.449908256530761719e+01,-8.402798652648925781e+00,-2.929260969161987305e+00,-5.318761616945266724e-02
-4.703043937683105469e+00,-3.142648935317993164e+00,-5.200077533721923828e+00,9.838997840881347656e+00,7.646218299865722656e+00,-8.569544792175292969e+00,4.564175128936767578e+00,-6.734402179718017578e+00,7.514744997024536133e-01,-1.423021984100341797e+01,-1.185688495635986328e+01,-4.790927886962890625e+00,-1.420777130126953125e+01,-1.439854621887207031e+01,-9.342631340026855469e+00,-9.842760086059570312e+00,-9.334084510803222656e+00,-1.258367347717285156e+01,-7.477889060974121094e+00,-1.511803269386291504e+00,-5.216354504227638245e-02
-1.329123258590698242e+00,-3.113013319671154022e-02,-3.977335453033447266e+00,1.280877971649169922e+01,9.219964981079101562e+00,-6.354798316955566406e+00,6.662158012390136719e+00,-5.317903995513916016e+00,4.092227935791015625e+00,-1.261434936523437500e+01,-1.063479232788085938e+01,-5.128866195678710938e+00,-1.323227119445800781e+01,-1.417373752593994141e+01,-9.460246086120605469e+00,-1.060931587219238281e+01,-6.861720085144042969e+00,-9.986145973205566406e+00,-6.080923557281494141e+00,1.674342602491378784e-01,-5.085369199514389038e-02
1.686567187309265137e+00,2.505208253860473633e+00,-2.745476245880126953e+00,1.533435153961181641e+01,1.076881599426269531e+01,-4.486907482147216797e+00,9.069961547851562500e+00,-4.046660423278808594e+00,7.529960632324218750e+00,-1.108607101440429688e+01,-9.090958595275878906e+00,-5.558874130249023438e+00,-1.194797039031982422e+01,-1.388747024536132812e+01,-9.185812950134277344e+00,-1.105051136016845703e+01,-4.449491500854492188e+00,-7.252908229827880859e+00,-4.607149600982666016e+00,1.705236196517944336e+00,-4.961528256535530090e-02
3.743464708328247070e+00,4.221509933471679688e+00,-1.647338390350341797e+00,1.704786682128906250e+01,1.186065864562988281e+01,-3.223953247070312500e+00,1.128651714324951172e+01,-2.998070240020751953e+00,1.044743728637695312e+01,-1.010164546966552734e+01,-7.679503917694091797e+00,-6.020269870758056641e+00,-1.086652183532714844e+01,-1.371279907226562500e+01,-8.957118034362792969e+00,-1.138949966430664062e+01,-2.431056261062622070e+00,-4.944655895233154297e+00,-3.482216358184814453e+00,2.748013734817504883e+00,-4.875792190432548523e-02
4.441194534301757812e+00,4.901793956756591797e+00,-8.561524152755737305e-01,1.769509124755859375e+01,1.223408985137939453e+01,-2.769106626510620117e+00,1.286813163757324219e+01,-2.256953239440917969e+00,1.235874843597412109e+01,-9.973526000976562500e+00,-6.814220905303955078e+00,-6.517237663269042969e+00,-1.040525913238525391e+01,-1.380660343170166016e+01,-9.159676551818847656e+00,-1.187157821655273438e+01,-1.090605974197387695e+00,-3.492325782775878906e+00,-3.061366558074951172e+00,3.098500967025756836e+00,-4.844831675291061401e-02
3.681418180465698242e+00,4.413236618041992188e+00,-5.410963296890258789e-01,1.719500541687011719e+01,1.184998893737792969e+01,-3.213886022567749023e+00,1.354132270812988281e+01,-1.913431286811828613e+00,1.302750492095947266e+01,-1.079584217071533203e+01,-6.763373374938964844e+00,-7.116738319396972656e+00,-1.077349376678466797e+01,-1.426754283905029297e+01,-1.000911235809326172e+01,-1.268242454528808594e+01,-6.066083312034606934e-01,-3.084006786346435547e+00,-3.546223878860473633e+00,2.772826910018920898e+00,-4.871029034256935120e-02
1.677201628684997559e+00,2.768543720245361328e+00,-8.125916123390197754e-01,1.567053604125976562e+01,1.088618087768554688e+01,-4.496974468231201172e+00,1.326305770874023438e+01,-2.037480831146240234e+00,1.251432037353515625e+01,-1.243262958526611328e+01,-7.598849296569824219e+00,-7.912933349609375000e+00,-1.192858982086181641e+01,-1.511178874969482422e+01,-1.150379371643066406e+01,-1.390210056304931641e+01,-1.001371979713439941e+00,-3.633987665176391602e+00,-4.935188293457031250e+00,1.978802442550659180e+00,-4.944857209920883179e-02
-1.120740890502929688e+00,1.467369347810745239e-01,-1.686847090721130371e+00,1.341037273406982422e+01,9.634296417236328125e+00,-6.402388095855712891e+00,1.219972229003906250e+01,-2.656668663024902344e+00,1.112730693817138672e+01,-1.458058643341064453e+01,-9.179503440856933594e+00,-8.972783088684082031e+00,-1.360050678253173828e+01,-1.625524139404296875e+01,-1.343136024475097656e+01,-1.547779941558837891e+01,-2.135226011276245117e+00,-4.837516784667968750e+00,-7.037837028503417969e+00,1.035898447036743164e+00,-5.035356432199478149e-02
-4.158674240112304688e+00,-3.106844425201416016e+00,-3.056480169296264648e+00,1.081402492523193359e+01,8.433980941772460938e+00,-8.590593338012695312e+00,1.065348815917968750e+01,-3.727524518966674805e+00,9.325098037719726562e+00,-1.686842727661132812e+01,-1.121690845489501953e+01,-1.029210186004638672e+01,-1.537837219238281250e+01,-1.756042671203613281e+01,-1.544387054443359375e+01,-1.725110054016113281e+01,-3.747258424758911133e+00,-6.282704353332519531e+00,-9.524531364440917969e+00,2.648263275623321533e-01,-5.123474076390266418e-02
-6.913301467895507812e+00,-6.545222759246826172e+00,-4.708751678466796875e+00,8.300559997558593750e+00,7.559084415435791016e+00,-1.067263793945312500e+01,8.970512390136718750e+00,-5.119637012481689453e+00,7.579461097717285156e+00,-1.896278381347656250e+01,-1.333409023284912109e+01,-1.177463626861572266e+01,-1.683064079284667969e+01,-1.885105514526367188e+01,-1.715417861938476562e+01,-1.898351669311523438e+01,-5.499931335449218750e+00,-7.567183017730712891e+00,-1.202242660522460938e+01,-1.055116280913352966e-01,-5.175868049263954163e-02
-8.995954513549804688e+00,-9.687926292419433594e+00,-6.363049983978271484e+00,6.238754272460937500e+00,7.208769798278808594e+00,-1.227970123291015625e+01,7.454877853393554688e+00,-6.612473487854003906e+00,6.268212795257568359e+00,-2.063225555419921875e+01,-1.516021537780761719e+01,-1.323101425170898438e+01,-1.760587120056152344e+01,-1.996377754211425781e+01,-1.822740745544433594e+01,-2.041271781921386719e+01,-7.056676864624023438e+00,-8.401677131652832031e+00,-1.415547943115234375e+01,1.111070532351732254e-02,-5.166342109441757202e-02
-1.018888473510742188e+01,-1.211800670623779297e+01,-7.728630542755126953e+00,4.885635852813720703e+00,7.480841636657714844e+00,-1.312716197967529297e+01,6.320781707763671875e+00,-7.914463996887207031e+00,5.616629600524902344e+00,-2.175656509399414062e+01,-1.637967681884765625e+01,-1.441641330718994141e+01,-1.749733924865722656e+01,-2.076759147644042969e+01,-1.844466781616210938e+01,-2.128829574584960938e+01,-8.133305549621582031e+00,-8.642145156860351562e+00,-1.562605381011962891e+01,5.731311440467834473e-01,-5.075842887163162231e-02
-1.042770481109619141e+01,-1.355018234252929688e+01,-8.573508262634277344e+00,4.365993976593017578e+00,8.396637916564941406e+00,-1.306218433380126953e+01,5.698271751403808594e+00,-8.712834358215332031e+00,5.692395210266113281e+00,-2.230434036254882812e+01,-1.677067565917968750e+01,-1.508182716369628906e+01,-1.645594406127929688e+01,-2.115575027465820312e+01,-1.770957946777343750e+01,-2.140583419799804688e+01,-8.539708137512207031e+00,-8.268348693847656250e+00,-1.621972274780273438e+01,1.462686657905578613e+00,-4.885318130254745483e-02
-9.767436981201171875e+00,-1.387588787078857422e+01,-8.772064208984375000e+00,4.661202907562255859e+00,9.917037010192871094e+00,-1.207561492919921875e+01,5.646635055541992188e+00,-8.746763229370117188e+00,6.440958023071289062e+00,-2.227950096130371094e+01,-1.621924400329589844e+01,-1.502742290496826172e+01,-1.456696224212646484e+01,-2.105547523498535156e+01,-1.604010963439941406e+01,-2.062054061889648438e+01,-8.197320938110351562e+00,-7.346952438354492188e+00,-1.581167507171630859e+01,2.546405792236328125e+00,-4.597149789333343506e-02
-8.336856842041015625e+00,-1.317827892303466797e+01,-8.327338218688964844e+00,5.628779888153076172e+00,1.194601440429687500e+01,-1.030656433105468750e+01,6.187864780426025391e+00,-7.883716583251953125e+00,7.735032558441162109e+00,-2.169773483276367188e+01,-1.472538185119628906e+01,-1.416740608215332031e+01,-1.200869750976562500e+01,-2.042471694946289062e+01,-1.353263950347900391e+01,-1.886257171630859375e+01,-7.136211872100830078e+00,-5.985095500946044922e+00,-1.436670398712158203e+01,3.719452857971191406e+00,-4.228008538484573364e-02
-6.312738895416259766e+00,-1.170336818695068359e+01,-7.371026992797851562e+00,7.016354560852050781e+00,1.432530593872070312e+01,-8.025010108947753906e+00,7.304748535156250000e+00,-6.188372135162353516e+00,9.397832870483398438e+00,-2.059695625305175781e+01,-1.239867305755615234e+01,-1.255932235717773438e+01,-9.022762298583984375e+00,-1.925377082824707031e+01,-1.035542106628417969e+01,-1.617451477050781250e+01,-5.486351966857910156e+00,-4.314916133880615234e+00,-1.193761730194091797e+01,4.905526638031005859e+00,-3.813618049025535583e-02
-3.923366308212280273e+00,-9.814973831176757812e+00,-6.124984741210937500e+00,8.500780105590820312e+00,1.681662750244140625e+01,-5.601602077484130859e+00,8.930350303649902344e+00,-3.938514709472656250e+00,1.121822547912597656e+01,-1.905952644348144531e+01,-9.460041046142578125e+00,-1.040928173065185547e+01,-5.888240814208984375e+00,-1.761379814147949219e+01,-6.727348327636718750e+00,-1.270456981658935547e+01,-3.461127519607543945e+00,-2.503074884414672852e+00,-8.686032295227050781e+00,6.032049179077148438e+00,-3.408753126859664917e-02
-1.440338492393493652e+00,-7.930045127868652344e+00,-4.850577831268310547e+00,9.734697341918945312e+00,1.913190269470214844e+01,-3.456409931182861328e+00,1.093270969390869141e+01,-1.581572055816650391e+00,1.294668865203857422e+01,-1.725017166137695312e+01,-6.225968360900878906e+00,-8.042668342590332031e+00,-2.912642240524291992e+00,-1.564712524414062500e+01,-2.926120996475219727e+00,-8.732105255126953125e+00,-1.331149935722351074e+00,-7.507553696632385254e-01,-4.887182712554931641e+00,7.001627445220947266e+00,-3.063427656888961792e-02
8.343068361282348633e-01,-6.447049617767333984e+00,-3.797013998031616211e+00,1.040985870361328125e+01,2.096171569824218750e+01,-1.989369630813598633e+00,1.310623455047607422e+01,3.682334721088409424e-01,1.430743694305419922e+01,-1.540551662445068359e+01,-3.056769847869873047e+00,-5.825667381286621094e+00,-3.995986580848693848e-01,-1.357047367095947266e+01,7.297219038009643555e-01,-4.628473758697509766e+00,6.116302013397216797e-01,7.063363790512084961e-01,-9.011108279228210449e-01,7.690815448760986328e+00,-2.808601036667823792e-02
2.614922285079956055e+00,-5.674367427825927734e+00,-3.157784223556518555e+00,1.032418346405029297e+01,2.205355834960937500e+01,-1.495170116424560547e+00,1.520134830474853516e+01,1.471956968307495117e+00,1.503276538848876953e+01,-1.379618358612060547e+01,-3.039942979812622070e-01,-4.090987682342529297e+00,1.387310981750488281e+00,-1.163938236236572266e+01,3.918375015258789062e+00,-8.008029460906982422e-01,2.099510669708251953e+00,1.651541233062744141e+00,2.864134788513183594e+00,7.982371330261230469e+00,-2.653799951076507568e-02
3.680247545242309570e+00,-5.792175292968750000e+00,-3.047362804412841797e+00,9.429244041442871094e+00,2.226694869995117188e+01,-2.101937294006347656e+00,1.697899246215820312e+01,1.487860798835754395e+00,1.491457080841064453e+01,-1.265356922149658203e+01,1.763217329978942871e+00,-3.054155588150024414e+00,2.274951696395874023e+00,-1.009483242034912109e+01,6.371938705444335938e+00,2.393181324005126953e+00,2.931715011596679688e+00,1.934864640235900879e+00,6.030909538269042969e+00,7.820465087890625000e+00,-2.568063884973526001e-02
3.920238494873046875e+00,-6.824728488922119141e+00,-3.495127439498901367e+00,7.838655471801757812e+00,2.161433219909667969e+01,-3.728219747543334961e+00,1.826226043701171875e+01,4.413909316062927246e-01,1.385688495635986328e+01,-1.210579490661621094e+01,3.006349802017211914e+00,-2.773761034011840820e+00,2.219393253326416016e+00,-9.106643676757812500e+00,7.933594703674316406e+00,4.713291645050048828e+00,3.005430221557617188e+00,1.530117034912109375e+00,8.322381019592285156e+00,7.249139785766601562e+00,-2.496617287397384644e-02
3.350113868713378906e+00,-8.648443222045898438e+00,-4.454478263854980469e+00,5.803856372833251953e+00,2.025930976867675781e+01,-6.110444068908691406e+00,1.897083282470703125e+01,-1.390726566314697266e+00,1.190718650817871094e+01,-1.215416622161865234e+01,3.433292865753173828e+00,-3.144132852554321289e+00,1.324000358581542969e+00,-8.734658241271972656e+00,8.588641166687011719e+00,6.096499919891357422e+00,2.331325292587280273e+00,5.372946858406066895e-01,9.612133026123046875e+00,6.416034221649169922e+00,-2.384684048593044281e-02
2.092795610427856445e+00,-1.101846408843994141e+01,-5.806889533996582031e+00,3.642406463623046875e+00,1.846150398254394531e+01,-8.861488342285156250e+00,1.912478637695312500e+01,-3.561064720153808594e+00,9.241250991821289062e+00,-1.268886756896972656e+01,3.175549030303955078e+00,-3.938235521316528320e+00,-1.915780752897262573e-01,-8.930355072021484375e+00,8.464492797851562500e+00,6.639903068542480469e+00,1.024822592735290527e+00,-8.388475179672241211e-01,9.938571929931640625e+00,5.525858402252197266e+00,-2.196541056036949158e-02
3.519836962223052979e-01,-1.360100173950195312e+01,-7.372039794921875000e+00,1.666276812553405762e+00,1.651966094970703125e+01,-1.154572391510009766e+01,1.881496620178222656e+01,-5.580846786499023438e+00,6.121732711791992188e+00,-1.353602313995361328e+01,2.426864147186279297e+00,-4.865211486816406250e+00,-2.044382333755493164e+00,-9.554643630981445312e+00,7.781676292419433594e+00,6.578578472137451172e+00,-7.103914022445678711e-01,-2.357841968536376953e+00,9.466516494750976562e+00,4.766572475433349609e+00,-1.925043575465679169e-02
-1.626477837562561035e+00,-1.601144790649414062e+01,-8.919968605041503906e+00,1.157320365309715271e-01,1.472185516357421875e+01,-1.376321506500244141e+01,1.816376876831054688e+01,-7.027032375335693359e+00,2.838561296463012695e+00,-1.451652622222900391e+01,1.389751672744750977e+00,-5.627926826477050781e+00,-3.950160980224609375e+00,-1.041506385803222656e+01,6.795023441314697266e+00,6.205521106719970703e+00,-2.617283821105957031e+00,-3.800648450851440430e+00,8.445595741271972656e+00,4.249216079711914062e+00,-1.601151935756206512e-02
-3.570989370346069336e+00,-1.787096595764160156e+01,-1.019336223602294922e+01,-8.714015483856201172e-01,1.330815029144287109e+01,-1.520005416870117188e+01,1.729359436035156250e+01,-7.625014781951904297e+00,-3.415690660476684570e-01,-1.547349834442138672e+01,2.369173169136047363e-01,-5.981558799743652344e+00,-5.671175956726074219e+00,-1.129974269866943359e+01,5.738128662109375000e+00,5.817132472991943359e+00,-4.417483329772949219e+00,-5.010129928588867188e+00,7.149441719055175781e+00,3.983093738555908203e+00,-1.270115654915571213e-02
-5.197073936462402344e+00,-1.886194038391113281e+01,-1.095820903778076172e+01,-1.269980072975158691e+00,1.247237491607666016e+01,-1.567320442199707031e+01,1.631536483764648438e+01,-7.276191711425781250e+00,-3.197423219680786133e+00,-1.627489662170410156e+01,-9.053968191146850586e-01,-5.766031265258789062e+00,-7.038168430328369141e+00,-1.201783752441406250e+01,4.784146308898925781e+00,5.639972686767578125e+00,-5.851047515869140625e+00,-5.889860630035400391e+00,5.843687534332275391e+00,3.908653974533081055e+00,-9.748026728630065918e-03
-6.240156173706054688e+00,-1.881920623779296875e+01,-1.107470893859863281e+01,-1.161954045295715332e+00,1.235323238372802734e+01,-1.516253185272216797e+01,1.533330917358398438e+01,-6.060081481933593750e+00,-5.566357612609863281e+00,-1.681090545654296875e+01,-1.943386077880859375e+00,-4.934264183044433594e+00,-7.945189476013183594e+00,-1.242378711700439453e+01,4.047423839569091797e+00,5.817132472991943359e+00,-6.726899147033691406e+00,-6.387462615966796875e+00,4.752358436584472656e+00,3.957660198211669922e+00,-7.271207869052886963e-03
-6.504731655120849609e+00,-1.780859756469726562e+01,-1.056312274932861328e+01,-7.261252999305725098e-01,1.300762653350830078e+01,-1.384192085266113281e+01,1.444209671020507812e+01,-4.225843429565429688e+00,-7.344321250915527344e+00,-1.699393272399902344e+01,-2.802532672882080078e+00,-3.573094844818115234e+00,-8.337973594665527344e+00,-1.244804668426513672e+01,3.593302249908447266e+00,6.374163627624511719e+00,-6.976172447204589844e+00,-6.488649368286132812e+00,4.041873931884765625e+00,4.102818012237548828e+00,-5.103991366922855377e-03
-5.933436393737792969e+00,-1.617545509338378906e+01,-9.650371551513671875e+00,-2.362835258245468140e-01,1.436620616912841797e+01,-1.209941005706787109e+01,1.372013854980468750e+01,-2.186976671218872070e+00,-8.497977256774902344e+00,-1.678998756408691406e+01,-3.425852060317993164e+00,-1.917929768562316895e+00,-8.213936805725097656e+00,-1.213428497314453125e+01,3.457719087600708008e+00,7.227595806121826172e+00,-6.693921089172363281e+00,-6.223182201385498047e+00,3.811446905136108398e+00,4.371421337127685547e+00,-2.746250480413436890e-03
-4.676117897033691406e+00,-1.450881671905517578e+01,-8.746738433837890625e+00,-3.513177856802940369e-02,1.620668983459472656e+01,-1.050790500640869141e+01,1.319516468048095703e+01,-5.085958838462829590e-01,-9.085917472839355469e+00,-1.626313018798828125e+01,-3.784414291381835938e+00,-3.360021710395812988e-01,-7.623468399047851562e+00,-1.165393829345703125e+01,3.653742790222167969e+00,8.184939384460449219e+00,-6.146877765655517578e+00,-5.691058158874511719e+00,4.046674728393554688e+00,4.812477111816406250e+00,3.021416487172245979e-04
-3.091007471084594727e+00,-1.351899814605712891e+01,-8.357729911804199219e+00,-4.830669164657592773e-01,1.813430595397949219e+01,-9.725421905517578125e+00,1.282223224639892578e+01,1.636046022176742554e-01,-9.274826049804687500e+00,-1.561207580566406250e+01,-3.902765989303588867e+00,7.290787100791931152e-01,-6.686729907989501953e+00,-1.129650783538818359e+01,4.147069454193115234e+00,8.975344657897949219e+00,-5.729805946350097656e+00,-5.091079235076904297e+00,4.619542598724365234e+00,5.433429241180419922e+00,4.326972179114818573e-03
-1.687353491783142090e+00,-1.383546352386474609e+01,-8.931111335754394531e+00,-1.872503995895385742e+00,1.966537475585937500e+01,-1.032212257385253906e+01,1.247511863708496094e+01,-7.715386748313903809e-01,-9.324326515197753906e+00,-1.515320014953613281e+01,-3.865945577621459961e+00,8.577672839164733887e-01,-5.592360496520996094e+00,-1.141295623779296875e+01,4.846220493316650391e+00,9.295594215393066406e+00,-5.863656997680664062e+00,-4.707759380340576172e+00,5.291622161865234375e+00,6.152393341064453125e+00,9.256794117391109467e-03
-9.943066835403442383e-01,-1.578507137298583984e+01,-1.070494842529296875e+01,-4.314262866973876953e+00,2.033577346801757812e+01,-1.258079719543457031e+01,1.197213840484619141e+01,-3.676632404327392578e+00,-9.541521072387695312e+00,-1.524602127075195312e+01,-3.807208061218261719e+00,-2.198686003684997559e-01,-4.578098773956298828e+00,-1.231866073608398438e+01,5.597644805908203125e+00,8.868026733398437500e+00,-6.864629745483398438e+00,-4.860135078430175781e+00,5.755676746368408203e+00,6.795677185058593750e+00,1.463911123573780060e-02
-1.394681692123413086e+00,-1.923846435546875000e+01,-1.359819698333740234e+01,-7.650960445404052734e+00,1.984675598144531250e+01,-1.634311866760253906e+01,1.113734436035156250e+01,-8.495482444763183594e+00,-1.019916534423828125e+01,-1.616507911682128906e+01,-3.869452238082885742e+00,-2.502782583236694336e+00,-3.868761539459228516e+00,-1.418667602539062500e+01,6.202051639556884766e+00,7.534218311309814453e+00,-8.816139221191406250e+00,-5.800578117370605469e+00,5.717272281646728516e+00,7.153608322143554688e+00,1.968801021575927734e-02
-3.002035379409790039e+00,-2.359505271911621094e+01,-1.720057487487792969e+01,-1.143186855316162109e+01,1.816987228393554688e+01,-2.097578239440917969e+01,9.874155998229980469e+00,-1.464177036285400391e+01,-1.144171905517578125e+01,-1.798097229003906250e+01,-4.147359848022460938e+00,-5.666637897491455078e+00,-3.618103265762329102e+00,-1.694098854064941406e+01,6.465050220489501953e+00,5.318019390106201172e+00,-1.151546859741210938e+01,-7.615990638732910156e+00,4.984385490417480469e+00,7.065521240234375000e+00,2.359376288950443268e-02
-5.593936920166015625e+00,-2.791699218750000000e+01,-2.086272239685058594e+01,-1.497809982299804688e+01,1.558786010742187500e+01,-2.549130058288574219e+01,8.223691940307617188e+00,-2.106902503967285156e+01,-1.322877502441406250e+01,-2.047929573059082031e+01,-4.647943973541259766e+00,-9.108795166015625000e+00,-3.855841159820556641e+00,-2.025004577636718750e+01,6.255958080291748047e+00,2.452802419662475586e+00,-1.450189971923828125e+01,-1.016709136962890625e+01,3.549015760421752930e+00,6.500399112701416016e+00,2.568953298032283783e-02
-8.662308692932128906e+00,-3.118327713012695312e+01,-2.387550926208496094e+01,-1.754557800292968750e+01,1.263063907623291016e+01,-2.880426788330078125e+01,6.381024360656738281e+00,-2.648585891723632812e+01,-1.531586170196533203e+01,-2.319855880737304688e+01,-5.275647163391113281e+00,-1.208746433258056641e+01,-4.474734783172607422e+00,-2.357689285278320312e+01,5.561707496643066406e+00,-6.474916934967041016e-01,-1.717310142517089844e+01,-1.309079837799072266e+01,1.577582478523254395e+00,5.593474388122558594e+00,2.557045593857765198e-02
-1.153985786437988281e+01,-3.257965087890625000e+01,-2.565947723388671875e+01,-1.852433013916015625e+01,9.940154075622558594e+00,-3.004159736633300781e+01,4.656930446624755859e+00,-2.971008872985839844e+01,-1.731607055664062500e+01,-2.552823638916015625e+01,-5.849872589111328125e+00,-1.392258453369140625e+01,-5.264179229736328125e+00,-2.630856132507324219e+01,4.491744518280029297e+00,-3.482046365737915039e+00,-1.895778083801269531e+01,-1.588236713409423828e+01,-6.050757765769958496e-01,4.612730503082275391e+00,2.306982129812240601e-02
-1.357334136962890625e+01,-3.171687889099121094e+01,-2.591577720642089844e+01,-1.763032150268554688e+01,8.106783866882324219e+00,-2.878596496582031250e+01,3.394698143005371094e+00,-3.001756095886230469e+01,-1.879703330993652344e+01,-2.690094184875488281e+01,-6.175120830535888672e+00,-1.419042396545410156e+01,-5.981268882751464844e+00,-2.792912673950195312e+01,3.255161285400390625e+00,-5.585817337036132812e+00,-1.947766685485839844e+01,-1.803229141235351562e+01,-2.618113994598388672e+00,3.875776529312133789e+00,1.828289218246936798e-02
-1.428980159759521484e+01,-2.872201347351074219e+01,-2.468999671936035156e+01,-1.499299907684326172e+01,7.516406536102294922e+00,-2.519661140441894531e+01,2.861118316650390625e+00,-2.736904907226562500e+01,-1.940820884704589844e+01,-2.694669914245605469e+01,-6.112876415252685547e+00,-1.284599494934082031e+01,-6.441239833831787109e+00,-2.816525650024414062e+01,2.074118137359619141e+00,-6.662403106689453125e+00,-1.864740180969238281e+01,-1.916082382202148438e+01,-4.136693477630615234e+00,3.644392728805541992e+00,1.151927281171083450e-02
-1.351831912994384766e+01,-2.418409347534179688e+01,-2.234277725219726562e+01,-1.114317893981933594e+01,8.259713172912597656e+00,-1.995077514648437500e+01,3.151814222335815430e+00,-2.241872787475585938e+01,-1.898190116882324219e+01,-2.560929107666015625e+01,-5.640346050262451172e+00,-1.022305011749267578e+01,-6.576905250549316406e+00,-2.705576896667480469e+01,1.110334753990173340e+00,-6.667513370513916016e+00,-1.669395256042480469e+01,-1.912154006958007812e+01,-4.981593608856201172e+00,4.040784835815429688e+00,3.160009393468499184e-03
-1.143332481384277344e+01,-1.897512817382812500e+01,-1.943635940551757812e+01,-6.878016471862792969e+00,1.012153530120849609e+01,-1.405058288574218750e+01,4.140562534332275391e+00,-1.630848884582519531e+01,-1.758377456665039062e+01,-2.315410995483398438e+01,-4.879387855529785156e+00,-6.924228668212890625e+00,-6.476125240325927734e+00,-2.494515228271484375e+01,3.981150984764099121e-01,-5.822597980499267578e+00,-1.408191776275634766e+01,-1.803824424743652344e+01,-5.157614707946777344e+00,5.017186641693115234e+00,-6.247138604521751404e-03
-8.514801979064941406e+00,-1.403874015808105469e+01,-1.660085487365722656e+01,-3.057064294815063477e+00,1.263241672515869141e+01,-8.566799163818359375e+00,5.489811897277832031e+00,-1.032653999328613281e+01,-1.550173950195312500e+01,-2.007402038574218750e+01,-4.068458557128906250e+00,-3.629592180252075195e+00,-6.345627784729003906e+00,-2.236551284790039062e+01,-1.719873100519180298e-01,-4.546707630157470703e+00,-1.138161754608154297e+01,-1.625616455078125000e+01,-4.842377185821533203e+00,6.377573490142822266e+00,-1.608296670019626617e-02
-5.445259571075439453e+00,-1.017186355590820312e+01,-1.439242267608642578e+01,-3.918036222457885742e-01,1.518597698211669922e+01,-4.398134708404541016e+00,6.725269317626953125e+00,-5.549039363861083984e+00,-1.316917228698730469e+01,-1.694425392150878906e+01,-3.497739791870117188e+00,-9.135313034057617188e-01,-6.448991775512695312e+00,-1.990393638610839844e+01,-8.074309825897216797e-01,-3.338955879211425781e+00,-9.132338523864746094e+00,-1.424432945251464844e+01,-4.320715427398681641e+00,7.845898628234863281e+00,-2.563300728797912598e-02
-2.943500995635986328e+00,-7.883845806121826172e+00,-1.319500637054443359e+01,7.098746895790100098e-01,1.717761039733886719e+01,-2.104682922363281250e+00,7.350647926330566406e+00,-2.590933084487915039e+00,-1.104874897003173828e+01,-1.426813220977783203e+01,-3.424975395202636719e+00,8.870622515678405762e-01,-7.014911174774169922e+00,-1.804400825500488281e+01,-1.736910223960876465e+00,-2.640537977218627930e+00,-7.722052574157714844e+00,-1.246463012695312500e+01,-3.901465892791748047e+00,9.142391204833984375e+00,-3.418279439210891724e-02
-1.601893305778503418e+00,-7.324835300445556641e+00,-1.315245819091796875e+01,2.088578492403030396e-01,1.813964080810546875e+01,-1.842024922370910645e+00,6.977715969085693359e+00,-1.539161920547485352e+00,-9.520306587219238281e+00,-1.235941886901855469e+01,-4.001831054687500000e+00,1.716737270355224609e+00,-8.164838790893554688e+00,-1.706390571594238281e+01,-3.123778343200683594e+00,-2.727414369583129883e+00,-7.316619873046875000e+00,-1.127300548553466797e+01,-3.824656724929809570e+00,1.004993629455566406e+01,-4.123220220208168030e-02
-1.740034461021423340e+00,-8.291554450988769531e+00,-1.417157936096191406e+01,-1.592195272445678711e+00,1.784267425537109375e+01,-3.388686418533325195e+00,5.421919345855712891e+00,-2.049143791198730469e+00,-8.792957305908203125e+00,-1.129786014556884766e+01,-5.230059623718261719e+00,1.750217199325561523e+00,-9.879393577575683594e+00,-1.700729942321777344e+01,-5.002339363098144531e+00,-3.660909414291381836e+00,-7.853963851928710938e+00,-1.083968734741210938e+01,-4.215103149414062500e+00,1.044756889343261719e+01,-4.656688868999481201e-02
-3.325145006179809570e+00,-1.030237579345703125e+01,-1.595048141479492188e+01,-4.162467479705810547e+00,1.634361457824707031e+01,-6.240400314331054688e+00,2.751151084899902344e+00,-3.539859533309936523e+00,-8.866703033447265625e+00,-1.095403003692626953e+01,-6.972023010253906250e+00,1.282544136047363281e+00,-1.199965286254882812e+01,-1.770922088623046875e+01,-7.274580955505371094e+00,-5.306450366973876953e+00,-9.076082229614257812e+00,-1.114324760437011719e+01,-5.045601367950439453e+00,1.031419754028320312e+01,-5.023448541760444641e-02
-5.986117362976074219e+00,-1.270589160919189453e+01,-1.805558204650878906e+01,-6.884535312652587891e+00,1.397677040100097656e+01,-9.739150047302246094e+00,-7.352865934371948242e-01,-5.424989700317382812e+00,-9.554653167724609375e+00,-1.106123161315917969e+01,-8.996277809143066406e+00,6.192226409912109375e-01,-1.428141880035400391e+01,-1.888340187072753906e+01,-9.741213798522949219e+00,-7.405110836029052734e+00,-1.060663986206054688e+01,-1.200512218475341797e+01,-6.170534610748291016e+00,9.713716506958007812e+00,-5.261604115366935730e-02
-9.100145339965820312e+00,-1.483336639404296875e+01,-2.002088546752929688e+01,-9.200573921203613281e+00,1.126138973236083984e+01,-1.320495223999023438e+01,-4.574575424194335938e+00,-7.261348247528076172e+00,-1.054970645904541016e+01,-1.130831813812255859e+01,-1.104069519042968750e+01,-2.945138327777385712e-02,-1.646498870849609375e+01,-2.022578430175781250e+01,-1.217680835723876953e+01,-9.672413825988769531e+00,-1.204117393493652344e+01,-1.315508174896240234e+01,-7.383478164672851562e+00,8.775155067443847656e+00,-5.416405200958251953e-02
-1.194725704193115234e+01,-1.613503074645996094e+01,-2.144826126098632812e+01,-1.072224998474121094e+01,8.798521041870117188e+00,-1.605300521850585938e+01,-8.239830017089843750e+00,-8.825222015380859375e+00,-1.150738239288330078e+01,-1.141944217681884766e+01,-1.287558650970458984e+01,-5.808243155479431152e-01,-1.833200645446777344e+01,-2.148406791687011719e+01,-1.439841079711914062e+01,-1.188350296020507812e+01,-1.303147792816162109e+01,-1.430266094207763672e+01,-8.455604553222656250e+00,7.669724464416503906e+00,-5.528338626027107239e-02
-1.388591480255126953e+01,-1.629095268249511719e+01,-2.208242607116699219e+01,-1.127634811401367188e+01,7.123414039611816406e+00,-1.786964607238769531e+01,-1.124910545349121094e+01,-1.008480262756347656e+01,-1.212967014312744141e+01,-1.120373153686523438e+01,-1.434139633178710938e+01,-1.071514844894409180e+00,-1.975197219848632812e+01,-2.251430702209472656e+01,-1.630474281311035156e+01,-1.391913509368896484e+01,-1.335640621185302734e+01,-1.520143890380859375e+01,-9.231697082519531250e+00,6.592208385467529297e+00,-5.628363788127899170e-02
-1.448413562774658203e+01,-1.523645496368408203e+01,-2.184739875793457031e+01,-1.089732646942138672e+01,6.600610256195068359e+00,-1.845444869995117188e+01,-1.323998928070068359e+01,-1.111536884307861328e+01,-1.221957874298095703e+01,-1.056967258453369141e+01,-1.535834503173828125e+01,-1.607193946838378906e+00,-2.068483543395996094e+01,-2.328092193603515625e+01,-1.790070152282714844e+01,-1.576568412780761719e+01,-1.293545436859130859e+01,-1.567523193359375000e+01,-9.658946990966796875e+00,5.738632202148437500e+00,-5.711718276143074036e-02
-1.361548614501953125e+01,-1.316441917419433594e+01,-2.083334350585937500e+01,-9.780747413635253906e+00,7.351029396057128906e+00,-1.780283737182617188e+01,-1.402505970001220703e+01,-1.199855899810791016e+01,-1.170740318298339844e+01,-9.517265319824218750e+00,-1.591415977478027344e+01,-2.286209106445312500e+00,-2.117323112487792969e+01,-2.383081245422363281e+01,-1.924673080444335938e+01,-1.747595596313476562e+01,-1.183263778686523438e+01,-1.563237571716308594e+01,-9.798163414001464844e+00,5.272142887115478516e+00,-5.773638933897018433e-02
-1.145907974243164062e+01,-1.043981933593750000e+01,-1.924084281921386719e+01,-8.192021369934082031e+00,9.223521232604980469e+00,-1.607863044738769531e+01,-1.360909652709960938e+01,-1.274921894073486328e+01,-1.063860511779785156e+01,-8.118412971496582031e+00,-1.605267524719238281e+01,-3.146225452423095703e+00,-2.129985237121582031e+01,-2.422867584228515625e+01,-2.043920898437500000e+01,-1.910957336425781250e+01,-1.020799636840820312e+01,-1.505977725982666016e+01,-9.791763305664062500e+00,5.290132522583007812e+00,-5.792691186070442200e-02
-8.444560050964355469e+00,-7.493462562561035156e+00,-1.731099700927734375e+01,-6.411456108093261719e+00,1.183932018280029297e+01,-1.356645011901855469e+01,-1.217091751098632812e+01,-1.328676700592041016e+01,-9.151580810546875000e+00,-6.486855030059814453e+00,-1.585279273986816406e+01,-4.133883953094482422e+00,-2.116677093505859375e+01,-2.453111648559570312e+01,-2.156144523620605469e+01,-2.068697547912597656e+01,-8.267156600952148438e+00,-1.400386142730712891e+01,-9.814165115356445312e+00,5.790119647979736328e+00,-5.764112621545791626e-02
-5.152587890625000000e+00,-4.727283000946044922e+00,-1.526971626281738281e+01,-4.670934677124023438e+00,1.467917728424072266e+01,-1.061406612396240234e+01,-1.002894783020019531e+01,-1.346064853668212891e+01,-7.436250209808349609e+00,-4.761168956756591797e+00,-1.541971206665039062e+01,-5.115264892578125000e+00,-2.086184692382812500e+01,-2.476562881469726562e+01,-2.264937782287597656e+01,-2.216898345947265625e+01,-6.218653202056884766e+00,-1.257176876068115234e+01,-1.000778865814208984e+01,6.660444736480712891e+00,-5.699810758233070374e-02
-2.175530195236206055e+00,-2.448505401611328125e+00,-1.329428482055664062e+01,-3.138083696365356445e+00,1.719183731079101562e+01,-7.593957901000976562e+00,-7.580026626586914062e+00,-1.310970497131347656e+01,-5.697684288024902344e+00,-3.094312667846679688e+00,-1.487178707122802734e+01,-5.926107406616210938e+00,-2.044968032836914062e+01,-2.490957260131835938e+01,-2.368340301513671875e+01,-2.346020507812500000e+01,-4.238045692443847656e+00,-1.091111278533935547e+01,-1.042383766174316406e+01,7.699500083923339844e+00,-5.623600631952285767e-02
-5.075918510556221008e-03,-8.361518979072570801e-01,-1.150626468658447266e+01,-1.903235554695129395e+00,1.893095970153808594e+01,-4.859387397766113281e+00,-5.227684974670410156e+00,-1.214381408691406250e+01,-4.117721557617187500e+00,-1.618327736854553223e+00,-1.432210922241210938e+01,-6.423075675964355469e+00,-1.996128463745117188e+01,-2.492574501037597656e+01,-2.458184432983398438e+01,-2.443458366394042969e+01,-2.465003967285156250e+00,-9.194506645202636719e+00,-1.100310611724853516e+01,8.662875175476074219e+00,-5.575969815254211426e-02
1.077809810638427734e+00,6.819823384284973145e-02,-9.979610443115234375e+00,-9.971213936805725098e-01,1.963158988952636719e+01,-2.695891857147216797e+00,-3.300868749618530273e+00,-1.059584426879882812e+01,-2.820616006851196289e+00,-4.312646389007568359e-01,-1.385045528411865234e+01,-6.525607585906982422e+00,-1.938244438171386719e+01,-2.477209854125976562e+01,-2.521075439453125000e+01,-2.496095275878906250e+01,-9.984621405601501465e-01,-7.606467247009277344e+00,-1.158237457275390625e+01,9.328491210937500000e+00,-5.578351020812988281e-02
1.052054643630981445e+00,3.315339088439941406e-01,-8.759907722473144531e+00,-3.908723592758178711e-01,1.928660964965820312e+01,-1.283762574195861816e+00,-1.992737412452697754e+00,-8.639677047729492188e+00,-1.843746304512023926e+00,4.315786063671112061e-01,-1.347523593902587891e+01,-6.235796928405761719e+00,-1.865114212036132812e+01,-2.439526176452636719e+01,-2.538717651367187500e+01,-2.491836547851562500e+01,1.014443337917327881e-01,-6.277942180633544922e+00,-1.191681480407714844e+01,9.560495376586914062e+00,-5.647416412830352783e-02
1.576496064662933350e-01,1.132424920797348022e-01,-7.861339092254638672e+00,-1.371284015476703644e-02,1.812363815307617188e+01,-6.705890893936157227e-01,-1.319547057151794434e+00,-6.566882610321044922e+00,-1.129530191421508789e+00,1.017266154289245605e+00,-1.313508415222167969e+01,-5.623741626739501953e+00,-1.766272163391113281e+01,-2.374994659423828125e+01,-2.490201759338378906e+01,-2.420802307128906250e+01,8.162865638732910156e-01,-5.280358314514160156e+00,-1.174079322814941406e+01,9.343998908996582031e+00,-5.773638933897018433e-02
-1.164056301116943359e+00,-3.880192637443542480e-01,-7.269722461700439453e+00,2.349330782890319824e-01,1.655344772338867188e+01,-7.749201059341430664e-01,-1.133080959320068359e+00,-4.720981597900390625e+00,-5.375491380691528320e-01,1.446073055267333984e+00,-1.270288085937500000e+01,-4.796159267425537109e+00,-1.629573059082031250e+01,-2.279248809814453125e+01,-2.355762100219726562e+01,-2.276178741455078125e+01,1.179042339324951172e+00,-4.585144519805908203e+00,-1.083028602600097656e+01,8.786321640014648438e+00,-5.923676863312721252e-02
-2.393277883529663086e+00,-9.816794991493225098e-01,-6.949601173400878906e+00,4.519162178039550781e-01,1.504905223846435547e+01,-1.432022452354431152e+00,-1.176111578941345215e+00,-3.441256046295166016e+00,1.140341162681579590e-01,1.880109310150146484e+00,-1.202345371246337891e+01,-3.880691766738891602e+00,-1.445067787170410156e+01,-2.150024032592773438e+01,-2.122493743896484375e+01,-2.055751228332519531e+01,1.269246220588684082e+00,-4.086352825164794922e+00,-9.052474975585937500e+00,8.071079254150390625e+00,-6.057044118642807007e-02
-3.072276592254638672e+00,-1.543000221252441406e+00,-6.853362083435058594e+00,6.959058642387390137e-01,1.403545188903808594e+01,-2.461604595184326172e+00,-1.173242807388305664e+00,-3.010793209075927734e+00,9.727097153663635254e-01,2.465796947479248047e+00,-1.098283481597900391e+01,-3.016490697860717773e+00,-1.210689353942871094e+01,-1.989584922790527344e+01,-1.789416694641113281e+01,-1.764800643920898438e+01,1.191651463508605957e+00,-3.642320632934570312e+00,-6.428164958953857422e+00,7.393676757812500000e+00,-6.138017028570175171e-02
-2.948183774948120117e+00,-2.063896656036376953e+00,-6.948588371276855469e+00,9.547955989837646484e-01,1.376871585845947266e+01,-3.737371444702148438e+00,-9.246214032173156738e-01,-3.624679803848266602e+00,2.087977886199951172e+00,3.260658502578735352e+00,-9.571379661560058594e+00,-2.362585306167602539e+00,-9.366448402404785156e+00,-1.808282279968261719e+01,-1.372702980041503906e+01,-1.419168853759765625e+01,1.043251395225524902e+00,-3.143528461456298828e+00,-3.134975194931030273e+00,6.894930362701416016e+00,-6.140398606657981873e-02
-2.056119918823242188e+00,-2.644852161407470703e+00,-7.227174758911132812e+00,1.128940820693969727e+00,1.428618431091308594e+01,-5.222715377807617188e+00,-3.843478560447692871e-01,-5.361374378204345703e+00,3.358817815780639648e+00,4.205863952636718750e+00,-7.917961120605468750e+00,-2.087422132492065430e+00,-6.469665050506591797e+00,-1.624715423583984375e+01,-9.063298225402832031e+00,-1.046281814575195312e+01,8.783623576164245605e-01,-2.570929527282714844e+00,4.862533807754516602e-01,6.612679481506347656e+00,-6.068952009081840515e-02
-7.039762139320373535e-01,-3.456803798675537109e+00,-7.706343650817871094e+00,1.067477822303771973e+00,1.541003513336181641e+01,-6.948752880096435547e+00,3.337856531143188477e-01,-8.157261848449707031e+00,4.543789863586425781e+00,5.122308254241943359e+00,-6.276815891265869141e+00,-2.336429119110107422e+00,-3.756352901458740234e+00,-1.462658977508544922e+01,-4.365262031555175781e+00,-6.805493354797363281e+00,6.950446367263793945e-01,-2.019758462905883789e+00,3.984267234802246094e+00,6.477447032928466797e+00,-5.949873849749565125e-02
6.177297234535217285e-01,-4.637194156646728516e+00,-8.394199371337890625e+00,6.335115432739257812e-01,1.681307029724121094e+01,-8.934702873229980469e+00,9.974136948585510254e-01,-1.176636409759521484e+01,5.318618774414062500e+00,5.779899120330810547e+00,-4.959165573120117188e+00,-3.160872936248779297e+00,-1.576659202575683594e+00,-1.344432163238525391e+01,-1.229813769459724426e-01,-3.558701992034912109e+00,4.554706513881683350e-01,-1.659056901931762695e+00,6.891811370849609375e+00,6.349038600921630859e+00,-5.835559219121932983e-02
1.407943606376647949e+00,-6.180249214172363281e+00,-9.245154380798339844e+00,-2.102082967758178711e-01,1.813252830505371094e+01,-1.109453773498535156e+01,1.355046153068542480e+00,-1.572534942626953125e+01,5.396404266357421875e+00,5.996917247772216797e+00,-4.223630905151367188e+00,-4.449851036071777344e+00,-1.812416464090347290e-01,-1.280224227905273438e+01,3.269863128662109375e+00,-9.438934326171875000e-01,1.383018642663955688e-01,-1.656675934791564941e+00,8.837641716003417969e+00,6.079814434051513672e+00,-5.768875777721405029e-02
1.334190368652343750e+00,-7.882690906524658203e+00,-1.012751483917236328e+01,-1.337030649185180664e+00,1.907677650451660156e+01,-1.317017555236816406e+01,1.243166446685791016e+00,-1.938110160827636719e+01,4.635718822479248047e+00,5.736757278442382812e+00,-4.181550502777099609e+00,-5.895766258239746094e+00,3.769253492355346680e-01,-1.263242244720458984e+01,5.622148036956787109e+00,1.003159403800964355e+00,-2.099048495292663574e-01,-2.084041833877563477e+00,9.655338287353515625e+00,5.586030483245849609e+00,-5.785546451807022095e-02
3.543250858783721924e-01,-9.339121818542480469e+00,-1.082550048828125000e+01,-2.457334041595458984e+00,1.952133750915527344e+01,-1.475710487365722656e+01,6.608185172080993652e-01,-2.198190307617187500e+01,3.118388652801513672e+00,5.154991626739501953e+00,-4.737365722656250000e+00,-7.036177158355712891e+00,2.748531401157379150e-01,-1.266476917266845703e+01,7.000848293304443359e+00,2.461319684982299805e+00,-4.485088884830474854e-01,-2.851872205734252930e+00,9.442513465881347656e+00,4.890018463134765625e+00,-5.887953564524650574e-02
-1.274100899696350098e+00,-1.007253456115722656e+01,-1.110206127166748047e+01,-3.196753025054931641e+00,1.951244735717773438e+01,-1.540597057342529297e+01,-2.208314239978790283e-01,-2.285873222351074219e+01,1.145455121994018555e+00,4.562767505645751953e+00,-5.604402065277099609e+00,-7.379346370697021484e+00,-1.243913099169731140e-01,-1.251274013519287109e+01,7.688565254211425781e+00,3.750837564468383789e+00,-3.815833628177642822e-01,-3.722079753875732422e+00,8.551207542419433594e+00,4.125770092010498047e+00,-6.045136228203773499e-02
-3.082812786102294922e+00,-9.702940940856933594e+00,-1.079713535308837891e+01,-3.233072042465209961e+00,1.923859596252441406e+01,-1.480194950103759766e+01,-1.118737339973449707e+00,-2.163414001464843750e+01,-8.567744493484497070e-01,4.310451030731201172e+00,-6.391660690307617188e+00,-6.576873779296875000e+00,-3.866781294345855713e-01,-1.180920124053955078e+01,8.083879470825195312e+00,5.200480461120605469e+00,1.596404463052749634e-01,-4.383961200714111328e+00,7.491882324218750000e+00,3.496753931045532227e+00,-6.202318891882896423e-02
-4.569585800170898438e+00,-8.121771812438964844e+00,-9.919840812683105469e+00,-2.454540252685546875e+00,1.892206954956054688e+01,-1.291666984558105469e+01,-1.750809550285339355e+00,-1.839082527160644531e+01,-2.473104953765869141e+00,4.641207695007324219e+00,-6.730936050415039062e+00,-4.574354648590087891e+00,-1.579846888780593872e-01,-1.034551811218261719e+01,8.565771102905273438e+00,7.006146430969238281e+00,1.207170367240905762e+00,-4.580382823944091797e+00,6.786199092864990234e+00,3.208299636840820312e+00,-6.302344053983688354e-02
-5.379701137542724609e+00,-5.585433959960937500e+00,-8.708242416381835938e+00,-1.031577944755554199e+00,1.873179626464843750e+01,-1.008417415618896484e+01,-1.943969368934631348e+00,-1.370450687408447266e+01,-3.444923877716064453e+00,5.572032451629638672e+00,-6.399550914764404297e+00,-1.674153923988342285e+00,7.141512632369995117e-01,-8.173444747924804688e+00,9.354766845703125000e+00,9.137172698974609375e+00,2.585448265075683594e+00,-4.226823806762695312e+00,6.800600528717041016e+00,3.398741483688354492e+00,-6.302344053983688354e-02
-5.423016548156738281e+00,-2.670261621475219727e+00,-7.581739425659179688e+00,5.860173702239990234e-01,1.870512390136718750e+01,-6.942346572875976562e+00,-1.704910278320312500e+00,-8.514567375183105469e+00,-3.747985839843750000e+00,6.857145786285400391e+00,-5.385231971740722656e+00,1.534690022468566895e+00,2.121197223663330078e+00,-5.601890563964843750e+00,1.047210216522216797e+01,1.132611656188964844e+01,3.914259433746337891e+00,-3.455422401428222656e+00,7.623097896575927734e+00,4.094753265380859375e+00,-6.195174157619476318e-02
-4.888012409210205078e+00,-1.131337881088256836e-01,-7.031657695770263672e+00,1.806896805763244629e+00,1.874602317810058594e+01,-4.243468284606933594e+00,-1.211492300033569336e+00,-3.862176656723022461e+00,-3.590393543243408203e+00,8.061203956604003906e+00,-3.886109113693237305e+00,4.347005844116210938e+00,3.740139961242675781e+00,-3.095029354095458984e+00,1.172665405273437500e+01,1.317947959899902344e+01,4.711545944213867188e+00,-2.582834005355834961e+00,9.042466163635253906e+00,5.205767154693603516e+00,-6.011794507503509521e-02
-4.146967411041259766e+00,1.428765892982482910e+00,-7.452070236206054688e+00,2.090930461883544922e+00,1.866422462463378906e+01,-2.624507427215576172e+00,-7.448489665985107422e-01,-5.817533731460571289e-01,-3.319658041000366211e+00,8.714873313903808594e+00,-2.236197233200073242e+00,6.170616626739501953e+00,5.131681442260742188e+00,-1.118652462959289551e+00,1.280805206298828125e+01,1.429694843292236328e+01,4.546657085418701172e+00,-1.995949745178222656e+00,1.061225128173828125e+01,6.554368019104003906e+00,-5.809362232685089111e-02
-3.618987560272216797e+00,1.582378268241882324e+00,-8.997972488403320312e+00,1.135459661483764648e+00,1.826945304870605469e+01,-2.412184715270996094e+00,-5.861136913299560547e-01,9.280471205711364746e-01,-3.294403076171875000e+00,8.484782218933105469e+00,-7.966884970664978027e-01,6.703156948089599609e+00,5.882364273071289062e+00,1.024361141026020050e-02,1.339122295379638672e+01,1.443152141571044922e+01,3.201357126235961914e+00,-2.017377614974975586e+00,1.178359031677246094e+01,7.927162170410156250e+00,-5.642653256654739380e-02
-3.624840974807739258e+00,3.673382997512817383e-01,-1.151639556884765625e+01,-1.024127840995788574e+00,1.744256973266601562e+01,-3.540606975555419922e+00,-9.179277420043945312e-01,7.541655898094177246e-01,-3.769200086593627930e+00,7.278108596801757812e+00,1.439892351627349854e-01,5.997985839843750000e+00,5.723441600799560547e+00,2.156444787979125977e-01,1.323113632202148438e+01,1.355253696441650391e+01,7.561505436897277832e-01,-2.791159868240356445e+00,1.210682868957519531e+01,9.116337776184082031e+00,-5.552154034376144409e-02
-4.306180953979492188e+00,-1.845605254173278809e+00,-1.458996582031250000e+01,-4.033022880554199219e+00,1.618712806701660156e+01,-5.620820522308349609e+00,-1.776628017425537109e+00,-6.326454877853393555e-01,-4.828907012939453125e+00,5.262193202972412109e+00,4.332936704158782959e-01,4.408734321594238281e+00,4.589018821716308594e+00,-3.488035798072814941e-01,1.224121665954589844e+01,1.185078144073486328e+01,-2.423296928405761719e+00,-4.262537002563476562e+00,1.132913684844970703e+01,9.951303482055664062e+00,-5.542627722024917603e-02
-5.617350578308105469e+00,-4.481271743774414062e+00,-1.766150856018066406e+01,-7.348301887512207031e+00,1.461871623992919922e+01,-8.108291625976562500e+00,-3.056072235107421875e+00,-2.622740745544433594e+00,-6.392706871032714844e+00,2.788709402084350586e+00,6.771806627511978149e-02,2.440741062164306641e+00,2.614761590957641602e+00,-1.385511875152587891e+00,1.050803947448730469e+01,9.648210525512695312e+00,-5.796731472015380859e+00,-6.208897113800048828e+00,9.501720428466796875e+00,1.031295680999755859e+01,-5.595022067427635193e-02
-7.386259078979492188e+00,-6.950621128082275391e+00,-2.020120620727539062e+01,-1.040375995635986328e+01,1.292227077484130859e+01,-1.049326133728027344e+01,-4.563100814819335938e+00,-4.691294670104980469e+00,-8.270680427551269531e+00,2.563952803611755371e-01,-8.326324224472045898e-01,5.826039314270019531e-01,1.030100658535957336e-01,-2.566162586212158203e+00,8.263567924499511719e+00,7.317879199981689453e+00,-8.807410240173339844e+00,-8.336203575134277344e+00,6.928615570068359375e+00,1.013368129730224609e+01,-5.680758133530616760e-02
-9.388134002685546875e+00,-8.822845458984375000e+00,-2.185550308227539062e+01,-1.277567386627197266e+01,1.128806400299072266e+01,-1.243436717987060547e+01,-6.087341308593750000e+00,-6.550978660583496094e+00,-1.023351192474365234e+01,-2.006607294082641602e+00,-2.072257995605468750e+00,-8.235539197921752930e-01,-2.571540117263793945e+00,-3.630365371704101562e+00,5.834506988525390625e+00,5.161301136016845703e+00,-1.103826045989990234e+01,-1.037660789489746094e+01,4.075478076934814453e+00,9.403551101684570312e+00,-5.790309607982635498e-02
-1.141108226776123047e+01,-9.901597976684570312e+00,-2.251296806335449219e+01,-1.425823688507080078e+01,9.854798316955566406e+00,-1.380073738098144531e+01,-7.471015453338623047e+00,-8.165743827819824219e+00,-1.207814979553222656e+01,-3.815963268280029297e+00,-3.439002275466918945e+00,-1.634396433830261230e+00,-5.026441574096679688e+00,-4.435795783996582031e+00,3.570432662963867188e+00,3.377780199050903320e+00,-1.229141712188720703e+01,-1.214440345764160156e+01,1.420763969421386719e+00,8.175914764404296875e+00,-5.957018584012985229e-02
-1.329237651824951172e+01,-1.020882320404052734e+01,-2.229820251464843750e+01,-1.486355495452880859e+01,8.691825866699218750e+00,-1.461616706848144531e+01,-8.636667251586914062e+00,-9.655399322509765625e+00,-1.366114330291748047e+01,-5.131145477294921875e+00,-4.734735488891601562e+00,-1.883403539657592773e+00,-6.946432590484619141e+00,-4.961427688598632812e+00,1.762113690376281738e+00,2.047379255294799805e+00,-1.260276603698730469e+01,-1.355863952636718750e+01,-6.818848848342895508e-01,6.572357654571533203e+00,-6.254713237285614014e-02
-1.492782688140869141e+01,-9.915457725524902344e+00,-2.149587440490722656e+01,-1.476111602783203125e+01,7.795590877532958984e+00,-1.497583389282226562e+01,-9.597684860229492188e+00,-1.118004417419433594e+01,-1.490773773193359375e+01,-6.017520904541015625e+00,-5.820065498352050781e+00,-1.733790040016174316e+00,-8.146749496459960938e+00,-5.281659126281738281e+00,5.778035521507263184e-01,1.120697975158691406e+00,-1.218375396728515625e+01,-1.462288761138916016e+01,-2.090051412582397461e+00,4.777738571166992188e+00,-6.766747683286666870e-02
-1.624953269958496094e+01,-9.251343727111816406e+00,-2.045244026184082031e+01,-1.419398021697998047e+01,7.096740722656250000e+00,-1.497766494750976562e+01,-1.043917274475097656e+01,-1.282237625122070312e+01,-1.581086254119873047e+01,-6.586213111877441406e+00,-6.628364562988281250e+00,-1.415730476379394531e+00,-8.600260734558105469e+00,-5.519406318664550781e+00,1.260171364992856979e-02,4.410181343555450439e-01,-1.133991050720214844e+01,-1.538833713531494141e+01,-2.906148195266723633e+00,3.015376567840576172e+00,-7.564569264650344849e-02
-1.722705650329589844e+01,-8.449786186218261719e+00,-1.949106407165527344e+01,-1.340427303314208984e+01,6.518811225891113281e+00,-1.469944858551025391e+01,-1.128161716461181641e+01,-1.455589008331298828e+01,-1.642405891418457031e+01,-6.945731163024902344e+00,-7.178919792175292969e+00,-1.188694596290588379e+00,-8.450382232666015625e+00,-5.829933643341064453e+00,-1.278819739818572998e-01,-2.267374992370605469e-01,-1.038840389251708984e+01,-1.592165184020996094e+01,-3.403806924819946289e+00,1.514794468879699707e+00,-8.602927625179290771e-02
-1.785454559326171875e+01,-7.703669071197509766e+00,-1.885284614562988281e+01,-1.259314727783203125e+01,5.990672111511230469e+00,-1.422446823120117188e+01,-1.225028514862060547e+01,-1.625547599792480469e+01,-1.684733390808105469e+01,-7.179744720458984375e+00,-7.570795536041259766e+00,-1.298550724983215332e+00,-7.977490901947021484e+00,-6.376591205596923828e+00,-1.785214394330978394e-01,-1.160232663154602051e+00,-9.599846839904785156e+00,-1.628830528259277344e+01,-3.947871446609497070e+00,4.701560735702514648e-01,-9.717496484518051147e-02
-1.814721679687500000e+01,-7.172377586364746094e+00,-1.867961692810058594e+01,-1.189563465118408203e+01,5.469646453857421875e+00,-1.366071414947509766e+01,-1.344175529479980469e+01,-1.775149345397949219e+01,-1.721706962585449219e+01,-7.344469070434570312e+00,-7.958288192749023438e+00,-1.939900994300842285e+00,-7.538192749023437500e+00,-7.288765430450439453e+00,-5.280971527099609375e-01,-2.606468677520751953e+00,-9.161436080932617188e+00,-1.654067802429199219e+01,-4.869580268859863281e+00,1.297170016914606094e-02,-1.060343533754348755e-01
-1.814604568481445312e+01,-6.961016178131103516e+00,-1.900075149536132812e+01,-1.137785530090332031e+01,4.961068630218505859e+00,-1.314272022247314453e+01,-1.490192794799804688e+01,-1.887112045288085938e+01,-1.767368316650390625e+01,-7.466051578521728516e+00,-8.512350082397460938e+00,-3.202722787857055664e+00,-7.473590373992919922e+00,-8.645705223083496094e+00,-1.518017053604125977e+00,-4.722164154052734375e+00,-9.161436080932617188e+00,-1.672043228149414062e+01,-6.373758316040039062e+00,1.965898424386978149e-01,-1.082968339323997498e-01
-1.789903068542480469e+01,-7.106543540954589844e+00,-1.973925971984863281e+01,-1.102863407135009766e+01,4.512950897216796875e+00,-1.279037380218505859e+01,-1.660211563110351562e+01,-1.948924827575683594e+01,-1.833031845092773438e+01,-7.545799255371093750e+00,-9.376756668090820312e+00,-5.034703731536865234e+00,-8.021420478820800781e+00,-1.043285369873046875e+01,-3.336137294769287109e+00,-7.498801231384277344e+00,-9.582387924194335938e+00,-1.683471488952636719e+01,-8.494009017944335938e+00,1.001780271530151367e+00,-9.917546808719635010e-02
-1.743778038024902344e+01,-7.544281482696533203e+00,-2.071988296508789062e+01,-1.076788139343261719e+01,4.219540119171142578e+00,-1.265309619903564453e+01,-1.843809127807617188e+01,-1.956452560424804688e+01,-1.923546409606933594e+01,-7.560179710388183594e+00,-1.062339591979980469e+01,-7.223455429077148438e+00,-9.260499954223632812e+00,-1.253699970245361328e+01,-5.964488983154296875e+00,-1.075922012329101562e+01,-1.030498981475830078e+01,-1.686685752868652344e+01,-1.109111690521240234e+01,2.342936992645263672e+00,-7.431202381849288940e-02
-1.676112365722656250e+01,-8.107912063598632812e+00,-2.168429946899414062e+01,-1.046708488464355469e+01,4.199979782104492188e+00,-1.267506122589111328e+01,-2.023007774353027344e+01,-1.917435264587402344e+01,-2.034264945983886719e+01,-7.472588062286376953e+00,-1.223122692108154297e+01,-9.440455436706542969e+00,-1.109650707244873047e+01,-1.475759315490722656e+01,-9.193980216979980469e+00,-1.419509601593017578e+01,-1.112943458557128906e+01,-1.677162170410156250e+01,-1.390424919128417969e+01,4.082346916198730469e+00,-3.065809234976768494e-02
-1.582457256317138672e+01,-8.561820030212402344e+00,-2.233568572998046875e+01,-9.987486839294433594e+00,4.584080696105957031e+00,-1.270892238616943359e+01,-2.174953651428222656e+01,-1.852547836303710938e+01,-2.151651000976562500e+01,-7.251647949218750000e+00,-1.409066581726074219e+01,-1.132474899291992188e+01,-1.329429054260253906e+01,-1.686982536315917969e+01,-1.268483638763427734e+01,-1.746062469482421875e+01,-1.180838966369628906e+01,-1.648948860168457031e+01,-1.662297058105468750e+01,6.046316623687744141e+00,3.250078484416007996e-02
-1.455554771423339844e+01,-8.654218673706054688e+00,-2.240558624267578125e+01,-9.225718498229980469e+00,5.474981307983398438e+00,-1.257073020935058594e+01,-2.275645446777343750e+01,-1.792431449890136719e+01,-2.255702209472656250e+01,-6.881671428680419922e+00,-1.602900505065917969e+01,-1.258547878265380859e+01,-1.555796718597412109e+01,-1.868285179138183594e+01,-1.607768058776855469e+01,-2.027644157409667969e+01,-1.210518932342529297e+01,-1.595974540710449219e+01,-1.895124626159667969e+01,8.045024871826171875e+00,1.132593601942062378e-01
-1.288380622863769531e+01,-8.211860656738281250e+00,-2.172178268432617188e+01,-8.152908325195312500e+00,6.910024642944335938e+00,-1.212045955657958984e+01,-2.305001831054687500e+01,-1.769848060607910156e+01,-2.324901390075683594e+01,-6.388804912567138672e+00,-1.785074615478515625e+01,-1.308244705200195312e+01,-1.759941101074218750e+01,-2.008831214904785156e+01,-1.908337783813476562e+01,-2.250967597961425781e+01,-1.183651733398437500e+01,-1.515263080596923828e+01,-2.067304992675781250e+01,9.897954940795898438e+00,2.067830860614776611e-01
-1.079295921325683594e+01,-7.202407360076904297e+00,-2.026502799987792969e+01,-6.831453323364257812e+00,8.837642669677734375e+00,-1.131875801086425781e+01,-2.252695655822753906e+01,-1.806426811218261719e+01,-2.342074966430664062e+01,-5.835800647735595703e+00,-1.939019584655761719e+01,-1.285854911804199219e+01,-1.921189308166503906e+01,-2.107326507568359375e+01,-2.155981254577636719e+01,-2.419950675964355469e+01,-1.091992855072021484e+01,-1.408481121063232422e+01,-2.168437004089355469e+01,1.145995044708251953e+01,3.056653141975402832e-01
-8.357929229736328125e+00,-5.737891197204589844e+00,-1.818322563171386719e+01,-5.388934612274169922e+00,1.109957027435302734e+01,-1.023701000213623047e+01,-2.121882629394531250e+01,-1.901637458801269531e+01,-2.299444198608398438e+01,-5.305021286010742188e+00,-2.054741477966308594e+01,-1.209792709350585938e+01,-2.030367851257324219e+01,-2.170240783691406250e+01,-2.351514816284179688e+01,-2.551287269592285156e+01,-9.385491371154785156e+00,-1.282414150238037109e+01,-2.201881027221679688e+01,1.264106178283691406e+01,4.006417691707611084e-01
-5.769539833068847656e+00,-4.044689178466796875e+00,-1.574787235260009766e+01,-3.979941129684448242e+00,1.344329643249511719e+01,-9.007002830505371094e+00,-1.931017875671386719e+01,-2.027277565002441406e+01,-2.200747108459472656e+01,-4.889287948608398438e+00,-2.130924987792968750e+01,-1.104644680023193359e+01,-2.090060806274414062e+01,-2.206630706787109375e+01,-2.508497238159179688e+01,-2.666952133178710938e+01,-7.367056369781494141e+00,-1.148609256744384766e+01,-2.184918975830078125e+01,1.340344905853271484e+01,4.815908670425415039e-01
-3.302901983261108398e+00,-2.381516456604003906e+00,-1.328010177612304688e+01,-2.729261398315429688e+00,1.557185554504394531e+01,-7.758691310882568359e+00,-1.710700988769531250e+01,-2.132878684997558594e+01,-2.060530281066894531e+01,-4.650044918060302734e+00,-2.174671363830566406e+01,-9.931146621704101562e+00,-2.112025642395019531e+01,-2.223612594604492188e+01,-2.646857261657714844e+01,-2.785512733459472656e+01,-5.069280147552490234e+00,-1.020994758605957031e+01,-2.145234298706054688e+01,1.375083446502685547e+01,5.389149188995361328e-01
-1.269418120384216309e+00,-9.435651302337646484e-01,-1.105242252349853516e+01,-1.698358774185180664e+00,1.720428466796875000e+01,-6.559799671173095703e+00,-1.497077751159667969e+01,-2.160339164733886719e+01,-1.899907493591308594e+01,-4.617361545562744141e+00,-2.198341560363769531e+01,-8.899545669555664062e+00,-2.112154960632324219e+01,-2.222965621948242188e+01,-2.785054016113281250e+01,-2.915486717224121094e+01,-2.725916624069213867e+00,-9.129033088684082031e+00,-2.116430854797363281e+01,1.370182895660400391e+01,5.649691820144653320e-01
7.336013019084930420e-02,1.860062927007675171e-01,-9.226920127868652344e+00,-8.686077594757080078e-01,1.815920257568359375e+01,-5.394770145416259766e+00,-1.323042678833007812e+01,-2.064386367797851562e+01,-1.739890670776367188e+01,-4.761168956756591797e+00,-2.214384841918945312e+01,-8.002910614013671875e+00,-2.105565452575683594e+01,-2.203072547912597656e+01,-2.933215332031250000e+01,-3.053977775573730469e+01,-5.590814948081970215e-01,-8.345726966857910156e+00,-2.128752326965332031e+01,1.327255916595458984e+01,5.555620193481445312e-01
6.025107502937316895e-01,1.051087021827697754e+00,-7.826895713806152344e+00,-1.636454015970230103e-01,1.840282249450683594e+01,-4.193133354187011719e+00,-1.209633064270019531e+01,-1.829222106933593750e+01,-1.595633220672607422e+01,-5.000411510467529297e+00,-2.230603408813476562e+01,-7.227640628814697266e+00,-2.101172447204589844e+01,-2.159566307067871094e+01,-3.089544296264648438e+01,-3.187869644165039062e+01,1.261486768722534180e+00,-7.888600349426269531e+00,-2.200120735168457031e+01,1.248163604736328125e+01,5.107411146163940430e-01
3.742267489433288574e-01,1.778725147247314453e+00,-6.765227317810058594e+00,5.208293199539184570e-01,1.807562446594238281e+01,-2.880759000778198242e+00,-1.161534404754638672e+01,-1.475733757019042969e+01,-1.472084999084472656e+01,-5.205663681030273438e+00,-2.247435760498046875e+01,-6.529792785644531250e+00,-2.098329925537109375e+01,-2.089374160766601562e+01,-3.238522338867187500e+01,-3.297742843627929688e+01,2.634914875030517578e+00,-7.712415695190429688e+00,-2.328936004638671875e+01,1.136752128601074219e+01,4.352219700813293457e-01
-3.808665275573730469e-01,2.509828090667724609e+00,-5.906167984008789062e+00,1.265835762023925781e+00,1.744612503051757812e+01,-1.432022452354431152e+00,-1.167367458343505859e+01,-1.057039833068847656e+01,-1.363588809967041016e+01,-5.220044612884521484e+00,-2.256290245056152344e+01,-5.877980232238769531e+00,-2.086572265625000000e+01,-1.992819595336914062e+01,-3.354176330566406250e+01,-3.363325881958007812e+01,3.535014867782592773e+00,-7.698130607604980469e+00,-2.491835212707519531e+01,1.000837421417236328e+01,3.377210497856140137e-01
-1.329123258590698242e+00,3.326399564743041992e+00,-5.133216381072998047e+00,2.099311828613281250e+00,1.684507942199707031e+01,9.633530676364898682e-02,-1.205043125152587891e+01,-6.448133945465087891e+00,-1.257315063476562500e+01,-4.901053905487060547e+00,-2.244542694091796875e+01,-5.272202014923095703e+00,-2.049102592468261719e+01,-1.874754524230957031e+01,-3.406285858154296875e+01,-3.367073440551757812e+01,4.001553535461425781e+00,-7.682654857635498047e+00,-2.648013687133789062e+01,8.531365394592285156e+00,2.295745760202407837e-01
-2.129873275756835938e+00,4.211114883422851562e+00,-4.391669750213623047e+00,2.963519334793090820e+00,1.655700302124023438e+01,1.570697188377380371e+00,-1.250368785858154297e+01,-3.107276439666748047e+00,-1.139019870758056641e+01,-4.165022373199462891e+00,-2.200182723999023438e+01,-4.746985435485839844e+00,-1.968349266052246094e+01,-1.744235992431640625e+01,-3.368387985229492188e+01,-3.298764801025390625e+01,4.110186100006103516e+00,-7.511232376098632812e+00,-2.749465751647949219e+01,7.094056606292724609e+00,1.226665079593658447e-01
-2.543125867843627930e+00,5.043856620788574219e+00,-3.705840110778808594e+00,3.722494602203369141e+00,1.673482704162597656e+01,2.808026313781738281e+00,-1.284888839721679688e+01,-1.109759449958801270e+00,-9.990052223205566406e+00,-3.025023698806762695e+00,-2.116897964477539062e+01,-4.369289875030517578e+00,-1.832296180725097656e+01,-1.612585449218750000e+01,-3.225617599487304688e+01,-3.157548141479492188e+01,3.950146913528442383e+00,-7.079104900360107422e+00,-2.756346511840820312e+01,5.841607093811035156e+00,2.747569978237152100e-02
-2.490444898605346680e+00,5.639826774597167969e+00,-3.149679899215698242e+00,4.178811073303222656e+00,1.736610412597656250e+01,3.625285863876342773e+00,-1.299901771545410156e+01,-7.450323700904846191e-01,-8.353517532348632812e+00,-1.600024938583374023e+00,-1.997932624816894531e+01,-4.217583656311035156e+00,-1.639392662048339844e+01,-1.491447448730468750e+01,-2.979771041870117188e+01,-2.952622032165527344e+01,3.591270923614501953e+00,-6.366034507751464844e+00,-2.647373771667480469e+01,4.868927478790283203e+00,-4.863884299993515015e-02
-2.049095869064331055e+00,5.816538810729980469e+00,-2.804232597351074219e+00,4.130385875701904297e+00,1.829790496826171875e+01,3.895265102386474609e+00,-1.296172428131103516e+01,-1.987649083137512207e+00,-6.541206836700439453e+00,-9.658604860305786133e-02,-1.855559730529785156e+01,-4.364058494567871094e+00,-1.401008796691894531e+01,-1.390202617645263672e+01,-2.651758003234863281e+01,-2.702894973754882812e+01,3.082055091857910156e+00,-5.438686370849609375e+00,-2.427507591247558594e+01,4.195247173309326172e+00,-1.022000461816787720e-01
-1.401705861091613770e+00,5.478129386901855469e+00,-2.712045669555664062e+00,3.439392328262329102e+00,1.929549980163574219e+01,3.596915006637573242e+00,-1.279342746734619141e+01,-4.498328685760498047e+00,-4.662222862243652344e+00,1.259123682975769043e+00,-1.706962394714355469e+01,-4.847425460815429688e+00,-1.138334369659423828e+01,-1.313864707946777344e+01,-2.277025794982910156e+01,-2.433407974243164062e+01,2.461296558380126953e+00,-4.417293548583984375e+00,-2.125712013244628906e+01,3.780865669250488281e+00,-1.335889548063278198e-01
-7.426089048385620117e-01,4.666177749633789062e+00,-2.847793340682983398e+00,2.101174354553222656e+00,2.014727973937988281e+01,2.851039886474609375e+00,-1.254289340972900391e+01,-7.670606136322021484e+00,-2.834758996963500977e+00,2.295842885971069336e+00,-1.568885326385498047e+01,-5.641527652740478516e+00,-8.774687767028808594e+00,-1.260977935791015625e+01,-1.899353408813476562e+01,-2.170393943786621094e+01,1.779432177543640137e+00,-3.429232835769653320e+00,-1.786151695251464844e+01,3.562509059906005859e+00,-1.460683196783065796e-01
-1.958979368209838867e-01,3.587425231933593750e+00,-3.111184358596801758e+00,2.945335805416107178e-01,2.074121284484863281e+01,1.919382333755493164e+00,-1.221012306213378906e+01,-1.072095394134521484e+01,-1.148724198341369629e+00,2.961277961730957031e+00,-1.452199172973632812e+01,-6.632325172424316406e+00,-6.420567035675048828e+00,-1.222647285461425781e+01,-1.560559082031250000e+01,-1.935487174987792969e+01,1.127635717391967773e+00,-2.557834863662719727e+00,-1.455872726440429688e+01,3.504197835922241211e+00,-1.445441246032714844e-01
2.185253500938415527e-01,2.566422224044799805e+00,-3.348236322402954102e+00,-1.632239460945129395e+00,2.108975028991699219e+01,1.162524938583374023e+00,-1.173200511932373047e+01,-1.283509922027587891e+01,3.494122624397277832e-01,3.336484193801879883e+00,-1.359008121490478516e+01,-7.614752292633056641e+00,-4.481194972991943359e+00,-1.183831310272216797e+01,-1.292169857025146484e+01,-1.741633605957031250e+01,6.397583484649658203e-01,-1.812622904777526855e+00,-1.172319126129150391e+01,3.616477727890014648e+00,-1.342557966709136963e-01
5.709022283554077148e-01,1.964677095413208008e+00,-3.393823146820068359e+00,-3.235865831375122070e+00,2.131203079223632812e+01,9.483718276023864746e-01,-1.101387119293212891e+01,-1.335568332672119141e+01,1.639446139335632324e+00,3.605795860290527344e+00,-1.282736968994140625e+01,-8.333524703979492188e+00,-3.003085851669311523e+00,-1.128195190429687500e+01,-1.108234214782714844e+01,-1.589855384826660156e+01,4.748693704605102539e-01,-1.142408251762390137e+00,-9.564536094665527344e+00,3.946494340896606445e+00,-1.197283044457435608e-01
9.595704078674316406e-01,2.062850475311279297e+00,-3.116249561309814453e+00,-4.088898181915283203e+00,2.156809806823730469e+01,1.533174633979797363e+00,-9.967748641967773438e+00,-1.197523403167724609e+01,2.706224203109741211e+00,3.965313673019409180e+00,-1.211199855804443359e+01,-8.546959877014160156e+00,-1.922929406166076660e+00,-1.040212440490722656e+01,-1.002708148956298828e+01,-1.470954036712646484e+01,7.629401087760925293e-01,-4.626702368259429932e-01,-8.114764213562011719e+00,4.528985500335693359e+00,-1.042958199977874756e-01
1.438381433486938477e+00,2.946410894393920898e+00,-2.460811376571655273e+00,-3.928721904754638672e+00,2.199131965637207031e+01,2.954455614089965820e+00,-8.558256149291992188e+00,-8.872933387756347656e+00,3.517420291900634766e+00,4.544464588165283203e+00,-1.130720615386962891e+01,-8.111720085144042969e+00,-1.094723343849182129e+00,-9.135755538940429688e+00,-9.517419815063476562e+00,-1.369257545471191406e+01,1.554407238960266113e+00,2.884938716888427734e-01,-7.260263442993164062e+00,5.329833507537841797e+00,-8.986358344554901123e-02
1.965190768241882324e+00,4.458281040191650391e+00,-1.468029975891113281e+00,-2.745092868804931641e+00,2.260481452941894531e+01,4.973351955413818359e+00,-6.825555801391601562e+00,-4.720981597900390625e+00,4.011411190032958984e+00,5.330174922943115234e+00,-1.030691432952880859e+01,-7.039315700531005859e+00,-3.440403640270233154e-01,-7.526512622833251953e+00,-9.198881149291992188e+00,-1.266879653930664062e+01,2.772645711898803711e+00,1.117036223411560059e+00,-6.831412792205810547e+00,6.215667247772216797e+00,-7.731278240680694580e-02
2.396003723144531250e+00,6.205767154693603516e+00,-2.797314226627349854e-01,-8.118010163307189941e-01,2.332500267028808594e+01,7.110307216644287109e+00,-4.887264728546142578e+00,-5.372227430343627930e-01,4.116472721099853516e+00,6.172100543975830078e+00,-9.068164825439453125e+00,-5.517024517059326172e+00,4.802896082401275635e-01,-5.745832920074462891e+00,-8.699020385742187500e+00,-1.150533485412597656e+01,4.217849254608154297e+00,1.946768999099731445e+00,-6.663392543792724609e+00,6.966888904571533203e+00,-6.669104099273681641e-02
2.516584396362304688e+00,7.665663242340087891e+00,8.933714032173156738e-01,1.385968089103698730e+00,2.397584152221679688e+01,8.757638931274414062e+00,-2.918374300003051758e+00,2.591584205627441406e+00,3.775022745132446289e+00,6.828384399414062500e+00,-7.624273300170898438e+00,-3.858720541000366211e+00,1.470002412796020508e+00,-4.047636508941650391e+00,-7.728703022003173828e+00,-1.013745784759521484e+01,5.596127033233642578e+00,2.645554065704345703e+00,-6.650591373443603516e+00,7.337846755981445312e+00,-5.766494199633598328e-02
2.118550777435302734e+00,8.315917968750000000e+00,1.813213706016540527e+00,3.276422023773193359e+00,2.434571647644042969e+01,9.360745429992675781e+00,-1.103437542915344238e+00,3.835261344909667969e+00,2.970898389816284180e+00,7.054553985595703125e+00,-6.069042682647705078e+00,-2.422221422195434570e+00,2.628974199295043945e+00,-2.718191623687744141e+00,-6.152345180511474609e+00,-8.594124794006347656e+00,6.594190120697021484e+00,3.059825181961059570e+00,-6.756203651428222656e+00,7.145544052124023438e+00,-4.973435774445533752e-02
1.067273616790771484e+00,7.784626483917236328e+00,2.261991500854492188e+00,4.362268924713134766e+00,2.425680351257324219e+01,8.577347755432128906e+00,3.902036249637603760e-01,2.865129709243774414e+00,1.757640242576599121e+00,6.695035934448242188e+00,-4.535728931427001953e+00,-1.504661679267883301e+00,3.884850025177001953e+00,-1.987158536911010742e+00,-4.025487422943115234e+00,-6.974135875701904297e+00,6.957915782928466797e+00,3.065777301788330078e+00,-6.991431713104248047e+00,6.344075679779052734e+00,-4.261350631713867188e-02
-6.431005001068115234e-01,5.948206424713134766e+00,2.087748050689697266e+00,4.345506191253662109e+00,2.361841392517089844e+01,6.386396884918212891e+00,1.452582240104675293e+00,-5.904855579137802124e-02,2.534426152706146240e-01,5.732835292816162109e+00,-3.156711339950561523e+00,-1.269255757331848145e+00,5.116176605224609375e+00,-1.974219918251037598e+00,-1.565389513969421387e+00,-5.420581817626953125e+00,6.555392742156982422e+00,2.613412380218505859e+00,-7.383478164672851562e+00,5.058128356933593750e+00,-3.618330135941505432e-02
-2.870918273925781250e+00,2.966045618057250977e+00,1.247936129570007324e+00,3.187021255493164062e+00,2.246966743469238281e+01,3.101800441741943359e+00,2.052142381668090820e+00,-4.189795017242431641e+00,-1.368949174880981445e+00,4.301299571990966797e+00,-2.034560918807983398e+00,-1.711818814277648926e+00,6.188580989837646484e+00,-2.651880979537963867e+00,9.175780415534973145e-01,-4.074849605560302734e+00,5.407959461212158203e+00,1.745585560798645020e+00,-7.935543060302734375e+00,3.552583694458007812e+00,-3.051519766449928284e-02
-5.345751285552978516e+00,-7.633880972862243652e-01,-1.804533004760742188e-01,1.101003170013427734e+00,2.096882820129394531e+01,-7.319064736366271973e-01,2.241477251052856445e+00,-8.552736282348632812e+00,-2.908504009246826172e+00,2.626599550247192383e+00,-1.207851529121398926e+00,-2.679598569869995117e+00,6.999990463256835938e+00,-3.845470428466796875e+00,3.114677429199218750e+00,-3.035740137100219727e+00,3.684384822845458984e+00,5.884833335876464844e-01,-8.612422943115234375e+00,2.153735876083374023e+00,-2.599024213850498199e-02
-7.728099822998046875e+00,-4.696098327636718750e+00,-2.001903057098388672e+00,-1.524213433265686035e+00,1.937730026245117188e+01,-4.473179817199707031e+00,2.142984867095947266e+00,-1.223181533813476562e+01,-4.172272682189941406e+00,9.675872325897216797e-01,-6.458995342254638672e-01,-3.922541856765747070e+00,7.505183219909667969e+00,-5.286510944366455078e+00,4.798848152160644531e+00,-2.337322235107421875e+00,1.659160137176513672e+00,-6.698058247566223145e-01,-9.343709945678710938e+00,1.144456505775451660e+00,-2.301329560577869415e-02
-9.681977272033691406e+00,-8.266144752502441406e+00,-3.929722547531127930e+00,-4.229518413543701172e+00,1.799204635620117188e+01,-7.550944328308105469e+00,1.927831649780273438e+00,-1.462586688995361328e+01,-5.004682540893554688e+00,-4.613333940505981445e-01,-2.610369622707366943e-01,-5.161299705505371094e+00,7.717080116271972656e+00,-6.661241054534912109e+00,5.872078418731689453e+00,-1.945526957511901855e+00,-3.553951084613800049e-01,-1.830479383468627930e+00,-1.003979206085205078e+01,6.835501194000244141e-01,-2.182251773774623871e-02
-1.096387958526611328e+01,-1.101961898803710938e+01,-5.649868011474609375e+00,-6.583738803863525391e+00,1.707625007629394531e+01,-9.590889930725097656e+00,1.760490298271179199e+00,-1.554510593414306641e+01,-5.325928688049316406e+00,-1.543809413909912109e+00,6.158130243420600891e-02,-6.153143405914306641e+00,7.688654899597167969e+00,-7.697949409484863281e+00,6.358870506286621094e+00,-1.781994938850402832e+00,-2.075090169906616211e+00,-2.728066921234130859e+00,-1.062226104736328125e+01,7.623322606086730957e-01,-2.241790667176246643e-02
-1.148366451263427734e+01,-1.267817211151123047e+01,-6.893883705139160156e+00,-8.277697563171386719e+00,1.677572822570800781e+01,-1.047129726409912109e+01,1.759534120559692383e+00,-1.520052337646484375e+01,-5.150152683258056641e+00,-2.277226209640502930e+00,4.192667901515960693e-01,-6.737996101379394531e+00,7.466421604156494141e+00,-8.223581314086914062e+00,6.368671894073486328e+00,-1.761553406715393066e+00,-3.307877779006958008e+00,-3.274476289749145508e+00,-1.105591297149658203e+01,1.227580904960632324e+00,-2.444222941994667053e-02
-1.133849906921386719e+01,-1.321408367156982422e+01,-7.506774425506591797e+00,-9.172636032104492188e+00,1.707625007629394531e+01,-1.031480121612548828e+01,1.952693819999694824e+00,-1.406817340850830078e+01,-4.597569465637207031e+00,-2.764863252639770508e+00,8.532234430313110352e-01,-6.872962474822998047e+00,7.060716629028320312e+00,-8.209025382995605469e+00,6.017462730407714844e+00,-1.836505651473999023e+00,-3.995561838150024414e+00,-3.479231119155883789e+00,-1.135834789276123047e+01,1.837987184524536133e+00,-2.715720422565937042e-02
-1.078476428985595703e+01,-1.282023429870605469e+01,-7.495630741119384766e+00,-9.305806159973144531e+00,1.778754806518554688e+01,-9.422495841979980469e+00,2.269207954406738281e+00,-1.272165203094482422e+01,-3.873251438140869141e+00,-3.179289579391479492e+00,1.318740606307983398e+00,-6.632325172424316406e+00,6.427610874176025391e+00,-7.754556179046630859e+00,5.388553142547607422e+00,-2.008554935455322266e+00,-4.206037521362304688e+00,-3.441137075424194336e+00,-1.159517669677734375e+01,2.352241992950439453e+00,-2.972928434610366821e-02
-1.015727615356445312e+01,-1.184427547454833984e+01,-7.015449047088623047e+00,-8.859733581542968750e+00,1.860554122924804688e+01,-8.169609069824218750e+00,2.574247360229492188e+00,-1.165821838378906250e+01,-3.217627286911010742e+00,-3.700917482376098633e+00,1.715876698493957520e+00,-6.179299354553222656e+00,5.489580154418945312e+00,-7.062338829040527344e+00,4.516247272491455078e+00,-2.328804969787597656e+00,-4.100314617156982422e+00,-3.314951181411743164e+00,-1.184320545196533203e+01,2.597273111343383789e+00,-3.137255832552909851e-02
-9.763924598693847656e+00,-1.068236446380615234e+01,-6.307332515716552734e+00,-8.096101760864257812e+00,1.920303153991699219e+01,-6.898417949676513672e+00,2.725332736968994141e+00,-1.117580318450927734e+01,-2.834758996963500977e+00,-4.460481166839599609e+00,1.915759682655334473e+00,-5.712672710418701172e+00,4.188482284545898438e+00,-6.344244480133056641e+00,3.418514251708984375e+00,-2.834732055664062500e+00,-3.860740661621093750e+00,-3.241144180297851562e+00,-1.214884185791015625e+01,2.512907981872558594e+00,-3.158690035343170166e-02
-9.775631904602050781e+00,-9.660206794738769531e+00,-5.603268146514892578e+00,-7.261694908142089844e+00,1.933640098571777344e+01,-5.841380119323730469e+00,2.653614997863769531e+00,-1.130091285705566406e+01,-2.817585468292236328e+00,-5.478897571563720703e+00,1.834228396415710449e+00,-5.379965782165527344e+00,2.543698549270629883e+00,-5.749067306518554688e+00,2.141093015670776367e+00,-3.505894660949707031e+00,-3.612437248229980469e+00,-3.285190343856811523e+00,-1.247368049621582031e+01,2.148773431777954102e+00,-3.034848906099796295e-02
-1.018185997009277344e+01,-8.947583198547363281e+00,-5.035964488983154297e+00,-6.529726028442382812e+00,1.893095970153808594e+01,-5.070795059204101562e+00,2.404037475585937500e+00,-1.179499053955078125e+01,-3.111555576324462891e+00,-6.642428398132324219e+00,1.481803059577941895e+00,-5.225121021270751953e+00,7.115671634674072266e-01,-5.296215057373046875e+00,8.015972971916198730e-01,-4.211126327514648438e+00,-3.378683090209960938e+00,-3.397091150283813477e+00,-1.268490505218505859e+01,1.631416797637939453e+00,-2.810982614755630493e-02
-1.081169033050537109e+01,-8.536410331726074219e+00,-4.603395462036132812e+00,-5.954208374023437500e+00,1.808095932006835938e+01,-4.527175426483154297e+00,2.136291265487670898e+00,-1.223287487030029297e+01,-3.522709608078002930e+00,-7.731441020965576172e+00,9.733285903930664062e-01,-5.152929782867431641e+00,-1.044333219528198242e+00,-4.887030601501464844e+00,-3.990481495857238770e-01,-4.720460414886474609e+00,-3.082852840423583984e+00,-3.433994531631469727e+00,-1.257129192352294922e+01,1.109097599983215332e+00,-2.563300728797912598e-02
-1.143098354339599609e+01,-8.274230003356933594e+00,-4.192100524902343750e+00,-5.495098114013671875e+00,1.699622917175292969e+01,-4.077820301055908203e+00,2.059792280197143555e+00,-1.214805507659912109e+01,-3.801526784896850586e+00,-8.500156402587890625e+00,4.972912967205047607e-01,-4.970882892608642578e+00,-2.419077873229980469e+00,-4.346842288970947266e+00,-1.240316748619079590e+00,-4.781785011291503906e+00,-2.603704690933227539e+00,-3.226859092712402344e+00,-1.193121623992919922e+01,6.909941434860229492e-01,-2.375157736241817474e-02
-1.185945510864257812e+01,-7.967004776000976562e+00,-3.666331529617309570e+00,-5.076962947845458984e+00,1.588482666015625000e+01,-3.601924180984497070e+00,2.329450845718383789e+00,-1.122351455688476562e+01,-3.756067276000976562e+00,-8.787770271301269531e+00,2.316572368144989014e-01,-4.480192184448242188e+00,-3.173636913299560547e+00,-3.552733659744262695e+00,-1.558855295181274414e+00,-4.233271598815917969e+00,-1.869463920593261719e+00,-2.687592267990112305e+00,-1.065906524658203125e+01,4.118449091911315918e-01,-2.308474294841289520e-02
-1.205964279174804688e+01,-7.464587688446044922e+00,-2.971384525299072266e+00,-4.668140888214111328e+00,1.488189697265625000e+01,-3.070202112197875977e+00,2.954829454421997070e+00,-9.445469856262207031e+00,-3.360066413879394531e+00,-8.607357978820800781e+00,2.667244374752044678e-01,-3.585649728775024414e+00,-3.255036354064941406e+00,-2.516025304794311523e+00,-1.346496224403381348e+00,-3.117506265640258789e+00,-9.325065612792968750e-01,-1.898334145545959473e+00,-8.839650154113769531e+00,2.238844335079193115e-01,-2.387065626680850983e-02
-1.213924980163574219e+01,-6.755429744720458984e+00,-2.196407318115234375e+00,-4.332888126373291016e+00,1.399810886383056641e+01,-2.584239482879638672e+00,3.763805389404296875e+00,-7.187130451202392578e+00,-2.799401760101318359e+00,-8.191624641418457031e+00,5.542755126953125000e-01,-2.385602712631225586e+00,-2.833827018737792969e+00,-1.448587775230407715e+00,-7.812944650650024414e-01,-1.727484226226806641e+00,-4.278599284589290619e-03,-1.132884860038757324e+00,-6.767405033111572266e+00,1.855468377470970154e-02,-2.572827041149139404e-02
-1.227621936798095703e+01,-5.968887329101562500e+00,-1.581490635871887207e+00,-4.240693569183349609e+00,1.316233348846435547e+01,-2.366425514221191406e+00,4.443689346313476562e+00,-5.163107395172119141e+00,-2.428655862808227539e+00,-7.945844650268554688e+00,9.172210693359375000e-01,-1.187648415565490723e+00,-2.276952028274536133e+00,-7.272587418556213379e-01,-2.030244171619415283e-01,-5.606153607368469238e-01,5.883517861366271973e-01,-7.936109900474548340e-01,-4.887182712554931641e+00,-3.232480287551879883e-01,-2.794311754405498505e-02
-1.260635375976562500e+01,-5.350972652435302734e+00,-1.447769045829772949e+00,-4.619715213775634766e+00,1.230699825286865234e+01,-2.702298164367675781e+00,4.657886505126953125e+00,-4.259771347045898438e+00,-2.647870779037475586e+00,-8.309285163879394531e+00,1.112720727920532227e+00,-4.531819820404052734e-01,-2.027585744857788086e+00,-7.822479009628295898e-01,-1.026772428303956985e-02,-1.960752606391906738e-01,5.088170766830444336e-01,-1.273356080055236816e+00,-3.674238920211791992e+00,-8.772041201591491699e-01,-2.953875996172428131e-02
-1.311443233489990234e+01,-5.174260616302490234e+00,-2.088011741638183594e+00,-5.663655757904052734e+00,1.143565845489501953e+01,-3.850854396820068359e+00,4.174030780792236328e+00,-5.281855583190917969e+00,-3.756067276000976562e+00,-9.625774383544921875e+00,9.294946193695068359e-01,-6.676629185676574707e-01,-2.456547498703002930e+00,-1.959663987159729004e+00,-5.280971527099609375e-01,-1.110832333564758301e+00,-4.766370058059692383e-01,-2.812587738037109375e+00,-3.483816385269165039e+00,-1.637110352516174316e+00,-2.965783886611461639e-02
-1.362719249725341797e+01,-5.645492553710937500e+00,-3.656201124191284180e+00,-7.456327438354492188e+00,1.064611721038818359e+01,-5.943880558013916016e+00,2.952917098999023438e+00,-8.697991371154785156e+00,-5.836082935333251953e+00,-1.199336338043212891e+01,2.579576373100280762e-01,-2.194139242172241211e+00,-3.748600721359252930e+00,-4.385658264160156250e+00,-1.911698102951049805e+00,-3.534853458404541016e+00,-2.403898239135742188e+00,-5.383926391601562500e+00,-4.443930149078369141e+00,-2.509916782379150391e+00,-2.784785442054271698e-02
-1.387889099121093750e+01,-6.820108413696289062e+00,-6.103711128234863281e+00,-9.914849281311035156e+00,1.007707881927490234e+01,-8.908162117004394531e+00,1.159973859786987305e+00,-1.444562339782714844e+01,-8.720222473144531250e+00,-1.523948478698730469e+01,-8.878632187843322754e-01,-5.145606040954589844e+00,-5.852063179016113281e+00,-7.916289329528808594e+00,-4.115331649780273438e+00,-7.386372566223144531e+00,-5.086738586425781250e+00,-8.693333625793457031e+00,-6.431365489959716797e+00,-3.331856250762939453e+00,-2.415644191205501556e-02
-1.364007091522216797e+01,-8.549115180969238281e+00,-9.172215461730957031e+00,-1.278219318389892578e+01,9.813899040222167969e+00,-1.241789436340332031e+01,-9.121903181076049805e-01,-2.188223838806152344e+01,-1.205794525146484375e+01,-1.895886230468750000e+01,-2.399259805679321289e+00,-9.315952301025390625e+00,-8.529197692871093750e+00,-1.216339683532714844e+01,-6.947875022888183594e+00,-1.229062938690185547e+01,-8.158523559570312500e+00,-1.226582717895507812e+01,-9.106882095336914062e+00,-3.933577775955200195e+00,-1.915517449378967285e-02
-1.283697891235351562e+01,-1.048948287963867188e+01,-1.244535541534423828e+01,-1.566629886627197266e+01,9.796116828918457031e+00,-1.591206741333007812e+01,-2.952798604965209961e+00,-2.986170387268066406e+01,-1.542900466918945312e+01,-2.262725257873535156e+01,-4.141222953796386719e+00,-1.418728542327880859e+01,-1.145311450958251953e+01,-1.657547187805175781e+01,-1.015612983703613281e+01,-1.769059181213378906e+01,-1.115465354919433594e+01,-1.557880687713623047e+01,-1.204002857208251953e+01,-4.175507068634033203e+00,-1.384430378675460815e-02
-1.158668518066406250e+01,-1.213071155548095703e+01,-1.543180370330810547e+01,-1.812016487121582031e+01,9.826346397399902344e+00,-1.867409324645996094e+01,-4.733310699462890625e+00,-3.696221923828125000e+01,-1.845659446716308594e+01,-2.572172164916992188e+01,-5.992771625518798828e+00,-1.902095222473144531e+01,-1.429950714111328125e+01,-2.057027626037597656e+01,-1.350323581695556641e+01,-2.297472000122070312e+01,-1.361537837982177734e+01,-1.819895362854003906e+01,-1.480035591125488281e+01,-3.984445095062255859e+00,-9.152637794613838196e-03
-1.013737392425537109e+01,-1.292995834350585938e+01,-1.766252326965332031e+01,-1.972192764282226562e+01,9.643187522888183594e+00,-1.999012947082519531e+01,-6.131328582763671875e+00,-4.179697418212890625e+01,-2.087300872802734375e+01,-2.782130813598632812e+01,-7.866236686706542969e+00,-2.300192832946777344e+01,-1.680092239379882812e+01,-2.363188171386718750e+01,-1.680296897888183594e+01,-2.757575988769531250e+01,-1.515951538085937500e+01,-1.985127639770507812e+01,-1.702461814880371094e+01,-3.358530521392822266e+00,-5.866089370101690292e-03
-8.745427131652832031e+00,-1.243909072875976562e+01,-1.877585601806640625e+01,-2.016241264343261719e+01,9.049253463745117188e+00,-1.932753562927246094e+01,-7.100952148437500000e+00,-4.332904052734375000e+01,-2.252166557312011719e+01,-2.864754486083984375e+01,-9.669568061828613281e+00,-2.541248512268066406e+01,-1.874029541015625000e+01,-2.538991928100585938e+01,-1.987890815734863281e+01,-3.104059410095214844e+01,-1.553682041168212891e+01,-2.041197013854980469e+01,-1.845678901672363281e+01,-2.352352619171142578e+00,-4.246631171554327011e-03
-7.564203739166259766e+00,-1.045252418518066406e+01,-1.858236503601074219e+01,-1.931217384338378906e+01,8.021428108215332031e+00,-1.652615547180175781e+01,-7.610626220703125000e+00,-4.115233993530273438e+01,-2.331669807434082031e+01,-2.808539009094238281e+01,-1.126775550842285156e+01,-2.579541206359863281e+01,-1.992123031616210938e+01,-2.564869117736816406e+01,-2.250889396667480469e+01,-3.305067443847656250e+01,-1.465611934661865234e+01,-1.987151336669921875e+01,-1.892244338989257812e+01,-1.057100296020507812e+00,-4.079922102391719818e-03
-6.603069305419921875e+00,-7.099613666534423828e+00,-1.710433578491210938e+01,-1.726247596740722656e+01,6.733978748321533203e+00,-1.189349365234375000e+01,-7.597238540649414062e+00,-3.561569976806640625e+01,-2.322375869750976562e+01,-2.618190574645996094e+01,-1.247143745422363281e+01,-2.406700897216796875e+01,-2.016026115417480469e+01,-2.441952133178710938e+01,-2.440052223205566406e+01,-3.343395233154296875e+01,-1.259500694274902344e+01,-1.829656791687011719e+01,-1.834637451171875000e+01,4.006789326667785645e-01,-4.722942598164081573e-03
-5.794124603271484375e+00,-2.860833644866943359e+00,-1.457071781158447266e+01,-1.432901287078857422e+01,5.480316162109375000e+00,-6.189150333404541016e+00,-6.995766162872314453e+00,-2.778466796875000000e+01,-2.226911354064941406e+01,-2.316195487976074219e+01,-1.307810020446777344e+01,-2.054429054260253906e+01,-1.932817840576171875e+01,-2.189486885070800781e+01,-2.523852348327636719e+01,-3.219554138183593750e+01,-9.607606887817382812e+00,-1.583355998992919922e+01,-1.677499008178710938e+01,1.854115843772888184e+00,-5.485040601342916489e-03
-5.101077556610107422e+00,1.523474335670471191e+00,-1.138672637939453125e+01,-1.099976444244384766e+01,4.521842002868652344e+00,-4.628422856330871582e-01,-5.808120250701904297e+00,-1.919661712646484375e+01,-2.059115982055664062e+01,-1.943473243713378906e+01,-1.296588516235351562e+01,-1.587592983245849609e+01,-1.743661308288574219e+01,-1.845804405212402344e+01,-2.479420280456542969e+01,-2.952792358398437500e+01,-6.107110500335693359e+00,-1.274200153350830078e+01,-1.441471004486083984e+01,3.087955236434936523e+00,-5.723196081817150116e-03
-4.619925022125244141e+00,5.235583305358886719e+00,-8.055843353271484375e+00,-7.844662189483642578e+00,3.959916591644287109e+00,4.207343101501464844e+00,-4.180606365203857422e+00,-1.149387836456298828e+01,-1.847881889343261719e+01,-1.557154846191406250e+01,-1.217424297332763672e+01,-1.089055633544921875e+01,-1.471942520141601562e+01,-1.462497234344482422e+01,-2.306429481506347656e+01,-2.583993721008300781e+01,-2.618253707885742188e+00,-9.420689582824707031e+00,-1.164958286285400391e+01,3.855925798416137695e+00,-5.199253559112548828e-03
-4.563732147216796875e+00,7.590589523315429688e+00,-5.084590435028076172e+00,-5.380553245544433594e+00,3.693179845809936523e+00,7.004146099090576172e+00,-2.423043727874755859e+00,-6.011309623718261719e+00,-1.636445617675781250e+01,-1.221953296661376953e+01,-1.093461704254150391e+01,-6.404242992401123047e+00,-1.164304637908935547e+01,-1.097304248809814453e+01,-2.033793067932128906e+01,-2.170393943786621094e+01,3.148300647735595703e-01,-6.377938747406005859e+00,-8.990068435668945312e+00,3.943392515182495117e+00,-4.008475691080093384e-03
-5.158441066741943359e+00,8.223519325256347656e+00,-2.882236719131469727e+00,-3.940828323364257812e+00,3.506464004516601562e+00,7.586203098297119141e+00,-9.341837763786315918e-01,-3.439135551452636719e+00,-1.472489070892333984e+01,-9.949994087219238281e+00,-9.617843627929687500e+00,-3.048924207687377930e+00,-8.822493553161621094e+00,-8.013328552246093750e+00,-1.716561317443847656e+01,-1.776895141601562500e+01,2.253730535507202148e+00,-4.117303848266601562e+00,-6.953026771545410156e+00,3.256065130233764648e+00,-2.484279451891779900e-03
-6.457904338836669922e+00,7.179416179656982422e+00,-1.674690485000610352e+00,-3.578568935394287109e+00,3.229058027267456055e+00,6.179564952850341797e+00,-5.731500685214996338e-02,-3.693596363067626953e+00,-1.392581748962402344e+01,-9.088458061218261719e+00,-8.599141120910644531e+00,-1.148937225341796875e+00,-6.840484142303466797e+00,-6.083854675292968750e+00,-1.420728778839111328e+01,-1.460562896728515625e+01,2.983121633529663086e+00,-2.986391305923461914e+00,-5.906503200531005859e+00,1.903742313385009766e+00,-1.055345521308481693e-03
-8.195203781127929688e+00,4.892553806304931641e+00,-1.461951732635498047e+00,-4.051648139953613281e+00,2.896526098251342773e+00,3.485262632369995117e+00,7.751432061195373535e-02,-5.991164684295654297e+00,-1.408037853240966797e+01,-9.595705986022949219e+00,-8.115214347839355469e+00,-6.938191056251525879e-01,-6.058792114257812500e+00,-5.260633945465087891e+00,-1.203142452239990234e+01,-1.256999683380126953e+01,2.585448265075683594e+00,-3.037580013275146484e+00,-5.927305698394775391e+00,2.238844335079193115e-01,6.398599362000823021e-05
-9.802557945251464844e+00,2.055920600891113281e+00,-2.033307552337646484e+00,-4.887917995452880859e+00,2.788053274154663086e+00,4.679000973701477051e-01,-3.690480589866638184e-01,-9.142237663269042969e+00,-1.497744274139404297e+01,-1.105469512939453125e+01,-8.157294273376464844e+00,-1.385389328002929688e+00,-6.483877658843994141e+00,-5.343117713928222656e+00,-1.092225646972656250e+01,-1.171145343780517578e+01,1.429285526275634766e+00,-3.974451780319213867e+00,-6.762604236602783203e+00,-1.283521294593811035e+00,8.260840550065040588e-04
-1.055999183654785156e+01,-5.855210423469543457e-01,-3.022036552429199219e+00,-5.536073207855224609e+00,3.330417871475219727e+00,-1.935373783111572266e+00,-9.982515573501586914e-01,-1.192328166961669922e+01,-1.614827156066894531e+01,-1.279737663269042969e+01,-8.483419418334960938e+00,-2.746558427810668945e+00,-7.769470214843750000e+00,-5.930208206176757812e+00,-1.081444358825683594e+01,-1.177788829803466797e+01,5.876718461513519287e-02,-5.244645118713378906e+00,-7.892338275909423828e+00,-2.114765644073486328e+00,1.469104317948222160e-03
-9.895042419433593750e+00,-2.433490514755249023e+00,-4.005700588226318359e+00,-5.540729522705078125e+00,4.884603977203369141e+00,-3.069287061691284180e+00,-1.332934260368347168e+00,-1.342247962951660156e+01,-1.704129409790039062e+01,-1.413086223602294922e+01,-8.710479736328125000e+00,-4.246878623962402344e+00,-9.348359107971191406e+00,-6.560966968536376953e+00,-1.134370708465576172e+01,-1.230936717987060547e+01,-9.674242138862609863e-01,-6.232706069946289062e+00,-8.708435058593750000e+00,-1.939832091331481934e+00,2.326464513316750526e-03
-7.650834560394287109e+00,-3.194622993469238281e+00,-4.620617389678955078e+00,-4.685834884643554688e+00,7.527075767517089844e+00,-2.725177764892578125e+00,-1.028851151466369629e+00,-1.325283908843994141e+01,-1.723424339294433594e+01,-1.456359100341796875e+01,-8.478159904479980469e+00,-5.416584491729736328e+00,-1.063782882690429688e+01,-6.855320930480957031e+00,-1.200202083587646484e+01,-1.279314899444580078e+01,-1.258404731750488281e+00,-6.488649368286132812e+00,-8.708435058593750000e+00,-7.593411207199096680e-01,3.612505039200186729e-03
-4.204330921173095703e+00,-2.924357652664184570e+00,-4.652021408081054688e+00,-3.071033239364624023e+00,1.093419265747070312e+01,-1.156551957130432129e+00,-3.054038807749748230e-02,-1.157551860809326172e+01,-1.660286521911621094e+01,-1.396221542358398438e+01,-7.579562187194824219e+00,-5.932384967803955078e+00,-1.123604965209960938e+01,-6.630512237548828125e+00,-1.232382583618164062e+01,-1.281018447875976562e+01,-7.026318907737731934e-01,-5.881527900695800781e+00,-7.655509948730468750e+00,1.089867353439331055e+00,5.398672539740800858e-03
-3.843785822391510010e-01,-1.987667918205261230e+00,-4.088769912719726562e+00,-1.071622014045715332e+00,1.444622707366943359e+01,1.040805459022521973e+00,1.401901721954345703e+00,-8.958813667297363281e+00,-1.535323905944824219e+01,-1.255159759521484375e+01,-6.027838706970214844e+00,-5.660360336303710938e+00,-1.101640033721923828e+01,-5.933443069458007812e+00,-1.201345539093017578e+01,-1.213391113281250000e+01,5.117269158363342285e-01,-4.630381107330322266e+00,-5.624869823455810547e+00,3.035227060317993164e+00,7.565888576209545135e-03
2.818621873855590820e+00,-9.181555509567260742e-01,-3.118275642395019531e+00,7.815815806388854980e-01,1.728964042663574219e+01,3.131086349487304688e+00,2.807569026947021484e+00,-6.152323246002197266e+00,-1.391874599456787109e+01,-1.078930568695068359e+01,-4.018487930297851562e+00,-4.654915809631347656e+00,-1.010550308227539062e+01,-4.987305164337158203e+00,-1.098106384277343750e+01,-1.073366832733154297e+01,1.982148528099060059e+00,-3.174479961395263672e+00,-2.939752101898193359e+00,4.482460498809814453e+00,9.852183051407337189e-03
4.596895694732666016e+00,-2.528864741325378418e-01,-2.056607484817504883e+00,1.968935608863830566e+00,1.885627365112304688e+01,4.467255115509033203e+00,3.715037345886230469e+00,-3.857935667037963867e+00,-1.277721214294433594e+01,-9.157747268676757812e+00,-1.823280930519104004e+00,-3.132624149322509766e+00,-8.761767387390136719e+00,-4.071896553039550781e+00,-9.300159454345703125e+00,-8.737215042114257812e+00,3.249853849411010742e+00,-1.978093266487121582e+00,-2.900760807096958160e-02,5.029592990875244141e+00,1.211466174572706223e-02
4.600407600402832031e+00,-3.706945478916168213e-01,-1.249212861061096191e+00,2.136562108993530273e+00,1.892206954956054688e+01,4.664935111999511719e+00,3.832654476165771484e+00,-2.571848630905151367e+00,-1.225897598266601562e+01,-7.996830940246582031e+00,3.166952133178710938e-01,-1.409453034400939941e+00,-7.238436698913574219e+00,-3.418495178222656250e+00,-7.111227989196777344e+00,-6.347263336181640625e+00,3.950146913528442383e+00,-1.342401266098022461e+00,2.721717834472656250e+00,4.595981597900390625e+00,1.421043090522289276e-02
3.011785268783569336e+00,-1.398627638816833496e+00,-9.544175267219543457e-01,1.187610149383544922e+00,1.769863700866699219e+01,3.673790454864501953e+00,3.140339374542236328e+00,-2.511414051055908203e+00,-1.244889545440673828e+01,-7.415065288543701172e+00,2.255911588668823242e+00,1.766595542430877686e-01,-5.690556526184082031e+00,-3.137079954147338867e+00,-4.566186428070068359e+00,-3.771634340286254883e+00,3.926868677139282227e+00,-1.313830852508544922e+00,5.062795162200927734e+00,3.411768436431884766e+00,1.618712209165096283e-02
4.210542440414428711e-01,-3.192313194274902344e+00,-1.260356307029724121e+00,-7.177439928054809570e-01,1.572122859954833984e+01,1.754649162292480469e+00,1.860895156860351562e+00,-3.618318319320678711e+00,-1.320048904418945312e+01,-7.323551654815673828e+00,3.945274114608764648e+00,1.347411513328552246e+00,-4.165934085845947266e+00,-3.190451860427856445e+00,-1.807152032852172852e+00,-1.194301843643188477e+00,3.247913837432861328e+00,-1.717388153076171875e+00,6.895011901855468750e+00,1.886373043060302734e+00,1.813999935984611511e-02
-2.434252023696899414e+00,-5.392551898956298828e+00,-2.062685728073120117e+00,-3.222828388214111328e+00,1.361578655242919922e+01,-6.266602277755737305e-01,3.280482590198516846e-01,-5.591449260711669922e+00,-1.423999118804931641e+01,-7.539262294769287109e+00,5.382153034210205078e+00,1.953189373016357422e+00,-2.663275957107543945e+00,-3.444372653961181641e+00,1.007422208786010742e+00,1.226312398910522461e+00,2.156736850738525391e+00,-2.276892423629760742e+00,8.232769966125488281e+00,4.254921972751617432e-01,2.009287476539611816e-02
-4.943034648895263672e+00,-7.533886909484863281e+00,-3.090923547744750977e+00,-5.883432865142822266e+00,1.186777210235595703e+01,-2.935670137405395508e+00,-1.158899307250976562e+00,-7.954753875732421875e+00,-1.529868793487548828e+01,-7.885706901550292969e+00,6.548137187957763672e+00,2.007594347000122070e+00,-1.201963663101196289e+00,-3.725787878036499023e+00,3.661910533905029297e+00,3.343711137771606445e+00,9.724460840225219727e-01,-2.751875638961791992e+00,9.154479026794433594e+00,-7.177789211273193359e-01,2.197430469095706940e-02
-6.773989677429199219e+00,-9.164719581604003906e+00,-4.007726669311523438e+00,-8.277697563171386719e+00,1.070302104949951172e+01,-4.692823886871337891e+00,-2.433562278747558594e+00,-1.012191104888916016e+01,-1.620080184936523438e+01,-8.258298873901367188e+00,7.387120246887207031e+00,1.680118560791015625e+00,1.366034448146820068e-01,-3.881051540374755859e+00,5.894947528839111328e+00,5.030134677886962891e+00,-1.106814481317996979e-02,-3.023294687271118164e+00,9.722546577453613281e+00,-1.490091681480407715e+00,2.364139445126056671e-02
-7.876777172088623047e+00,-9.969741821289062500e+00,-4.506143569946289062e+00,-1.008247566223144531e+01,1.010197448730468750e+01,-5.567739963531494141e+00,-3.471078872680664062e+00,-1.151296329498291016e+01,-1.687561988830566406e+01,-8.602128028869628906e+00,7.831596851348876953e+00,1.235462903976440430e+00,1.236140727996826172e+00,-3.816358327865600586e+00,7.448435783386230469e+00,6.183376312255859375e+00,-5.852697491645812988e-01,-3.092339992523193359e+00,1.000417995452880859e+01,-1.980774044990539551e+00,2.487980388104915619e-02
-8.367295265197753906e+00,-9.825368881225585938e+00,-4.408891201019287109e+00,-1.111896610260009766e+01,9.925928115844726562e+00,-5.422225952148437500e+00,-4.314479351043701172e+00,-1.169002532958984375e+01,-1.730798912048339844e+01,-8.868825912475585938e+00,7.854390621185302734e+00,9.351896643638610840e-01,2.017832994461059570e+00,-3.499361753463745117e+00,8.168823242187500000e+00,6.771069049835205078e+00,-6.531652212142944336e-01,-3.018532991409301758e+00,1.008098888397216797e+01,-2.305827856063842773e+00,2.568953298032283783e-02
-8.369636535644531250e+00,-8.840169906616210938e+00,-3.711918354034423828e+00,-1.136016178131103516e+01,1.006285285949707031e+01,-4.326750278472900391e+00,-4.980976104736328125e+00,-1.050572299957275391e+01,-1.746255111694335938e+01,-8.972105026245117188e+00,7.527389049530029297e+00,9.487909078598022461e-01,2.508813142776489258e+00,-2.957556247711181641e+00,8.085513114929199219e+00,6.842614650726318359e+00,-2.244538813829421997e-01,-2.835206031799316406e+00,1.006658744812011719e+01,-2.509916782379150391e+00,2.614202909171581268e-02
-7.927116870880126953e+00,-7.334074974060058594e+00,-2.575284957885742188e+00,-1.091595172882080078e+01,1.051986217498779297e+01,-2.542140960693359375e+00,-5.402676105499267578e+00,-8.189069747924804688e+00,-1.724535560607910156e+01,-8.778618812561035156e+00,7.029434680938720703e+00,1.286729097366333008e+00,2.870588064193725586e+00,-2.258869886398315430e+00,7.450069427490234375e+00,6.539398670196533203e+00,6.135700941085815430e-01,-2.507836580276489258e+00,1.008738994598388672e+01,-2.531628370285034180e+00,2.654689364135265350e-02
-7.004615306854248047e+00,-5.729806423187255859e+00,-1.259343266487121582e+00,-1.000145626068115234e+01,1.140542793273925781e+01,-4.710789322853088379e-01,-5.437100887298583984e+00,-5.318964481353759766e+00,-1.652911949157714844e+01,-8.164170265197753906e+00,6.605998039245605469e+00,1.802529573440551758e+00,3.361568450927734375e+00,-1.489020943641662598e+00,6.669241428375244141e+00,6.057320117950439453e+00,1.720266103744506836e+00,-1.950713276863098145e+00,1.026981067657470703e+01,-2.267987489700317383e+00,2.730899117887020111e-02
-5.585741996765136719e+00,-4.475497245788574219e+00,-3.153609856963157654e-02,-8.879289627075195312e+00,1.281913280487060547e+01,1.429758787155151367e+00,-4.945595264434814453e+00,-2.659849643707275391e+00,-1.521585083007812500e+01,-7.080386638641357422e+00,6.492029666900634766e+00,2.264971494674682617e+00,4.240164756774902344e+00,-7.563706636428833008e-01,6.193883895874023438e+00,5.595683097839355469e+00,2.926865339279174805e+00,-1.094790935516357422e+00,1.067625904083251953e+01,-1.653859257698059082e+00,2.871410921216011047e-02
-3.777030229568481445e+00,-3.887611627578735352e+00,9.217365980148315430e-01,-7.803687095642089844e+00,1.472007656097412109e+01,2.766842842102050781e+00,-3.885129213333129883e+00,-8.977087736129760742e-01,-1.332272434234619141e+01,-5.607016563415527344e+00,6.827798366546630859e+00,2.464804887771606445e+00,5.653670787811279297e+00,-1.563413441181182861e-01,6.352336406707763672e+00,5.299281120300292969e+00,4.066539287567138672e+00,4.088351503014564514e-02,1.129393196105957031e+01,-7.587207555770874023e-01,3.080987930297851562e-02
-1.858273863792419434e+00,-4.080493450164794922e+00,1.556914091110229492e+00,-6.951585769653320312e+00,1.687530899047851562e+01,3.326020479202270508e+00,-2.380969285964965820e+00,-3.803052604198455811e-01,-1.102147293090820312e+01,-3.946696996688842773e+00,7.605413436889648438e+00,2.319376230239868164e+00,7.564617633819580078e+00,2.350524365901947021e-01,7.231176376342773438e+00,5.232846260070800781e+00,5.008346080780029297e+00,1.317029237747192383e+00,1.199161529541015625e+01,2.058948278427124023e-01,3.345340862870216370e-02
-2.310185581445693970e-01,-4.895910263061523438e+00,1.969222187995910645e+00,-6.385380744934082031e+00,1.889183998107910156e+01,3.151220321655273438e+00,-7.238117456436157227e-01,-9.793483018875122070e-01,-8.621222496032714844e+00,-2.370047092437744141e+00,8.667949676513671875e+00,1.920755624771118164e+00,9.732683181762695312e+00,3.773774504661560059e-01,8.639280319213867188e+00,5.348681449890136719e+00,5.681481361389160156e+00,2.490797519683837891e+00,1.257728385925292969e+01,9.447097182273864746e-01,3.621601313352584839e-02
7.184088230133056641e-01,-5.965422630310058594e+00,2.353165149688720703e+00,-6.046402931213378906e+00,2.035177803039550781e+01,2.534386157989501953e+00,7.057616114616394043e-01,-2.153048515319824219e+00,-6.490696907043457031e+00,-1.141149282455444336e+00,9.762923240661621094e+00,1.492840051651000977e+00,1.177929496765136719e+01,2.496083974838256836e-01,1.013559436798095703e+01,5.500289440155029297e+00,6.097583293914794922e+00,3.297912120819091797e+00,1.283651447296142578e+01,1.186639070510864258e+00,3.866901621222496033e-02
7.722604274749755859e-01,-6.825883388519287109e+00,2.910338401794433594e+00,-5.800550937652587891e+00,2.096882820129394531e+01,1.920297503471374512e+00,1.547249555587768555e+00,-3.183614492416381836e+00,-4.953162193298339844e+00,-4.351866543292999268e-01,1.062645339965820312e+01,1.282544136047363281e+00,1.328066158294677734e+01,-1.531066894531250000e-01,1.119902324676513672e+01,5.476440906524658203e+00,6.328427791595458984e+00,3.524094581604003906e+00,1.258048439025878906e+01,7.871454954147338867e-01,4.045518115162849426e-02
-2.614828944206237793e-02,-7.076514244079589844e+00,3.765346050262451172e+00,-5.507204532623291016e+00,2.070742797851562500e+01,1.729024052619934082e+00,1.570199251174926758e+00,-3.508052110671997070e+00,-4.199548244476318359e+00,-3.201408684253692627e-01,1.104550647735595703e+01,1.426926374435424805e+00,1.388792610168457031e+01,-8.501757979393005371e-01,1.133787345886230469e+01,5.038651943206787109e+00,6.477797985076904297e+00,3.078872203826904297e+00,1.167957782745361328e+01,-2.190323173999786377e-01,4.145543649792671204e-02
-1.372438669204711914e+00,-6.524433135986328125e+00,4.911096572875976562e+00,-5.096519470214843750e+00,1.981296920776367188e+01,2.192107200622558594e+00,7.325362563133239746e-01,-2.970503807067871094e+00,-4.248037815093994141e+00,-7.607138752937316895e-01,1.092277145385742188e+01,1.861119508743286133e+00,1.341245079040527344e+01,-1.888501405715942383e+00,1.026464366912841797e+01,3.967176914215087891e+00,6.624258041381835938e+00,2.006290674209594727e+00,1.009859085083007812e+01,-1.641452670097351074e+00,4.183648526668548584e-02
-2.817066669464111328e+00,-5.242404460906982422e+00,6.201712608337402344e+00,-4.609471797943115234e+00,1.870156669616699219e+01,3.253720998764038086e+00,-8.289977312088012695e-01,-1.898587822914123535e+00,-4.960233688354492188e+00,-1.661469936370849609e+00,1.028367137908935547e+01,2.316237449645996094e+00,1.186327838897705078e+01,-3.327924728393554688e+00,7.948296546936035156e+00,2.108703851699829102e+00,6.787207126617431641e+00,4.563451409339904785e-01,7.871127128601074219e+00,-3.212132215499877930e+00,4.195556417107582092e-02
-3.924536943435668945e+00,-3.538807392120361328e+00,7.402167320251464844e+00,-4.184817790985107422e+00,1.781955718994140625e+01,4.593550682067871094e+00,-2.855262517929077148e+00,-9.432997107505798340e-01,-6.102777481079101562e+00,-2.896904468536376953e+00,9.252695083618164062e+00,2.420862436294555664e+00,9.438095092773437500e+00,-5.207262039184570312e+00,4.609358787536621094e+00,-5.742430090904235840e-01,6.916208744049072266e+00,-1.363829135894775391e+00,5.112401008605957031e+00,-4.674873828887939453e+00,4.226516559720039368e-02
-4.415054798126220703e+00,-1.831745505332946777e+00,8.273384094238281250e+00,-3.993910074234008789e+00,1.747457695007324219e+01,5.760410785675048828e+00,-5.059387207031250000e+00,-7.725989222526550293e-01,-7.414025306701660156e+00,-4.327132701873779297e+00,8.010439872741699219e+00,1.859027028083801270e+00,6.471540451049804688e+00,-7.508721828460693359e+00,6.464118361473083496e-01,-3.977752685546875000e+00,6.919118404388427734e+00,-3.235192060470581055e+00,2.008033514022827148e+00,-5.849781990051269531e+00,4.314634203910827637e-02
-4.218379497528076172e+00,-4.931225478649139404e-01,8.650235176086425781e+00,-4.150361537933349609e+00,1.776798820495605469e+01,6.368093013763427734e+00,-7.199444293975830078e+00,-1.740610003471374512e+00,-8.673752784729003906e+00,-5.805732250213623047e+00,6.745390415191650391e+00,5.156440138816833496e-01,3.352524042129516602e+00,-1.009806728363037109e+01,-3.470086812973022461e+00,-7.854823589324951172e+00,6.712522506713867188e+00,-4.966083526611328125e+00,-1.208347201347351074e+00,-6.646287918090820312e+00,4.481343179941177368e-02
-3.469139575958251953e+00,2.830246984958648682e-01,8.500305175781250000e+00,-4.644859313964843750e+00,1.859842872619628906e+01,6.254610061645507812e+00,-9.127217292785644531e+00,-3.704198837280273438e+00,-9.729418754577636719e+00,-7.133987426757812500e+00,5.613596439361572266e+00,-1.448164224624633789e+00,4.647849798202514648e-01,-1.274078369140625000e+01,-7.318686485290527344e+00,-1.185454368591308594e+01,6.276051521301269531e+00,-6.391033649444580078e+00,-4.280710697174072266e+00,-7.040198326110839844e+00,4.736169800162315369e-02
-2.390936613082885742e+00,5.301906466484069824e-01,7.935027599334716797e+00,-5.323746681213378906e+00,1.975073051452636719e+01,5.543511867523193359e+00,-1.078341865539550781e+01,-6.037816047668457031e+00,-1.050626754760742188e+01,-8.101417541503906250e+00,4.714999198913574219e+00,-3.632730960845947266e+00,-1.884167790412902832e+00,-1.513604831695556641e+01,-1.058738231658935547e+01,-1.557489681243896484e+01,5.672751903533935547e+00,-7.382665634155273438e+00,-6.965828418731689453e+00,-7.037716865539550781e+00,5.062443017959594727e-02
-1.195664882659912109e+00,4.793714582920074463e-01,7.169167995452880859e+00,-5.934651851654052734e+00,2.100617218017578125e+01,4.592635631561279297e+00,-1.217569828033447266e+01,-7.863572120666503906e+00,-1.099621772766113281e+01,-8.505385398864746094e+00,4.082912921905517578e+00,-5.526440620422363281e+00,-3.504402637481689453e+00,-1.697333526611328125e+01,-1.312098979949951172e+01,-1.865134239196777344e+01,5.044233798980712891e+00,-7.849315643310546875e+00,-9.071678161621093750e+00,-6.656833648681640625e+00,5.443491786718368530e-02
-2.966035157442092896e-02,4.504969418048858643e-01,6.465103626251220703e+00,-6.216823101043701172e+00,2.221537971496582031e+01,3.829371929168701172e+00,-1.334326267242431641e+01,-8.364011764526367188e+00,-1.124674892425537109e+01,-8.207312583923339844e+00,3.691036939620971680e+00,-6.684637546539306641e+00,-4.344237327575683594e+00,-1.802783393859863281e+01,-1.491460704803466797e+01,-2.084028625488281250e+01,4.557326316833496094e+00,-7.760033130645751953e+00,-1.051824855804443359e+01,-5.937248706817626953e+00,5.850737914443016052e-02
1.048542618751525879e+00,7.230724692344665527e-01,6.055834293365478516e+00,-6.000771045684814453e+00,2.331789016723632812e+01,3.581357002258300781e+00,-1.432627391815185547e+01,-7.062020778656005859e+00,-1.134069824218750000e+01,-7.196739673614501953e+00,3.467483520507812500e+00,-6.865638732910156250e+00,-4.497991561889648438e+00,-1.822838401794433594e+01,-1.608911514282226562e+01,-2.206336975097656250e+01,4.346850395202636719e+00,-7.166006565093994141e+00,-1.133594608306884766e+01,-4.968911170959472656e+00,6.262747198343276978e-02
2.019042253494262695e+00,1.433385729789733887e+00,6.090277671813964844e+00,-5.281839847564697266e+00,2.430481719970703125e+01,3.950176239013671875e+00,-1.515915584564208984e+01,-3.971382617950439453e+00,-1.139423942565917969e+01,-5.612246036529541016e+00,3.316694498062133789e+00,-6.105015754699707031e+00,-4.184022426605224609e+00,-1.768010902404785156e+01,-1.685524177551269531e+01,-2.242280006408691406e+01,4.460332870483398438e+00,-6.211277961730957031e+00,-1.167998600006103516e+01,-3.913106918334960938e+00,6.660467386245727539e-02
2.849059581756591797e+00,2.520222902297973633e+00,6.599838256835937500e+00,-4.238831043243408203e+00,2.515481758117675781e+01,4.778418064117431641e+00,-1.586963939666748047e+01,4.350294172763824463e-01,-1.153566837310791016e+01,-3.733600854873657227e+00,3.143111944198608398e+00,-4.684210777282714844e+00,-3.707254886627197266e+00,-1.664663505554199219e+01,-1.746128273010253906e+01,-2.217068672180175781e+01,4.831818103790283203e+00,-5.125601768493652344e+00,-1.178559875488281250e+01,-2.986331462860107422e+00,7.031989842653274536e-02
3.454304933547973633e+00,3.750277757644653320e+00,7.492328166961669922e+00,-3.181852817535400391e+00,2.580565452575683594e+01,5.720142364501953125e+00,-1.649214935302734375e+01,5.375809192657470703e+00,-1.189227104187011719e+01,-1.912478804588317871e+00,2.865204334259033203e+00,-3.039508104324340820e+00,-3.403622388839721680e+00,-1.549186134338378906e+01,-1.815063285827636719e+01,-2.163409805297851562e+01,5.295446872711181641e+00,-4.179206371307373047e+00,-1.191521453857421875e+01,-2.421829700469970703e+00,7.367789745330810547e-02
3.714197635650634766e+00,4.787450790405273438e+00,8.575270652770996094e+00,-2.468509197235107422e+00,2.615063476562500000e+01,6.364432334899902344e+00,-1.706493568420410156e+01,9.963524818420410156e+00,-1.256607913970947266e+01,-4.848654866218566895e-01,2.432124376296997070e+00,-1.640673995018005371e+00,-3.576757669448852539e+00,-1.458615684509277344e+01,-1.910788154602050781e+01,-2.114009475708007812e+01,5.631044387817382812e+00,-3.625654458999633789e+00,-1.229925918579101562e+01,-2.388952255249023438e+00,7.670246809720993042e-02
3.522204875946044922e+00,5.299107074737548828e+00,9.601482391357421875e+00,-2.396802425384521484e+00,2.609017372131347656e+01,6.384566307067871094e+00,-1.762242126464843750e+01,1.339132308959960938e+01,-1.360255146026611328e+01,3.086887896060943604e-01,1.827214956283569336e+00,-8.769125938415527344e-01,-4.437264919281005859e+00,-1.423034381866455078e+01,-2.042287445068359375e+01,-2.093397712707519531e+01,5.627164840698242188e+00,-3.638749361038208008e+00,-1.307855224609375000e+01,-2.949731826782226562e+00,7.946507632732391357e-02
2.850230216979980469e+00,5.064646244049072266e+00,1.033289813995361328e+01,-3.112008571624755859e+00,2.559048843383789062e+01,5.635030269622802734e+00,-1.817894935607910156e+01,1.506652259826660156e+01,-1.497946262359619141e+01,3.923584520816802979e-01,1.062749981880187988e+00,-9.846761822700500488e-01,-6.052331447601318359e+00,-1.458292198181152344e+01,-2.206130599975585938e+01,-2.113839149475097656e+01,5.141227245330810547e+00,-4.263727188110351562e+00,-1.428189468383789062e+01,-4.016081809997558594e+00,8.206097036600112915e-02
1.789587616920471191e+00,4.052882671356201172e+00,1.059932899475097656e+01,-4.561046123504638672e+00,2.472803878784179688e+01,4.199106216430664062e+00,-1.870966148376464844e+01,1.469225311279296875e+01,-1.659377288818359375e+01,-1.462648957967758179e-01,1.869465559720993042e-01,-2.017323493957519531e+00,-8.323760986328125000e+00,-1.562448215484619141e+01,-2.387125778198242188e+01,-2.173289871215820312e+01,4.149953842163085938e+00,-5.405354022979736328e+00,-1.580687427520751953e+01,-5.367784500122070312e+00,8.470450341701507568e-02
5.463177561759948730e-01,2.446304082870483398e+00,1.034404182434082031e+01,-6.496200561523437500e+00,2.368420982360839844e+01,2.365992307662963867e+00,-1.914283561706542969e+01,1.232152748107910156e+01,-1.827273559570312500e+01,-1.078397035598754883e+00,-7.326908707618713379e-01,-3.835703134536743164e+00,-1.099960327148437500e+01,-1.716094589233398438e+01,-2.560443496704101562e+01,-2.256418609619140625e+01,2.759066581726074219e+00,-6.844589233398437500e+00,-1.744226837158203125e+01,-6.717005729675292969e+00,8.756236732006072998e-02
-6.044678092002868652e-01,6.087293624877929688e-01,9.645043373107910156e+00,-8.530999183654785156e+00,2.268661308288574219e+01,5.566729903221130371e-01,-1.937424659729003906e+01,8.378445625305175781e+00,-1.980521965026855469e+01,-2.090276718139648438e+00,-1.610247611999511719e+00,-6.126986980438232422e+00,-1.371549987792968750e+01,-1.886722755432128906e+01,-2.698150253295898438e+01,-2.339036369323730469e+01,1.186801791191101074e+00,-8.288586616516113281e+00,-1.890164184570312500e+01,-7.769087791442871094e+00,9.080128371715545654e-02
-1.411071300506591797e+00,-9.990041851997375488e-01,8.700887680053710938e+00,-1.022868347167968750e+01,2.193441581726074219e+01,-7.703441977500915527e-01,-1.929679107666015625e+01,3.627451658248901367e+00,-2.097503852844238281e+01,-2.857684373855590820e+00,-2.347535610198974609e+00,-8.447566032409667969e+00,-1.606057548522949219e+01,-2.033091163635253906e+01,-2.774436187744140625e+01,-2.392354583740234375e+01,-2.884696125984191895e-01,-9.436164855957031250e+00,-1.987775611877441406e+01,-8.300712585449218750e+00,9.444506466388702393e-02
-1.723644852638244629e+00,-1.941468715667724609e+00,7.774967193603515625e+00,-1.120650386810302734e+01,2.151830673217773438e+01,-1.236172914505004883e+00,-1.884162139892578125e+01,-9.273958802223205566e-01,-2.161248016357421875e+01,-3.106078624725341797e+00,-2.852503299713134766e+00,-1.028059291839599609e+01,-1.766659927368164062e+01,-2.115575027465820312e+01,-2.772149085998535156e+01,-2.388777351379394531e+01,-1.390315890312194824e+00,-1.004209613800048828e+01,-2.010018348693847656e+01,-8.213245391845703125e+00,9.851752966642379761e-02
-1.550383090972900391e+00,-1.919524073600769043e+00,7.136750221252441406e+00,-1.122326660156250000e+01,2.139382934570312500e+01,-6.294057965278625488e-01,-1.801925849914550781e+01,-4.247048377990722656e+00,-2.163470458984375000e+01,-2.666812896728515625e+00,-3.050632953643798828e+00,-1.114479446411132812e+01,-1.828290748596191406e+01,-2.102474594116210938e+01,-2.686225509643554688e+01,-2.307181739807128906e+01,-1.915050864219665527e+00,-9.973051071166992188e+00,-1.939929962158203125e+01,-7.547009468078613281e+00,1.028281450271606445e-01
-1.057523727416992188e+00,-8.569415211677551270e-01,6.983780860900878906e+00,-1.023892688751220703e+01,2.138849449157714844e+01,1.034399151802062988e+00,-1.693584251403808594e+01,-5.506628990173339844e+00,-2.106797790527343750e+01,-1.503281950950622559e+00,-2.906857490539550781e+00,-1.070746231079101562e+01,-1.783973312377929688e+01,-1.978910636901855469e+01,-2.524832534790039062e+01,-2.138368988037109375e+01,-1.774410247802734375e+00,-9.231410026550292969e+00,-1.775750541687011719e+01,-6.472594738006591797e+00,1.072102114558219910e-01
-5.014473199844360352e-01,1.076496601104736328e+00,7.390010833740234375e+00,-8.419248580932617188e+00,2.128002166748046875e+01,3.502650976181030273e+00,-1.576923465728759766e+01,-4.340350627899169922e+00,-2.004261779785156250e+01,2.799273729324340820e-01,-2.433450222015380859e+00,-8.888036727905273438e+00,-1.645335960388183594e+01,-1.749896812438964844e+01,-2.306266021728515625e+01,-1.887619972229003906e+01,-1.025620341300964355e+00,-7.960026264190673828e+00,-1.532201766967773438e+01,-5.241236686706542969e+00,1.114970073103904724e-01
-1.361928880214691162e-01,3.510041713714599609e+00,8.282501220703125000e+00,-6.100415706634521484e+00,2.089414215087890625e+01,6.341552734375000000e+00,-1.472215557098388672e+01,-9.793483018875122070e-01,-1.875157356262207031e+01,2.476255655288696289e+00,-1.688272118568420410e+00,-5.915645122528076172e+00,-1.440157985687255859e+01,-1.440986728668212891e+01,-2.054865646362304688e+01,-1.575035285949707031e+01,1.538208276033401489e-01,-6.385081291198730469e+00,-1.237926959991455078e+01,-4.112853527069091797e+00,1.155932843685150146e-01
-1.092670857906341553e-01,5.956291198730468750e+00,9.457630157470703125e+00,-3.709876298904418945e+00,2.017750930786132812e+01,9.032194137573242188e+00,-1.394377899169921875e+01,3.787549972534179688e+00,-1.739183616638183594e+01,4.819005489349365234e+00,-7.502244710922241211e-01,-2.298764228820800781e+00,-1.203841400146484375e+01,-1.091158390045166016e+01,-1.794644165039062500e+01,-1.231958770751953125e+01,1.501060724258422852e+00,-4.760138511657714844e+00,-9.287703514099121094e+00,-3.281609296798706055e+00,1.195466741919517517e-01
