Fp1,Fp2,F7,F3,Fz,F4,F8,T3,C3,Cz,C4,T4,T5,P3,Pz,P4,T6,O1,Oz,O2,A1
9.482501983642578125e+00,-5.972580909729003906e-01,7.384807586669921875e+00,8.910793304443359375e+00,1.078390026092529297e+01,-1.746904850006103516e+00,1.156658935546875000e+01,3.448478460311889648e+00,6.927691936492919922e+00,-1.845385313034057617e+00,1.297272968292236328e+01,-1.387283444404602051e+00,8.506809234619140625e+00,-6.505763530731201172e+00,-3.568893432617187500e+00,-1.287968826293945312e+01,2.892438650131225586e+00,2.025524139404296875e+00,-2.122724294662475586e+00,-7.559649467468261719e+00,1.716213226318359375e-01
1.034206104278564453e+01,2.203191518783569336e-01,8.570440292358398438e+00,9.596924781799316406e+00,1.152952575683593750e+01,-1.180204033851623535e+00,1.124714851379394531e+01,3.905880689620971680e+00,6.592241764068603516e+00,-2.375393807888031006e-01,1.146545791625976562e+01,-6.902858018875122070e-01,7.780473709106445312e+00,-6.716139316558837891e+00,-3.658230066299438477e+00,-1.355279541015625000e+01,4.290175914764404297e+00,2.416322708129882812e+00,-2.726830959320068359e+00,-7.282597064971923828e+00,1.724783778190612793e-01
1.137353229522705078e+01,1.436379313468933105e+00,9.896319389343261719e+00,1.018562412261962891e+01,1.252257823944091797e+01,-5.836768150329589844e-01,1.087276458740234375e+01,4.297229290008544922e+00,6.152177333831787109e+00,1.227074861526489258e+00,9.686876296997070312e+00,-9.819547832012176514e-02,6.905022621154785156e+00,-7.053498268127441406e+00,-4.080096244812011719e+00,-1.434916496276855469e+01,5.987589359283447266e+00,2.509369850158691406e+00,-3.517086744308471680e+00,-6.596523284912109375e+00,1.731376498937606812e-01
1.239863681793212891e+01,2.897025823593139648e+00,1.112372684478759766e+01,1.061535358428955078e+01,1.363154220581054688e+01,3.902433440089225769e-03,1.058782386779785156e+01,4.655906677246093750e+00,5.633651256561279297e+00,2.493692398071289062e+00,7.941180706024169922e+00,4.064721167087554932e-01,5.951406955718994141e+00,-7.407915115356445312e+00,-4.704210758209228516e+00,-1.516728687286376953e+01,7.695180892944335938e+00,2.283575296401977539e+00,-4.340709209442138672e+00,-5.588314533233642578e+00,1.735167205333709717e-01
1.320089244842529297e+01,4.371412754058837891e+00,1.197415924072265625e+01,1.082252597808837891e+01,1.470149803161621094e+01,5.198984146118164062e-01,1.043321514129638672e+01,4.965576648712158203e+00,5.057132244110107422e+00,3.538441181182861328e+00,6.432081222534179688e+00,8.022586703300476074e-01,4.961714744567871094e+00,-7.688416004180908203e+00,-5.310954093933105469e+00,-1.586093807220458984e+01,9.068038940429687500e+00,1.786082386970520020e+00,-5.029109954833984375e+00,-4.387480735778808594e+00,1.735826432704925537e-01
1.360838699340820312e+01,5.652054786682128906e+00,1.222879219055175781e+01,1.077842521667480469e+01,1.557863807678222656e+01,9.091324210166931152e-01,1.029905033111572266e+01,5.168708801269531250e+00,4.427168369293212891e+00,4.348683357238769531e+00,5.219868659973144531e+00,1.009688973426818848e+00,3.917908191680908203e+00,-7.885524749755859375e+00,-5.716690540313720703e+00,-1.632377433776855469e+01,9.821188926696777344e+00,1.117382526397705078e+00,-5.476921558380126953e+00,-3.122711658477783203e+00,1.734013557434082031e-01
1.355490303039550781e+01,6.608414173126220703e+00,1.180606269836425781e+01,1.050356197357177734e+01,1.613033485412597656e+01,1.137304067611694336e+00,9.964277267456054688e+00,5.190726280212402344e+00,3.732389211654663086e+00,4.923014163970947266e+00,4.247906684875488281e+00,9.095501899719238281e-01,2.752644777297973633e+00,-8.086423873901367188e+00,-5.882955551147460938e+00,-1.655338096618652344e+01,9.815534591674804688e+00,3.854105174541473389e-01,-5.712242126464843750e+00,-1.883352756500244141e+00,1.731046736240386963e-01
1.308246421813964844e+01,7.210260868072509766e+00,1.078653812408447266e+01,1.007075595855712891e+01,1.625404739379882812e+01,1.211869955062866211e+00,9.184843063354492188e+00,4.984043121337890625e+00,2.951189041137695312e+00,5.268455028533935547e+00,3.420276880264282227e+00,4.032931029796600342e-01,1.397379755973815918e+00,-8.416201591491699219e+00,-5.927623748779296875e+00,-1.664401435852050781e+01,9.101964950561523438e+00,-3.068613111972808838e-01,-5.845707416534423828e+00,-7.194045186042785645e-01,1.729069054126739502e-01
1.232605171203613281e+01,7.512558460235595703e+00,9.387054443359375000e+00,9.592822074890136719e+00,1.590408325195312500e+01,1.198448061943054199e+00,7.844471931457519531e+00,4.574937820434570312e+00,2.085841894149780273e+00,5.441175937652587891e+00,2.664813756942749023e+00,-5.051085948944091797e-01,-1.623173803091049194e-01,-8.954460144042968750e+00,-6.034330844879150391e+00,-1.671893882751464844e+01,7.911174297332763672e+00,-8.750700950622558594e-01,-6.023076057434082031e+00,3.666739165782928467e-01,1.729563474655151367e-01
1.145375823974609375e+01,7.596376895904541016e+00,7.885120391845703125e+00,9.193861007690429688e+00,1.510273075103759766e+01,1.195465445518493652e+00,6.003218650817871094e+00,4.062846183776855469e+00,1.156816244125366211e+00,5.536663532257080078e+00,1.945890426635742188e+00,-1.681341648101806641e+00,-1.865117073059082031e+00,-9.686037063598632812e+00,-6.347008705139160156e+00,-1.685186767578125000e+01,6.557540416717529297e+00,-1.255943655967712402e+00,-6.340934753417968750e+00,1.392095923423767090e+00,1.733189374208450317e-01
1.061457347869873047e+01,7.518054485321044922e+00,6.518460273742675781e+00,8.963099479675292969e+00,1.394249820709228516e+01,1.292401075363159180e+00,3.889802455902099609e+00,3.579874992370605469e+00,1.948141604661941528e-01,5.647597789764404297e+00,1.252545118331909180e+00,-2.883006811141967773e+00,-3.576334476470947266e+00,-1.049532032012939453e+01,-6.873100757598876953e+00,-1.702588462829589844e+01,5.315861701965332031e+00,-1.408541202545166016e+00,-6.776453495025634766e+00,2.328172683715820312e+00,1.739122867584228516e-01
9.900183677673339844e+00,7.276216506958007812e+00,5.410411357879638672e+00,8.917972564697265625e+00,1.257830524444580078e+01,1.523555397987365723e+00,1.819829940795898438e+00,3.235402822494506836e+00,-7.762848734855651855e-01,5.813297271728515625e+00,5.765563249588012695e-01,-3.835914611816406250e+00,-5.136031627655029297e+00,-1.121931552886962891e+01,-7.487288951873779297e+00,-1.713585472106933594e+01,4.334279060363769531e+00,-1.336584568023681641e+00,-7.218996524810791016e+00,3.097034215927124023e+00,1.745221018791198730e-01
9.334784507751464844e+00,6.833763122558593750e+00,4.551026821136474609e+00,8.992841720581054688e+00,1.119182109832763672e+01,1.827784299850463867e+00,8.974193781614303589e-02,3.073465347290039062e+00,-1.746246814727783203e+00,5.993039131164550781e+00,-9.851901978254318237e-02,-4.328660964965820312e+00,-6.411929130554199219e+00,-1.171208763122558594e+01,-8.015862464904785156e+00,-1.703917884826660156e+01,3.591307163238525391e+00,-1.097142934799194336e+00,-7.524562358856201172e+00,3.597040176391601562e+00,1.749671101570129395e-01
8.895454406738281250e+00,6.160464286804199219e+00,3.847803831100463867e+00,9.059506416320800781e+00,9.947998046875000000e+00,2.072360277175903320e+00,-1.085797905921936035e+00,3.069914102554321289e+00,-2.715071678161621094e+00,6.085718631744384766e+00,-7.745078802108764648e-01,-4.267465114593505859e+00,-7.329468727111816406e+00,-1.188645267486572266e+01,-8.331022262573242188e+00,-1.661984634399414062e+01,2.952373981475830078e+00,-7.783008813858032227e-01,-7.575489997863769531e+00,3.752779722213745117e+00,1.750824749469757080e-01
8.549083709716796875e+00,5.278305053710937500e+00,3.191329479217529297e+00,8.973355293273925781e+00,8.966090202331542969e+00,2.091747522354125977e+00,-1.596902251243591309e+00,3.145911216735839844e+00,-3.671388149261474609e+00,5.963550090789794922e+00,-1.399340748786926270e+00,-3.699217319488525391e+00,-7.877827644348144531e+00,-1.171777343750000000e+01,-8.398024559020996094e+00,-1.582347583770751953e+01,2.268206596374511719e+00,-4.631807506084442139e-01,-7.333144664764404297e+00,3.542121410369873047e+00,1.747528463602066040e-01
8.271477699279785156e+00,4.277975559234619141e+00,2.528887271881103516e+00,8.639007568359375000e+00,8.307398796081542969e+00,1.745761752128601074e+00,-1.434626579284667969e+00,3.210544109344482422e+00,-4.562889099121093750e+00,5.543684959411621094e+00,-1.854263067245483398e+00,-2.793200016021728516e+00,-8.083462715148925781e+00,-1.120604801177978516e+01,-8.268982887268066406e+00,-1.466698837280273438e+01,1.464168429374694824e+00,-1.927233040332794189e-01,-6.820356369018554688e+00,3.011787176132202148e+00,1.740441322326660156e-01
8.065183639526367188e+00,3.295508623123168945e+00,1.888327598571777344e+00,8.036975860595703125e+00,7.961892604827880859e+00,9.717677831649780273e-01,-6.820255517959594727e-01,3.178582668304443359e+00,-5.299741744995117188e+00,4.821909427642822266e+00,-1.985806822776794434e+00,-1.787043690681457520e+00,-7.981246471405029297e+00,-1.037781238555908203e+01,-8.012140274047851562e+00,-1.321322059631347656e+01,5.809705257415771484e-01,4.919965192675590515e-02,-6.105613708496093750e+00,2.247843742370605469e+00,1.730881929397583008e-01
7.954396247863769531e+00,2.469686985015869141e+00,1.357180237770080566e+00,7.226745605468750000e+00,7.893906116485595703e+00,-2.033907622098922729e-01,5.114029645919799805e-01,2.985394239425659180e+00,-5.770508766174316406e+00,3.862818717956542969e+00,-1.669736385345458984e+00,-9.263271689414978027e-01,-7.606053352355957031e+00,-9.267181396484375000e+00,-7.644868373870849609e+00,-1.154314136505126953e+01,-2.683018147945404053e-01,3.258602619171142578e-01,-5.260918140411376953e+00,1.328980445861816406e+00,1.721652299165725708e-01
7.970950603485107422e+00,1.884329199790954590e+00,1.018001914024353027e+00,6.307801246643066406e+00,8.063315391540527344e+00,-1.664882302284240723e+00,1.938661694526672363e+00,2.594755649566650391e+00,-5.885357379913330078e+00,2.775943040847778320e+00,-8.731656670570373535e-01,-4.009960293769836426e-01,-6.997567176818847656e+00,-7.934802055358886719e+00,-7.113812923431396484e+00,-9.736505508422851562e+00,-9.649086594581604004e-01,7.092151045799255371e-01,-4.342465400695800781e+00,3.166733086109161377e-01,1.715059578418731689e-01
8.119940757751464844e+00,1.544931650161743164e+00,8.817337751388549805e-01,5.361165046691894531e+00,8.425539970397949219e+00,-3.244188070297241211e+00,3.360809326171875000e+00,1.998144030570983887e+00,-5.628368854522705078e+00,1.677833437919616699e+00,2.988528013229370117e-01,-2.952940165996551514e-01,-6.233952522277832031e+00,-6.465962886810302734e+00,-6.337082386016845703e+00,-7.871865272521972656e+00,-1.456830739974975586e+00,1.219114184379577637e+00,-3.385377645492553711e+00,-7.341588139533996582e-01,1.713411360979080200e-01
8.349156379699707031e+00,1.382790327072143555e+00,8.707925081253051758e-01,4.407350063323974609e+00,8.919280052185058594e+00,-4.763841152191162109e+00,4.547849178314208984e+00,1.222548842430114746e+00,-5.079140663146972656e+00,6.681904196739196777e-01,1.619771480560302734e+00,-5.647149682044982910e-01,-5.439072132110595703e+00,-4.966799736022949219e+00,-5.267526626586914062e+00,-6.031393527984619141e+00,-1.788171291351318359e+00,1.802210569381713867e+00,-2.424777507781982422e+00,-1.764498949050903320e+00,1.717531830072402954e-01
8.537623405456542969e+00,1.281108379364013672e+00,8.180756568908691406e-01,3.409433841705322266e+00,9.439768791198730469e+00,-6.086639881134033203e+00,5.309394359588623047e+00,3.404159843921661377e-01,-4.402555465698242188e+00,-1.841785609722137451e-01,2.805492401123046875e+00,-1.046334743499755859e+00,-4.777674198150634766e+00,-3.541551828384399414e+00,-3.969666719436645508e+00,-4.304516315460205078e+00,-2.085586309432983398e+00,2.338162899017333984e+00,-1.495787858963012695e+00,-2.680083513259887695e+00,1.727420836687088013e-01
8.524888992309570312e+00,1.120341181755065918e+00,5.425553917884826660e-01,2.308956623077392578e+00,9.833200454711914062e+00,-7.139510631561279297e+00,5.549613475799560547e+00,-5.360348820686340332e-01,-3.793059825897216797e+00,-8.160830736160278320e-01,3.602976560592651367e+00,-1.517622709274291992e+00,-4.410898685455322266e+00,-2.264135837554931641e+00,-2.618453025817871094e+00,-2.778242111206054688e+00,-2.488170623779296875e+00,2.685539484024047852e+00,-6.423115134239196777e-01,-3.353862047195434570e+00,1.743572801351547241e-01
8.179791450500488281e+00,8.386548757553100586e-01,-6.617528200149536133e-02,1.103867650032043457e+00,9.955799102783203125e+00,-7.889643192291259766e+00,5.285117149353027344e+00,-1.259071350097656250e+00,-3.399616956710815430e+00,-1.146077632904052734e+00,3.866977691650390625e+00,-1.755253672599792480e+00,-4.443367481231689453e+00,-1.157294511795043945e+00,-1.448393940925598145e+00,-1.504534125328063965e+00,-3.069430351257324219e+00,2.743849039077758789e+00,1.040412560105323792e-01,-3.655504941940307617e+00,1.765163838863372803e-01
7.474316120147705078e+00,4.813942313194274902e-01,-9.792712926864624023e-01,-1.053238213062286377e-01,9.726204872131347656e+00,-8.305721282958984375e+00,4.618125915527343750e+00,-1.679540514945983887e+00,-3.277945280075073242e+00,-1.070249080657958984e+00,3.590187549591064453e+00,-1.603456020355224609e+00,-4.882295131683349609e+00,-1.925989836454391479e-01,-6.468475461006164551e-01,-4.797672629356384277e-01,-3.786392450332641602e+00,2.505648136138916016e+00,7.309775948524475098e-01,-3.487470149993896484e+00,1.791534572839736938e-01
6.530711174011230469e+00,2.161969095468521118e-01,-2.029630184173583984e+00,-1.135033965110778809e+00,9.172280311584472656e+00,-8.328090667724609375e+00,3.693027257919311523e+00,-1.705109596252441406e+00,-3.383697271347045898e+00,-4.945138692855834961e-01,2.874918460845947266e+00,-1.032823920249938965e+00,-5.636289119720458984e+00,6.621705293655395508e-01,-2.919833362102508545e-01,3.407713174819946289e-01,-4.488653659820556641e+00,2.065224170684814453e+00,1.247278094291687012e+00,-2.835823059082031250e+00,1.820377409458160400e-01
5.599840164184570312e+00,2.766563892364501953e-01,-2.951678037643432617e+00,-1.799627780914306641e+00,8.441143989562988281e+00,-7.912013053894042969e+00,2.654207706451416016e+00,-1.349983572959899902e+00,-3.603161096572875977e+00,5.965745449066162109e-01,1.897475004196166992e+00,-1.482648700475692749e-01,-6.540600776672363281e+00,1.424071550369262695e+00,-3.155582547187805176e-01,1.025963306427001953e+00,-4.972659587860107422e+00,1.580137729644775391e+00,1.658211231231689453e+00,-1.815319180488586426e+00,1.848890781402587891e-01
4.988597869873046875e+00,8.633882999420166016e-01,-3.480836153030395508e+00,-2.024235725402832031e+00,7.747901916503906250e+00,-7.094770908355712891e+00,1.606443881988525391e+00,-7.604745030403137207e-01,-3.813528060913085938e+00,2.089273452758789062e+00,8.624813556671142578e-01,8.491490483283996582e-01,-7.407633781433105469e+00,2.070360660552978516e+00,-5.401400923728942871e-01,1.638648271560668945e+00,-5.066520690917968750e+00,1.219114184379577637e+00,1.951483964920043945e+00,-6.743220686912536621e-01,1.873942911624908447e-01
4.935113906860351562e+00,2.016240835189819336e+00,-3.443039178848266602e+00,-1.906290888786315918e+00,7.298743247985839844e+00,-6.035934925079345703e+00,6.315125226974487305e-01,-1.858806908130645752e-01,-3.930651187896728516e+00,3.730820894241333008e+00,-1.539066433906555176e-02,1.733708143234252930e+00,-8.067829132080078125e+00,2.563132524490356445e+00,-7.572773098945617676e-01,2.223538875579833984e+00,-4.698992729187011719e+00,1.095051169395446777e+00,2.095486164093017578e+00,2.650333642959594727e-01,1.893061548471450806e-01
5.510700225830078125e+00,3.563454151153564453e+00,-2.817399263381958008e+00,-1.698092579841613770e+00,7.204007625579833984e+00,-5.038243293762207031e+00,-2.181984037160873413e-01,1.031918451189994812e-01,-3.922691345214843750e+00,5.182796955108642578e+00,-5.534412264823913574e-01,2.321824789047241211e+00,-8.414161682128906250e+00,2.864481449127197266e+00,-8.106309771537780762e-01,2.809637784957885742e+00,-3.923226118087768555e+00,1.229039311408996582e+00,2.060363531112670898e+00,7.068418860435485840e-01,1.905587613582611084e-01
6.593108654022216797e+00,5.154638290405273438e+00,-1.735211372375488281e+00,-1.701169371604919434e+00,7.442518711090087891e+00,-4.468560218811035156e+00,-8.992448449134826660e-01,-9.638894349336624146e-02,-3.793059825897216797e+00,6.132058143615722656e+00,-6.256076097488403320e-01,2.516539096832275391e+00,-8.408148765563964844e+00,2.966826200485229492e+00,-6.480883359909057617e-01,3.404195785522460938e+00,-2.886231660842895508e+00,1.540437459945678711e+00,1.828555226325988770e+00,4.937245845794677734e-01,1.913333982229232788e-01
7.921287059783935547e+00,6.402302265167236328e+00,-4.242521524429321289e-01,-2.142180681228637695e+00,7.876073360443115234e+00,-4.611726760864257812e+00,-1.377127408981323242e+00,-8.506764769554138184e-01,-3.567910432815551758e+00,6.372181892395019531e+00,-2.072253376245498657e-01,2.301161050796508789e+00,-8.100297927856445312e+00,2.875853061676025391e+00,-3.440962731838226318e-01,3.979418754577636719e+00,-1.777993559837341309e+00,1.866723299026489258e+00,1.384255766868591309e+00,-3.169407546520233154e-01,1.919926702976226807e-01
9.201075553894042969e+00,7.035752773284912109e+00,8.538833260536193848e-01,-3.083688497543334961e+00,8.311857223510742188e+00,-5.548274040222167969e+00,-1.660790324211120605e+00,-2.086514949798583984e+00,-3.282493591308593750e+00,5.834360599517822266e+00,6.021342873573303223e-01,1.693175792694091797e+00,-7.620483875274658203e+00,2.576399326324462891e+00,-7.236460596323013306e-02,4.448297977447509766e+00,-7.760558128356933594e-01,2.000711441040039062e+00,6.976112127304077148e-01,-1.458757519721984863e+00,1.929650902748107910e-01
1.020962524414062500e+01,7.012393474578857422e+00,1.882359623908996582e+00,-4.411850452423095703e+00,8.586033821105957031e+00,-7.082840442657470703e+00,-1.812843799591064453e+00,-3.627761602401733398e+00,-2.983431577682495117e+00,4.550892353057861328e+00,1.596020579338073730e+00,7.307309508323669434e-01,-7.143074512481689453e+00,2.019188165664672852e+00,-3.514108806848526001e-02,4.669444561004638672e+00,-1.272850949317216873e-02,1.757547855377197266e+00,-2.840622067451477051e-01,-2.538278579711914062e+00,1.945143640041351318e-01
1.083742237091064453e+01,6.484746932983398438e+00,2.516951560974121094e+00,-5.923596382141113281e+00,8.600522041320800781e+00,-8.841104507446289062e+00,-1.954675197601318359e+00,-5.272705078125000000e+00,-2.752596616744995117e+00,2.584967374801635742e+00,2.502211093902587891e+00,-5.472304224967956543e-01,-6.862882137298583984e+00,1.099979281425476074e+00,-4.024131000041961670e-01,4.470050334930419922e+00,4.169964790344238281e-01,1.025575876235961914e+00,-1.629253387451171875e+00,-3.173532009124755859e+00,1.965416073799133301e-01
1.107427883148193359e+01,5.687780857086181641e+00,2.689027309417724609e+00,-7.417906761169433594e+00,8.338605880737304688e+00,-1.041742706298828125e+01,-2.228116035461425781e+00,-6.865089893341064453e+00,-2.701426267623901367e+00,-1.567068882286548615e-02,3.068580150604248047e+00,-2.086665391921997070e+00,-6.931427001953125000e+00,-2.797816693782806396e-01,-1.254831671714782715e+00,3.701474905014038086e+00,4.531838595867156982e-01,-1.952045559883117676e-01,-3.394158124923706055e+00,-3.136646270751953125e+00,1.986842304468154907e-01
1.096603775024414062e+01,4.815240383148193359e+00,2.394608497619628906e+00,-8.750170707702636719e+00,7.848209857940673828e+00,-1.154635524749755859e+01,-2.759664535522460938e+00,-8.301929473876953125e+00,-2.936809778213500977e+00,-3.190639734268188477e+00,3.134351968765258789e+00,-3.782666206359863281e+00,-7.422064304351806641e+00,-2.148524045944213867e+00,-2.563858509063720703e+00,2.310547351837158203e+00,7.887076586484909058e-02,-1.769564628601074219e+00,-5.554191112518310547e+00,-2.444015264511108398e+00,2.003818303346633911e-01
1.056108951568603516e+01,3.930333375930786133e+00,1.680444121360778809e+00,-9.841417312622070312e+00,7.202893257141113281e+00,-1.218165588378906250e+01,-3.602986574172973633e+00,-9.528534889221191406e+00,-3.511054515838623047e+00,-6.799516677856445312e+00,2.654765367507934570e+00,-5.471514701843261719e+00,-8.315552711486816406e+00,-4.417169570922851562e+00,-4.215342044830322266e+00,3.806501924991607666e-01,-6.674937009811401367e-01,-3.477912902832031250e+00,-7.993447303771972656e+00,-1.338264346122741699e+00,2.012718468904495239e-01
9.895090103149414062e+00,2.991837263107299805e+00,6.469944715499877930e-01,-1.063113594055175781e+01,6.490704059600830078e+00,-1.246202373504638672e+01,-4.708249568939208984e+00,-1.048098278045654297e+01,-4.380949974060058594e+00,-1.055022144317626953e+01,1.709294438362121582e+00,-6.921142578125000000e+00,-9.500057220458984375e+00,-6.856389999389648438e+00,-6.041775703430175781e+00,-1.842900633811950684e+00,-1.676216602325439453e+00,-5.063438415527343750e+00,-1.048363113403320312e+01,-1.693980246782302856e-01,2.012883275747299194e-01
9.016429901123046875e+00,1.942040562629699707e+00,-5.406271219253540039e-01,-1.104753208160400391e+01,5.808607578277587891e+00,-1.258132934570312500e+01,-5.915733337402343750e+00,-1.106054782867431641e+01,-5.383888244628906250e+00,-1.397935581207275391e+01,4.705905020236968994e-01,-7.868486881256103516e+00,-1.080120754241943359e+01,-9.119349479675292969e+00,-7.842153072357177734e+00,-4.001194953918457031e+00,-2.769753694534301758e+00,-6.304069042205810547e+00,-1.273322677612304688e+01,7.420881986618041992e-01,2.007279545068740845e-01
8.009153366088867188e+00,7.740731239318847656e-01,-1.674537181854248047e+00,-1.103522491455078125e+01,5.263598918914794922e+00,-1.269466972351074219e+01,-7.012052059173583984e+00,-1.117347812652587891e+01,-6.287897586822509766e+00,-1.658701515197753906e+01,-8.503282070159912109e-01,-8.103734016418457031e+00,-1.203140830993652344e+01,-1.085542201995849609e+01,-9.411745071411132812e+00,-5.722030162811279297e+00,-3.749074220657348633e+00,-7.078222751617431641e+00,-1.445422840118408203e+01,1.195372223854064941e+00,2.000192403793334961e-01
6.975134849548339844e+00,-4.227499961853027344e-01,-2.553814888000488281e+00,-1.061472606658935547e+01,4.959330081939697266e+00,-1.286766242980957031e+01,-7.809374809265136719e+00,-1.080201625823974609e+01,-6.881473064422607422e+00,-1.802495002746582031e+01,-2.064367771148681641e+00,-7.556943893432617188e+00,-1.302951812744140625e+01,-1.182580375671386719e+01,-1.058304500579833984e+01,-6.738337516784667969e+00,-4.475083351135253906e+00,-7.413192749023437500e+00,-1.547629261016845703e+01,1.147011041641235352e+00,1.995907127857208252e-01
6.039170265197753906e+00,-1.497280001640319824e+00,-3.036223888397216797e+00,-9.930645942687988281e+00,4.977162837982177734e+00,-1.309732532501220703e+01,-8.206758499145507812e+00,-1.005767250061035156e+01,-7.052041053771972656e+00,-1.826226425170898438e+01,-3.025367975234985352e+00,-6.360842227935791016e+00,-1.370053672790527344e+01,-1.199258804321289062e+01,-1.123569679260253906e+01,-6.972777366638183594e+00,-4.918378829956054688e+00,-7.470262050628662109e+00,-1.578712654113769531e+01,6.724152565002441406e-01,1.996896117925643921e-01
5.304406166076660156e+00,-2.317605495452880859e+00,-3.084962129592895508e+00,-9.225027084350585938e+00,5.347188949584960938e+00,-1.337321949005126953e+01,-8.219535827636718750e+00,-9.183352470397949219e+00,-6.822342872619628906e+00,-1.762193489074707031e+01,-3.648373842239379883e+00,-4.833328723907470703e+00,-1.399636268615722656e+01,-1.153203582763671875e+01,-1.132875537872314453e+01,-6.551027774810791016e+00,-5.144549846649169922e+00,-7.487630844116210938e+00,-1.553073215484619141e+01,-8.661015331745147705e-02,2.002335041761398315e-01
4.826873302459716797e+00,-2.827388763427734375e+00,-2.780596971511840820e+00,-8.756324768066406250e+00,6.018140316009521484e+00,-1.370280075073242188e+01,-7.955039501190185547e+00,-8.465287208557128906e+00,-6.339067935943603516e+00,-1.665582275390625000e+01,-3.914201974868774414e+00,-3.388469219207763672e+00,-1.391699409484863281e+01,-1.076634407043457031e+01,-1.091929721832275391e+01,-5.752241134643554688e+00,-5.276859760284423828e+00,-7.701019287109375000e+00,-1.493891906738281250e+01,-9.562925696372985840e-01,2.009916603565216064e-01
4.595110416412353516e+00,-3.065104484558105469e+00,-2.290230512619018555e+00,-8.675301551818847656e+00,6.850699424743652344e+00,-1.409650897979736328e+01,-7.558933734893798828e+00,-8.119394302368164062e+00,-5.804622173309326172e+00,-1.588068675994873047e+01,-3.853911161422729492e+00,-2.409334659576416016e+00,-1.350091457366943359e+01,-1.004803466796875000e+01,-1.016490077972412109e+01,-4.902699947357177734e+00,-5.411431789398193359e+00,-8.261784553527832031e+00,-1.424349308013916016e+01,-1.757941484451293945e+00,2.016509324312210083e-01
4.532712936401367188e+00,-3.122815847396850586e+00,-1.805832028388977051e+00,-8.944010734558105469e+00,7.626417160034179688e+00,-1.452899074554443359e+01,-7.164105892181396484e+00,-8.188999176025390625e+00,-5.391848087310791016e+00,-1.555069160461425781e+01,-3.543321609497070312e+00,-2.121634483337402344e+00,-1.280103588104248047e+01,-9.632968902587890625e+00,-9.287666320800781250e+00,-4.276721954345703125e+00,-5.576536655426025391e+00,-9.183572769165039062e+00,-1.359197139739990234e+01,-2.311226606369018555e+00,2.020300030708312988e-01
4.503424167633056641e+00,-3.110449075698852539e+00,-1.496493458747863770e+00,-9.354253768920898438e+00,8.102324485778808594e+00,-1.490182018280029297e+01,-6.836998939514160156e+00,-8.534181594848632812e+00,-5.193989753723144531e+00,-1.556473445892333984e+01,-3.078351020812988281e+00,-2.546031951904296875e+00,-1.187387561798095703e+01,-9.612121582031250000e+00,-8.510935783386230469e+00,-4.031406402587890625e+00,-5.723547458648681641e+00,-1.032743358612060547e+01,-1.302649974822998047e+01,-2.461228370666503906e+00,2.021453827619552612e-01
4.362074375152587891e+00,-3.104952812194824219e+00,-1.454717755317687988e+00,-9.628090858459472656e+00,8.077804565429687500e+00,-1.505244350433349609e+01,-6.572502613067626953e+00,-8.901382446289062500e+00,-5.203086376190185547e+00,-1.555209636688232422e+01,-2.522943973541259766e+00,-3.509271621704101562e+00,-1.076633453369140625e+01,-9.903993606567382812e+00,-7.968713283538818359e+00,-4.181254386901855469e+00,-5.765389442443847656e+00,-1.144772338867187500e+01,-1.248385715484619141e+01,-2.114503145217895508e+00,2.020629644393920898e-01
3.974954366683959961e+00,-3.139304876327514648e+00,-1.697414398193359375e+00,-9.552196502685546875e+00,7.460350990295410156e+00,-1.481383228302001953e+01,-6.332283496856689453e+00,-9.038460731506347656e+00,-5.347500801086425781e+00,-1.507606124877929688e+01,-1.891716480255126953e+00,-4.726831912994384766e+00,-9.512083053588867188e+00,-1.031905937194824219e+01,-7.658516883850097656e+00,-4.625964641571044922e+00,-5.643256664276123047e+00,-1.225165176391601562e+01,-1.186218929290771484e+01,-1.276788234710693359e+00,2.018816620111465454e-01
3.263111591339111328e+00,-3.217627286911010742e+00,-2.183802127838134766e+00,-9.077340126037597656e+00,6.271140098571777344e+00,-1.409501743316650391e+01,-6.103564262390136719e+00,-8.813310623168945312e+00,-5.527165412902832031e+00,-1.387544250488281250e+01,-1.159090757369995117e+00,-5.928496837615966797e+00,-8.137577056884765625e+00,-1.065073299407958984e+01,-7.456269264221191406e+00,-5.212063312530517578e+00,-5.361673831939697266e+00,-1.248364925384521484e+01,-1.108071422576904297e+01,-7.595428824424743652e-02,2.016014754772186279e-01
2.226546764373779297e+00,-3.331676006317138672e+00,-2.847239017486572266e+00,-8.315313339233398438e+00,4.648374557495117188e+00,-1.294521141052246094e+01,-5.906789302825927734e+00,-8.253632545471191406e+00,-5.642014026641845703e+00,-1.194321918487548828e+01,-2.839592099189758301e-01,-6.926705837249755859e+00,-6.675285816192626953e+00,-1.073412513732910156e+01,-7.185778617858886719e+00,-5.792119979858398438e+00,-4.979444980621337891e+00,-1.197375011444091797e+01,-1.010957717895507812e+01,1.256028771400451660e+00,2.012388855218887329e-01
9.633126854896545410e-01,-3.467709779739379883e+00,-3.598205804824829102e+00,-7.458930969238281250e+00,2.809388399124145508e+00,-1.152845859527587891e+01,-5.787957668304443359e+00,-7.489401340484619141e+00,-5.601078033447265625e+00,-9.492834091186523438e+00,7.418995499610900879e-01,-7.626882076263427734e+00,-5.161284923553466797e+00,-1.048584365844726562e+01,-6.704354286193847656e+00,-6.254957199096679688e+00,-4.558766841888427734e+00,-1.066860771179199219e+01,-8.982145309448242188e+00,2.436370611190795898e+00,2.008597999811172485e-01
-3.317568600177764893e-01,-3.595499277114868164e+00,-4.327290058135986328e+00,-6.670238494873046875e+00,1.001609444618225098e+00,-1.004161548614501953e+01,-5.768791198730468750e+00,-6.669060230255126953e+00,-5.327032566070556641e+00,-6.814963340759277344e+00,1.857281088829040527e+00,-7.977367877960205078e+00,-3.643676996231079102e+00,-9.881250381469726562e+00,-5.971051216125488281e+00,-6.530484199523925781e+00,-4.124518394470214844e+00,-8.638936042785644531e+00,-7.756370544433593750e+00,3.216707706451416016e+00,2.006949931383132935e-01
-1.440906882286071777e+00,-3.694432973861694336e+00,-4.926074028015136719e+00,-6.021028995513916016e+00,-5.487114787101745605e-01,-8.644249916076660156e+00,-5.814790248870849609e+00,-5.866475582122802734e+00,-4.773255825042724609e+00,-4.146922111511230469e+00,2.922420263290405273e+00,-7.912992954254150391e+00,-2.178980588912963867e+00,-8.929821968078613281e+00,-5.057834148406982422e+00,-6.575196743011474609e+00,-3.660867691040039062e+00,-6.060905456542968750e+00,-6.483180522918701172e+00,3.460153102874755859e+00,2.009751796722412109e-01
-2.204959630966186523e+00,-3.768633127212524414e+00,-5.309017658233642578e+00,-5.493866443634033203e+00,-1.725662469863891602e+00,-7.412421703338623047e+00,-5.850567817687988281e+00,-5.061759948730468750e+00,-3.939748048782348633e+00,-1.603857398033142090e+00,3.762838840484619141e+00,-7.341566085815429688e+00,-8.237155675888061523e-01,-7.658091545104980469e+00,-4.097467422485351562e+00,-6.358883857727050781e+00,-3.148590087890625000e+00,-3.191327333450317383e+00,-5.195941448211669922e+00,3.174903869628906250e+00,2.019146382808685303e-01
-2.594626665115356445e+00,-3.859322547912597656e+00,-5.455232143402099609e+00,-5.049778461456298828e+00,-2.527014493942260742e+00,-6.344637870788574219e+00,-5.800734996795654297e+00,-4.188860416412353516e+00,-2.903833389282226562e+00,7.664866447448730469e-01,4.220501422882080078e+00,-6.191559791564941406e+00,3.583833575248718262e-01,-6.113441467285156250e+00,-3.231400251388549805e+00,-5.875503063201904297e+00,-2.618219137191772461e+00,-3.465614914894104004e-01,-3.912214756011962891e+00,2.521617412567138672e+00,2.034968733787536621e-01
-2.718148469924926758e+00,-4.035204410552978516e+00,-5.418429851531982422e+00,-4.686713218688964844e+00,-3.057534217834472656e+00,-5.408090114593505859e+00,-5.649959087371826172e+00,-3.206582069396972656e+00,-1.820159554481506348e+00,2.895302772521972656e+00,4.210453033447265625e+00,-4.501916885375976562e+00,1.297568798065185547e+00,-4.392530918121337891e+00,-2.563858509063720703e+00,-5.160099983215332031e+00,-2.162484407424926758e+00,2.130977630615234375e+00,-2.667122840881347656e+00,1.756034612655639648e+00,2.055241167545318604e-01
-2.748710632324218750e+00,-4.340250015258789062e+00,-5.305038928985595703e+00,-4.443644523620605469e+00,-3.464340209960937500e+00,-4.564004421234130859e+00,-5.457017421722412109e+00,-2.148306846618652344e+00,-8.843111395835876465e-01,4.656209945678710938e+00,3.754617452621459961e+00,-2.453840732574462891e+00,1.926498293876647949e+00,-2.635609865188598633e+00,-2.135788202285766602e+00,-4.286389350891113281e+00,-1.903518557548522949e+00,3.947260618209838867e+00,-1.515105247497558594e+00,1.148650407791137695e+00,2.074854373931884766e-01
-2.831483125686645508e+00,-4.749725818634033203e+00,-5.219498157501220703e+00,-4.359544754028320312e+00,-3.860000848770141602e+00,-3.782553672790527344e+00,-5.310074806213378906e+00,-1.119861960411071777e+00,-2.691301107406616211e-01,5.896147251129150391e+00,2.968095302581787109e+00,-3.620531857013702393e-01,2.197070360183715820e+00,-1.030310988426208496e+00,-1.947188973426818848e+00,-3.367966413497924805e+00,-1.914827108383178711e+00,4.918674468994140625e+00,-5.264073610305786133e-01,8.986474275588989258e-01,2.087215632200241089e-01
-3.002121448516845703e+00,-5.172942161560058594e+00,-5.196620941162109375e+00,-4.407748222351074219e+00,-4.266806602478027344e+00,-3.038386106491088867e+00,-5.258964538574218750e+00,-2.469623535871505737e-01,-5.648899450898170471e-02,6.518221855163574219e+00,2.018970251083374023e+00,1.424549579620361328e+00,2.104474544525146484e+00,2.584767341613769531e-01,-1.984412550926208496e+00,-2.526884078979492188e+00,-2.155699253082275391e+00,5.040256023406982422e+00,2.375067025423049927e-01,1.080616831779479980e+00,2.086226642131805420e-01
-3.157478809356689453e+00,-5.439513683319091797e+00,-5.163797378540039062e+00,-4.446721076965332031e+00,-4.596709728240966797e+00,-2.265883445739746094e+00,-5.251297950744628906e+00,3.993668854236602783e-01,-1.974916607141494751e-01,6.575795650482177734e+00,1.066191434860229492e+00,2.645288944244384766e+00,1.699217915534973145e+00,1.139780163764953613e+00,-2.238773107528686523e+00,-1.859818935394287109e+00,-2.438413143157958984e+00,4.503063201904296875e+00,7.555633187294006348e-01,1.614229679107666016e+00,2.068261653184890747e-01
-3.124369859695434570e+00,-5.369435787200927734e+00,-4.964865684509277344e+00,-4.264163017272949219e+00,-4.699247360229492188e+00,-1.381531953811645508e+00,-5.146521568298339844e+00,8.240975737571716309e-01,-5.477241277694702148e-01,6.261247634887695312e+00,2.056759595870971680e-01,3.196052074432373047e+00,1.055857777595520020e+00,1.611703872680664062e+00,-2.730123519897460938e+00,-1.427193284034729004e+00,-2.496086597442626953e+00,3.637103080749511719e+00,1.034787058830261230e+00,2.298664093017578125e+00,2.032826095819473267e-01
-2.746163845062255859e+00,-4.829422473907470703e+00,-4.415814399719238281e+00,-3.654952049255371094e+00,-4.433987140655517578e+00,-2.913785278797149658e-01,-4.767026424407958984e+00,1.102516293525695801e+00,-9.218360185623168945e-01,5.839977741241455078e+00,-5.369982719421386719e-01,3.153135538101196289e+00,2.657876312732696533e-01,1.767116546630859375e+00,-3.464667558670043945e+00,-1.227798819541931152e+00,-2.067492485046386719e+00,2.809602499008178711e+00,1.112056493759155273e+00,2.919163227081298828e+00,1.982227414846420288e-01
-1.960462808609008789e+00,-3.764510869979858398e+00,-3.371423721313476562e+00,-2.516527414321899414e+00,-3.734058141708374023e+00,1.074668645858764648e+00,-3.985037088394165039e+00,1.341871261596679688e+00,-1.164042234420776367e+00,5.547897338867187500e+00,-1.169139146804809570e+00,2.720790386199951172e+00,-5.832071304321289062e-01,1.765221238136291504e+00,-4.402700424194335938e+00,-1.200004339218139648e+00,-9.886565804481506348e-01,2.319553375244140625e+00,1.043567657470703125e+00,3.319167852401733398e+00,1.919926702976226807e-01
-8.436722159385681152e-01,-2.244779109954833984e+00,-1.802848100662231445e+00,-9.206819534301757812e-01,-2.641811847686767578e+00,2.688274621963500977e+00,-2.818441390991210938e+00,1.605374693870544434e+00,-1.189058899879455566e+00,5.504366397857666016e+00,-1.690746784210205078e+00,2.125520944595336914e+00,-1.418973922729492188e+00,1.774697661399841309e+00,-5.443717956542968750e+00,-1.233841061592102051e+00,7.279816865921020508e-01,2.309628486633300781e+00,9.065900444984436035e-01,3.433923482894897461e+00,1.848561018705368042e-01
4.131946563720703125e-01,-4.639723598957061768e-01,1.755266040563583374e-01,8.915668725967407227e-01,-1.306596636772155762e+00,4.401799201965332031e+00,-1.443570971488952637e+00,1.889475464820861816e+00,-9.866517782211303711e-01,5.682703971862792969e+00,-2.079897165298461914e+00,1.549325704574584961e+00,-2.178980588912963867e+00,1.930110216140747070e+00,-6.440067291259765625e+00,-1.206046581268310547e+00,2.883391857147216797e+00,2.740127325057983398e+00,7.783929705619812012e-01,3.269987106323242188e+00,1.769449114799499512e-01
1.561820745468139648e+00,1.294849157333374023e+00,2.317025184631347656e+00,2.584845066070556641e+00,5.871115997433662415e-02,5.967682838439941406e+00,-1.415327489376068115e-01,2.128120183944702148e+00,-5.966202020645141602e-01,5.966358661651611328e+00,-2.290001869201660156e+00,1.093932747840881348e+00,-2.803099870681762695e+00,2.312956094741821289e+00,-7.236650466918945312e+00,-1.003026723861694336e+00,5.131532192230224609e+00,3.438602209091186523e+00,7.467827200889587402e-01,2.854408264160156250e+00,1.684074103832244873e-01
2.386997699737548828e+00,2.729387998580932617e+00,4.307335853576660156e+00,3.853521823883056641e+00,1.251265764236450195e+00,7.136876106262207031e+00,8.078434467315673828e-01,2.252414226531982422e+00,-6.331170350313186646e-02,6.221929073333740234e+00,-2.268991231918334961e+00,8.086166977882385254e-01,-3.199938774108886719e+00,2.945978164672851562e+00,-7.690777301788330078e+00,-5.426067709922790527e-01,7.084519386291503906e+00,4.195386886596679688e+00,8.978093862533569336e-01,2.197023391723632812e+00,1.594743430614471436e-01
2.746102571487426758e+00,3.593683958053588867e+00,5.836124897003173828e+00,4.509910583496093750e+00,2.128406286239624023e+00,7.737877368927001953e+00,1.206504821777343750e+00,2.218322038650512695e+00,5.666518807411193848e-01,6.339884281158447266e+00,-2.007730722427368164e+00,7.148359417915344238e-01,-3.266078710556030273e+00,3.796957254409790039e+00,-7.710629940032958984e+00,2.090500891208648682e-01,8.398572921752929688e+00,4.826867580413818359e+00,1.287668943405151367e+00,1.299471855163574219e+00,1.505907177925109863e-01
2.584378004074096680e+00,3.740710496902465820e+00,6.659701824188232422e+00,4.514013290405273438e+00,2.608771800994873047e+00,7.714015960693359375e+00,9.841744303703308105e-01,2.031525850296020508e+00,1.223906278610229492e+00,6.276693820953369141e+00,-1.550068020820617676e+00,8.157694339752197266e-01,-2.934177160263061523e+00,4.776814937591552734e+00,-7.287522792816162109e+00,1.220523953437805176e+00,8.840737342834472656e+00,5.213944435119628906e+00,1.893531799316406250e+00,1.699502617120742798e-01,1.423828601837158203e-01
1.908191323280334473e+00,3.142985820770263672e+00,6.655723094940185547e+00,3.955056905746459961e+00,2.665613174438476562e+00,7.124945640563964844e+00,2.021848857402801514e-01,1.736060976982116699e+00,1.820893406867980957e+00,6.047804355621337891e+00,-9.800450205802917480e-01,1.102674961090087891e+00,-2.193411111831665039e+00,5.775625705718994141e+00,-6.477291107177734375e+00,2.422933340072631836e+00,8.342030525207519531e+00,5.323120117187500000e+00,2.634616136550903320e+00,-1.143999695777893066e+00,1.355264782905578613e-01
7.544716000556945801e-01,1.862344026565551758e+00,5.833141326904296875e+00,2.982780933380126953e+00,2.297816038131713867e+00,6.078040122985839844e+00,-9.886881113052368164e-01,1.374542832374572754e+00,2.255272626876831055e+00,5.703767299652099609e+00,-3.890115320682525635e-01,1.520714521408081055e+00,-1.105110406875610352e+00,6.675881862640380859e+00,-5.379197120666503906e+00,3.725644111633300781e+00,6.988396644592285156e+00,5.169281959533691406e+00,3.391505718231201172e+00,-2.534180164337158203e+00,1.304830908775329590e-01
-8.080164194107055664e-01,3.207027912139892578e-02,4.322255611419677734e+00,1.745898008346557617e+00,1.528785467147827148e+00,4.676201343536376953e+00,-2.372503042221069336e+00,9.711197018623352051e-01,2.442897081375122070e+00,5.335858345031738281e+00,1.810114979743957520e-01,1.979286551475524902e+00,2.164833992719650269e-01,7.403667449951171875e+00,-4.087541103363037109e+00,5.065816879272460938e+00,4.995829582214355469e+00,4.805777072906494141e+00,4.053564548492431641e+00,-3.847310543060302734e+00,1.273186057806015015e-01
-2.677398920059204102e+00,-2.176075220108032227e+00,2.331945180892944336e+00,3.449179530143737793e-01,4.198211431503295898e-01,3.001451492309570312e+00,-3.706485271453857422e+00,5.179789662361145020e-01,2.347379207611083984e+00,5.025523185729980469e+00,7.537750005722045898e-01,2.371099233627319336e+00,1.636685729026794434e+00,7.932449817657470703e+00,-2.654435873031616211e+00,6.420490741729736328e+00,2.647042989730834961e+00,4.290915489196777344e+00,4.580401897430419922e+00,-4.939126491546630859e+00,1.257034093141555786e-01
-4.741615295410156250e+00,-4.601325511932373047e+00,6.810354441404342651e-02,-1.202724099159240723e+00,-9.477156996726989746e-01,1.101512432098388672e+00,-4.760637760162353516e+00,-3.601753339171409607e-02,1.969855904579162598e+00,4.744676589965820312e+00,1.377694487571716309e+00,2.593629837036132812e+00,3.025621891021728516e+00,8.275494575500488281e+00,-1.099733591079711914e+00,7.783624172210693359e+00,1.908254325389862061e-01,3.659434318542480469e+00,4.991334915161132812e+00,-5.720283508300781250e+00,1.249782145023345947e-01
-6.898790836334228516e+00,-7.106271743774414062e+00,-2.329022169113159180e+00,-2.956513166427612305e+00,-2.493578433990478516e+00,-9.818587303161621094e-01,-5.349685668945312500e+00,-7.654462456703186035e-01,1.335343837738037109e+00,4.271450519561767578e+00,2.077434301376342773e+00,2.578529596328735352e+00,4.270253181457519531e+00,8.459336280822753906e+00,5.616759657859802246e-01,9.131047248840332031e+00,-2.233728170394897461e+00,2.901409149169921875e+00,5.328510761260986328e+00,-6.163731575012207031e+00,1.244672834873199463e-01
-9.090349197387695312e+00,-9.589233398437500000e+00,-4.818651199340820312e+00,-5.015933513641357422e+00,-4.157582283020019531e+00,-3.186026573181152344e+00,-5.389296054840087891e+00,-1.743463158607482910e+00,4.654483199119567871e-01,3.184574604034423828e+00,2.817368030548095703e+00,2.298776865005493164e+00,5.281590938568115234e+00,8.476393699645996094e+00,2.272716999053955078e+00,1.039387989044189453e+01,-4.634533882141113281e+00,1.949845552444458008e+00,5.602466106414794922e+00,-6.274388313293457031e+00,1.237915307283401489e-01
-1.128827476501464844e+01,-1.194303131103515625e+01,-7.410729885101318359e+00,-7.444572448730468750e+00,-5.898488998413085938e+00,-5.387211799621582031e+00,-4.905025005340576172e+00,-2.996347665786743164e+00,-6.250481605529785156e-01,9.715045690536499023e-01,3.490616321563720703e+00,1.783777475357055664e+00,5.998306274414062500e+00,8.298237800598144531e+00,3.940330266952514648e+00,1.147302627563476562e+01,-7.120153903961181641e+00,7.141776084899902344e-01,5.776322364807128906e+00,-6.046516895294189453e+00,1.228850409388542175e-01
-1.346200466156005859e+01,-1.403575420379638672e+01,-1.009332180023193359e+01,-1.020140552520751953e+01,-7.665030002593994141e+00,-7.401982307434082031e+00,-4.033591747283935547e+00,-4.481484413146972656e+00,-1.902032017707824707e+00,-2.738476991653442383e+00,3.965635538101196289e+00,1.106648683547973633e+00,6.396347522735595703e+00,7.888858318328857422e+00,5.456568241119384766e+00,1.228027248382568359e+01,-9.791234016418457031e+00,-8.750700950622558594e-01,5.771054267883300781e+00,-5.450608253479003906e+00,1.219950318336486816e-01
-1.552749443054199219e+01,-1.571762752532958984e+01,-1.276000022888183594e+01,-1.310900402069091797e+01,-9.379187583923339844e+00,-9.015588760375976562e+00,-2.978161573410034180e+00,-6.098017692565917969e+00,-3.292727708816528320e+00,-7.995922565460205078e+00,4.136459827423095703e+00,3.413024246692657471e-01,6.496158599853515625e+00,7.227406978607177734e+00,6.740779399871826172e+00,1.278540515899658203e+01,-1.263533496856689453e+01,-2.815416097640991211e+00,5.514659881591796875e+00,-4.474367141723632812e+00,1.214841008186340332e-01
-1.732811164855957031e+01,-1.683887672424316406e+01,-1.518696594238281250e+01,-1.587506771087646484e+01,-1.091724872589111328e+01,-1.003415870666503906e+01,-1.971286177635192871e+00,-7.718102455139160156e+00,-4.672052383422851562e+00,-1.445679473876953125e+01,3.967462539672851562e+00,-4.645762145519256592e-01,6.356663703918457031e+00,6.327150821685791016e+00,7.770630359649658203e+00,1.301984500885009766e+01,-1.546134185791015625e+01,-5.002647876739501953e+00,4.979042053222656250e+00,-3.171072959899902344e+00,1.215500235557556152e-01
-1.865374374389648438e+01,-1.731018447875976562e+01,-1.707482719421386719e+01,-1.816730117797851562e+01,-1.213543796539306641e+01,-1.034733486175537109e+01,-1.204629659652709961e+00,-9.230938911437988281e+00,-5.895591735839843750e+00,-2.147093582153320312e+01,3.496097326278686523e+00,-1.308602929115295410e+00,6.047610282897949219e+00,5.233576297760009766e+00,8.573417663574218750e+00,1.306093215942382812e+01,-1.792773818969726562e+01,-7.250670433044433594e+00,4.202835083007812500e+00,-1.694825887680053711e+00,1.221433654427528381e-01
-1.930064201354980469e+01,-1.711506652832031250e+01,-1.812419128417968750e+01,-1.969443130493164062e+01,-1.289109420776367188e+01,-9.941697120666503906e+00,-7.816908955574035645e-01,-1.055697917938232422e+01,-6.826891422271728516e+00,-2.822529220581054688e+01,2.820108413696289062e+00,-2.200314760208129883e+00,5.641150951385498047e+00,4.009228229522705078e+00,9.212421417236328125e+00,1.300413513183593750e+01,-1.961949729919433594e+01,-9.328726768493652344e+00,3.286138296127319336e+00,-2.816944420337677002e-01,1.229674518108367920e-01
-1.913636970520019531e+01,-1.631672668457031250e+01,-1.813214874267578125e+01,-2.028005218505859375e+01,-1.308725261688232422e+01,-8.906722068786621094e+00,-6.935253739356994629e-01,-1.164295482635498047e+01,-7.373845577239990234e+00,-3.394894409179687500e+01,2.056423902511596680e+00,-3.131764411926269531e+00,5.197412967681884766e+00,2.726126194000244141e+00,9.758365631103515625e+00,1.291833496093750000e+01,-2.018266296386718750e+01,-1.101598358154296875e+01,2.353636264801025391e+00,8.265154361724853516e-01,1.234783828258514404e-01
-1.817111778259277344e+01,-1.504295444488525391e+01,-1.706985282897949219e+01,-1.989237213134765625e+01,-1.270496654510498047e+01,-7.412421703338623047e+00,-8.276902437210083008e-01,-1.244198799133300781e+01,-7.497791290283203125e+00,-3.804227828979492188e+01,1.300960540771484375e+00,-4.047318935394287109e+00,4.764497756958007812e+00,1.460081815719604492e+00,1.025343894958496094e+01,1.283253479003906250e+01,-1.945326232910156250e+01,-1.214992046356201172e+01,1.522989630699157715e+00,1.487179040908813477e+00,1.231981962919235229e-01
-1.656278610229492188e+01,-1.344764804840087891e+01,-1.510241985321044922e+01,-1.863292694091796875e+01,-1.180553436279296875e+01,-5.679510116577148438e+00,-1.016798853874206543e+00,-1.289228725433349609e+01,-7.197592258453369141e+00,-4.015143585205078125e+01,6.140097379684448242e-01,-4.846044540405273438e+00,4.384494304656982422e+00,2.812200486660003662e-01,1.070384311676025391e+01,1.273585891723632812e+01,-1.751610565185546875e+01,-1.264617252349853516e+01,8.626869320869445801e-01,1.705214381217956543e+00,1.218466982245445251e-01
-1.457497501373291016e+01,-1.168882656097412109e+01,-1.255311107635498047e+01,-1.669965553283691406e+01,-1.052047348022460938e+01,-3.949581384658813477e+00,-1.119019746780395508e+00,-1.292708969116210938e+01,-6.509635448455810547e+00,-4.017530822753906250e+01,1.384128537029027939e-02,-5.399986743927001953e+00,4.076643943786621094e+00,-7.308573722839355469e-01,1.106491088867187500e+01,1.258601093292236328e+01,-1.469688415527343750e+01,-1.250101852416992188e+01,3.920456171035766602e-01,1.615049362182617188e+00,1.195392608642578125e-01
-1.250311851501464844e+01,-9.906645774841308594e+00,-9.822774887084960938e+00,-1.433563041687011719e+01,-9.014734268188476562e+00,-2.426945686340332031e+00,-1.071742534637451172e+00,-1.248957443237304688e+01,-5.488503456115722656e+00,-3.826695632934570312e+01,-5.059393048286437988e-01,-5.593906402587890625e+00,3.850565671920776367e+00,-1.507920622825622559e+00,1.124482536315917969e+01,1.233827781677246094e+01,-1.146716117858886719e+01,-1.178517436981201172e+01,8.121164143085479736e-02,1.424063444137573242e+00,1.167703419923782349e-01
-1.058789253234863281e+01,-8.212406158447265625e+00,-7.283413410186767578e+00,-1.178494453430175781e+01,-7.455497264862060547e+00,-1.223452210426330566e+00,-9.120224714279174805e-01,-1.157050895690917969e+01,-4.233124732971191406e+00,-3.480833435058593750e+01,-9.599480628967285156e-01,-5.365812301635742188e+00,3.677399635314941406e+00,-2.004482984542846680e+00,1.113315486907958984e+01,1.195640754699707031e+01,-8.322253227233886719e+00,-1.063262939453125000e+01,-1.242548897862434387e-01,1.310127735137939453e+00,1.142156869173049927e-01
-8.966827392578125000e+00,-6.684429645538330078e+00,-5.209551811218261719e+00,-9.273230552673339844e+00,-5.989881038665771484e+00,-3.495399057865142822e-01,-7.663577795028686523e-01,-1.024802017211914062e+01,-2.883365154266357422e+00,-3.037517166137695312e+01,-1.367368340492248535e+00,-4.737163543701171875e+00,3.488600492477416992e+00,-2.222439765930175781e+00,1.063311862945556641e+01,1.141864681243896484e+01,-5.660219669342041016e+00,-9.224513053894042969e+00,-2.823060750961303711e-01,1.338816523551940918e+00,1.125510409474372864e-01
-7.674304485321044922e+00,-5.381802558898925781e+00,-3.730495214462280273e+00,-6.988176822662353516e+00,-4.736026763916015625e+00,2.693570256233215332e-01,-7.995795607566833496e-01,-8.682624816894531250e+00,-1.621163845062255859e+00,-2.564291000366210938e+01,-1.758345723152160645e+00,-3.812072038650512695e+00,3.191572666168212891e+00,-2.212963342666625977e+00,9.707493782043457031e+00,1.073103713989257812e+01,-3.708363533020019531e+00,-7.763050556182861328e+00,-4.421133697032928467e-01,1.458490133285522461e+00,1.121060326695442200e-01
-6.673395156860351562e+00,-4.330631732940673828e+00,-2.830329895019531250e+00,-5.060034751892089844e+00,-3.780868768692016602e+00,7.495613694190979004e-01,-1.139463901519775391e+00,-7.085978031158447266e+00,-6.182254552841186523e-01,-2.125047111511230469e+01,-2.160284996032714844e+00,-2.749488592147827148e+00,2.704543113708496094e+00,-2.053760051727294922e+00,8.424523353576660156e+00,9.943126678466796875e+00,-2.505133628845214844e+00,-6.419447898864746094e+00,-6.247503161430358887e-01,1.561770081520080566e+00,1.127652972936630249e-01
-5.890241146087646484e+00,-3.521298885345458984e+00,-2.380744457244873047e+00,-3.540083885192871094e+00,-3.147811651229858398e+00,1.213361263275146484e+00,-1.817954897880554199e+00,-5.642746448516845703e+00,1.969793625175952911e-02,-1.764721107482910156e+01,-2.587802171707153320e+00,-1.707568526268005371e+00,2.010676383972167969e+00,-1.796002626419067383e+00,6.985213756561279297e+00,9.166092872619628906e+00,-1.926135659217834473e+00,-5.284270763397216797e+00,-8.126555681228637695e-01,1.579802989959716797e+00,1.139849424362182617e-01
-5.245890140533447266e+00,-2.893344640731811523e+00,-2.190764665603637695e+00,-2.396531343460083008e+00,-2.792274475097656250e+00,1.745761752128601074e+00,-2.741775751113891602e+00,-4.466568946838378906e+00,2.891949713230133057e-01,-1.500865840911865234e+01,-3.017146587371826172e+00,-8.118828535079956055e-01,1.178517103195190430e+00,-1.456748127937316895e+00,5.684872627258300781e+00,8.548574447631835938e+00,-1.750853061676025391e+00,-4.346354007720947266e+00,-9.513893723487854004e-01,1.543737053871154785e+00,1.149573624134063721e-01
-4.672850131988525391e+00,-2.357453823089599609e+00,-2.075384378433227539e+00,-1.536046504974365234e+00,-2.605032205581665039e+00,2.372115373611450195e+00,-3.719262838363647461e+00,-3.580884933471679688e+00,2.937434613704681396e-01,-1.323511314392089844e+01,-3.394421339035034180e+00,-1.347540766000747681e-01,3.403452336788177490e-01,-1.011358261108398438e+00,4.816323757171630859e+00,8.231959342956542969e+00,-1.742937088012695312e+00,-3.513891220092773438e+00,-9.847557544708251953e-01,1.564229130744934082e+00,1.149244010448455811e-01
-4.124005794525146484e+00,-1.833929419517517090e+00,-1.907287240028381348e+00,-8.447869420051574707e-01,-2.450111627578735352e+00,3.053647518157958984e+00,-4.517863273620605469e+00,-2.945919752120971680e+00,1.777573823928833008e-01,-1.207240867614746094e+01,-3.652027845382690430e+00,2.928225696086883545e-01,-3.643444478511810303e-01,-4.389848709106445312e-01,4.549555301666259766e+00,8.275464057922363281e+00,-1.714665651321411133e+00,-2.661577939987182617e+00,-8.881689310073852539e-01,1.751116514205932617e+00,1.135399341583251953e-01
-3.578981399536132812e+00,-1.280175447463989258e+00,-1.651660084724426270e+00,-2.407040446996688843e-01,-2.211600542068481445e+00,3.711318731307983398e+00,-4.939524173736572266e+00,-2.508404493331909180e+00,5.381148681044578552e-02,-1.127620887756347656e+01,-3.732415914535522461e+00,4.613099992275238037e-01,-8.597918152809143066e-01,2.262570410966873169e-01,4.847343444824218750e+00,8.602953910827636719e+00,-1.565392851829528809e+00,-1.718698859214782715e+00,-7.020197510719299316e-01,2.131448984146118164e+00,1.109687983989715576e-01
-3.056878566741943359e+00,-6.989399194717407227e-01,-1.360225319862365723e+00,3.059448599815368652e-01,-1.839345335960388184e+00,4.267580509185791016e+00,-4.870525360107421875e+00,-2.222883224487304688e+00,-4.625492915511131287e-02,-1.068923950195312500e+01,-3.592650651931762695e+00,3.810400366783142090e-01,-1.167642593383789062e+00,8.896036744117736816e-01,5.467735290527343750e+00,9.008994102478027344e+00,-1.290594935417175293e+00,-6.976599097251892090e-01,-5.176267027854919434e-01,2.625717163085937500e+00,1.078702434897422791e-01
-2.603540658950805664e+00,-1.314451694488525391e-01,-1.137421965599060059e+00,7.818268537521362305e-01,-1.364552497863769531e+00,4.692605972290039062e+00,-4.289144039154052734e+00,-2.046740770339965820e+00,-1.656523495912551880e-01,-1.023426914215087891e+01,-3.198932647705078125e+00,9.572403132915496826e-02,-1.380492568016052246e+00,1.441128969192504883e+00,6.088127136230468750e+00,9.255517959594726562e+00,-9.547309279441833496e-01,3.159351944923400879e-01,-4.403572380542755127e-01,3.066705942153930664e+00,1.051178053021430969e-01
-2.304286479949951172e+00,3.508566915988922119e-01,-1.106587529182434082e+00,1.141815185546875000e+00,-8.975615501403808594e-01,4.995343685150146484e+00,-3.254158020019531250e+00,-1.943043947219848633e+00,-3.873904347419738770e-01,-9.897253036499023438e+00,-2.523857355117797852e+00,-3.064205348491668701e-01,-1.602962851524353027e+00,1.789859890937805176e+00,6.439269065856933594e+00,9.146757125854492188e+00,-6.641011238098144531e-01,1.220354795455932617e+00,-5.369440913200378418e-01,3.281462669372558594e+00,1.034696400165557861e-01
-2.276271343231201172e+00,6.504060029983520508e-01,-1.385091781616210938e+00,1.318219661712646484e+00,-6.055528521537780762e-01,5.195179939270019531e+00,-1.902287006378173828e+00,-1.866336703300476074e+00,-7.785591483116149902e-01,-9.664150238037109375e+00,-1.568338036537170410e+00,-7.077703475952148438e-01,-1.893978118896484375e+00,1.914948105812072754e+00,6.415694236755371094e+00,8.600537300109863281e+00,-5.521464943885803223e-01,1.920070409774780273e+00,-8.231922984123229980e-01,3.191297531127929688e+00,1.032883375883102417e-01
-2.646836996078491211e+00,6.655208468437194824e-01,-2.074389696121215820e+00,1.224889397621154785e+00,-6.668524146080017090e-01,5.281676769256591797e+00,-4.239178895950317383e-01,-1.790339827537536621e+00,-1.369860649108886719e+00,-9.536365509033203125e+00,-3.999735116958618164e-01,-9.978548884391784668e-01,-2.248728036880493164e+00,1.844822883605957031e+00,6.070756435394287109e+00,7.657945156097412109e+00,-7.647472620010375977e-01,2.348088026046752930e+00,-1.278028488159179688e+00,2.823260307312011719e+00,1.043596491217613220e-01
-3.502576112747192383e+00,3.151306211948394775e-01,-3.223219633102416992e+00,7.920829057693481445e-01,-1.215204596519470215e+00,5.211584568023681641e+00,9.509526491165161133e-01,-1.704399347305297852e+00,-2.159020900726318359e+00,-9.571471214294433594e+00,8.350763916969299316e-01,-1.094019889831542969e+00,-2.610693216323852539e+00,1.640133023262023926e+00,5.552108764648437500e+00,6.437409400939941406e+00,-1.417250752449035645e+00,2.459744691848754883e+00,-1.878623008728027344e+00,2.302762508392333984e+00,1.061067059636116028e-01
-4.832027912139892578e+00,-4.186277389526367188e-01,-4.799752712249755859e+00,-3.788660978898406029e-03,-2.282931089401245117e+00,4.946129798889160156e+00,1.993605494499206543e+00,-1.616328120231628418e+00,-3.118748664855957031e+00,-9.852317810058593750e+00,1.932188034057617188e+00,-9.509645104408264160e-01,-2.907721042633056641e+00,1.336888790130615234e+00,4.991274356842041016e+00,5.065816879272460938e+00,-2.550367832183837891e+00,2.220303058624267578e+00,-2.617951154708862305e+00,1.777346372604370117e+00,1.076230183243751526e-01
-6.495116233825683594e+00,-1.464302182197570801e+00,-6.653795242309570312e+00,-1.099137663841247559e+00,-3.784212350845336914e+00,4.483821392059326172e+00,2.532820463180541992e+00,-1.546013116836547852e+00,-4.204696655273437500e+00,-1.046315860748291016e+01,2.684910774230957031e+00,-5.837890505790710449e-01,-3.092912673950195312e+00,9.445666670799255371e-01,4.430439949035644531e+00,3.643469333648681641e+00,-4.065713882446289062e+00,1.624800443649291992e+00,-3.492501020431518555e+00,1.330619812011718750e+00,1.081669107079505920e-01
-8.228242874145507812e+00,-2.636391878128051758e+00,-8.513805389404296875e+00,-2.326790094375610352e+00,-5.509515285491943359e+00,3.912646770477294922e+00,2.509820699691772461e+00,-1.502687811851501465e+00,-5.336129188537597656e+00,-1.139837741851806641e+01,2.970835685729980469e+00,-4.971560090780258179e-02,-3.141014337539672852e+00,4.536901712417602539e-01,3.828659772872924805e+00,2.229581117630004883e+00,-5.711108207702636719e+00,7.290651798248291016e-01,-4.470662117004394531e+00,9.511070847511291504e-01,1.072274595499038696e-01
-9.696497917175292969e+00,-3.671073675155639648e+00,-1.002170658111572266e+01,-3.440599918365478516e+00,-7.170175552368164062e+00,3.395159482955932617e+00,2.028105020523071289e+00,-1.472857236862182617e+00,-6.380003929138183594e+00,-1.251474189758300781e+01,2.810973405838012695e+00,5.662173032760620117e-01,-3.041203260421752930e+00,-1.243690401315689087e-01,3.131339311599731445e+00,8.761153221130371094e-01,-7.119022846221923828e+00,-3.254707753658294678e-01,-5.448823451995849609e+00,5.592991709709167480e-01,1.045739129185676575e-01
-1.057261180877685547e+01,-4.279790878295898438e+00,-1.081643867492675781e+01,-4.176986217498779297e+00,-8.454122543334960938e+00,3.129704713821411133e+00,1.327892065048217773e+00,-1.416037082672119141e+00,-7.156655788421630859e+00,-1.352859783172607422e+01,2.367926836013793945e+00,1.175792217254638672e+00,-2.776643991470336914e+00,-7.403337955474853516e-01,2.339719295501708984e+00,-3.432122468948364258e-01,-7.894789695739746094e+00,-1.336584568023681641e+00,-6.270689487457275391e+00,8.552303165197372437e-02,1.001568213105201721e-01
-1.062991523742675781e+01,-4.223453521728515625e+00,-1.063938903808593750e+01,-4.347237110137939453e+00,-9.118386268615722656e+00,3.280327796936035156e+00,7.413999438285827637e-01,-1.285350680351257324e+00,-7.485282897949218750e+00,-1.410854530334472656e+01,1.881945610046386719e+00,1.705891847610473633e+00,-2.316070318222045898e+00,-1.308916568756103516e+00,1.556784629821777344e+00,-1.318432569503784180e+00,-7.740993499755859375e+00,-2.088406801223754883e+00,-6.737818717956542969e+00,-4.743196666240692139e-01,9.387730807065963745e-02
-9.816199302673339844e+00,-3.429235696792602539e+00,-9.433863639831542969e+00,-3.915456295013427734e+00,-9.043712615966796875e+00,3.894750833511352539e+00,5.548468232154846191e-01,-1.065172553062438965e+00,-7.247625350952148438e+00,-1.401024913787841797e+01,1.575010061264038086e+00,2.088167667388916016e+00,-1.630621314048767090e+00,-1.735353708267211914e+00,9.388742446899414062e-01,-1.950452804565429688e+00,-6.577343463897705078e+00,-2.454392671585083008e+00,-6.714989185333251953e+00,-1.041539549827575684e+00,8.565295487642288208e-02
-8.263898849487304688e+00,-1.994696736335754395e+00,-7.380889892578125000e+00,-3.022152185440063477e+00,-8.276910781860351562e+00,4.870072841644287109e+00,9.356195330619812012e-01,-7.846230864524841309e-01,-6.443682670593261719e+00,-1.317613506317138672e+01,1.576837062835693359e+00,2.267781496047973633e+00,-7.251071333885192871e-01,-1.960891604423522949e+00,6.249558925628662109e-01,-2.189726114273071289e+00,-4.580253124237060547e+00,-2.455633401870727539e+00,-6.179371356964111328e+00,-1.475970864295959473e+00,7.581340521574020386e-02
-6.258259773254394531e+00,-1.864083409309387207e-01,-4.862415790557861328e+00,-1.950392007827758789e+00,-7.005224227905273438e+00,5.978122234344482422e+00,1.856885075569152832e+00,-5.268015861511230469e-01,-5.211046218872070312e+00,-1.177049922943115234e+01,1.896561503410339355e+00,2.191485404968261719e+00,3.427503108978271484e-01,-1.983634948730468750e+00,6.510123610496520996e-01,-2.084590911865234375e+00,-2.139867305755615234e+00,-2.272020101547241211e+00,-5.241600990295410156e+00,-1.666956782341003418e+00,6.546291708946228027e-02
-4.153294563293457031e+00,1.639743089675903320e+00,-2.357867240905761719e+00,-1.039652466773986816e+00,-5.493912220001220703e+00,6.934056758880615234e+00,3.103979587554931641e+00,-3.975357711315155029e-01,-3.794196844100952148e+00,-1.012614250183105469e+01,2.449228048324584961e+00,1.824309945106506348e+00,1.461114525794982910e+00,-1.856651425361633301e+00,9.202624559402465820e-01,-1.788520216941833496e+00,2.496299147605895996e-01,-2.178972721099853516e+00,-4.108900547027587891e+00,-1.579250812530517578e+00,5.690893158316612244e-02
-2.273724555969238281e+00,3.152604579925537109e+00,-3.158344328403472900e-01,-5.668472647666931152e-01,-4.008234024047851562e+00,7.502248764038085938e+00,4.344685077667236328e+00,-4.827660024166107178e-01,-2.467179775238037109e+00,-8.630635261535644531e+00,3.114254951477050781e+00,1.170228838920593262e+00,2.489288091659545898e+00,-1.665228486061096191e+00,1.246588587760925293e+00,-1.509367942810058594e+00,2.118933677673339844e+00,-2.432061433792114258e+00,-3.000786304473876953e+00,-1.275968551635742188e+00,5.315111204981803894e-02
-8.500393629074096680e-01,4.129574775695800781e+00,9.692636728286743164e-01,-6.673568487167358398e-01,-2.742120265960693359e+00,7.569358348846435547e+00,5.249339580535888672e+00,-8.030896186828613281e-01,-1.431265115737915039e+00,-7.570440292358398438e+00,3.789330244064331055e+00,2.896435558795928955e-01,3.311826944351196289e+00,-1.468119859695434570e+00,1.435187816619873047e+00,-1.434443950653076172e+00,3.163843870162963867e+00,-3.156589508056640625e+00,-2.075308799743652344e+00,-9.013739228248596191e-01,5.725504830479621887e-02
2.225429564714431763e-02,4.500576496124267578e+00,1.422827720642089844e+00,-1.286823868751525879e+00,-1.786962032318115234e+00,7.168193817138671875e+00,5.594335079193115234e+00,-1.299555659294128418e+00,-7.524054050445556641e-01,-7.021385192871093750e+00,4.407768726348876953e+00,-6.894910335540771484e-01,3.881831884384155273e+00,-1.274801611900329590e+00,1.389278769493103027e+00,-1.654382109642028809e+00,3.308593511581420898e+00,-4.275638103485107422e+00,-1.365834712982177734e+00,-6.243214607238769531e-01,7.136335223913192749e-02
3.864527940750122070e-01,4.334312915802001953e+00,1.183115124702453613e+00,-2.229357242584228516e+00,-1.137187004089355469e+00,6.440430641174316406e+00,5.331116676330566406e+00,-1.859234213829040527e+00,-3.510026335716247559e-01,-6.859898567199707031e+00,4.932116985321044922e+00,-1.607429742813110352e+00,4.238986968994140625e+00,-1.047368526458740234e+00,1.139881253242492676e+00,-2.129303693771362305e+00,2.703585863113403320e+00,-5.541081428527832031e+00,-7.986065745353698730e-01,-5.735011696815490723e-01,9.590455144643783569e-02
3.826325535774230957e-01,3.792925357818603516e+00,5.375820994377136230e-01,-3.233427286148071289e+00,-7.103193402290344238e-01,5.584414005279541016e+00,4.593848705291748047e+00,-2.348597764968872070e+00,-6.217458471655845642e-02,-6.820580005645751953e+00,5.332229137420654297e+00,-2.301248311996459961e+00,4.474685192108154297e+00,-7.213810086250305176e-01,8.272036910057067871e-01,-2.711777210235595703e+00,1.663198947906494141e+00,-6.620429992675781250e+00,-2.419152110815048218e-01,-7.677657604217529297e-01,1.298238188028335571e-01
2.056269794702529907e-01,3.064663410186767578e+00,-1.885182112455368042e-01,-4.073400020599365234e+00,-3.993635475635528564e-01,4.780593872070312500e+00,3.625305891036987305e+00,-2.671052217483520508e+00,2.846465110778808594e-01,-6.622583389282226562e+00,5.578873634338378906e+00,-2.663655281066894531e+00,4.694750308990478516e+00,-2.513525485992431641e-01,6.162704229354858398e-01,-3.219326972961425781e+00,5.640076994895935059e-01,-7.227098464965820312e+00,4.236558675765991211e-01,-1.105474710464477539e+00,1.715224385261535645e-01
2.734798006713390350e-02,2.299301147460937500e+00,-7.385640740394592285e-01,-4.616971969604492188e+00,-1.173856779932975769e-01,4.143801212310791016e+00,2.688707351684570312e+00,-2.782561779022216797e+00,7.827043533325195312e-01,-6.084762573242187500e+00,5.647386074066162109e+00,-2.673192262649536133e+00,4.962917327880859375e+00,3.570311069488525391e-01,6.125481128692626953e-01,-3.516605854034423828e+00,-2.807412147521972656e-01,-7.197323322296142578e+00,1.268351554870605469e+00,-1.377609014511108398e+00,2.202092856168746948e-01
-4.905730113387107849e-02,1.588902235031127930e+00,-1.001153826713562012e+00,-4.843631267547607422e+00,1.623630970716476440e-01,3.706844806671142578e+00,1.976994514465332031e+00,-2.703013420104980469e+00,1.429724693298339844e+00,-5.190266609191894531e+00,5.514928817749023438e+00,-2.395029067993164062e+00,5.270768165588378906e+00,1.041225790977478027e+00,8.048695921897888184e-01,-3.560110092163085938e+00,-7.104662060737609863e-01,-6.531104564666748047e+00,2.285147428512573242e+00,-1.333346247673034668e+00,2.766425013542175293e-01
-2.995598129928112030e-02,9.664442539215087891e-01,-1.027014851570129395e+00,-4.824144840240478516e+00,3.964158594608306885e-01,3.442881584167480469e+00,1.547666907310485840e+00,-2.494909763336181641e+00,2.135875225067138672e+00,-4.078114509582519531e+00,5.169626235961914062e+00,-1.967452406883239746e+00,5.550960540771484375e+00,1.696991324424743652e+00,1.059230327606201172e+00,-3.417512893676757812e+00,-7.523078322410583496e-01,-5.371115207672119141e+00,3.412579298019409180e+00,-7.817003726959228516e-01,3.424702882766723633e-01
1.588718779385089874e-02,4.484163224697113037e-01,-9.723086953163146973e-01,-4.650816917419433594e+00,5.067549943923950195e-01,3.325067520141601562e+00,1.333003163337707520e+00,-2.227854967117309570e+00,2.790855407714843750e+00,-2.967366933822631836e+00,4.616046428680419922e+00,-1.532723069190979004e+00,5.702480792999267578e+00,2.208715915679931641e+00,1.174623131752014160e+00,-3.214493036270141602e+00,-5.815486907958984375e-01,-3.928261756896972656e+00,4.545279502868652344e+00,3.437228202819824219e-01,4.181046485900878906e-01
1.879552728496491909e-03,5.955186486244201660e-02,-9.991644620895385742e-01,-4.391338348388671875e+00,4.253938198089599609e-01,3.368315696716308594e+00,1.183505177497863770e+00,-1.945174694061279297e+00,3.313929796218872070e+00,-2.068658113479614258e+00,3.876112699508666992e+00,-1.192569136619567871e+00,5.635138511657714844e+00,2.504379034042358398e+00,9.760977625846862793e-01,-3.069478988647460938e+00,-4.254906773567199707e-01,-2.408489465713500977e+00,5.572611808776855469e+00,1.953577995300292969e+00,5.004635453224182129e-01
-9.744731336832046509e-02,-1.589267551898956299e-01,-1.181186914443969727e+00,-4.059041500091552734e+00,1.445305049419403076e-01,3.623331069946289062e+00,9.471194148063659668e-01,-1.654681682586669922e+00,3.699412822723388672e+00,-1.499944210052490234e+00,3.004635095596313477e+00,-9.716280698776245117e-01,5.321274757385253906e+00,2.578294754028320312e+00,3.892069756984710693e-01,-3.025974512100219727e+00,-4.537620544433593750e-01,-9.507485628128051758e-01,6.394478321075439453e+00,3.801960468292236328e+00,5.820807218551635742e-01
-2.247894555330276489e-01,-1.561785936355590820e-01,-1.453723192214965820e+00,-3.635465383529663086e+00,-2.633900344371795654e-01,4.157222747802734375e+00,5.459025502204895020e-01,-1.341460585594177246e+00,4.007571697235107422e+00,-1.258416175842285156e+00,2.111233711242675781e+00,-8.158566355705261230e-01,4.805384159088134766e+00,2.502483606338500977e+00,-5.153244137763977051e-01,-3.028391599655151367e+00,-7.025502324104309082e-01,3.878917694091796875e-01,6.947657108306884766e+00,5.556079864501953125e+00,6.524080038070678711e-01
-2.464376091957092285e-01,9.527792781591415405e-02,-1.623809695243835449e+00,-3.107277631759643555e+00,-6.490198373794555664e-01,4.983412742614746094e+00,5.409731529653072357e-03,-9.976986646652221680e-01,4.327102184295654297e+00,-1.242969632148742676e+00,1.355770468711853027e+00,-6.402164101600646973e-01,4.195695400238037109e+00,2.398243427276611328e+00,-1.536489605903625488e+00,-2.938966035842895508e+00,-1.061031341552734375e+00,1.608672142028808594e+00,7.212831974029541016e+00,6.897898674011230469e+00,7.009465098381042480e-01
6.061313906684517860e-04,6.036872863769531250e-01,-1.451733827590942383e+00,-2.498066663742065430e+00,-8.173149228096008301e-01,6.027335643768310547e+00,-5.491384267807006836e-01,-6.411522030830383301e-01,4.729641914367675781e+00,-1.308968544006347656e+00,9.209452271461486816e-01,-3.700007200241088867e-01,3.628095388412475586e+00,2.392557621002197266e+00,-2.393871307373046875e+00,-2.603016614913940430e+00,-1.315473794937133789e+00,2.742608547210693359e+00,7.226881027221679688e+00,7.622497558593750000e+00,7.202960252761840820e-01
6.271294355392456055e-01,1.333323478698730469e+00,-7.534839510917663574e-01,-1.882701992988586426e+00,-6.022092700004577637e-01,7.123454093933105469e+00,-9.580218791961669922e-01,-3.222490549087524414e-01,5.207231998443603516e+00,-1.331436276435852051e+00,9.501771926879882812e-01,1.227506250143051147e-02,3.215623617172241211e+00,2.563132524490356445e+00,-2.802088975906372070e+00,-1.912990808486938477e+00,-1.249884128570556641e+00,3.804588079452514648e+00,7.070586204528808594e+00,7.676596641540527344e+00,7.077699303627014160e-01
1.620398163795471191e+00,2.208611965179443359e+00,5.087370276451110840e-01,-1.362718820571899414e+00,6.874199211597442627e-02,8.031666755676269531e+00,-1.124130725860595703e+00,-1.162760034203529358e-01,5.692781448364257812e+00,-1.228927373886108398e+00,1.472698330879211426e+00,4.541572332382202148e-01,3.008786201477050781e+00,2.917549133300781250e+00,-2.565099477767944336e+00,-8.555957078933715820e-01,-7.364758849143981934e-01,4.792129993438720703e+00,6.851070404052734375e+00,7.122491836547851562e+00,6.649835109710693359e-01
2.841609239578247070e+00,3.137489557266235352e+00,2.217559337615966797e+00,-1.000679373741149902e+00,1.148728370666503906e+00,8.534240722656250000e+00,-1.048742890357971191e+00,-6.655836850404739380e-02,6.094183921813964844e+00,-9.298259019851684570e-01,2.376148223876953125e+00,8.857076168060302734e-01,3.001570940017700195e+00,3.429273605346679688e+00,-1.607214212417602539e+00,5.002868771553039551e-01,2.349287867546081543e-01,5.708956241607666016e+00,6.689507007598876953e+00,6.077397346496582031e+00,5.961066484451293945e-01
4.061546802520751953e+00,4.023770809173583984e+00,4.142222404479980469e+00,-7.883785367012023926e-01,2.491745471954345703e+00,8.510379791259765625e+00,-8.251347541809082031e-01,-1.489475816488265991e-01,6.369366645812988281e+00,-3.456652760505676270e-01,3.445854902267456055e+00,1.276725649833679199e+00,3.148281097412109375e+00,4.073667526245117188e+00,1.449026446789503098e-02,2.053147077560424805e+00,1.565945386886596680e+00,6.586081981658935547e+00,6.685994625091552734e+00,4.667544364929199219e+00,5.063969492912292480e-01
5.058635711669921875e+00,4.790506839752197266e+00,6.021131515502929688e+00,-6.417166590690612793e-01,3.919467210769653320e+00,7.997366428375244141e+00,-5.925822854042053223e-01,-2.590366303920745850e-01,6.535386085510253906e+00,6.246592402458190918e-01,4.441568374633789062e+00,1.675691246986389160e+00,3.403220176696777344e+00,4.852625846862792969e+00,2.136230707168579102e+00,3.712351083755493164e+00,3.091469287872314453e+00,7.481816768646240234e+00,6.900241851806640625e+00,3.027361154556274414e+00,4.018702208995819092e-01
5.680065631866455078e+00,5.389605522155761719e+00,7.627503871917724609e+00,-4.581328630447387695e-01,5.260255336761474609e+00,7.159245967864990234e+00,-4.775838255882263184e-01,-2.561956346035003662e-01,6.651371955871582031e+00,2.042933702468872070e+00,5.176934242248535156e+00,2.189895868301391602e+00,3.721893787384033203e+00,5.779416084289550781e+00,4.522257804870605469e+00,5.416267871856689453e+00,4.616992950439453125e+00,8.432140350341796875e+00,7.312931060791015625e+00,1.328980445861816406e+00,2.900256216526031494e-01
5.853250980377197266e+00,5.786714553833007812e+00,8.784291267395019531e+00,-1.945516914129257202e-01,6.370334148406982422e+00,6.215241432189941406e+00,-5.772491693496704102e-01,-3.743803501129150391e-02,6.745752811431884766e+00,3.836138248443603516e+00,5.554209232330322266e+00,2.913120269775390625e+00,4.045377731323242188e+00,6.825608253479003906e+00,6.872302532196044922e+00,7.100849151611328125e+00,5.927654266357421875e+00,9.376259803771972656e+00,7.804646015167236328e+00,-2.103821188211441040e-01,1.805379092693328857e-01
5.579465389251708984e+00,5.959848403930664062e+00,9.353235244750976562e+00,9.261846542358398438e-02,7.121531963348388672e+00,5.344311714172363281e+00,-9.541885852813720703e-01,4.036284089088439941e-01,6.751438617706298828e+00,5.762744903564453125e+00,5.566998481750488281e+00,3.849338293075561523e+00,4.291898727416992188e+00,7.886962890625000000e+00,8.881132125854492188e+00,8.674252510070800781e+00,6.800674438476562500e+00,1.013180351257324219e+01,8.176943778991699219e+00,-1.348920226097106934e+00,8.482887595891952515e-02
4.889270782470703125e+00,5.895267009735107422e+00,9.229898452758789062e+00,2.649205625057220459e-01,7.387906074523925781e+00,4.619531631469726562e+00,-1.644179344177246094e+00,9.576249122619628906e-01,6.506958007812500000e+00,7.452036380767822266e+00,5.254581928253173828e+00,4.870594978332519531e+00,4.359241008758544922e+00,8.779638290405273438e+00,1.027577304840087891e+01,9.995090484619140625e+00,7.027976512908935547e+00,1.042955493927001953e+01,8.199773788452148438e+00,-1.892369270324707031e+00,1.361159514635801315e-02
3.839971542358398438e+00,5.608084201812744141e+00,8.361561775207519531e+00,1.726158559322357178e-01,7.071377754211425781e+00,4.018530368804931641e+00,-2.662554740905761719e+00,1.446278214454650879e+00,5.817864418029785156e+00,8.533295631408691406e+00,4.668115615844726562e+00,5.767075061798095703e+00,4.152403831481933594e+00,9.295153617858886719e+00,1.090360927581787109e+01,1.091713905334472656e+01,6.480642318725585938e+00,1.002759075164794922e+01,7.688741683959960938e+00,-1.768597364425659180e+00,-2.627403847873210907e-02
2.519433498382568359e+00,5.160134315490722656e+00,6.790996551513671875e+00,-2.591649889945983887e-01,6.137395858764648438e+00,3.483147144317626953e+00,-3.968426227569580078e+00,1.706940650939941406e+00,4.561348438262939453e+00,8.790269851684570312e+00,3.852361679077148438e+00,6.326580524444580078e+00,3.637715816497802734e+00,9.291362762451171875e+00,1.076091957092285156e+01,1.133042907714843750e+01,5.166588783264160156e+00,8.831623077392578125e+00,6.580627441406250000e+00,-1.066129922866821289e+00,-3.463024273514747620e-02
1.063912987709045410e+00,4.658595561981201172e+00,4.679337978363037109e+00,-9.637574553489685059e-01,4.650603294372558594e+00,2.991012334823608398e+00,-5.445517539978027344e+00,1.674979329109191895e+00,2.781758308410644531e+00,8.267895698547363281e+00,2.865783452987670898e+00,6.433077335357666016e+00,2.876506567001342773e+00,8.754999160766601562e+00,9.995355606079101562e+00,1.121562671661376953e+01,3.264490127563476562e+00,6.979361534118652344e+00,4.959724903106689453e+00,-3.822286613285541534e-03,-1.804968714714050293e-02
-3.534049987792968750e-01,4.243623256683349609e+00,2.310062646865844727e+00,-1.729886412620544434e+00,2.793784856796264648e+00,2.594321727752685547e+00,-6.877887248992919922e+00,1.427811741828918457e+00,7.178885936737060547e-01,7.261060714721679688e+00,1.817087173461914062e+00,6.126303195953369141e+00,2.046752452850341797e+00,7.816837787628173828e+00,8.876168251037597656e+00,1.065490531921386719e+01,1.107949018478393555e+00,4.829349040985107422e+00,3.049061536788940430e+00,1.147830724716186523e+00,1.247435994446277618e-02
-1.549147725105285645e+00,4.045755863189697266e+00,2.831722609698772430e-02,-2.279612064361572266e+00,8.411161303520202637e-01,2.407907009124755859e+00,-7.986983776092529297e+00,1.152944207191467285e+00,-1.269794225692749023e+00,6.199460983276367188e+00,8.734433054924011230e-01,5.578718662261962891e+00,1.382949233055114746e+00,6.702415466308593750e+00,7.692460536956787109e+00,9.810197830200195312e+00,-9.027116298675537109e-01,2.850543260574340820e+00,1.147179007530212402e+00,2.172433137893676758e+00,4.545417428016662598e-02
-2.385785579681396484e+00,4.152934074401855469e+00,-1.838655829429626465e+00,-2.370891094207763672e+00,-9.120505452156066895e-01,2.558530092239379883e+00,-8.519809722900390625e+00,1.059901237487792969e+00,-2.819686651229858398e+00,5.467856407165527344e+00,2.367348968982696533e-01,5.013649940490722656e+00,1.091934084892272949e+00,5.637270450592041016e+00,6.693629741668701172e+00,8.866396903991699219e+00,-2.410141706466674805e+00,1.443668365478515625e+00,-4.631868600845336914e-01,2.969983577728271484e+00,7.236873358488082886e-02
-2.817475318908691406e+00,4.588517189025878906e+00,-3.078994274139404297e+00,-1.900137305259704590e+00,-2.230547666549682617e+00,3.111809015274047852e+00,-8.347311973571777344e+00,1.285761356353759766e+00,-3.713461637496948242e+00,5.264242649078369141e+00,6.956469267606735229e-02,4.602763175964355469e+00,1.263897657394409180e+00,4.769233703613281250e+00,6.029810428619384766e+00,7.956432819366455078e+00,-3.206263780593872070e+00,8.146686553955078125e-01,-1.588862538337707520e+00,3.569990634918212891e+00,8.927892148494720459e-02
-2.904067993164062500e+00,5.293420314788818359e+00,-3.647938728332519531e+00,-9.381172657012939453e-01,-2.996234655380249023e+00,4.023004055023193359e+00,-7.516767501831054688e+00,1.831945061683654785e+00,-3.938611030578613281e+00,5.559131145477294922e+00,4.230885803699493408e-01,4.396127700805664062e+00,1.824282288551330566e+00,4.121049404144287109e+00,5.745670795440673828e+00,7.146770000457763672e+00,-3.270722627639770508e+00,9.213628768920898438e-01,-2.166627407073974609e+00,4.063438892364501953e+00,9.623418748378753662e-02
-2.788186788558959961e+00,6.156342029571533203e+00,-3.654901266098022461e+00,3.069704771041870117e-01,-3.231401920318603516e+00,5.144475460052490234e+00,-6.239006996154785156e+00,2.564214706420898438e+00,-3.675936698913574219e+00,6.148909091949462891e+00,1.194081306457519531e+00,4.311883926391601562e+00,2.563845634460449219e+00,3.620696544647216797e+00,5.789098262786865234e+00,6.413239955902099609e+00,-2.755052566528320312e+00,1.520587444305419922e+00,-2.263214111328125000e+00,4.524100303649902344e+00,9.554196149110794067e-02
-2.635376214981079102e+00,7.045371055603027344e+00,-3.284888505935668945e+00,1.580775260925292969e+00,-3.053076028823852539e+00,6.294281482696533203e+00,-4.793859481811523438e+00,3.278728246688842773e+00,-3.191524267196655273e+00,6.754132747650146484e+00,2.152341127395629883e+00,4.192671298980712891e+00,3.222838878631591797e+00,3.137401103973388672e+00,6.042218208312988281e+00,5.674876213073730469e+00,-1.897864222526550293e+00,2.292259693145751953e+00,-2.040186405181884766e+00,4.955253124237060547e+00,9.005356580018997192e-02
-2.550056934356689453e+00,7.865696430206298828e+00,-2.704008102416992188e+00,2.683303594589233398e+00,-2.590543270111083984e+00,7.338203907012939453e+00,-3.411322593688964844e+00,3.787978887557983398e+00,-2.720757246017456055e+00,7.112212181091308594e+00,3.029299736022949219e+00,3.894639253616333008e+00,3.600436925888061523e+00,2.565027713775634766e+00,6.363581180572509766e+00,4.837419509887695312e+00,-9.151510000228881836e-01,2.977087736129760742e+00,-1.708278894424438477e+00,5.312633991241455078e+00,8.204347640275955200e-02
-2.532228946685791016e+00,8.585714340209960938e+00,-1.986859798431396484e+00,3.525327444076538086e+00,-1.927393674850463867e+00,8.241942405700683594e+00,-2.178283452987670898e+00,4.006026268005371094e+00,-2.377347469329833984e+00,7.019532680511474609e+00,3.623073577880859375e+00,3.362950086593627930e+00,3.624487876892089844e+00,1.859984993934631348e+00,6.606774806976318359e+00,3.818694829940795898e+00,7.208563387393951416e-02,3.441083431243896484e+00,-1.464177608489990234e+00,5.569194793701171875e+00,7.311040908098220825e-02
-2.487659215927124023e+00,9.230157852172851562e+00,-1.117528796195983887e+00,4.141717433929443359e+00,-1.099292755126953125e+00,9.065150260925292969e+00,-1.033409714698791504e+00,3.965541839599609375e+00,-2.144238233566284180e+00,6.355330944061279297e+00,3.845053672790527344e+00,2.645288944244384766e+00,3.357523441314697266e+00,1.031749367713928223e+00,6.630349636077880859e+00,2.573989629745483398e+00,1.044621109962463379e+00,3.679284572601318359e+00,-1.460665464401245117e+00,5.720016002655029297e+00,6.425975263118743896e-02
-2.291552305221557617e+00,9.852615356445312500e+00,-5.423938482999801636e-02,4.643239974975585938e+00,-1.218438297510147095e-01,9.898797035217285156e+00,1.485189348459243774e-01,3.773063659667968750e+00,-1.928185820579528809e+00,5.081692218780517578e+00,3.729039430618286133e+00,1.862457990646362305e+00,2.940241336822509766e+00,1.277026832103729248e-01,6.330080032348632812e+00,1.091219663619995117e+00,2.035250425338745117e+00,3.752481698989868164e+00,-1.778523921966552734e+00,5.774934768676757812e+00,5.629910901188850403e-02
-1.852221965789794922e+00,1.051354789733886719e+01,1.207981586456298828e+00,5.157069206237792969e+00,9.626006484031677246e-01,1.080104446411132812e+01,1.448001623153686523e+00,3.569931507110595703e+00,-1.633672118186950684e+00,3.263211488723754883e+00,3.405660867691040039e+00,1.155923366546630859e+00,2.509731292724609375e+00,-8.009825944900512695e-01,5.668742179870605469e+00,-5.921532511711120605e-01,3.069983005523681641e+00,3.716503381729125977e+00,-2.419509172439575195e+00,5.745426177978515625e+00,4.988774284720420837e-02
-1.141652822494506836e+00,1.125417613983154297e+01,2.608459949493408203e+00,5.780638694763183594e+00,2.086053848266601562e+00,1.177934837341308594e+01,2.852260589599609375e+00,3.480439662933349609e+00,-1.215212583541870117e+00,1.096481204032897949e+00,3.062185525894165039e+00,6.560242772102355957e-01,2.167006731033325195e+00,-1.701238751411437988e+00,4.724505901336669922e+00,-2.370993852615356445e+00,4.126201629638671875e+00,3.598643541336059570e+00,-3.294059038162231445e+00,5.633129596710205078e+00,4.538824781775474548e-02
-2.133286595344543457e-01,1.207999801635742188e+01,4.011922359466552734e+00,6.528306484222412109e+00,3.156009435653686523e+00,1.278002262115478516e+01,4.251408576965332031e+00,3.574193000793457031e+00,-6.944123506546020508e-01,-1.127822637557983398e+00,2.884966850280761719e+00,4.406464397907257080e-01,1.955359339714050293e+00,-2.519998073577880859e+00,3.672321081161499023e+00,-4.076118946075439453e+00,5.130401134490966797e+00,3.395180225372314453e+00,-4.242366313934326172e+00,5.444602966308593750e+00,4.265229031443595886e-02
8.155958056449890137e-01,1.295253849029541016e+01,5.269170284271240234e+00,7.332383155822753906e+00,4.086647987365722656e+00,1.371358776092529297e+01,5.516391754150390625e+00,3.848350286483764648e+00,-1.349501609802246094e-01,-3.081109762191772461e+00,3.023818731307983398e+00,5.153531432151794434e-01,1.898839831352233887e+00,-3.206088066101074219e+00,2.744214773178100586e+00,-5.516592979431152344e+00,5.985327720642089844e+00,3.101150751113891602e+00,-5.069500446319580078e+00,5.181485176086425781e+00,4.103708639740943909e-02
1.812684774398803711e+00,1.380446720123291016e+01,6.249902725219726562e+00,8.066718101501464844e+00,4.828929424285888672e+00,1.450696945190429688e+01,6.548822402954101562e+00,4.242539882659912109e+00,4.085924029350280762e-01,-4.509213924407958984e+00,3.545426130294799805e+00,8.245117068290710449e-01,2.009473800659179688e+00,-3.710231542587280273e+00,2.131267547607421875e+00,-6.531692504882812500e+00,6.624260902404785156e+00,2.732683420181274414e+00,-5.591069698333740234e+00,4.870006084442138672e+00,3.958670049905776978e-02
2.646775722503662109e+00,1.453685188293457031e+01,6.882505416870117188e+00,8.580547332763671875e+00,5.361678123474121094e+00,1.510349655151367188e+01,7.312923431396484375e+00,4.658037662506103516e+00,9.055131077766418457e-01,-5.312434673309326172e+00,4.400460720062255859e+00,1.260830640792846680e+00,2.302894115447998047e+00,-3.998313426971435547e+00,1.894277811050415039e+00,-7.048909664154052734e+00,7.014406204223632812e+00,2.328237771987915039e+00,-5.673607349395751953e+00,4.569182872772216797e+00,3.749353066086769104e-02
3.233823060989379883e+00,1.504388713836669922e+01,7.150068283081054688e+00,8.753875732421875000e+00,5.703840732574462891e+00,1.549273014068603516e+01,7.811250209808349609e+00,5.006771087646484375e+00,1.368320226669311523e+00,-5.560983657836914062e+00,5.432713985443115234e+00,1.709070801734924316e+00,2.770683050155639648e+00,-4.058962345123291016e+00,1.947631478309631348e+00,-7.103290081024169922e+00,7.160286426544189453e+00,1.928754806518554688e+00,-5.264430522918701172e+00,4.363442420959472656e+00,3.437849506735801697e-02
3.541990995407104492e+00,1.524587726593017578e+01,7.076463699340820312e+00,8.537471771240234375e+00,5.883281230926513672e+00,1.569704055786132812e+01,8.025914192199707031e+00,5.245415687561035156e+00,1.828853249549865723e+00,-5.427581787109375000e+00,6.424773216247558594e+00,2.092141389846801758e+00,3.364738702774047852e+00,-3.894073247909545898e+00,2.102729558944702148e+00,-6.804802417755126953e+00,7.066425323486328125e+00,1.559046983718872070e+00,-4.384612083435058594e+00,4.345409393310546875e+00,3.043937683105468750e-02
3.573826551437377930e+00,1.509747600555419922e+01,6.685563087463378906e+00,7.959029674530029297e+00,5.907801151275634766e+00,1.574327182769775391e+01,7.884082317352294922e+00,5.384624958038330078e+00,2.307579994201660156e+00,-5.068098068237304688e+00,7.172928333282470703e+00,2.381431102752685547e+00,3.992465734481811523e+00,-3.505541563034057617e+00,2.166009426116943359e+00,-6.302086830139160156e+00,6.706813335418701172e+00,1.219114184379577637e+00,-3.111422061920166016e+00,4.565084457397460938e+00,2.640136703848838806e-02
3.356071472167968750e+00,1.460830402374267578e+01,5.996264934539794922e+00,7.103672504425048828e+00,5.767369270324707031e+00,1.565230178833007812e+01,7.266923904418945312e+00,5.474827289581298828e+00,2.790855407714843750e+00,-4.548532485961914062e+00,7.556597709655761719e+00,2.596014261245727539e+00,4.534812450408935547e+00,-2.891472101211547852e+00,2.010911464691162109e+00,-5.729280471801757812e+00,6.021515369415283203e+00,8.804221153259277344e-01,-1.560764551162719727e+00,4.997876167297363281e+00,2.317096106708049774e-02
2.929475307464599609e+00,1.384431552886962891e+01,5.053329467773437500e+00,6.099602699279785156e+00,5.448611736297607422e+00,1.543605995178222656e+01,6.114383697509765625e+00,5.587047100067138672e+00,3.238879919052124023e+00,-3.804289340972900391e+00,7.584916114807128906e+00,2.782780885696411133e+00,4.910005569458007812e+00,-2.051864862442016602e+00,1.639917135238647461e+00,-5.181852340698242188e+00,4.973212242126464844e+00,5.231205224990844727e-01,1.374076157808303833e-01,5.529030323028564453e+00,2.148983068764209747e-02
2.375536918640136719e+00,1.294566822052001953e+01,3.972136020660400391e+00,5.092455863952636719e+00,4.986079216003417969e+00,1.513481426239013672e+01,4.523571491241455078e+00,5.779525279998779297e+00,3.618677377700805664e+00,-2.690733194351196289e+00,7.387600898742675781e+00,2.991800785064697266e+00,5.100007057189941406e+00,-9.961960315704345703e-01,1.157252192497253418e+00,-4.704513549804687500e+00,3.619578599929809570e+00,1.620970219373703003e-01,1.867190003395080566e+00,6.003625869750976562e+00,2.150631323456764221e-02
1.825418949127197266e+00,1.209648704528808594e+01,2.956590175628662109e+00,4.224792003631591797e+00,4.476735591888427734e+00,1.481716346740722656e+01,2.787094831466674805e+00,6.083513259887695312e+00,3.932522058486938477e+00,-1.095525264739990234e+00,7.145523548126220703e+00,3.258042812347412109e+00,5.172159671783447266e+00,2.433145195245742798e-01,7.031252980232238770e-01,-4.300890922546386719e+00,2.150597572326660156e+00,-1.306917667388916016e-01,3.524971246719360352e+00,6.283137321472167969e+00,2.280836366117000580e-02
1.433205127716064453e+00,1.148777008056640625e+01,2.258340358734130859e+00,3.621734619140625000e+00,4.064356803894042969e+00,1.457407855987548828e+01,1.338114142417907715e+00,6.497590065002441406e+00,4.242955207824707031e+00,9.841426610946655273e-01,7.008498668670654297e+00,3.591043949127197266e+00,5.250324726104736328e+00,1.598436951637268066e+00,3.767991364002227783e-01,-3.944397687911987305e+00,8.704694509506225586e-01,-2.262203246355056763e-01,5.038750171661376953e+00,6.301170349121093750e+00,2.445653080940246582e-02
1.345339059829711914e+00,1.126516914367675781e+01,2.087259292602539062e+00,3.388921499252319336e+00,3.892718315124511719e+00,1.449205589294433594e+01,6.225681900978088379e-01,7.006130218505859375e+00,4.653455257415771484e+00,3.431719541549682617e+00,7.034076690673828125e+00,3.995572566986083984e+00,5.469187736511230469e+00,2.991464853286743164e+00,2.154972553253173828e-01,-3.580653905868530273e+00,1.014878749847412109e-01,2.066515013575553894e-02,6.376916885375976562e+00,6.079036712646484375e+00,2.549487538635730743e-02
1.636952638626098633e+00,1.147677707672119141e+01,2.529881954193115234e+00,3.589940786361694336e+00,4.029806137084960938e+00,1.461732673645019531e+01,9.215641617774963379e-01,7.594929218292236328e+00,5.277733325958251953e+00,6.056229591369628906e+00,7.183890342712402344e+00,4.484345436096191406e+00,5.922545909881591797e+00,4.357958793640136719e+00,2.092933356761932373e-01,-3.137152194976806641e+00,6.416964530944824219e-02,7.290651798248291016e-01,7.553520202636718750e+00,5.704442024230957031e+00,2.523116953670978546e-02
2.274936676025390625e+00,1.206213474273681641e+01,3.492710828781127930e+00,4.226842880249023438e+00,4.443299770355224609e+00,1.494392490386962891e+01,2.246602058410644531e+00,8.266827583312988281e+00,6.180604934692382812e+00,8.662484169006347656e+00,7.367503643035888672e+00,5.089151382446289062e+00,6.628437995910644531e+00,5.667594909667968750e+00,3.346124887466430664e-01,-2.526884078979492188e+00,7.709541916847229004e-01,1.937439322471618652e+00,8.600170135498046875e+00,5.300338745117187500e+00,2.351707592606544495e-02
3.107754230499267578e+00,1.285360431671142578e+01,4.727081298828125000e+00,5.224759578704833984e+00,4.994995594024658203e+00,1.541369056701660156e+01,4.322963237762451172e+00,9.023956298828125000e+00,7.350699901580810547e+00,1.110584831237792969e+01,7.491739273071289062e+00,5.840192317962646484e+00,7.531547546386718750e+00,6.920372486114501953e+00,5.827692747116088867e-01,-1.679759621620178223e+00,2.006978988647460938e+00,3.582515239715576172e+00,9.555501937866210938e+00,4.965089321136474609e+00,2.076463773846626282e-02
3.910009860992431641e+00,1.364232635498046875e+01,5.925644397735595703e+00,6.433950901031494141e+00,5.492078781127929688e+00,1.592968654632568359e+01,6.708542346954345703e+00,9.847847938537597656e+00,8.694773674011230469e+00,1.330628013610839844e+01,7.519144535064697266e+00,6.730314731597900391e+00,8.533265113830566406e+00,8.131453514099121094e+00,9.612083435058593750e-01,-5.824856758117675781e-01,3.404716014862060547e+00,5.510455131530761719e+00,1.045463752746582031e+01,4.753611087799072266e+00,1.773201115429401398e-02
4.446120262145996094e+00,1.422905826568603516e+01,6.817852497100830078e+00,7.652372837066650391e+00,5.748422145843505859e+00,1.639199447631835938e+01,8.954846382141113281e+00,1.067671203613281250e+01,1.007296085357666016e+01,1.523429107666015625e+01,7.477123737335205078e+00,7.675274848937988281e+00,9.534982681274414062e+00,9.293257713317871094e+00,1.467448115348815918e+00,7.117659449577331543e-01,4.572889804840087891e+00,7.514073371887207031e+00,1.131162548065185547e+01,4.665904998779296875e+00,1.527624297887086868e-02
4.544173717498779297e+00,1.449150753021240234e+01,7.255502223968505859e+00,8.663621902465820312e+00,5.652572154998779297e+00,1.671411895751953125e+01,1.075393295288085938e+01,1.139974880218505859e+01,1.134767055511474609e+01,1.683792495727539062e+01,7.427794456481933594e+00,8.505790710449218750e+00,1.046454715728759766e+01,1.036219406127929688e+01,2.065505981445312500e+00,2.066440105438232422e+00,5.228785514831542969e+00,9.381222724914550781e+00,1.212295532226562500e+01,4.690495491027832031e+00,1.399067323654890060e-02
4.173607826232910156e+00,1.440494060516357422e+01,7.247544765472412109e+00,9.290267944335937500e+00,5.219017505645751953e+00,1.684535598754882812e+01,1.199975013732910156e+01,1.188271999359130859e+01,1.241542530059814453e+01,1.802871322631835938e+01,7.431448459625244141e+00,9.023969650268554688e+00,1.128708648681640625e+01,1.125676441192626953e+01,2.688379526138305664e+00,3.324438095092773438e+00,5.274019718170166016e+00,1.094565773010253906e+01,1.287281990051269531e+01,4.833940029144287109e+00,1.400715485215187073e-02
3.433750152587890625e+00,1.402019786834716797e+01,6.902398586273193359e+00,9.416418075561523438e+00,4.568127632141113281e+00,1.676035118103027344e+01,1.274596214294433594e+01,1.200701427459716797e+01,1.322050476074218750e+01,1.865640449523925781e+01,7.525538921356201172e+00,9.071654319763183594e+00,1.199778842926025391e+01,1.189926242828369141e+01,3.259140014648437500e+00,4.356455802917480469e+00,4.793406486511230469e+00,1.209696292877197266e+01,1.354190349578857422e+01,5.104434967041015625e+00,1.496309135109186172e-02
2.497785568237304688e+00,1.339224338531494141e+01,6.342405796051025391e+00,8.996944427490234375e+00,3.861511230468750000e+00,1.643076896667480469e+01,1.312290191650390625e+01,1.169592380523681641e+01,1.372538566589355469e+01,1.857776832580566406e+01,7.703670978546142578e+00,8.589240074157714844e+00,1.258943939208984375e+01,1.224420261383056641e+01,3.734360218048095703e+00,5.094819545745849609e+00,3.956573486328125000e+00,1.276814365386962891e+01,1.409859466552734375e+01,5.465914726257324219e+00,1.613328978419303894e-02
1.527438402175903320e+00,1.253344440460205078e+01,5.623268127441406250e+00,8.039027214050292969e+00,3.226225137710571289e+00,1.580739879608154297e+01,1.325195503234863281e+01,1.093027210235595703e+01,1.388458156585693359e+01,1.769731521606445312e+01,7.911948680877685547e+00,7.644279479980468750e+00,1.301874732971191406e+01,1.228968906402587891e+01,4.109076976776123047e+00,5.551614284515380859e+00,2.912794113159179688e+00,1.290585327148437500e+01,1.449021053314208984e+01,5.793787479400634766e+00,1.679255627095699310e-02
6.042078733444213867e-01,1.139708042144775391e+01,4.702215194702148438e+00,6.575484752655029297e+00,2.700163841247558594e+00,1.483058547973632812e+01,1.319062232971191406e+01,9.738469123840332031e+00,1.361508464813232422e+01,1.602346992492675781e+01,8.065416336059570312e+00,6.394929409027099609e+00,1.318469810485839844e+01,1.206415176391601562e+01,4.390735149383544922e+00,5.777594566345214844e+00,1.707302331924438477e+00,1.243317317962646484e+01,1.462367630004882812e+01,5.897067546844482422e+00,1.639699563384056091e-02
-2.820934057235717773e-01,9.935060501098632812e+00,3.477791070938110352e+00,4.652470111846923828e+00,2.244318246841430664e+00,1.347199440002441406e+01,1.295168113708496094e+01,8.187279701232910156e+00,1.281910228729248047e+01,1.368682765960693359e+01,8.076378822326660156e+00,5.039082050323486328e+00,1.295020198822021484e+01,1.160170459747314453e+01,4.589260578155517578e+00,5.842851161956787109e+00,2.846864163875579834e-01,1.125457477569580078e+01,1.438133144378662109e+01,5.604440689086914062e+00,1.483123842626810074e-02
-1.177308678627014160e+00,8.158375740051269531e+00,1.876391768455505371e+00,2.331520080566406250e+00,1.781785249710083008e+00,1.178233146667480469e+01,1.253513145446777344e+01,6.382529258728027344e+00,1.143522930145263672e+01,1.092891502380371094e+01,7.873581886291503906e+00,3.763504981994628906e+00,1.219741058349609375e+01,1.093077659606933594e+01,4.688522815704345703e+00,5.817473411560058594e+00,-1.452307224273681641e+00,9.315468788146972656e+00,1.365253925323486328e+01,4.865087985992431641e+00,1.242491509765386581e-02
-2.122187376022338867e+00,6.171456813812255859e+00,-8.407912403345108032e-02,-2.930100262165069580e-01,1.240120291709899902e+00,9.900288581848144531e+00,1.193586158752441406e+01,4.455615520477294922e+00,9.469151496887207031e+00,8.043218612670898438e+00,7.421400070190429688e+00,2.709663629531860352e+00,1.087461471557617188e+01,1.008548355102539062e+01,4.651299476623535156e+00,5.772760868072509766e+00,-3.546651124954223633e+00,6.654316425323486328e+00,1.239515495300292969e+01,3.800321102142333984e+00,9.787848219275474548e-03
-3.097628116607666016e+00,4.180415630340576172e+00,-2.261385440826416016e+00,-3.061125278472900391e+00,5.847725868225097656e-01,8.040615081787109375e+00,1.118198299407958984e+01,2.571317195892333984e+00,7.040266513824462891e+00,5.324624538421630859e+00,6.727141380310058594e+00,1.990413069725036621e+00,9.050357818603515625e+00,9.134055137634277344e+00,4.470145225524902344e+00,5.805388927459716797e+00,-5.894306659698486328e+00,3.464655399322509766e+00,1.067239665985107422e+01,2.675717592239379883e+00,7.628750056028366089e-03
-4.025952339172363281e+00,2.431212902069091797e+00,-4.431729316711425781e+00,-5.749242782592773438e+00,-1.831433624029159546e-01,6.452361106872558594e+00,1.029905033111572266e+01,9.178507924079895020e-01,4.354393005371093750e+00,3.023087978363037109e+00,5.833739757537841797e+00,1.703507542610168457e+00,6.899010181427001953e+00,8.207264900207519531e+00,4.200894832611083984e+00,6.045870780944824219e+00,-8.236308097839355469e+00,9.262172132730484009e-02,8.680952072143554688e+00,1.807674646377563477e+00,6.491514854133129120e-03
-4.802739143371582031e+00,1.136830091476440430e+00,-6.357387065887451172e+00,-8.094807624816894531e+00,-1.042451381683349609e+00,5.350276947021484375e+00,9.302396774291992188e+00,-3.336130976676940918e-01,1.656011223793029785e+00,1.290265321731567383e+00,4.795092105865478516e+00,1.918885350227355957e+00,4.655066490173339844e+00,7.473793029785156250e+00,3.940330266952514648e+00,6.630761623382568359e+00,-1.021756649017333984e+01,-3.031286001205444336e+00,6.700043678283691406e+00,1.451932668685913086e+00,6.606886629015207291e-03
-5.338849544525146484e+00,4.333014488220214844e-01,-7.858325958251953125e+00,-9.855775833129882812e+00,-1.971975207328796387e+00,4.864107608795166016e+00,8.199688911437988281e+00,-1.066593050956726074e+00,-8.433749079704284668e-01,1.682837307453155518e-01,3.671489000320434570e+00,2.648467779159545898e+00,2.555427789688110352e+00,7.100423336029052734e+00,3.819974422454833984e+00,7.653111457824707031e+00,-1.151352691650390625e+01,-5.497659206390380859e+00,5.005383968353271484e+00,1.711771845817565918e+00,7.727639749646186829e-03
-5.598627567291259766e+00,3.343677222728729248e-01,-8.868898391723632812e+00,-1.088958835601806641e+01,-2.933820486068725586e+00,4.990869522094726562e+00,6.989649772644042969e+00,-1.269725084304809570e+00,-3.002762556076049805e+00,-4.004303216934204102e-01,2.531442880630493164e+00,3.790526628494262695e+00,7.552222609519958496e-01,7.161072254180908203e+00,3.924200296401977539e+00,9.097210884094238281e+00,-1.195795249938964844e+01,-7.032319068908691406e+00,3.788389921188354492e+00,2.515059947967529297e+00,9.260434657335281372e-03
-5.611361980438232422e+00,7.355989217758178711e-01,-9.432868957519531250e+00,-1.120752716064453125e+01,-3.893436908721923828e+00,5.584414005279541016e+00,5.691444873809814453e+00,-1.056649565696716309e+00,-4.776667118072509766e+00,-5.675339698791503906e-01,1.458995819091796875e+00,5.116967678070068359e+00,-6.721952557563781738e-01,7.596985816955566406e+00,4.267897129058837891e+00,1.080958652496337891e+01,-1.161417293548583984e+01,-7.559587001800537109e+00,3.105257511138916016e+00,3.652778387069702148e+00,1.052952278405427933e-02
-5.448363780975341797e+00,1.451494216918945312e+00,-9.656667709350585938e+00,-1.097881698608398438e+01,-4.798440933227539062e+00,6.389725685119628906e+00,4.352351665496826172e+00,-6.468341946601867676e-01,-6.161677360534667969e+00,-5.085561871528625488e-01,5.573728680610656738e-01,6.322607040405273438e+00,-1.716001868247985840e+00,8.230008125305175781e+00,4.813842296600341797e+00,1.254734039306640625e+01,-1.074454498291015625e+01,-7.196082592010498047e+00,2.875205278396606445e+00,4.852792739868164062e+00,1.100749149918556213e-02
-5.178398609161376953e+00,2.280064105987548828e+00,-9.636774063110351562e+00,-1.046601295471191406e+01,-5.564127922058105469e+00,7.141349792480468750e+00,3.065646648406982422e+00,-2.760826945304870605e-01,-7.139599323272705078e+00,-3.681329786777496338e-01,-4.553611204028129578e-02,7.130869865417480469e+00,-2.374994993209838867e+00,8.827019691467285156e+00,5.531015396118164062e+00,1.405427932739257812e+01,-9.684933662414550781e+00,-6.178765296936035156e+00,2.959499120712280273e+00,5.881493568420410156e+00,1.044711470603942871e-02
-4.830754756927490234e+00,3.059167146682739258e+00,-9.419939041137695312e+00,-9.936799049377441406e+00,-6.089074611663818359e+00,7.652872085571289062e+00,1.939939498901367188e+00,-1.333220452070236206e-01,-7.666084766387939453e+00,-2.473690062761306763e-01,-2.419382780790328979e-01,7.384395599365234375e+00,-2.639554262161254883e+00,9.181436538696289062e+00,6.395841598510742188e+00,1.514309406280517578e+01,-8.711267471313476562e+00,-4.775612354278564453e+00,3.208868741989135742e+00,6.590517997741699219e+00,9.013209491968154907e-03
-4.387603759765625000e+00,3.709106683731079102e+00,-8.995220184326171875e+00,-9.571682929992675781e+00,-6.268515110015869141e+00,7.867621898651123047e+00,1.078728795051574707e+00,-3.130157887935638428e-01,-7.686553001403808594e+00,-2.136674374341964722e-01,1.965805655345320702e-03,7.073647499084472656e+00,-2.509679555892944336e+00,9.160588264465332031e+00,7.389709472656250000e+00,1.572798442840576172e+01,-7.955855846405029297e+00,-3.226064920425415039e+00,3.496873140335083008e+00,6.920849800109863281e+00,7.117818109691143036e-03
-3.784002304077148438e+00,4.242249488830566406e+00,-8.323825836181640625e+00,-9.414764404296875000e+00,-6.017744541168212891e+00,7.881043910980224609e+00,5.676244497299194336e-01,-8.123229146003723145e-01,-7.182809352874755859e+00,-3.091552257537841797e-01,6.121827363967895508e-01,6.305917263031005859e+00,-2.034675598144531250e+00,8.715198516845703125e+00,8.459264755249023438e+00,1.581982707977294922e+01,-7.400606155395507812e+00,-1.711255073547363281e+00,3.739218473434448242e+00,6.868390560150146484e+00,5.354279652237892151e-03
-2.939723730087280273e+00,4.732795715332031250e+00,-7.388847351074218750e+00,-9.395277976989746094e+00,-5.286608219146728516e+00,7.875078201293945312e+00,4.743479192256927490e-01,-1.561638712882995605e+00,-6.216259002685546875e+00,-5.661297440528869629e-01,1.421542406082153320e+00,5.225054264068603516e+00,-1.329985857009887695e+00,7.868010520935058594e+00,9.484152793884277344e+00,1.547420978546142578e+01,-6.944871425628662109e+00,-3.577271401882171631e-01,3.869171619415283203e+00,6.447893619537353516e+00,4.217044916003942490e-03
-1.782183766365051270e+00,5.265938282012939453e+00,-6.215150833129882812e+00,-9.374766349792480469e+00,-4.052815914154052734e+00,8.040615081787109375e+00,8.653427362442016602e-01,-2.465079069137573242e+00,-4.933589458465576172e+00,-9.958248138427734375e-01,2.229988574981689453e+00,3.935171604156494141e+00,-5.723842382431030273e-01,6.698625087738037109e+00,1.027453231811523438e+01,1.475034713745117188e+01,-6.502707004547119141e+00,7.538777589797973633e-01,3.837561368942260742e+00,5.694605827331542969e+00,4.002783447504043579e-03
-2.833668291568756104e-01,5.865036964416503906e+00,-4.880320072174072266e+00,-9.233232498168945312e+00,-2.340886831283569336e+00,8.467131614685058594e+00,1.796830296516418457e+00,-3.437413930892944336e+00,-3.524699926376342773e+00,-1.557517647743225098e+00,2.865783452987670898e+00,2.468853950500488281e+00,5.414020642638206482e-02,5.307492256164550781e+00,1.064924907684326172e+01,1.367965888977050781e+01,-6.062804222106933594e+00,1.564009547233581543e+00,3.616289615631103516e+00,4.645413398742675781e+00,4.645568318665027618e-03
1.503243327140808105e+00,6.439402103424072266e+00,-3.495755910873413086e+00,-8.924524307250976562e+00,-2.399847507476806641e-01,9.089011192321777344e+00,3.276477336883544922e+00,-4.421823024749755859e+00,-2.170392036437988281e+00,-2.131848573684692383e+00,3.249452829360961914e+00,8.165642023086547852e-01,4.293333590030670166e-01,3.812119483947753906e+00,1.052144813537597656e+01,1.228631496429443359e+01,-5.693014621734619141e+00,2.051577329635620117e+00,3.219405651092529297e+00,3.339659929275512695e+00,5.848729982972145081e-03
3.427382946014404297e+00,6.810403823852539062e+00,-2.174850225448608398e+00,-8.472230911254882812e+00,2.063763141632080078e+00,9.704925537109375000e+00,5.212284564971923828e+00,-5.365037918090820312e+00,-9.775548577308654785e-01,-2.540480375289916992e+00,3.412968873977661133e+00,-1.000239133834838867e+00,5.507901310920715332e-01,2.343280553817749023e+00,9.950687408447265625e+00,1.061985969543457031e+01,-5.482675552368164062e+00,2.232709407806396484e+00,2.710129499435424805e+00,1.851117730140686035e+00,7.167262956500053406e-03
5.262383460998535156e+00,6.800785064697265625e+00,-1.014084339141845703e+00,-7.925582408905029297e+00,4.307325839996337891e+00,1.008372020721435547e+01,7.369144916534423828e+00,-6.183958053588867188e+00,2.879488281905651093e-02,-2.627542734146118164e+00,3.457730293273925781e+00,-2.870290756225585938e+00,5.159164071083068848e-01,1.033644676208496094e+00,9.137973785400390625e+00,8.791472434997558594e+00,-5.466843605041503906e+00,2.153308868408203125e+00,2.197341203689575195e+00,3.273291885852813721e-01,8.222090080380439758e-03
6.785395145416259766e+00,6.347339153289794922e+00,-5.921267345547676086e-02,-7.305089950561523438e+00,6.205382347106933594e+00,1.009863376617431641e+01,9.382895469665527344e+00,-6.756421089172363281e+00,8.941419124603271484e-01,-2.336866617202758789e+00,3.498837709426879883e+00,-4.571855068206787109e+00,4.822452068328857422e-01,-1.176093122921884060e-03,8.346353530883789062e+00,6.986046314239501953e+00,-5.566358566284179688e+00,1.875407695770263672e+00,1.798701167106628418e+00,-1.014490008354187012e+00,8.848393335938453674e-03
7.825780391693115234e+00,5.565487861633300781e+00,6.857861280441284180e-01,-6.573831558227539062e+00,7.528337955474853516e+00,9.789930343627929688e+00,1.087020969390869141e+01,-6.943927764892578125e+00,1.675342202186584473e+00,-1.793428659439086914e+00,3.621246576309204102e+00,-5.829153060913085938e+00,6.085121631622314453e-01,-6.796849370002746582e-01,7.781797409057617188e+00,5.425935268402099609e+00,-5.609331130981445312e+00,1.454833984375000000e+00,1.616064190864562988e+00,-1.946468234062194824e+00,9.029691107571125031e-03
8.290578842163085938e+00,4.691573143005371094e+00,1.233842730522155762e+00,-5.677450180053710938e+00,8.148020744323730469e+00,9.315691947937011719e+00,1.152570056915283203e+01,-6.658406257629394531e+00,2.403097867965698242e+00,-1.283692359924316406e+00,3.861496686935424805e+00,-6.415679931640625000e+00,9.849078059196472168e-01,-9.848244190216064453e-01,7.536121845245361328e+00,4.298449993133544922e+00,-5.406908035278320312e+00,9.325285553932189941e-01,1.696845889091491699e+00,-2.333358049392700195e+00,8.980246260762214661e-03
8.170877456665039062e+00,3.977051973342895508e+00,1.597887516021728516e+00,-4.608767032623291016e+00,8.074460983276367188e+00,8.862330436706542969e+00,1.127014827728271484e+01,-5.914062500000000000e+00,3.059215307235717773e+00,-1.158715724945068359e+00,4.217761039733886719e+00,-6.238450527191162109e+00,1.613837361335754395e+00,-9.620810747146606445e-01,7.548529624938964844e+00,3.691807270050048828e+00,-4.857312679290771484e+00,3.283415138721466064e-01,2.014704465866088867e+00,-2.214504241943359375e+00,9.013209491968154907e-03
7.517612457275390625e+00,3.549713373184204102e+00,1.763995409011840820e+00,-3.457009792327880859e+00,7.419113159179687500e+00,8.522310256958007812e+00,1.028754997253417969e+01,-4.848684787750244141e+00,3.592523813247680664e+00,-1.700749397277832031e+00,4.656240463256835938e+00,-5.375349521636962891e+00,2.413527965545654297e+00,-7.062187790870666504e-01,7.635384559631347656e+00,3.561294555664062500e+00,-4.003516674041748047e+00,-3.626896739006042480e-01,2.473052740097045898e+00,-1.805482983589172363e+00,9.441733360290527344e-03
6.426290512084960938e+00,3.368335008621215820e+00,1.701331973075866699e+00,-2.418069124221801758e+00,6.364761352539062500e+00,8.264312744140625000e+00,8.956123352050781250e+00,-3.689553499221801758e+00,3.941619157791137695e+00,-2.999664306640625000e+00,5.133086681365966797e+00,-4.045729160308837891e+00,3.234864234924316406e+00,-3.480116128921508789e-01,7.580790042877197266e+00,3.746187686920166016e+00,-3.035504579544067383e+00,-1.165377616882324219e+00,2.926132917404174805e+00,-1.389904260635375977e+00,1.049655955284833908e-02
5.029346942901611328e+00,3.270775318145751953e+00,1.386025309562683105e+00,-1.720655918121337891e+00,5.108678340911865234e+00,7.992892742156982422e+00,7.678362846374511719e+00,-2.668211221694946289e+00,4.065565109252929688e+00,-4.899590492248535156e+00,5.593489646911621094e+00,-2.537289619445800781e+00,3.920313119888305664e+00,-1.823357865214347839e-02,7.213518142700195312e+00,4.020506381988525391e+00,-2.197540998458862305e+00,-2.109497308731079102e+00,3.205356597900390625e+00,-1.184983849525451660e+00,1.221065316349267960e-02
3.498694658279418945e+00,3.096267223358154297e+00,8.310062289237976074e-01,-1.525790452957153320e+00,3.825846195220947266e+00,7.633484840393066406e+00,6.726431369781494141e+00,-1.938782453536987305e+00,3.971184253692626953e+00,-7.035427570343017578e+00,5.961629390716552734e+00,-1.113888740539550781e+00,4.319557189941406250e+00,1.864562481641769409e-01,6.449195384979248047e+00,4.165520191192626953e+00,-1.679609179496765137e+00,-3.200011730194091797e+00,3.166721820831298828e+00,-1.225148200988769531e+00,1.446864102035760880e-02
2.035533428192138672e+00,2.787099361419677734e+00,1.098791807889938354e-01,-1.833472728729248047e+00,2.643322467803955078e+00,7.206967830657958984e+00,6.164216518402099609e+00,-1.523995280265808105e+00,3.711921215057373047e+00,-8.966246604919433594e+00,6.159858703613281250e+00,4.406514763832092285e-02,4.335190296173095703e+00,2.205712050199508667e-01,5.311396598815917969e+00,4.022922992706298828e+00,-1.528074622154235840e+00,-4.374888896942138672e+00,2.731203079223632812e+00,-1.343182444572448730e+00,1.705626212060451508e-02
8.461579084396362305e-01,2.433960914611816406e+00,-6.291517019271850586e-01,-2.451914310455322266e+00,1.651384472846984863e+00,6.855017185211181641e+00,5.886942386627197266e+00,-1.310919761657714844e+00,3.398076534271240234e+00,-1.028341674804687500e+01,6.161685943603515625e+00,8.745810985565185547e-01,3.958794593811035156e+00,1.068546473979949951e-01,3.914273977279663086e+00,3.531083345413208008e+00,-1.598187565803527832e+00,-5.460440635681152344e+00,1.916361451148986816e+00,-1.274329185485839844e+00,1.970981061458587646e-02
1.177608966827392578e-01,2.236093521118164062e+00,-1.175218939781188965e+00,-3.047792196273803711e+00,9.358517527580261230e-01,6.781942367553710938e+00,5.750222206115722656e+00,-1.102105617523193359e+00,3.170652866363525391e+00,-1.071311187744140625e+01,6.020093441009521484e+00,1.424549579620361328e+00,3.275750637054443359e+00,-6.940603256225585938e-02,2.411684751510620117e+00,2.722629308700561523e+00,-1.602710962295532227e+00,-6.171321868896484375e+00,8.503940701484680176e-01,-7.964546084403991699e-01,2.224798873066902161e-02
-2.868255972862243652e-02,2.383120059967041016e+00,-1.320438981056213379e+00,-3.289835691452026367e+00,5.791999101638793945e-01,7.144332408905029297e+00,5.701667308807373047e+00,-7.128876447677612305e-01,3.174064159393310547e+00,-1.014720630645751953e+01,5.871193408966064453e+00,1.789340853691101074e+00,2.438781261444091797e+00,-2.001800835132598877e-01,9.537636637687683105e-01,1.680944085121154785e+00,-1.222743630409240723e+00,-6.170081138610839844e+00,-2.787938117980957031e-01,1.527369469404220581e-01,2.458838373422622681e-02
4.310225546360015869e-01,2.949240684509277344e+00,-9.255597591400146484e-01,-2.980102062225341797e+00,6.494157314300537109e-01,7.936222553253173828e+00,5.834554195404052734e+00,-6.442760676145553589e-02,3.491320133209228516e+00,-8.640464782714843750e+00,5.873933792114257812e+00,2.046840429306030273e+00,1.610229730606079102e+00,-2.096564620733261108e-01,-3.440962731838226318e-01,4.978699982166290283e-01,-2.355069965124130249e-01,-5.178817272186279297e+00,-1.276272416114807129e+00,1.420784711837768555e+00,2.676396444439888000e-02
1.409010171890258789e+00,3.841018199920654297e+00,1.240269932895898819e-02,-2.142180681228637695e+00,1.165446400642395020e+00,8.969705581665039062e+00,6.306047916412353516e+00,7.672774195671081543e-01,4.109912395477294922e+00,-6.403522968292236328e+00,6.115097522735595703e+00,2.217712163925170898e+00,8.935146331787109375e-01,-1.016257256269454956e-01,-1.442189931869506836e+00,-7.673787474632263184e-01,1.383877754211425781e+00,-3.110686302185058594e+00,-2.026137351989746094e+00,2.701127767562866211e+00,2.893954515457153320e-02
2.716814041137695312e+00,4.828981399536132812e+00,1.347233653068542480e+00,-1.010935425758361816e+00,2.053732395172119141e+00,9.937571525573730469e+00,7.196647167205810547e+00,1.576254367828369141e+00,4.891112804412841797e+00,-3.762162208557128906e+00,6.516123294830322266e+00,2.245528459548950195e+00,2.802181243896484375e-01,8.300287649035453796e-03,-2.366574048995971680e+00,-2.111176729202270508e+00,3.439772605895996094e+00,-1.629481613636016846e-01,-2.535413503646850586e+00,3.672450780868530273e+00,3.127994015812873840e-02
4.121397495269775391e+00,5.656177043914794922e+00,2.835242033004760742e+00,8.543920516967773438e-02,3.154894828796386719e+00,1.056392478942871094e+01,8.414353370666503906e+00,2.124568939208984375e+00,5.616594314575195312e+00,-1.110971808433532715e+00,6.844982624053955078e+00,2.060351371765136719e+00,-3.330783545970916748e-01,-6.940603256225585938e-02,-3.185491323471069336e+00,-3.552859544754028320e+00,5.587266921997070312e+00,3.223973035812377930e+00,-2.921760797500610352e+00,4.150325298309326172e+00,3.398293256759643555e-02
5.392272472381591797e+00,6.154967784881591797e+00,4.215827465057373047e+00,8.638754487037658691e-01,4.244912147521972656e+00,1.072647857666015625e+01,9.676780700683593750e+00,2.267329454421997070e+00,6.069167613983154297e+00,1.168097138404846191e+00,6.809356212615966797e+00,1.655027747154235840e+00,-1.090679883956909180e+00,-5.129006505012512207e-01,-3.985796928405761719e+00,-5.114178657531738281e+00,7.457701206207275391e+00,6.483109474182128906e+00,-3.336205959320068359e+00,4.156063079833984375e+00,3.708148747682571411e-02
6.340970993041992188e+00,6.293749809265136719e+00,5.295031070709228516e+00,1.202325940132141113e+00,5.093074798583984375e+00,1.050427150726318359e+01,1.063254547119140625e+01,2.018741369247436523e+00,6.115789413452148438e+00,2.811048746109008789e+00,6.202793121337890625e+00,1.118569970130920410e+00,-2.083979845046997070e+00,-1.415052056312561035e+00,-4.838215351104736328e+00,-6.787884235382080078e+00,8.769493103027343750e+00,9.114486694335937500e+00,-3.891141414642333984e+00,3.860977649688720703e+00,4.050967469811439514e-02
6.847793102264404297e+00,6.181075572967529297e+00,6.007206439971923828e+00,1.166429758071899414e+00,5.535545825958251953e+00,1.013144207000732422e+01,1.103120708465576172e+01,1.558498024940490723e+00,5.772379398345947266e+00,3.768735170364379883e+00,5.027120590209960938e+00,6.385397315025329590e-01,-3.291332006454467773e+00,-2.703839778900146484e+00,-5.751432418823242188e+00,-8.506301879882812500e+00,9.410688400268554688e+00,1.084392547607421875e+01,-4.581298351287841797e+00,3.479005813598632812e+00,4.411916062235832214e-02
6.879628181457519531e+00,6.002445220947265625e+00,6.408053398132324219e+00,9.674618244171142578e-01,5.526629447937011719e+00,9.886866569519042969e+00,1.085232067108154297e+01,1.161467194557189941e+00,5.206094741821289062e+00,4.237748622894287109e+00,3.521675348281860352e+00,4.422359466552734375e-01,-4.554001331329345703e+00,-4.146144866943359375e+00,-6.674575328826904297e+00,-1.014737892150878906e+01,9.440091133117675781e+00,1.169127655029296875e+01,-5.280235767364501953e+00,3.140477180480957031e+00,4.779456928372383118e-02
6.500148773193359375e+00,5.948855876922607422e+00,6.639808654785156250e+00,8.618242144584655762e-01,5.175550460815429688e+00,9.985293388366699219e+00,1.032716083526611328e+01,1.094703555107116699e+00,4.676197528839111328e+00,4.580381393432617188e+00,2.088396310806274414e+00,7.060936689376831055e-01,-5.629074096679687500e+00,-5.410294055938720703e+00,-7.504660129547119141e+00,-1.154555797576904297e+01,9.047683715820312500e+00,1.192575550079345703e+01,-5.773706436157226562e+00,2.855227947235107422e+00,5.143702030181884766e-02
5.851977348327636719e+00,6.146723270416259766e+00,6.852665424346923828e+00,1.042331218719482422e+00,4.701872348785400391e+00,1.050427150726318359e+01,9.828834533691406250e+00,1.503808617591857910e+00,4.428305625915527344e+00,5.189818382263183594e+00,1.121914863586425781e+00,1.465081930160522461e+00,-6.286864757537841797e+00,-6.175985813140869141e+00,-8.110162734985351562e+00,-1.254011344909667969e+01,8.465293884277343750e+00,1.191086769104003906e+01,-5.859756469726562500e+00,2.556863784790039062e+00,5.494761466979980469e-02
5.091744899749755859e+00,6.590550899505615234e+00,7.122217655181884766e+00,1.557186245918273926e+00,4.317357063293457031e+00,1.136028861999511719e+01,9.674224853515625000e+00,2.349008321762084961e+00,4.595462322235107422e+00,6.320225238800048828e+00,8.432978391647338867e-01,2.571376800537109375e+00,-6.398701190948486328e+00,-6.255587100982666016e+00,-8.364522933959960938e+00,-1.302107715606689453e+01,7.873856067657470703e+00,1.194436454772949219e+01,-5.422481536865234375e+00,2.174892187118530273e+00,5.827691033482551575e-02
4.317504405975341797e+00,7.151175498962402344e+00,7.419620513916015625e+00,2.304854154586791992e+00,4.137916564941406250e+00,1.234903240203857422e+01,9.978332519531250000e+00,3.442086219787597656e+00,5.150375843048095703e+00,7.987048625946044922e+00,1.239756226539611816e+00,3.742046833038330078e+00,-5.979013919830322266e+00,-5.645308494567871094e+00,-8.192053794860839844e+00,-1.296790504455566406e+01,7.352531909942626953e+00,1.215527248382568359e+01,-4.489979743957519531e+00,1.740460634231567383e+00,6.142490729689598083e-02
3.544537782669067383e+00,7.638973712921142578e+00,7.618552207946777344e+00,3.092520952224731445e+00,4.124542236328125000e+00,1.325277042388916016e+01,1.058910179138183594e+01,4.532322883605957031e+00,5.930438995361328125e+00,9.976845741271972656e+00,2.101185321807861328e+00,4.663959026336669922e+00,-5.175715446472167969e+00,-4.519514560699462891e+00,-7.584070205688476562e+00,-1.244706249237060547e+01,6.883226871490478516e+00,1.248403930664062500e+01,-3.225570201873779297e+00,1.420784711837768555e+00,6.437512487173080444e-02
2.714267015457153320e+00,7.887681961059570312e+00,7.558872699737548828e+00,3.716090440750122070e+00,4.118969440460205078e+00,1.394026851654052734e+01,1.114365005493164062e+01,5.408063411712646484e+00,6.693445205688476562e+00,1.196102619171142578e+01,3.139832973480224609e+00,5.118557453155517578e+00,-4.214884281158447266e+00,-3.164391994476318359e+00,-6.616258621215820312e+00,-1.159389591217041016e+01,6.398089885711669922e+00,1.275201511383056641e+01,-1.873354554176330566e+00,1.456031084060668945e+00,6.711108237504959106e-02
