Fp1,Fp2,F7,F3,Fz,F4,F8,T3,C3,Cz,C4,T4,T5,P3,Pz,P4,T6,O1,Oz,O2,A1
-1.396429538726806641e+01,5.026326179504394531e+00,-5.341238498687744141e+00,2.700455188751220703e+00,-1.330148124694824219e+01,5.681086540222167969e+00,-9.114807128906250000e+00,3.824970722198486328e+00,-4.369977474212646484e+00,-2.867048978805541992e+00,-1.274553203582763672e+01,1.637382745742797852e+00,-8.448559761047363281e+00,-6.029139995574951172e+00,-1.457483577728271484e+01,-1.379356479644775391e+01,7.968559861183166504e-01,-3.284847259521484375e+00,-6.907973289489746094e+00,4.159484863281250000e+00,-1.345578134059906006e-01
-1.422388935089111328e+01,4.122074127197265625e+00,-6.178049564361572266e+00,1.210500597953796387e+00,-1.309508991241455078e+01,5.001879215240478516e+00,-9.358043670654296875e+00,2.345926284790039062e+00,-5.189893722534179688e+00,-4.777065277099609375e+00,-1.223190021514892578e+01,1.242014169692993164e+00,-8.604339599609375000e+00,-6.300660610198974609e+00,-1.299481582641601562e+01,-1.303639888763427734e+01,-7.439533472061157227e-01,-4.371708393096923828e+00,-6.963262557983398438e+00,4.295228958129882812e+00,-1.431522369384765625e-01
-1.439917087554931641e+01,3.019510269165039062e+00,-6.995248317718505859e+00,-5.604668855667114258e-01,-1.278858375549316406e+01,4.160955905914306641e+00,-9.553446769714355469e+00,1.179738402366638184e+00,-6.123687267303466797e+00,-6.594427585601806641e+00,-1.160570430755615234e+01,9.398071169853210449e-01,-8.888176918029785156e+00,-6.616177558898925781e+00,-1.150935554504394531e+01,-1.230498695373535156e+01,-2.533168315887451172e+00,-5.516266822814941406e+00,-7.106448173522949219e+00,4.485270023345947266e+00,-1.518837064504623413e-01
-1.458998394012451172e+01,1.818413972854614258e+00,-7.792833805084228516e+00,-2.432423353195190430e+00,-1.249594020843505859e+01,3.274126291275024414e+00,-9.666414260864257812e+00,4.987596273422241211e-01,-7.011929988861083984e+00,-8.126012802124023438e+00,-1.087545871734619141e+01,7.671174407005310059e-01,-9.177294731140136719e+00,-6.906553745269775391e+00,-1.015799999237060547e+01,-1.161220645904541016e+01,-4.419661045074462891e+00,-6.544088840484619141e+00,-7.256721973419189453e+00,4.707437515258789062e+00,-1.599887162446975708e-01
-1.487398433685302734e+01,5.487194061279296875e-01,-8.605129241943359375e+00,-4.257544517517089844e+00,-1.230803203582763672e+01,2.363300085067749023e+00,-9.693892478942871094e+00,2.992431819438934326e-01,-7.729356765747070312e+00,-9.309308052062988281e+00,-1.006480979919433594e+01,6.637308001518249512e-01,-9.371360778808593750e+00,-7.137848854064941406e+00,-8.957941055297851562e+00,-1.096063232421875000e+01,-6.260988712310791016e+00,-7.371981620788574219e+00,-7.365882873535156250e+00,4.906980514526367188e+00,-1.668603420257568359e-01
-1.528667163848876953e+01,-7.983043789863586426e-01,-9.455015182495117188e+00,-5.952404499053955078e+00,-1.227568721771240234e+01,1.347097516059875488e+00,-9.667431831359863281e+00,4.172669947147369385e-01,-8.230416297912597656e+00,-1.020682621002197266e+01,-9.229566574096679688e+00,5.183078646659851074e-01,-9.426808357238769531e+00,-7.307548999786376953e+00,-7.929810523986816406e+00,-1.035283946990966797e+01,-7.945977687835693359e+00,-8.013363838195800781e+00,-7.441020011901855469e+00,5.013313293457031250e+00,-1.724594533443450928e-01
-1.578367233276367188e+01,-2.201454162597656250e+00,-1.031961059570312500e+01,-7.471631050109863281e+00,-1.239890575408935547e+01,1.493557244539260864e-01,-9.628758430480957031e+00,6.345807313919067383e-01,-8.527762413024902344e+00,-1.093131446838378906e+01,-8.439727783203125000e+00,2.422315478324890137e-01,-9.359478950500488281e+00,-7.431995868682861328e+00,-7.101116180419921875e+00,-9.773375511169433594e+00,-9.375612258911132812e+00,-8.546059608459472656e+00,-7.524662971496582031e+00,4.981639862060546875e+00,-1.773929297924041748e-01
-1.627623558044433594e+01,-3.562197446823120117e+00,-1.111719703674316406e+01,-8.752289772033691406e+00,-1.263764095306396484e+01,-1.199668765068054199e+00,-9.609421730041503906e+00,7.835155129432678223e-01,-8.661885261535644531e+00,-1.156091690063476562e+01,-7.758669376373291016e+00,-1.690426468849182129e-01,-9.219540596008300781e+00,-7.518731594085693359e+00,-6.511402606964111328e+00,-9.206789016723632812e+00,-1.046477508544921875e+01,-9.047894477844238281e+00,-7.663595199584960938e+00,4.817389965057373047e+00,-1.824830174446105957e-01
-1.667782974243164062e+01,-4.668503284454345703e+00,-1.173172950744628906e+01,-9.700708389282226562e+00,-1.292566490173339844e+01,-2.502786636352539062e+00,-9.601280212402343750e+00,8.162999153137207031e-01,-8.660619735717773438e+00,-1.208446884155273438e+01,-7.215714454650878906e+00,-6.291698813438415527e-01,-9.054518699645996094e+00,-7.552671909332275391e+00,-6.172703742980957031e+00,-8.617023468017578125e+00,-1.113529682159423828e+01,-9.514842033386230469e+00,-7.863487720489501953e+00,4.575313568115234375e+00,-1.881408691406250000e-01
-1.692189216613769531e+01,-5.258449554443359375e+00,-1.203736209869384766e+01,-1.020565319061279297e+01,-1.318442344665527344e+01,-3.440739631652832031e+00,-9.566677093505859375e+00,8.088063597679138184e-01,-8.525232315063476562e+00,-1.240820026397705078e+01,-6.804241180419921875e+00,-9.859104752540588379e-01,-8.894778251647949219e+00,-7.496105194091796875e+00,-6.067827701568603516e+00,-7.968024730682373047e+00,-1.133158874511718750e+01,-9.874445915222167969e+00,-8.071886062622070312e+00,4.340023994445800781e+00,-1.939161568880081177e-01
-1.700620460510253906e+01,-5.137466907501220703e+00,-1.196871757507324219e+01,-1.017052745819091797e+01,-1.336925125122070312e+01,-3.727655172348022461e+00,-9.467957496643066406e+00,8.856155276298522949e-01,-8.243069648742675781e+00,-1.241154956817626953e+01,-6.507224082946777344e+00,-1.107474923133850098e+00,-8.756159782409667969e+00,-7.312577247619628906e+00,-6.138318538665771484e+00,-7.239188194274902344e+00,-1.103975582122802734e+01,-1.000460052490234375e+01,-8.200895309448242188e+00,4.187991142272949219e+00,-1.987909078598022461e-01
-1.697957992553710938e+01,-4.285599231719970703e+00,-1.153887081146240234e+01,-9.586546897888183594e+00,-1.347552776336669922e+01,-3.243550300598144531e+00,-9.295962333679199219e+00,1.143207192420959473e+00,-7.816662311553955078e+00,-1.202418804168701172e+01,-6.318041324615478516e+00,-9.484186172485351562e-01,-8.649226188659667969e+00,-6.994546413421630859e+00,-6.327439308166503906e+00,-6.463994503021240234e+00,-1.030669879913330078e+01,-9.824798583984375000e+00,-8.183882713317871094e+00,4.159032344818115234e+00,-2.018253952264785767e-01
-1.687751770019531250e+01,-2.876213312149047852e+00,-1.083934879302978516e+01,-8.523965835571289062e+00,-1.353405666351318359e+01,-2.102148294448852539e+00,-9.090381622314453125e+00,1.604998826980590820e+00,-7.287765979766845703e+00,-1.127290725708007812e+01,-6.270745277404785156e+00,-5.814529657363891602e-01,-8.609621047973632812e+00,-6.587265491485595703e+00,-6.605963230133056641e+00,-5.737733840942382812e+00,-9.231432914733886719e+00,-9.321622848510742188e+00,-8.009508132934570312e+00,4.241383552551269531e+00,-2.026672214269638062e-01
-1.669779777526855469e+01,-1.219872951507568359e+00,-1.000580692291259766e+01,-7.105728626251220703e+00,-1.357564258575439453e+01,-5.778446197509765625e-01,-8.925510406494140625e+00,2.228839159011840820e+00,-6.736093997955322266e+00,-1.026264190673828125e+01,-6.436280727386474609e+00,-1.565453708171844482e-01,-8.699392318725585938e+00,-6.163643360137939453e+00,-6.999678611755371094e+00,-5.191750049591064453e+00,-7.937292098999023438e+00,-8.584972381591796875e+00,-7.748655796051025391e+00,4.387987136840820312e+00,-2.019037008285522461e-01
-1.635610961914062500e+01,3.603855371475219727e-01,-9.160823822021484375e+00,-5.467949390411376953e+00,-1.357564258575439453e+01,1.012188911437988281e+00,-8.874623298645019531e+00,2.946348905563354492e+00,-6.252748012542724609e+00,-9.147441864013671875e+00,-6.881806373596191406e+00,1.467977613210678101e-01,-8.980588912963867188e+00,-5.812929630279541016e+00,-7.584234714508056641e+00,-4.977992534637451172e+00,-6.537188053131103516e+00,-7.738294124603271484e+00,-7.521827697753906250e+00,4.540925025939941406e+00,-2.008073776960372925e-01
-1.571045398712158203e+01,1.622596621513366699e+00,-8.392657279968261719e+00,-3.745281219482421875e+00,-1.344780349731445312e+01,2.415466547012329102e+00,-8.979449272155761719e+00,3.678846120834350586e+00,-5.918708324432373047e+00,-8.072429656982421875e+00,-7.636646270751953125e+00,1.763367950916290283e-01,-9.488856315612792969e+00,-5.611803054809570312e+00,-8.442156791687011719e+00,-5.209777832031250000e+00,-5.119712829589843750e+00,-6.913084506988525391e+00,-7.445272922515869141e+00,4.654949665069580078e+00,-2.007682174444198608e-01
-1.465654659271240234e+01,2.479453563690185547e+00,-7.751973628997802734e+00,-2.065057516098022461e+00,-1.308122825622558594e+01,3.524525165557861328e+00,-9.230827331542968750e+00,4.357951641082763672e+00,-5.769402503967285156e+00,-7.148120403289794922e+00,-8.664855957031250000e+00,-1.497286707162857056e-01,-1.020174980163574219e+01,-5.609289169311523438e+00,-9.616426467895507812e+00,-5.936038970947265625e+00,-3.764773368835449219e+00,-6.200586795806884766e+00,-7.589876174926757812e+00,4.708794593811035156e+00,-2.025693207979202271e-01
-1.318107604980468750e+01,2.964631557464599609e+00,-7.255116939544677734e+00,-5.707121491432189941e-01,-1.240044593811035156e+01,4.346668720245361328e+00,-9.570748329162597656e+00,4.919969558715820312e+00,-5.788382053375244141e+00,-6.432561874389648438e+00,-9.861437797546386719e+00,-8.313986063003540039e-01,-1.103213882446289062e+01,-5.811672210693359375e+00,-1.106921958923339844e+01,-7.115569114685058594e+00,-2.562699079513549805e+00,-5.637029170989990234e+00,-7.942877769470214844e+00,4.699745178222656250e+00,-2.057604342699050903e-01
-1.138388633728027344e+01,3.159201622009277344e+00,-6.911893844604492188e+00,5.621216297149658203e-01,-1.141315746307373047e+01,4.916326045989990234e+00,-9.917792320251464844e+00,5.273104190826416016e+00,-5.913647174835205078e+00,-5.953662395477294922e+00,-1.107410049438476562e+01,-1.809594988822937012e+00,-1.184272480010986328e+01,-6.197583675384521484e+00,-1.266471385955810547e+01,-8.637626647949218750e+00,-1.626401066780090332e+00,-5.219728469848632812e+00,-8.420635223388671875e+00,4.633230686187744141e+00,-2.090689837932586670e-01
-9.438040733337402344e+00,3.133009433746337891e+00,-6.687981605529785156e+00,1.214891433715820312e+00,-1.018867301940917969e+01,5.244975090026855469e+00,-1.016510009765625000e+01,5.331179618835449219e+00,-6.032585620880126953e+00,-5.676815986633300781e+00,-1.213352489471435547e+01,-2.959344863891601562e+00,-1.246980762481689453e+01,-6.695371150970458984e+00,-1.420347118377685547e+01,-1.031420803070068359e+01,-1.035786509513854980e+00,-4.900379180908203125e+00,-8.885633468627929688e+00,4.507894039154052734e+00,-2.107330560684204102e-01
-7.514382839202880859e+00,2.902269363403320312e+00,-6.483681678771972656e+00,1.377352118492126465e+00,-8.816327095031738281e+00,5.282534599304199219e+00,-1.018850708007812500e+01,5.068904399871826172e+00,-5.993360996246337891e+00,-5.489274978637695312e+00,-1.285998725891113281e+01,-4.093189239501953125e+00,-1.273780250549316406e+01,-7.164246559143066406e+00,-1.543963527679443359e+01,-1.190065097808837891e+01,-7.700098752975463867e-01,-4.591763973236083984e+00,-9.156409263610839844e+00,4.315590381622314453e+00,-2.090689837932586670e-01
-5.737162113189697266e+00,2.496914863586425781e+00,-6.117577075958251953e+00,1.206109762191772461e+00,-7.350026130676269531e+00,4.994575977325439453e+00,-9.847569465637207031e+00,4.537797451019287109e+00,-5.617566108703613281e+00,-5.207963466644287109e+00,-1.308889865875244141e+01,-4.965726852416992188e+00,-1.248696994781494141e+01,-7.387999534606933594e+00,-1.613250541687011719e+01,-1.311881160736083984e+01,-6.727321743965148926e-01,-4.131525516510009766e+00,-9.031654357910156250e+00,4.050889968872070312e+00,-2.029608786106109619e-01
-4.161848068237304688e+00,1.998017191886901855e+00,-5.377195358276367188e+00,9.807139635086059570e-01,-5.797472476959228516e+00,4.424918174743652344e+00,-9.025247573852539062e+00,3.875552415847778320e+00,-4.745772361755371094e+00,-4.620781421661376953e+00,-1.269539833068847656e+01,-5.322467327117919922e+00,-1.160773468017578125e+01,-7.124021530151367188e+00,-1.611531257629394531e+01,-1.371115207672119141e+01,-4.712283611297607422e-01,-3.357304811477661133e+00,-8.335574150085449219e+00,3.727367162704467773e+00,-1.923304051160812378e-01
-2.797315359115600586e+00,1.570212364196777344e+00,-4.086021900177001953e+00,1.027549505233764648e+00,-4.147884845733642578e+00,3.716497898101806641e+00,-7.658441543579101562e+00,3.290116786956787109e+00,-3.284347772598266602e+00,-3.548001766204833984e+00,-1.161989307403564453e+01,-4.960046291351318359e+00,-1.007765293121337891e+01,-6.169928550720214844e+00,-1.530896949768066406e+01,-1.348966884613037109e+01,1.280717849731445312e-01,-2.118819952011108398e+00,-6.954756736755371094e+00,3.372623443603515625e+00,-1.779998242855072021e-01
-1.612501621246337891e+00,1.431768298149108887e+00,-2.175412178039550781e+00,1.595429897308349609e+00,-2.398181438446044922e+00,3.079023838043212891e+00,-5.781755447387695312e+00,2.991310358047485352e+00,-1.252271533012390137e+00,-1.921529531478881836e+00,-9.910625457763671875e+00,-3.823929786682128906e+00,-7.999700546264648438e+00,-4.461612224578857422e+00,-1.379084300994873047e+01,-1.241830444335937500e+01,1.331883430480957031e+00,-3.637405335903167725e-01,-4.910465717315673828e+00,3.020594596862792969e+00,-1.613199710845947266e-01
-5.763443708419799805e-01,1.761040806770324707e+00,2.647421956062316895e-01,2.758999586105346680e+00,-6.053518652915954590e-01,2.708642005920410156e+00,-3.548865318298339844e+00,3.129941701889038086e+00,1.201150655746459961e+00,1.749117076396942139e-01,-7.744480609893798828e+00,-2.058404445648193359e+00,-5.593024730682373047e+00,-2.141117572784423828e+00,-1.177068710327148438e+01,-1.064900970458984375e+01,3.167999982833862305e+00,1.827425003051757812e+00,-2.384164571762084961e+00,2.687569856643676758e+00,-1.437199860811233521e-01
3.355628252029418945e-01,2.597941637039184570e+00,2.986012697219848633e+00,4.379215240478515625e+00,1.101224780082702637e+00,2.692991971969604492e+00,-1.219291448593139648e+00,3.741604804992675781e+00,3.805143833160400391e+00,2.503546476364135742e+00,-5.405233383178710938e+00,7.055422291159629822e-03,-3.171826601028442383e+00,4.584395885467529297e-01,-9.564847946166992188e+00,-8.508856773376464844e+00,5.459237575531005859e+00,4.239988327026367188e+00,2.924104630947113037e-01,2.375811576843261719e+00,-1.263353377580642700e-01
1.132094860076904297e+00,3.781576395034790039e+00,5.663154602050781250e+00,6.167746067047119141e+00,2.550582647323608398e+00,2.949651002883911133e+00,9.148792624473571777e-01,4.719516277313232422e+00,6.253504753112792969e+00,4.740643501281738281e+00,-3.209765434265136719e+00,1.964584231376647949e+00,-1.064829945564270020e+00,2.900866985321044922e+00,-7.512024879455566406e+00,-6.417637348175048828e+00,7.891180038452148438e+00,6.580093860626220703e+00,2.729398012161254883e+00,2.064505815505981445e+00,-1.098121032118797302e-01
1.795501828193664551e+00,5.005123138427734375e+00,7.987266540527343750e+00,7.812843322753906250e+00,3.587158679962158203e+00,3.292906284332275391e+00,2.610410213470458984e+00,5.881021022796630859e+00,8.271662712097167969e+00,6.587029933929443359e+00,-1.425770401954650879e+00,3.474483251571655273e+00,4.850535690784454346e-01,4.809052467346191406e+00,-5.866671562194824219e+00,-4.746207237243652344e+00,1.014246368408203125e+01,8.582065582275390625e+00,4.592226028442382812e+00,1.740983128547668457e+00,-9.440477192401885986e-02
2.308033466339111328e+00,5.951781272888183594e+00,9.760587692260742188e+00,9.077402114868164062e+00,4.141642093658447266e+00,3.568345069885253906e+00,3.739067792892456055e+00,7.019107818603515625e+00,9.687536239624023438e+00,7.849583148956298828e+00,-1.941894441843032837e-01,4.384512424468994141e+00,1.377490758895874023e+00,5.973071098327636719e+00,-4.750857353210449219e+00,-3.710898876190185547e+00,1.197510623931884766e+01,1.008488559722900391e+01,5.712191104888916016e+00,1.426057577133178711e+00,-8.021123707294464111e-02
2.658596515655517578e+00,6.456915378570556641e+00,1.091773986816406250e+01,9.885313987731933594e+00,4.266400814056396484e+00,3.735277652740478516e+00,4.312047481536865234e+00,7.970791816711425781e+00,1.047328948974609375e+01,8.483650207519531250e+00,4.982201159000396729e-01,4.761703491210937500e+00,1.674529790878295898e+00,6.418062686920166016e+00,-4.128477573394775391e+00,-3.316863775253295898e+00,1.328661823272705078e+01,1.106306076049804688e+01,6.130405902862548828e+00,1.167239427566528320e+00,-6.732937693595886230e-02
2.847190380096435547e+00,6.562931060791015625e+00,1.150939178466796875e+01,1.027317047119140625e+01,4.103136062622070312e+00,3.874040365219116211e+00,4.441298484802246094e+00,8.651770591735839844e+00,1.068206501007080078e+01,8.566258430480957031e+00,7.706435322761535645e-01,4.806011676788330078e+00,1.538551926612854004e+00,6.335098266601562500e+00,-3.874023675918579102e+00,-3.399276256561279297e+00,1.409089660644531250e+01,1.159575653076171875e+01,6.041092395782470703e+00,1.021088600158691406e+00,-5.597454681992530823e-02
2.876034259796142578e+00,6.483107566833496094e+00,1.162053108215332031e+01,1.034488773345947266e+01,3.792009353637695312e+00,4.157825946807861328e+00,4.262178897857666016e+00,9.048930168151855469e+00,1.041508579254150391e+01,8.224665641784667969e+00,7.687517404556274414e-01,4.738980770111083984e+00,1.135899066925048828e+00,5.959243774414062500e+00,-3.853392362594604492e+00,-3.726351261138916016e+00,1.442268276214599609e+01,1.177019119262695312e+01,5.676749229431152344e+00,1.032400608062744141e+00,-4.663617536425590515e-02
2.758440256118774414e+00,6.459409713745117188e+00,1.132633972167968750e+01,1.015900897979736328e+01,3.431595325469970703e+00,4.725397109985351562e+00,3.860177278518676758e+00,9.176321029663085938e+00,9.749536514282226562e+00,7.540363788604736328e+00,5.786228775978088379e-01,4.673086166381835938e+00,5.616236329078674316e-01,5.442600250244140625e+00,-4.008127689361572266e+00,-4.112660408020019531e+00,1.429587459564208984e+01,1.161856746673583984e+01,5.189068317413330078e+00,1.209320068359375000e+00,-3.941215574741363525e-02
2.538783788681030273e+00,6.619057178497314453e+00,1.068402099609375000e+01,9.702363014221191406e+00,3.061939716339111328e+00,5.577796936035156250e+00,3.269896507263183594e+00,9.056424140930175781e+00,8.744886398315429688e+00,6.555773258209228516e+00,2.248507738113403320e-01,4.595830440521240234e+00,-1.763532757759094238e-01,4.814080715179443359e+00,-4.355422496795654297e+00,-4.480941772460937500e+00,1.369309997558593750e+01,1.111807441711425781e+01,4.624832630157470703e+00,1.517458438873291016e+00,-3.381304815411567688e-02
2.285845994949340820e+00,6.898439884185791016e+00,9.763855934143066406e+00,8.931040763854980469e+00,2.689203500747680664e+00,6.549136161804199219e+00,2.504566669464111328e+00,8.718276023864746094e+00,7.463134288787841797e+00,5.307732105255126953e+00,-2.991859912872314453e-01,4.428821086883544922e+00,-1.108395695686340332e+00,4.020888805389404297e+00,-4.936540126800537109e+00,-4.838921070098876953e+00,1.262651920318603516e+01,1.024858570098876953e+01,3.944347620010375977e+00,1.893468737602233887e+00,-2.868379838764667511e-02
2.068408250808715820e+00,7.090515136718750000e+00,8.654100418090820312e+00,7.834797382354736328e+00,2.318007707595825195e+00,7.377539634704589844e+00,1.594720005989074707e+00,8.220890045166015625e+00,5.996648311614990234e+00,3.874382495880126953e+00,-9.821363687515258789e-01,4.108436107635498047e+00,-2.237143754959106445e+00,3.005201101303100586e+00,-5.763514995574951172e+00,-5.240682601928710938e+00,1.118125057220458984e+01,9.044987678527832031e+00,3.105082511901855469e+00,2.270383834838867188e+00,-2.265399135649204254e-02
1.915314435958862305e+00,6.947082042694091797e+00,7.452818870544433594e+00,6.480958461761474609e+00,1.956053376197814941e+00,7.791740894317626953e+00,6.187210679054260254e-01,7.647631168365478516e+00,4.483345985412597656e+00,2.396380186080932617e+00,-1.755894660949707031e+00,3.653989553451538086e+00,-3.495269060134887695e+00,1.789644241333007812e+00,-6.769294738769531250e+00,-5.730007648468017578e+00,9.527529716491699219e+00,7.622675418853759766e+00,2.119796752929687500e+00,2.589834213256835938e+00,-1.476434152573347092e-02
1.773314237594604492e+00,6.317224025726318359e+00,6.246634483337402344e+00,5.021739959716796875e+00,1.600259780883789062e+00,7.637328624725341797e+00,-3.216574192047119141e-01,7.110904216766357422e+00,3.068737506866455078e+00,1.063499093055725098e+00,-2.506950855255126953e+00,3.180228948593139648e+00,-4.744153022766113281e+00,4.923796653747558594e-01,-7.824934005737304688e+00,-6.299169540405273438e+00,7.873808860778808594e+00,6.154742240905761719e+00,1.069297671318054199e+00,2.820146322250366211e+00,-4.936539102345705032e-03
1.533689022064208984e+00,5.233368873596191406e+00,5.071503162384033203e+00,3.654728651046752930e+00,1.210581183433532715e+00,6.953948020935058594e+00,-1.126678347587585449e+00,6.740908622741699219e+00,1.880618214607238770e+00,5.434959009289741516e-02,-3.117065906524658203e+00,2.838258028030395508e+00,-5.829335689544677734e+00,-7.080928683280944824e-01,-8.779135704040527344e+00,-6.901811599731445312e+00,6.409431934356689453e+00,4.802204132080078125e+00,6.983510404825210571e-02,2.959057331085205078e+00,5.870127119123935699e-03
1.083282351493835449e+00,3.911289930343627930e+00,3.925790786743164062e+00,2.555557727813720703e+00,7.223277688026428223e-01,5.949222087860107422e+00,-1.746473312377929688e+00,6.633188724517822266e+00,9.860491752624511719e-01,-5.250183343887329102e-01,-3.519079685211181641e+00,2.741688013076782227e+00,-6.647842884063720703e+00,-1.658414602279663086e+00,-9.530462265014648438e+00,-7.478699684143066406e+00,5.250785350799560547e+00,3.676430702209472656e+00,-7.878597378730773926e-01,3.016522169113159180e+00,1.605032011866569519e-02
3.732815980911254883e-01,2.686496019363403320e+00,2.807863473892211914e+00,1.845707178115844727e+00,9.391327947378158569e-02,4.929889678955078125e+00,-2.176971197128295898e+00,6.816781044006347656e+00,3.938874602317810059e-01,-6.712557077407836914e-01,-3.708262681961059570e+00,2.921194553375244141e+00,-7.171951770782470703e+00,-2.273106813430786133e+00,-1.003765010833740234e+01,-7.986052513122558594e+00,4.427398681640625000e+00,2.810967206954956055e+00,-1.476850986480712891e+00,3.006115198135375977e+00,2.417489700019359589e-02
-5.253130793571472168e-01,1.870798230171203613e+00,1.745505690574645996e+00,1.538349151611328125e+00,-6.546393036842346191e-01,4.170345783233642578e+00,-2.449721813201904297e+00,7.222371101379394531e+00,6.743933260440826416e-02,-4.892962276935577393e-01,-3.728126764297485352e+00,3.322243690490722656e+00,-7.438626766204833984e+00,-2.567254066467285156e+00,-1.031445503234863281e+01,-8.387813568115234375e+00,3.902794122695922852e+00,2.168243169784545898e+00,-2.025492191314697266e+00,2.932361125946044922e+00,2.959780767560005188e-02
-1.450532793998718262e+00,1.611371517181396484e+00,8.008243441581726074e-01,1.539812803268432617e+00,-1.415513753890991211e+00,3.772837638854980469e+00,-2.600345134735107422e+00,7.675732135772705078e+00,-6.035625562071800232e-02,-1.599830538034439087e-01,-3.643940448760986328e+00,3.828951597213745117e+00,-7.520477771759033203e+00,-2.635133981704711914e+00,-1.039526081085205078e+01,-8.665956497192382812e+00,3.583167314529418945e+00,1.667750358581542969e+00,-2.504667043685913086e+00,2.788472652435302734e+00,3.273017704486846924e-02
-2.209346055984497070e+00,1.835875391960144043e+00,4.900183901190757751e-02,1.686173796653747559e+00,-2.017744302749633789e+00,3.658071279525756836e+00,-2.655302286148071289e+00,7.954867839813232422e+00,-6.921337544918060303e-02,1.179795935750007629e-01,-3.501107215881347656e+00,4.323162078857421875e+00,-7.471631050109863281e+00,-2.606222152709960938e+00,-1.030413913726806641e+01,-8.805027008056640625e+00,3.359081268310546875e+00,1.226296901702880859e+00,-2.968247652053833008e+00,2.569472789764404297e+00,3.470748290419578552e-02
-2.690815210342407227e+00,2.289872407913208008e+00,-4.870802760124206543e-01,1.788626432418823242e+00,-2.331951618194580078e+00,3.617381572723388672e+00,-2.646142721176147461e+00,7.875248908996582031e+00,-7.047867774963378906e-02,1.715627610683441162e-01,-3.337464094161987305e+00,4.713986396789550781e+00,-7.318490982055664062e+00,-2.602451086044311523e+00,-1.004280853271484375e+01,-8.792150497436523438e+00,3.100253105163574219e+00,7.526401877403259277e-01,-3.446004867553710938e+00,2.285315752029418945e+00,3.690014034509658813e-02
-2.932659387588500977e+00,2.664045572280883789e+00,-8.678947091102600098e-01,1.681782960891723633e+00,-2.342733144760131836e+00,3.433755636215209961e+00,-2.624770641326904297e+00,7.351634979248046875e+00,-1.932130455970764160e-01,-1.063998937606811523e-01,-3.184225797653198242e+00,4.954843044281005859e+00,-7.068978309631347656e+00,-2.709299325942993164e+00,-9.600953102111816406e+00,-8.632475852966308594e+00,2.671188831329345703e+00,1.689555794000625610e-01,-3.929432868957519531e+00,1.964960455894470215e+00,4.011081531643867493e-02
-3.090190649032592773e+00,2.753847122192382812e+00,-1.224193215370178223e+00,1.293926358222961426e+00,-2.179468631744384766e+00,3.034160614013671875e+00,-2.657337665557861328e+00,6.452405929565429688e+00,-5.487631559371948242e-01,-7.226062417030334473e-01,-3.078283309936523438e+00,5.041187763214111328e+00,-6.713851451873779297e+00,-2.944365739822387695e+00,-8.954502105712890625e+00,-8.318278312683105469e+00,1.978085279464721680e+00,-5.703783035278320312e-01,-4.370330810546875000e+00,1.658631920814514160e+00,4.426120221614837646e-02
-3.376409769058227539e+00,2.549299240112304688e+00,-1.683458685874938965e+00,6.616470813751220703e-01,-2.059330463409423828e+00,2.532319307327270508e+00,-2.803890228271484375e+00,5.373331069946289062e+00,-1.189006328582763672e+00,-1.587751030921936035e+00,-3.043284416198730469e+00,4.991199016571044922e+00,-6.253111362457275391e+00,-3.251083374023437500e+00,-8.077668190002441406e+00,-7.834104061126708984e+00,1.010519504547119141e+00,-1.474754095077514648e+00,-4.703485012054443359e+00,1.419270396232604980e+00,4.852905124425888062e-02
-3.908910274505615234e+00,2.242476940155029297e+00,-2.284916639328002930e+00,-6.723046302795410156e-02,-2.160985946655273438e+00,2.161937475204467773e+00,-3.073587656021118164e+00,4.350457668304443359e+00,-2.063330650329589844e+00,-2.531038045883178711e+00,-3.072607994079589844e+00,4.819645404815673828e+00,-5.685436725616455078e+00,-3.532660245895385742e+00,-6.956696510314941406e+00,-7.146473884582519531e+00,-1.220708787441253662e-01,-2.474397897720336914e+00,-4.862264633178710938e+00,1.270857214927673340e+00,5.170057341456413269e-02
-4.636661052703857422e+00,2.107774734497070312e+00,-2.943578481674194336e+00,-7.126822471618652344e-01,-2.513698816299438477e+00,2.136897563934326172e+00,-3.403330564498901367e+00,3.544898271560668945e+00,-3.023695468902587891e+00,-3.367158412933349609e+00,-3.110444545745849609e+00,4.523118972778320312e+00,-5.016108989715576172e+00,-3.683504819869995117e+00,-5.589867115020751953e+00,-6.224483013153076172e+00,-1.219919204711914062e+00,-3.456598281860351562e+00,-4.805557727813720703e+00,1.197555541992187500e+00,5.281648039817810059e-02
-5.342224121093750000e+00,2.329784154891967773e+00,-3.492735862731933594e+00,-1.141519904136657715e+00,-2.957285642623901367e+00,2.506236076354980469e+00,-3.672010183334350586e+00,2.971639871597290039e+00,-3.876509428024291992e+00,-3.966620206832885742e+00,-3.056527376174926758e+00,4.073216438293457031e+00,-4.249087810516357422e+00,-3.640765428543090820e+00,-4.018443107604980469e+00,-5.081008434295654297e+00,-2.062413692474365234e+00,-4.299251079559326172e+00,-4.529110431671142578e+00,1.142353057861328125e+00,5.164184048771858215e-02
-5.737162113189697266e+00,2.892291307449340820e+00,-3.759142637252807617e+00,-1.331789135932922363e+00,-3.216044425964355469e+00,3.074850320816040039e+00,-3.750375032424926758e+00,2.470506906509399414e+00,-4.461079597473144531e+00,-4.313794612884521484e+00,-2.812481403350830078e+00,3.423357963562011719e+00,-3.418699026107788086e+00,-3.425811767578125000e+00,-2.340423822402954102e+00,-3.806188344955444336e+00,-2.503637552261352539e+00,-4.932582378387451172e+00,-4.096718788146972656e+00,1.023351073265075684e+00,4.864651709794998169e-02
-5.612912178039550781e+00,3.572039365768432617e+00,-3.661078691482543945e+00,-1.383015394210815430e+00,-3.034297227859497070e+00,3.499485254287719727e+00,-3.568202257156372070e+00,1.777351140975952148e+00,-4.722997188568115234e+00,-4.523661613464355469e+00,-2.335740327835083008e+00,2.539459228515625000e+00,-2.579068660736083984e+00,-3.144234895706176758e+00,-7.053865194320678711e-01,-2.569999456405639648e+00,-2.533168315887451172e+00,-5.386112213134765625e+00,-3.630302906036376953e+00,7.744874358177185059e-01,4.500513896346092224e-02
-4.922880172729492188e+00,4.068442821502685547e+00,-3.226329326629638672e+00,-1.460586786270141602e+00,-2.288825035095214844e+00,3.484878778457641602e+00,-3.138721942901611328e+00,6.514412760734558105e-01,-4.722997188568115234e+00,-4.780414581298828125e+00,-1.653735876083374023e+00,1.447651267051696777e+00,-1.813368201255798340e+00,-2.954421997070312500e+00,7.044249176979064941e-01,-1.578472971916198730e+00,-2.277814388275146484e+00,-5.759133338928222656e+00,-3.268795251846313477e+00,3.876176476478576660e-01,4.222516342997550964e-02
-3.782441377639770508e+00,4.158244132995605469e+00,-2.569301843643188477e+00,-1.702082276344299316e+00,-1.021214365959167480e+00,2.920437812805175781e+00,-2.543352365493774414e+00,-1.027119874954223633e+00,-4.587609767913818359e+00,-5.257081508636474609e+00,-8.591674566268920898e-01,2.376870810985565186e-01,-1.192886710166931152e+00,-2.993390321731567383e+00,1.746309876441955566e+00,-1.004160165786743164e+00,-1.932131052017211914e+00,-6.167041778564453125e+00,-3.125609874725341797e+00,-8.250834047794342041e-02,4.153995960950851440e-02
-2.386846303939819336e+00,3.792801618576049805e+00,-1.797866463661193848e+00,-2.135310649871826172e+00,5.837069153785705566e-01,1.932405114173889160e+00,-1.869618058204650879e+00,-3.170282602310180664e+00,-4.420589923858642578e+00,-5.998314857482910156e+00,-4.662675037980079651e-02,-9.256963133811950684e-01,-7.361067533493041992e-01,-3.298850774765014648e+00,2.377286434173583984e+00,-8.805413246154785156e-01,-1.650720477104187012e+00,-6.655458450317382812e+00,-3.222011804580688477e+00,-5.476570725440979004e-01,4.353684186935424805e-02
-9.224697351455688477e-01,3.101828336715698242e+00,-9.626897573471069336e-01,-2.675382614135742188e+00,2.285662889480590820e+00,7.962197661399841309e-01,-1.171458363533020020e+00,-5.523265361785888672e+00,-4.249773979187011719e+00,-6.904763698577880859e+00,7.299692034721374512e-01,-1.874353647232055664e+00,-3.941818773746490479e-01,-3.790353298187255859e+00,2.664406538009643555e+00,-1.107175946235656738e+00,-1.490907192230224609e+00,-7.180103778839111328e+00,-3.494205951690673828e+00,-9.272871613502502441e-01,4.796130955219268799e-02
5.019692182540893555e-01,2.261185646057128906e+00,-5.069636180996894836e-02,-3.202281951904296875e+00,3.889044046401977539e+00,-2.564992904663085938e-01,-4.498908221721649170e-01,-7.799439430236816406e+00,-4.038468360900878906e+00,-7.794467449188232422e+00,1.470620393753051758e+00,-2.507170677185058594e+00,-7.205958664417266846e-02,-4.318309783935546875e+00,2.755528688430786133e+00,-1.478032588958740234e+00,-1.421423077583312988e+00,-7.639000415802001953e+00,-3.833030939102172852e+00,-1.188820242881774902e+00,5.361915007233619690e-02
1.855408072471618652e+00,1.371900558471679688e+00,9.773392081260681152e-01,-3.626728773117065430e+00,5.309137821197509766e+00,-1.187148809432983398e+00,3.266338407993316650e-01,-9.775870323181152344e+00,-3.717081308364868164e+00,-8.470954895019531250e+00,2.217893123626708984e+00,-2.833235979080200195e+00,3.319134712219238281e-01,-4.730618476867675781e+00,2.808826446533203125e+00,-1.787079811096191406e+00,-1.369310021400451660e+00,-7.924804687500000000e+00,-4.130743026733398438e+00,-1.361214756965637207e+00,5.878755450248718262e-02
3.120096921920776367e+00,4.102753102779388428e-01,2.136126518249511719e+00,-3.950186491012573242e+00,6.562886238098144531e+00,-2.135535001754760742e+00,1.182541131973266602e+00,-1.135701465606689453e+01,-3.248919248580932617e+00,-8.811430931091308594e+00,3.007731914520263672e+00,-2.950256109237670898e+00,8.718643784523010254e-01,-4.944315433502197266e+00,2.936053276062011719e+00,-1.902972579002380371e+00,-1.270295143127441406e+00,-7.999945640563964844e+00,-4.334888458251953125e+00,-1.506460666656494141e+00,6.197865307331085205e-02
4.198410511016845703e+00,-7.209752202033996582e-01,3.345580101013183594e+00,-4.259007930755615234e+00,7.678013801574707031e+00,-3.310323476791381836e+00,2.071015596389770508e+00,-1.255692386627197266e+01,-2.701043128967285156e+00,-8.831524848937988281e+00,3.820272445678710938e+00,-3.007061958312988281e+00,1.509508132934570312e+00,-5.003396034240722656e+00,3.144086360931396484e+00,-1.856615543365478516e+00,-1.141749620437622070e+00,-7.934197425842285156e+00,-4.482326984405517578e+00,-1.680212736129760742e+00,6.256597489118576050e-02
4.906192302703857422e+00,-2.086707592010498047e+00,4.434088230133056641e+00,-4.680527687072753906e+00,8.637578010559082031e+00,-4.829410552978515625e+00,2.887231588363647461e+00,-1.344491195678710938e+01,-2.222758769989013672e+00,-8.651798248291015625e+00,4.579842090606689453e+00,-3.119537353515625000e+00,2.129989624023437500e+00,-5.049906730651855469e+00,3.355558156967163086e+00,-1.797381401062011719e+00,-1.079213976860046387e+00,-7.888576030731201172e+00,-4.668042659759521484e+00,-1.896045327186584473e+00,6.086274608969688416e-02
5.037098884582519531e+00,-3.628301382064819336e+00,5.202254772186279297e+00,-5.292316436767578125e+00,9.353785514831542969e+00,-6.609329700469970703e+00,3.496849298477172852e+00,-1.405751228332519531e+01,-1.986147165298461914e+00,-8.431883811950683594e+00,5.192794799804687500e+00,-3.306996583938598633e+00,2.596010684967041016e+00,-5.235948562622070312e+00,3.486223459243774414e+00,-1.910698771476745605e+00,-1.197336912155151367e+00,-8.033491134643554688e+00,-4.982767105102539062e+00,-2.116855144500732422e+00,5.808277055621147156e-02
4.444692134857177734e+00,-5.154928207397460938e+00,5.493177413940429688e+00,-6.110474109649658203e+00,9.689556121826171875e+00,-8.385075569152832031e+00,3.799113750457763672e+00,-1.438348293304443359e+01,-2.113942623138427734e+00,-8.302391052246093750e+00,5.589133262634277344e+00,-3.510361433029174805e+00,2.795356988906860352e+00,-5.658313751220703125e+00,3.481065750122070312e+00,-2.330487966537475586e+00,-1.593396186828613281e+00,-8.482995033264160156e+00,-5.469030380249023438e+00,-2.279295206069946289e+00,5.573349818587303162e-02
3.153378248214721680e+00,-6.398430824279785156e+00,5.272533893585205078e+00,-7.060356616973876953e+00,9.527832031250000000e+00,-9.830086708068847656e+00,3.772652864456176758e+00,-1.437036895751953125e+01,-2.606145620346069336e+00,-8.304623603820800781e+00,5.762235641479492188e+00,-3.622837066650390625e+00,2.697664022445678711e+00,-6.289347171783447266e+00,3.357277393341064453e+00,-3.072201251983642578e+00,-2.276077270507812500e+00,-9.214278221130371094e+00,-6.078631877899169922e+00,-2.334045171737670898e+00,5.485251918435096741e-02
1.380595088005065918e+00,-7.128068923950195312e+00,4.640022277832031250e+00,-7.997066974639892578e+00,8.850130081176757812e+00,-1.067831325531005859e+01,3.484636545181274414e+00,-1.395915889739990234e+01,-3.329898834228515625e+00,-8.380533218383789062e+00,5.757505893707275391e+00,-3.550125598907470703e+00,2.350458383560180664e+00,-6.983232975006103516e+00,3.188787698745727539e+00,-4.022521495819091797e+00,-3.148102283477783203e+00,-1.006095600128173828e+01,-6.695321559906005859e+00,-2.267983198165893555e+00,5.555729940533638000e-02
-5.452818274497985840e-01,-7.245309829711914062e+00,3.780329465866088867e+00,-8.785952568054199219e+00,7.738082885742187500e+00,-1.086298274993896484e+01,3.038872718811035156e+00,-1.318170070648193359e+01,-4.085284709930419922e+00,-8.451977729797363281e+00,5.626023769378662109e+00,-3.277457714080810547e+00,1.830310225486755371e+00,-7.567756175994873047e+00,3.027175188064575195e+00,-5.026925086975097656e+00,-4.054869651794433594e+00,-1.079089736938476562e+01,-7.190091133117675781e+00,-2.113235473632812500e+00,5.708432942628860474e-02
-2.269252300262451172e+00,-6.792560100555419922e+00,2.905927419662475586e+00,-9.306997299194335938e+00,6.388840198516845703e+00,-1.049781703948974609e+01,2.541204929351806641e+00,-1.212791633605957031e+01,-4.662262439727783203e+00,-8.429651260375976562e+00,5.385761260986328125e+00,-2.855958461761474609e+00,1.200587511062622070e+00,-7.905900001525878906e+00,2.860404729843139648e+00,-5.948915958404541016e+00,-4.803560256958007812e+00,-1.116526126861572266e+01,-7.467955589294433594e+00,-1.927718877792358398e+00,5.818066000938415527e-02
-3.520628690719604492e+00,-5.904522418975830078e+00,2.196599245071411133e+00,-9.462140083312988281e+00,5.058079719543457031e+00,-9.762269973754882812e+00,2.059820652008056641e+00,-1.092145061492919922e+01,-4.912792682647705078e+00,-8.264435768127441406e+00,5.010233402252197266e+00,-2.360611438751220703e+00,4.969351291656494141e-01,-7.954924583435058594e+00,2.588758230209350586e+00,-6.734410762786865234e+00,-5.211779117584228516e+00,-1.100021934509277344e+01,-7.493474006652832031e+00,-1.741297364234924316e+00,5.769122764468193054e-02
-4.177379131317138672e+00,-4.750821113586425781e+00,1.753677606582641602e+00,-9.238207817077636719e+00,3.987618923187255859e+00,-8.796147346496582031e+00,1.607950448989868164e+00,-9.686883926391601562e+00,-4.805241584777832031e+00,-7.970845222473144531e+00,4.448359966278076172e+00,-1.844814658164978027e+00,-2.872478365898132324e-01,-7.775167942047119141e+00,2.074692726135253906e+00,-7.396286964416503906e+00,-5.175300121307373047e+00,-1.024478340148925781e+01,-7.287910938262939453e+00,-1.532704472541809082e+00,5.526364222168922424e-02
-4.272785663604736328e+00,-3.502329826354980469e+00,1.578797221183776855e+00,-8.712772369384765625e+00,3.326859474182128906e+00,-7.686045646667480469e+00,1.168292880058288574e+00,-8.534746170043945312e+00,-4.402875423431396484e+00,-7.615856647491455078e+00,3.671763896942138672e+00,-1.326745390892028809e+00,-1.146680712699890137e+00,-7.487305641174316406e+00,1.206455349922180176e+00,-8.009230613708496094e+00,-4.701071262359619141e+00,-8.983488082885742188e+00,-6.913643836975097656e+00,-1.246737599372863770e+00,5.142649263143539429e-02
-3.957722902297973633e+00,-2.341145515441894531e+00,1.611485123634338379e+00,-8.039511680603027344e+00,3.098905086517333984e+00,-6.512300491333007812e+00,7.306709289550781250e-01,-7.538100719451904297e+00,-3.827162742614746094e+00,-7.276496887207031250e+00,2.720173835754394531e+00,-7.904984354972839355e-01,-2.040437936782836914e+00,-7.208242893218994141e+00,-1.939290389418601990e-02,-8.624750137329101562e+00,-3.891582012176513672e+00,-7.397475719451904297e+00,-6.433051109313964844e+00,-8.322665095329284668e-01,4.719779640436172485e-02
-3.431878566741943359e+00,-1.449365854263305664e+00,1.779827952384948730e+00,-7.395523548126220703e+00,3.226744413375854492e+00,-5.405328273773193359e+00,3.205274641513824463e-01,-6.726921081542968750e+00,-3.189450025558471680e+00,-6.995184898376464844e+00,1.719395995140075684e+00,-2.247123569250106812e-01,-2.874787569046020508e+00,-6.987004280090332031e+00,-1.470467090606689453e+00,-9.250570297241210938e+00,-2.899696826934814453e+00,-5.693385124206542969e+00,-5.881574630737304688e+00,-2.888388931751251221e-01,4.369346052408218384e-02
-2.868315458297729492e+00,-9.691768288612365723e-01,2.051137924194335938e+00,-6.915459632873535156e+00,3.607181549072265625e+00,-4.586314678192138672e+00,1.317433174699544907e-02,-6.109637737274169922e+00,-2.542880296707153320e+00,-6.752944469451904297e+00,8.482085466384887695e-01,3.410736918449401855e-01,-3.529593467712402344e+00,-6.808504581451416016e+00,-2.930137634277343750e+00,-9.832609176635742188e+00,-1.864384055137634277e+00,-4.040282726287841797e+00,-5.277644157409667969e+00,2.984792292118072510e-01,4.171615466475486755e-02
-2.346908569335937500e+00,-9.404901862144470215e-01,2.467909097671508789e+00,-6.628592014312744141e+00,4.170906543731689453e+00,-4.291052818298339844e+00,-8.147415518760681152e-02,-5.660960197448730469e+00,-1.863412737846374512e+00,-6.469400405883789062e+00,2.891729772090911865e-01,8.261954784393310547e-01,-3.895281553268432617e+00,-6.612406253814697266e+00,-4.176617145538330078e+00,-1.029875564575195312e+01,-8.551278710365295410e-01,-2.528069972991943359e+00,-4.621259689331054688e+00,7.830845117568969727e-01,4.152037948369979858e-02
-1.834376931190490723e+00,-1.277246117591857910e+00,3.126570940017700195e+00,-6.448567867279052734e+00,4.924079895019531250e+00,-4.665607929229736328e+00,1.403900384902954102e-01,-5.334989547729492188e+00,-1.075129151344299316e+00,-6.031804561614990234e+00,1.586367338895797729e-01,1.134083032608032227e+00,-3.917724609375000000e+00,-6.339628696441650391e+00,-5.072363376617431641e+00,-1.060522747039794922e+01,1.489170193672180176e-01,-1.128568649291992188e+00,-3.923762083053588867e+00,1.018373727798461914e+00,4.257755354046821594e-02
-1.213126301765441895e+00,-1.783627271652221680e+00,4.133359432220458984e+00,-6.221708297729492188e+00,5.914448738098144531e+00,-5.691200256347656250e+00,7.327063679695129395e-01,-5.083954811096191406e+00,-1.071724593639373779e-01,-5.362014770507812500e+00,4.736263453960418701e-01,1.194297194480895996e+00,-3.624645948410034180e+00,-5.965031147003173828e+00,-5.605340957641601562e+00,-1.074687385559082031e+01,1.217234611511230469e+00,2.172605097293853760e-01,-3.206417322158813477e+00,9.201857447624206543e-01,4.381092265248298645e-02
-3.389378786087036133e-01,-2.226398944854736328e+00,5.545477867126464844e+00,-5.807507038116455078e+00,7.188220024108886719e+00,-7.160207748413085938e+00,1.672067165374755859e+00,-4.883501529693603516e+00,1.050579667091369629e+00,-4.457798957824707031e+00,1.146171689033508301e+00,1.011382460594177246e+00,-3.126940727233886719e+00,-5.504954814910888672e+00,-5.878706932067871094e+00,-1.076490211486816406e+01,2.398463964462280273e+00,1.567115068435668945e+00,-2.514590740203857422e+00,5.125018954277038574e-01,4.416331648826599121e-02
9.213134050369262695e-01,-2.412238359451293945e+00,7.344948768615722656e+00,-5.141564846038818359e+00,8.750015258789062500e+00,-8.708507537841796875e+00,2.859752893447875977e+00,-4.741123676300048828e+00,2.327270269393920898e+00,-3.401764392852783203e+00,2.021142721176147461e+00,6.716836094856262207e-01,-2.583029270172119141e+00,-5.015966415405273438e+00,-6.048915863037109375e+00,-1.072369575500488281e+01,3.680445194244384766e+00,2.919653415679931641e+00,-1.895065784454345703e+00,-7.617363333702087402e-02,4.304740950465202332e-02
2.627533912658691406e+00,-2.231387853622436523e+00,9.435341835021972656e+00,-4.256081104278564453e+00,1.054746532440185547e+01,-9.936506271362304688e+00,4.145140647888183594e+00,-4.686795234680175781e+00,3.593838214874267578e+00,-2.339031696319580078e+00,2.913140296936035156e+00,2.922206819057464600e-01,-2.148692369461059570e+00,-4.567203521728515625e+00,-6.262106418609619141e+00,-1.067476272583007812e+01,4.988482952117919922e+00,4.221202850341796875e+00,-1.387537240982055664e+00,-6.643967032432556152e-01,4.069813340902328491e-02
4.724254608154296875e+00,-1.678858757019042969e+00,1.165812206268310547e+01,-3.244726657867431641e+00,1.245427227020263672e+01,-1.051242351531982422e+01,5.372517585754394531e+00,-4.742997169494628906e+00,4.711100578308105469e+00,-1.413605809211730957e+00,3.663250684738159180e+00,-3.157254308462142944e-02,-1.933503985404968262e+00,-4.217746734619140625e+00,-6.600805282592773438e+00,-1.063355731964111328e+01,6.202716827392578125e+00,5.392597675323486328e+00,-1.018941164016723633e+00,-1.092442154884338379e+00,3.807477653026580811e-02
7.033976078033447266e+00,-8.007988333702087402e-01,1.385475063323974609e+01,-2.189464330673217773e+00,1.429330825805664062e+01,-1.023907184600830078e+01,6.413650989532470703e+00,-4.886311531066894531e+00,5.590486049652099609e+00,-7.036288976669311523e-01,4.173098564147949219e+00,-2.690209150314331055e-01,-1.966508388519287109e+00,-3.991479396820068359e+00,-7.070169448852539062e+00,-1.058204936981201172e+01,7.251926422119140625e+00,6.381506919860839844e+00,-7.836067080497741699e-01,-1.275696277618408203e+00,3.646943718194961548e-02
9.263821601867675781e+00,3.479130864143371582e-01,1.587813377380371094e+01,-1.135665416717529297e+00,1.586126422882080078e+01,-9.098712921142578125e+00,7.192211151123046875e+00,-5.043676853179931641e+00,6.216811180114746094e+00,-1.990541070699691772e-01,4.401064395904541016e+00,-4.678412973880767822e-01,-2.205459594726562500e+00,-3.884631156921386719e+00,-7.637532234191894531e+00,-1.049448585510253906e+01,8.115265846252441406e+00,7.185247421264648438e+00,-6.716101765632629395e-01,-1.223208665847778320e+00,3.664563596248626709e-02
1.106766796112060547e+01,1.716140031814575195e+00,1.761386299133300781e+01,-8.040294796228408813e-02,1.697485160827636719e+01,-7.231153964996337891e+00,7.680719375610351562e+00,-5.100815296173095703e+00,6.635626316070556641e+00,1.883074939250946045e-01,4.355660438537597656e+00,-6.927924156188964844e-01,-2.560586452484130859e+00,-3.858233213424682617e+00,-8.237562179565429688e+00,-1.033996200561523438e+01,8.825740814208984375e+00,7.834680557250976562e+00,-6.545980572700500488e-01,-1.009638428688049316e+00,3.832928091287612915e-02
1.212601280212402344e+01,3.257733821868896484e+00,1.898512268066406250e+01,9.880319833755493164e-01,1.751239204406738281e+01,-4.863840579986572266e+00,7.888335227966308594e+00,-4.932209968566894531e+00,6.910196781158447266e+00,5.801343321800231934e-01,4.080399036407470703e+00,-9.506908655166625977e-01,-2.915713071823120117e+00,-3.834349632263183594e+00,-8.796328544616699219e+00,-1.007727146148681641e+01,9.435463905334472656e+00,8.376769065856933594e+00,-6.872046589851379395e-01,-7.164317965507507324e-01,4.038489609956741333e-02
1.223251247406005859e+01,4.890376567840576172e+00,1.993307304382324219e+01,2.041830778121948242e+00,1.743384170532226562e+01,-2.258647680282592773e+00,7.849661827087402344e+00,-4.443253993988037109e+00,7.087339401245117188e+00,1.074662327766418457e+00,3.641494750976562500e+00,-1.144966840744018555e+00,-3.166545867919921875e+00,-3.704874515533447266e+00,-9.220991134643554688e+00,-9.665208816528320312e+00,9.954856872558593750e+00,8.820906639099121094e+00,-7.042167782783508301e-01,-3.910992145538330078e-01,4.138334095478057861e-02
1.135388660430908203e+01,6.451926231384277344e+00,2.042175674438476562e+01,3.003422260284423828e+00,1.679618453979492188e+01,3.006384372711181641e-01,7.605407714843750000e+00,-3.623644113540649414e+00,7.170849323272705078e+00,1.691985011100769043e+00,3.117457866668701172e+00,-1.099522113800048828e+00,-3.244436025619506836e+00,-3.356674671173095703e+00,-9.415269851684570312e+00,-9.059991836547851562e+00,1.034049320220947266e+01,9.130863189697265625e+00,-6.290798783302307129e-01,-4.088024795055389404e-02,4.048278555274009705e-02
9.654322624206542969e+00,7.735340595245361328e+00,2.044463920593261719e+01,3.760108470916748047e+00,1.575806903839111328e+01,2.541709184646606445e+00,7.220707416534423828e+00,-2.538948774337768555e+00,7.154400348663330078e+00,2.394147634506225586e+00,2.602880239486694336e+00,-6.212170720100402832e-01,-3.108458280563354492e+00,-2.705528259277343750e+00,-9.284605026245117188e+00,-8.238440513610839844e+00,1.052288913726806641e+01,9.256992340087890625e+00,-3.824039995670318604e-01,3.437271416187286377e-01,3.805520012974739075e-02
7.464413642883300781e+00,8.542307853698730469e+00,2.005892181396484375e+01,4.219681739807128906e+00,1.453204441070556641e+01,4.212079048156738281e+00,6.781049728393554688e+00,-1.315622568130493164e+00,7.048114776611328125e+00,3.106357097625732422e+00,2.198974847793579102e+00,3.933350443840026855e-01,-2.759932518005371094e+00,-1.732579827308654785e+00,-8.777416229248046875e+00,-7.203132629394531250e+00,1.044819355010986328e+01,9.175142288208007812e+00,8.401187509298324585e-02,7.509585022926330566e-01,3.560803830623626709e-02
5.161348819732666016e+00,8.743113517761230469e+00,1.937410926818847656e+01,4.345552444458007812e+00,1.333528423309326172e+01,5.106212139129638672e+00,6.380065917968750000e+00,-1.082200407981872559e-01,6.884891033172607422e+00,3.752704143524169922e+00,1.992765307426452637e+00,1.899825692176818848e+00,-2.229222774505615234e+00,-4.994243383407592773e-01,-7.902301788330078125e+00,-6.010725498199462891e+00,1.012683010101318359e+01,8.933617591857910156e+00,7.786738276481628418e-01,1.132398486137390137e+00,3.500114008784294128e-02
3.084596872329711914e+00,8.342748641967773438e+00,1.852912521362304688e+01,4.159673690795898438e+00,1.232951354980468750e+01,5.148988723754882812e+00,6.097138404846191406e+00,9.699182510375976562e-01,6.727993488311767578e+00,4.304163932800292969e+00,2.035331487655639648e+00,3.730109453201293945e+00,-1.567816019058227539e+00,8.808047771453857422e-01,-6.728032112121582031e+00,-4.730754852294921875e+00,9.628281593322753906e+00,8.633053779602050781e+00,1.667557597160339355e+00,1.431487321853637695e+00,3.731126338243484497e-02
1.429407715797424316e+00,7.444732666015625000e+00,1.764164733886718750e+01,3.723518133163452148e+00,1.156401824951171875e+01,4.418658256530761719e+00,5.960762977600097656e+00,1.826996088027954102e+00,6.610320091247558594e+00,4.754039287567138672e+00,2.315322160720825195e+00,5.635376930236816406e+00,-8.773653507232666016e-01,2.250977516174316406e+00,-5.381834030151367188e+00,-3.458510398864746094e+00,9.034193038940429688e+00,8.388845443725585938e+00,2.650007963180541992e+00,1.615193963050842285e+00,4.218601062893867493e-02
2.224064469337463379e-01,6.193746566772460938e+00,1.674436378479003906e+01,3.066357612609863281e+00,1.095870685577392578e+01,3.095716953277587891e+00,5.918018341064453125e+00,2.392760992050170898e+00,6.493912220001220703e+00,5.071073055267333984e+00,2.741929769515991211e+00,7.378179550170898438e+00,-3.017697334289550781e-01,3.455221176147460938e+00,-4.021882057189941406e+00,-2.297007799148559570e+00,8.391465187072753906e+00,8.241247177124023438e+00,3.587092876434326172e+00,1.698450088500976562e+00,4.792215675115585327e-02
-6.295944452285766602e-01,4.753179550170898438e+00,1.582093048095703125e+01,2.254054307937622070e+00,1.038882160186767578e+01,1.487946867942810059e+00,5.870185375213623047e+00,2.684073925018310547e+00,6.292729377746582031e+00,5.249683380126953125e+00,3.195022821426391602e+00,8.836953163146972656e+00,5.830641835927963257e-03,4.395486831665039062e+00,-2.787437200546264648e+00,-1.300330519676208496e+00,7.738315105438232422e+00,8.176840782165527344e+00,4.337044239044189453e+00,1.753652572631835938e+00,5.234662443399429321e-02
-1.266376376152038574e+00,3.263970136642456055e+00,1.482394790649414062e+01,1.348079919815063477e+00,9.738843917846679688e+00,-5.618009716272354126e-02,5.708366870880126953e+00,2.761819601058959961e+00,5.904281139373779297e+00,5.275358676910400391e+00,3.553524494171142578e+00,1.001851463317871094e+01,-6.413854658603668213e-02,5.030291557312011719e+00,-1.769622206687927246e+00,-4.916568696498870850e-01,7.079953193664550781e+00,8.128535270690917969e+00,4.806295394897460938e+00,1.888491392135620117e+00,5.399111658334732056e-02
-1.776689291000366211e+00,1.883270740509033203e+00,1.373870849609375000e+01,4.538145363330841064e-01,8.967187881469726562e+00,-1.240358591079711914e+00,5.376588344573974609e+00,2.727161884307861328e+00,5.275425910949707031e+00,5.145866394042968750e+00,3.757842063903808594e+00,1.100239181518554688e+01,-5.222386717796325684e-01,5.388547897338867188e+00,-9.890680909156799316e-01,1.573423147201538086e-01,6.461544990539550781e+00,8.033267021179199219e+00,4.960822105407714844e+00,2.168576002120971680e+00,5.285563319921493530e-02
-2.169408559799194336e+00,7.881903052330017090e-01,1.264039421081542969e+01,-2.706721723079681396e-01,8.132382392883300781e+00,-1.895569205284118652e+00,4.908434867858886719e+00,2.683137178421020508e+00,4.446652412414550781e+00,4.885764598846435547e+00,3.829731702804565430e+00,1.187152099609375000e+01,-1.258895397186279297e+00,5.525565147399902344e+00,-3.993542790412902832e-01,6.904487609863281250e-01,5.969945430755615234e+00,7.869567394256591797e+00,4.834649085998535156e+00,2.578522443771362305e+00,5.023227632045745850e-02
-2.380189895629882812e+00,1.907603144645690918e-01,1.168100357055664062e+01,-6.512106657028198242e-01,7.357645511627197266e+00,-1.986338853836059570e+00,4.415855407714843750e+00,2.695314168930053711e+00,3.536899566650390625e+00,4.535241603851318359e+00,3.855271339416503906e+00,1.263726329803466797e+01,-2.060240745544433594e+00,5.494139194488525391e+00,9.064115583896636963e-02,1.154019594192504883e+00,5.730225086212158203e+00,7.666954994201660156e+00,4.510000705718994141e+00,3.015617370605468750e+00,4.794173315167427063e-02
-2.320283651351928711e+00,2.880453765392303467e-01,1.102887916564941406e+01,-5.692485570907592773e-01,6.786219596862792969e+00,-1.610740423202514648e+00,4.025048732757568359e+00,2.749642610549926758e+00,2.679024457931518555e+00,4.109925270080566406e+00,3.925269126892089844e+00,1.320759391784667969e+01,-2.693923950195312500e+00,5.300554752349853516e+00,5.651630759239196777e-01,1.548054814338684082e+00,5.827503204345703125e+00,7.448241233825683594e+00,4.054926395416259766e+00,3.324660778045654297e+00,4.749145731329917908e-02
-1.943095803260803223e+00,1.153632879257202148e+00,1.077391338348388672e+01,-3.064022399485111237e-02,6.495115756988525391e+00,-9.555297493934631348e-01,3.813361883163452148e+00,2.731845378875732422e+00,1.951475262641906738e+00,3.568511962890625000e+00,4.078507423400878906e+00,1.341323089599609375e+01,-2.992283105850219727e+00,4.897045135498046875e+00,1.058597087860107422e+00,1.823621988296508789e+00,6.246144294738769531e+00,7.178538322448730469e+00,3.485019922256469727e+00,3.364478826522827148e+00,4.931214451789855957e-02
-1.281907558441162109e+00,2.690237760543823242e+00,1.087034225463867188e+01,8.255713582038879395e-01,6.473552703857421875e+00,-2.168527692556381226e-01,3.770617485046386719e+00,2.481747150421142578e+00,1.349191069602966309e+00,2.825045585632324219e+00,4.283770561218261719e+00,1.309966278076171875e+01,-2.901190996170043945e+00,4.201902389526367188e+00,1.552031040191650391e+00,1.898308396339416504e+00,6.861078739166259766e+00,6.751844882965087891e+00,2.771928310394287109e+00,3.075797080993652344e+00,5.262070521712303162e-02
-4.654067456722259521e-01,4.619724750518798828e+00,1.115799617767333984e+01,1.771063089370727539e+00,6.618334293365478516e+00,4.623544514179229736e-01,3.814379692077636719e+00,1.859780430793762207e+00,8.013149499893188477e-01,1.800267577171325684e+00,4.468224048614501953e+00,1.221917247772216797e+01,-2.460253238677978516e+00,3.186214923858642578e+00,1.992167234420776367e+00,1.707729220390319824e+00,7.465590000152587891e+00,6.036663532257080078e+00,1.884462237358093262e+00,2.507483005523681641e+00,5.589011684060096741e-02
3.178128004074096680e-01,6.555447578430175781e+00,1.142767143249511719e+01,2.593611717224121094e+00,6.763116359710693359e+00,1.005928874015808105e+00,3.846946716308593750e+00,8.106797337532043457e-01,2.458470314741134644e-01,4.897127747535705566e-01,4.562815666198730469e+00,1.087628269195556641e+01,-1.761881470680236816e+00,1.910319924354553223e+00,2.337743043899536133e+00,1.269912362098693848e+00,7.882494449615478516e+00,4.964562416076660156e+00,8.396339416503906250e-01,1.789850950241088867e+00,5.774995684623718262e-02
8.991258740425109863e-01,8.146931648254394531e+00,1.153717613220214844e+01,3.190764427185058594e+00,6.775438308715820312e+00,1.413870573043823242e+00,3.827610015869140625e+00,-5.990492701530456543e-01,-3.058249950408935547e-01,-9.804751873016357422e-01,4.561869621276855469e+00,9.299352645874023438e+00,-8.839662075042724609e-01,5.414041876792907715e-01,2.588758230209350586e+00,6.981749534606933594e-01,8.042307853698730469e+00,3.612024068832397461e+00,-2.548130154609680176e-01,1.080363392829895020e+00,5.735841393470764160e-02
1.169813632965087891e+00,9.197111129760742188e+00,1.146035957336425781e+01,3.565448284149169922e+00,6.590610504150390625e+00,1.722695946693420410e+00,3.794025182723999023e+00,-2.230775594711303711e+00,-7.663952112197875977e-01,-2.388149499893188477e+00,4.542005538940429688e+00,7.759914875030517578e+00,1.404883265495300293e-01,-6.955224871635437012e-01,2.808826446533203125e+00,1.676438748836517334e-01,8.000617027282714844e+00,2.185686588287353516e+00,-1.220251321792602539e+00,5.020948648452758789e-01,5.467632412910461426e-02
1.107688546180725098e+00,9.705986022949218750e+00,1.127240467071533203e+01,3.804016828536987305e+00,6.220954895019531250e+00,1.953271627426147461e+00,3.839822769165039062e+00,-3.909336566925048828e+00,-1.019455790519714355e+00,-3.485487937927246094e+00,4.620516300201416016e+00,6.495417118072509766e+00,1.306201338768005371e+00,-1.589277386665344238e+00,3.094227075576782227e+00,-1.362525671720504761e-01,7.898128509521484375e+00,9.539107680320739746e-01,-1.870965242385864258e+00,1.007457673549652100e-01,5.054551362991333008e-02
7.549070119857788086e-01,9.816990852355957031e+00,1.107627677917480469e+01,3.988431453704833984e+00,5.721919536590576172e+00,2.120204210281372070e+00,4.046421051025390625e+00,-5.482050895690917969e+00,-9.992109537124633789e-01,-4.102810859680175781e+00,4.899561405181884766e+00,5.638785362243652344e+00,2.601291418075561523e+00,-2.022955894470214844e+00,3.536082744598388672e+00,-1.104986295104026794e-01,7.858175277709960938e+00,1.219924464821815491e-01,-2.093540668487548828e+00,-1.413306444883346558e-01,4.621893167495727539e-02
1.713751405477523804e-01,9.683536529541015625e+00,1.089485836029052734e+01,4.111374855041503906e+00,5.148953437805175781e+00,2.210973978042602539e+00,4.417891025543212891e+00,-6.861805438995361328e+00,-7.588034272193908691e-01,-4.239001274108886719e+00,5.402787685394287109e+00,5.201380252838134766e+00,3.953148841857910156e+00,-2.029241085052490234e+00,4.179094314575195312e+00,2.294533252716064453e-01,7.894654273986816406e+00,-2.765232622623443604e-01,-1.914913296699523926e+00,-2.693822979927062988e-01,4.306698590517044067e-02
-6.229381561279296875e-01,9.325576782226562500e+00,1.060557079315185547e+01,4.029412746429443359e+00,4.475872039794921875e+00,2.169240713119506836e+00,4.830070018768310547e+00,-8.046727180480957031e+00,-5.006816387176513672e-01,-4.080484390258789062e+00,6.038442611694335938e+00,5.087768554687500000e+00,5.203352928161621094e+00,-1.791660785675048828e+00,4.968245029449462891e+00,7.316550612449645996e-01,7.852963924407958984e+00,-4.321725070476531982e-01,-1.517963647842407227e+00,-3.191550076007843018e-01,4.218601062893867493e-02
-1.652439236640930176e+00,8.608411788940429688e+00,9.981230735778808594e+00,3.534712553024291992e+00,3.644147157669067383e+00,1.900061845779418945e+00,5.087554454803466797e+00,-9.061170578002929688e+00,-5.019469261169433594e-01,-3.916385889053344727e+00,6.638152599334716797e+00,5.135485649108886719e+00,6.145956993103027344e+00,-1.560365557670593262e+00,5.778026580810546875e+00,1.177198171615600586e+00,7.474275588989257812e+00,-6.696717739105224609e-01,-1.172050356864929199e+00,-3.082955181598663330e-01,4.406543076038360596e-02
-2.952628135681152344e+00,7.352436542510986328e+00,8.820809364318847656e+00,2.489695310592651367e+00,2.567525386810302734e+00,1.305364370346069336e+00,5.010207176208496094e+00,-9.897641181945800781e+00,-9.865579009056091309e-01,-3.992295503616333008e+00,7.038274288177490234e+00,5.184338569641113281e+00,6.626500129699707031e+00,-1.541509866714477539e+00,6.464020252227783203e+00,1.393531203269958496e+00,6.529292106628417969e+00,-1.290926933288574219e+00,-1.102584123611450195e+00,-2.431384921073913574e-01,4.821581393480300903e-02
-4.494660854339599609e+00,5.501526355743408203e+00,7.076907634735107422e+00,9.426600933074951172e-01,1.244466304779052734e+00,3.413282632827758789e-01,4.534929275512695312e+00,-1.048495006561279297e+01,-2.017779827117919922e+00,-4.396401882171630859e+00,7.155567646026611328e+00,5.121852397918701172e+00,6.608017444610595703e+00,-1.801717042922973633e+00,6.931664943695068359e+00,1.316269397735595703e+00,4.964163303375244141e+00,-2.432801961898803711e+00,-1.400296330451965332e+00,-1.476653665304183960e-01,5.322760343551635742e-02
-6.134318828582763672e+00,3.232789039611816406e+00,4.934213638305664062e+00,-8.502615690231323242e-01,-1.771674901247024536e-01,-9.523997902870178223e-01,3.750262975692749023e+00,-1.071818733215332031e+01,-3.464020729064941406e+00,-5.036050796508789062e+00,7.020301818847656250e+00,4.898037433624267578e+00,6.189522743225097656e+00,-2.258022308349609375e+00,7.160329818725585938e+00,9.994960427284240723e-01,2.949125289916992188e+00,-4.020155906677246094e+00,-1.988632559776306152e+00,-7.164884358644485474e-02,5.722137168049812317e-02
-7.616445541381835938e+00,9.702879786491394043e-01,2.767003536224365234e+00,-2.505604028701782227e+00,-1.410893082618713379e+00,-2.394280433654785156e+00,2.864841699600219727e+00,-1.051679706573486328e+01,-5.060832977294921875e+00,-5.703607559204101562e+00,6.742203235626220703e+00,4.523118972778320312e+00,5.563760280609130859e+00,-2.749524593353271484e+00,7.174083709716796875e+00,5.642545223236083984e-01,8.507061600685119629e-01,-5.812805652618408203e+00,-2.688965082168579102e+00,-6.712404638528823853e-02,5.841558426618576050e-02
-8.654821395874023438e+00,-7.970570921897888184e-01,9.887799620628356934e-01,-3.682345867156982422e+00,-2.139422655105590820e+00,-3.729741811752319336e+00,2.098494291305541992e+00,-9.920121192932128906e+00,-6.534910678863525391e+00,-6.220461845397949219e+00,6.435726642608642578e+00,4.040269374847412109e+00,4.919515609741210938e+00,-3.145492076873779297e+00,6.993559360504150391e+00,9.810825437307357788e-02,-9.419829249382019043e-01,-7.539707183837890625e+00,-3.328337669372558594e+00,-1.589773446321487427e-01,5.602715536952018738e-02
-9.060853004455566406e+00,-1.736232042312622070e+00,-1.013626605272293091e-01,-4.242908477783203125e+00,-2.162526130676269531e+00,-4.728207588195800781e+00,1.585560441017150879e+00,-9.112689018249511719e+00,-7.714172840118408203e+00,-6.528564929962158203e+00,6.160465717315673828e+00,3.514247417449951172e+00,4.376924514770507812e+00,-3.413241386413574219e+00,6.605001449584960938e+00,-3.783395588397979736e-01,-2.164902687072753906e+00,-9.029109001159667969e+00,-3.823107004165649414e+00,-3.209649324417114258e-01,5.044762790203094482e-02
-8.794602394104003906e+00,-1.814808368682861328e+00,-4.217044115066528320e-01,-4.298525810241699219e+00,-1.498686194419860840e+00,-5.255088806152343750e+00,1.343341708183288574e+00,-8.371761322021484375e+00,-8.563191413879394531e+00,-6.707175731658935547e+00,5.909798145294189453e+00,3.025717258453369141e+00,3.962390184402465820e+00,-3.614367723464965820e+00,5.979182720184326172e+00,-8.959936499595642090e-01,-2.778099536895751953e+00,-1.025551795959472656e+01,-4.193120956420898438e+00,-4.752603769302368164e-01,4.324318096041679382e-02
-8.035789489746093750e+00,-1.323394179344177246e+00,-1.046314537525177002e-01,-4.155091762542724609e+00,-4.051217734813690186e-01,-5.329164981842041016e+00,1.282278180122375488e+00,-7.954931259155273438e+00,-9.156618118286132812e+00,-6.903646945953369141e+00,5.644941806793212891e+00,2.671248912811279297e+00,3.633666992187500000e+00,-3.840634822845458984e+00,5.119541645050048828e+00,-1.472881793975830078e+00,-2.953547000885009766e+00,-1.128468132019042969e+01,-4.514933586120605469e+00,-5.250330567359924316e-01,3.674352169036865234e-02
-7.099475860595703125e+00,-7.259641885757446289e-01,5.736432075500488281e-01,-4.168264389038085938e+00,7.192473411560058594e-01,-5.102762699127197266e+00,1.270065546035766602e+00,-7.987715244293212891e+00,-9.599473953247070312e+00,-7.244123458862304688e+00,5.322385311126708984e+00,2.531506538391113281e+00,3.328706979751586914e+00,-4.144838333129882812e+00,4.089691638946533203e+00,-2.078099250793457031e+00,-2.969180822372436523e+00,-1.220784282684326172e+01,-4.855176448822021484e+00,-3.992438316345214844e-01,3.302383422851562500e-02
-6.294068813323974609e+00,-4.166476130485534668e-01,1.348347187042236328e+00,-4.569293498992919922e+00,1.501685023307800293e+00,-4.769940853118896484e+00,1.213072896003723145e+00,-8.398925781250000000e+00,-9.942371368408203125e+00,-7.736418724060058594e+00,4.952532291412353516e+00,2.659887552261352539e+00,3.023746967315673828e+00,-4.485496044158935547e+00,3.020298004150390625e+00,-2.608630418777465820e+00,-3.062984228134155273e+00,-1.303573513031005859e+01,-5.205342769622802734e+00,-8.974801003932952881e-02,3.316087648272514343e-02
-5.828131198883056641e+00,-5.438665151596069336e-01,2.056041002273559570e+00,-5.362569808959960938e+00,1.743501305580139160e+00,-4.475721836090087891e+00,1.105193972587585449e+00,-8.945956230163574219e+00,-1.013975811004638672e+01,-8.256622314453125000e+00,4.598760128021240234e+00,3.048439502716064453e+00,2.758392095565795898e+00,-4.726847648620605469e+00,2.083289146423339844e+00,-2.933130025863647461e+00,-3.311389923095703125e+00,-1.366906642913818359e+01,-5.463359832763671875e+00,3.396548330783843994e-01,3.680225461721420288e-02
-5.750474452972412109e+00,-9.691768288612365723e-01,2.667305469512939453e+00,-6.344651699066162109e+00,1.469340085983276367e+00,-4.280619621276855469e+00,1.012580871582031250e+00,-9.346862792968750000e+00,-1.008281993865966797e+01,-8.613842964172363281e+00,4.347146987915039062e+00,3.619906187057495117e+00,2.617133617401123047e+00,-4.715534210205078125e+00,1.412769198417663574e+00,-2.953733205795288086e+00,-3.625805377960205078e+00,-1.394145298004150391e+01,-5.494548797607421875e+00,7.704151272773742676e-01,4.253840073943138123e-02
-5.950162410736083984e+00,-1.384509086608886719e+00,3.263860225677490234e+00,-7.190618038177490234e+00,8.871325850486755371e-01,-4.156463146209716797e+00,1.039041757583618164e+00,-9.404937744140625000e+00,-9.662739753723144531e+00,-8.636169433593750000e+00,4.262960433959960938e+00,4.243634223937988281e+00,2.691063165664672852e+00,-4.353507041931152344e+00,1.060316324234008789e+00,-2.667864561080932617e+00,-3.806463956832885742e+00,-1.369724464416503906e+01,-5.191165924072265625e+00,1.082173347473144531e+00,4.837243258953094482e-02
-6.214193820953369141e+00,-1.505491852760314941e+00,3.947037935256958008e+00,-7.615064620971679688e+00,2.802813053131103516e-01,-4.029177188873291016e+00,1.252764105796813965e+00,-9.103322029113769531e+00,-8.846618652343750000e+00,-8.256622314453125000e+00,4.349039077758789062e+00,4.769656181335449219e+00,3.011865377426147461e+00,-3.653335809707641602e+00,9.485629796981811523e-01,-2.160511970520019531e+00,-3.660547256469726562e+00,-1.288008594512939453e+01,-4.534780979156494141e+00,1.198912978172302246e+00,5.265986174345016479e-02
-6.347319126129150391e+00,-1.259784698486328125e+00,4.749526977539062500e+00,-7.509685039520263672e+00,-1.247996091842651367e-01,-3.890414476394653320e+00,1.645606279373168945e+00,-8.619049072265625000e+00,-7.726826190948486328e+00,-7.568971633911132812e+00,4.529708385467529297e+00,5.068454742431640625e+00,3.530693531036376953e+00,-2.753295898437500000e+00,9.158965945243835449e-01,-1.591349959373474121e+00,-3.123782873153686523e+00,-1.158792877197265625e+01,-3.617543935775756836e+00,1.113846898078918457e+00,5.483294278383255005e-02
-6.218631267547607422e+00,-7.983043789863586426e-01,5.615756988525390625e+00,-6.975467205047607422e+00,-2.202939689159393311e-01,-3.818424701690673828e+00,2.134114503860473633e+00,-8.222826004028320312e+00,-6.493155956268310547e+00,-6.777503490447998047e+00,4.701865196228027344e+00,5.103674411773681641e+00,4.122131347656250000e+00,-1.858283758163452148e+00,7.800733447074890137e-01,-1.109751343727111816e+00,-2.289973974227905273e+00,-1.004619693756103516e+01,-2.608157634735107422e+00,8.848923444747924805e-01,5.542026087641716003e-02
-5.819255828857421875e+00,-3.892082571983337402e-01,6.405170917510986328e+00,-6.262689590454101562e+00,-9.282238781452178955e-03,-3.914411067962646484e+00,2.591073274612426758e+00,-8.127283096313476562e+00,-5.364505767822265625e+00,-6.118876934051513672e+00,4.755782127380371094e+00,4.954843044281005859e+00,4.635678768157958984e+00,-1.154341816902160645e+00,4.155854880809783936e-01,-8.213072419166564941e-01,-1.384943962097167969e+00,-8.525933265686035156e+00,-1.683831930160522461e+00,6.124998331069946289e-01,5.547899007797241211e-02
-5.253474235534667969e+00,-2.432806789875030518e-01,6.952693462371826172e+00,-5.645046234130859375e+00,4.127412140369415283e-01,-4.225323200225830078e+00,2.892320156097412109e+00,-8.368014335632324219e+00,-4.520548820495605469e+00,-5.762772560119628906e+00,4.627137660980224609e+00,4.790106296539306641e+00,4.928757190704345703e+00,-7.395188212394714355e-01,-2.102332264184951782e-01,-7.414700388908386230e-01,-6.570982336997985840e-01,-7.267321109771728516e+00,-9.707401394844055176e-01,4.093366265296936035e-01,5.587053671479225159e-02
-4.694348812103271484e+00,-4.054224193096160889e-01,7.114499092102050781e+00,-5.299634456634521484e+00,9.148567318916320801e-01,-4.665607929229736328e+00,2.946259737014770508e+00,-8.783907890319824219e+00,-4.048590660095214844e+00,-5.751609325408935547e+00,4.287554264068603516e+00,4.808284282684326172e+00,4.912914752960205078e+00,-6.050156354904174805e-01,-1.044085144996643066e+00,-8.238826394081115723e-01,-2.923068702220916748e-01,-6.380388736724853516e+00,-5.241717100143432617e-01,3.695184588432312012e-01,5.665362998843193054e-02
-4.334910869598388672e+00,-7.608870267868041992e-01,6.818673133850097656e+00,-5.260117053985595703e+00,1.355363011360168457e+00,-5.028686523437500000e+00,2.715235948562622070e+00,-9.101448059082031250e+00,-3.935978889465332031e+00,-6.002780437469482422e+00,3.747437000274658203e+00,5.146846771240234375e+00,4.574950695037841797e+00,-6.578112840652465820e-01,-1.981093883514404297e+00,-1.001584768295288086e+00,-3.513683080673217773e-01,-5.869161605834960938e+00,-3.157731592655181885e-01,5.514151453971862793e-01,5.724094808101654053e-02
-4.323816776275634766e+00,-1.128824114799499512e+00,6.063581943511962891e+00,-5.443068027496337891e+00,1.577156305313110352e+00,-5.088156223297119141e+00,2.210443973541259766e+00,-9.069600105285644531e+00,-4.100468158721923828e+00,-6.354419708251953125e+00,3.038001060485839844e+00,5.837605476379394531e+00,3.959749698638916016e+00,-7.646596431732177734e-01,-2.907787084579467773e+00,-1.212767124176025391e+00,-7.839066982269287109e-01,-5.647763729095458984e+00,-2.718251645565032959e-01,9.590989947319030762e-01,5.669278278946876526e-02
-4.720973491668701172e+00,-1.399476051330566406e+00,4.921138286590576172e+00,-5.700663566589355469e+00,1.438535451889038086e+00,-4.729250907897949219e+00,1.492947459220886230e+00,-8.557227134704589844e+00,-4.416793823242187500e+00,-6.615637779235839844e+00,2.210325717926025391e+00,6.789671421051025391e+00,3.167645692825317383e+00,-7.998567223548889160e-01,-3.729604005813598633e+00,-1.416223168373107910e+00,-1.454427957534790039e+00,-5.582015514373779297e+00,-3.001787066459655762e-01,1.533747673034667969e+00,5.450012534856796265e-02
-5.453161716461181641e+00,-1.589057207107543945e+00,3.510654211044311523e+00,-5.920205116271972656e+00,8.517072200775146484e-01,-3.992660760879516602e+00,6.523060202598571777e-01,-7.613036632537841797e+00,-4.768548011779785156e+00,-6.641313076019287109e+00,1.329679131507873535e+00,7.834898471832275391e+00,2.308212995529174805e+00,-6.930083632469177246e-01,-4.365738391876220703e+00,-1.581048369407653809e+00,-2.218752861022949219e+00,-5.560546398162841797e+00,-3.313676118850708008e-01,2.177173137664794922e+00,5.119156464934349060e-02
-6.325131416320800781e+00,-1.804830431938171387e+00,1.972686767578125000e+00,-6.084129333496093750e+00,-1.602249443531036377e-01,-3.062011241912841797e+00,-2.036012262105941772e-01,-6.427178382873535156e+00,-5.076016426086425781e+00,-6.368931770324707031e+00,4.802477359771728516e-01,8.789237022399902344e+00,1.464622139930725098e+00,-4.466286897659301758e-01,-4.766331195831298828e+00,-1.707242608070373535e+00,-2.983077526092529297e+00,-5.516266822814941406e+00,-3.356206417083740234e-01,2.778518199920654297e+00,4.821581393480300903e-02
-7.081726074218750000e+00,-2.146575450897216797e+00,4.543322324752807617e-01,-6.240735530853271484e+00,-1.452479243278503418e+00,-2.190831422805786133e+00,-9.719840884208679199e-01,-5.253496646881103516e+00,-5.292383193969726562e+00,-5.813006401062011719e+00,-2.518902420997619629e-01,9.484539985656738281e+00,6.711980104446411133e-01,-1.311118304729461670e-01,-4.895277500152587891e+00,-1.810258388519287109e+00,-3.700500726699829102e+00,-5.420999050140380859e+00,-3.285322487354278564e-01,3.232354879379272461e+00,4.706075415015220642e-02
-7.492195129394531250e+00,-2.599324941635131836e+00,-8.809698820114135742e-01,-6.431004524230957031e+00,-2.772457838058471680e+00,-1.547097325325012207e+00,-1.548016786575317383e+00,-4.299002647399902344e+00,-5.386015892028808594e+00,-5.021538734436035156e+00,-7.797106504440307617e-01,9.784474372863769531e+00,-6.281837075948715210e-02,1.605212837457656860e-01,-4.740541934967041016e+00,-1.928726553916931152e+00,-4.331068515777587891e+00,-5.246564388275146484e+00,-3.327852785587310791e-01,3.465381622314453125e+00,4.847032204270362854e-02
-7.416757583618164062e+00,-2.994701385498046875e+00,-1.846898317337036133e+00,-6.590538024902343750e+00,-3.835217714309692383e+00,-1.123505711555480957e+00,-1.831962227821350098e+00,-3.653618335723876953e+00,-5.297444820404052734e+00,-4.011272907257080078e+00,-1.031323909759521484e+00,9.619737625122070312e+00,-7.163041830062866211e-01,3.754750192165374756e-01,-4.283212661743164062e+00,-2.078099250793457031e+00,-4.779241085052490234e+00,-4.915138721466064453e+00,-3.327852785587310791e-01,3.456784725189208984e+00,5.177888274192810059e-02
-6.853194713592529297e+00,-3.093233823776245117e+00,-2.255497455596923828e+00,-6.524675846099853516e+00,-4.406643390655517578e+00,-7.583405375480651855e-01,-1.743420124053955078e+00,-3.281749486923217773e+00,-4.941894531250000000e+00,-2.752068519592285156e+00,-9.651099443435668945e-01,8.969879150390625000e+00,-1.239092826843261719e+00,5.288338065147399902e-01,-3.525009393692016602e+00,-2.253226041793823242e+00,-4.883467197418212891e+00,-4.281807422637939453e+00,-2.619014084339141846e-01,3.228734970092773438e+00,5.510702356696128845e-02
-5.914662361145019531e+00,-2.724049329757690430e+00,-1.972746968269348145e+00,-6.010948657989501953e+00,-4.383540153503417969e+00,-2.669325768947601318e-01,-1.252876400947570801e+00,-3.123447895050048828e+00,-4.256100177764892578e+00,-1.214901566505432129e+00,-5.980949997901916504e-01,7.874662876129150391e+00,-1.567816019058227539e+00,6.784214973449707031e-01,-2.496878623962402344e+00,-2.418051242828369141e+00,-4.473511219024658203e+00,-3.229833364486694336e+00,-3.649070486426353455e-02,2.832363128662109375e+00,5.639912560582160950e-02
-4.791973590850830078e+00,-1.892137527465820312e+00,-9.823024868965148926e-01,-4.933732032775878906e+00,-3.825976133346557617e+00,4.237512648105621338e-01,-4.101995229721069336e-01,-3.174029350280761719e+00,-3.259041786193847656e+00,5.511101484298706055e-01,-9.736077859997749329e-03,6.430658340454101562e+00,-1.660228133201599121e+00,8.808047771453857422e-01,-1.276188254356384277e+00,-2.523642539978027344e+00,-3.474677562713623047e+00,-1.708227872848510742e+00,3.987362682819366455e-01,2.330563783645629883e+00,5.475463345646858215e-02
-3.660409927368164062e+00,-8.020460605621337891e-01,5.818151831626892090e-01,-3.394014835357666016e+00,-2.909538507461547852e+00,1.178078174591064453e+00,6.553592085838317871e-01,-3.522480726242065430e+00,-2.072187662124633789e+00,2.372937679290771484e+00,6.798357367515563965e-01,4.806011676788330078e+00,-1.524250268936157227e+00,1.156096458435058594e+00,3.046627901494503021e-02,-2.513340950012207031e+00,-1.982506990432739258e+00,1.796900033950805664e-01,1.036691069602966309e+00,1.775371551513671875e+00,5.081959441304206848e-02
-2.597627639770507812e+00,2.418973296880722046e-01,2.456468343734741211e+00,-1.713791131973266602e+00,-1.839077472686767578e+00,1.708089351654052734e+00,1.768751025199890137e+00,-4.288698673248291016e+00,-8.916602134704589844e-01,3.981548786163330078e+00,1.343867897987365723e+00,3.227945804595947266e+00,-1.214009523391723633e+00,1.477898478507995605e+00,1.330243587493896484e+00,-2.312460184097290039e+00,-2.645132243633270264e-01,2.203130006790161133e+00,1.812160611152648926e+00,1.208867549896240234e+00,4.649301245808601379e-02
-1.601407885551452637e+00,9.615572690963745117e-01,4.313142776489257812e+00,-3.292165696620941162e-01,-7.793980836868286133e-01,1.719565987586975098e+00,2.748820781707763672e+00,-5.515771865844726562e+00,7.376584410667419434e-02,5.097864627838134766e+00,1.882093310356140137e+00,1.946406364440917969e+00,-8.087162971496582031e-01,1.809756875038146973e+00,2.583600282669067383e+00,-1.848889350891113281e+00,1.305826902389526367e+00,4.073604583740234375e+00,2.628742933273315430e+00,6.677023172378540039e-01,4.400669783353805542e-02
-6.185006499290466309e-01,1.207264304161071777e+00,5.841303825378417969e+00,3.733159899711608887e-01,1.940283328294754028e-01,1.061225295066833496e+00,3.453087091445922852e+00,-7.100663185119628906e+00,6.823765039443969727e-01,5.536576747894287109e+00,2.233973503112792969e+00,1.163622140884399414e+00,-3.770196139812469482e-01,2.131558895111083984e+00,3.814606428146362305e+00,-1.047941923141479492e+00,2.377618789672851562e+00,5.545563220977783203e+00,3.409883022308349609e+00,1.930515468120574951e-01,4.459401592612266541e-02
3.732815980911254883e-01,9.927383661270141602e-01,6.836651325225830078e+00,2.079281210899353027e-01,1.065799474716186523e+00,-2.043328285217285156e-01,3.795042753219604492e+00,-8.772667884826660156e+00,8.898861408233642578e-01,5.277591705322265625e+00,2.371131181716918945e+00,9.784350991249084473e-01,4.279549419879913330e-02,2.468445539474487305e+00,5.109225749969482422e+00,1.547669172286987305e-01,2.735461711883544922e+00,6.480800628662109375e+00,4.120139598846435547e+00,-1.788864284753799438e-01,4.770680516958236694e-02
1.322907567024230957e+00,4.564233422279357910e-01,7.227272510528564453e+00,-7.507361173629760742e-01,1.823593378067016602e+00,-1.838186144828796387e+00,3.759422540664672852e+00,-1.018052291870117188e+01,7.557640671730041504e-01,4.464913368225097656e+00,2.292620420455932617e+00,1.353353619575500488e+00,4.441281855106353760e-01,2.869441032409667969e+00,6.549984455108642578e+00,1.759237170219421387e+00,2.363721847534179688e+00,6.865898132324218750e+00,4.758094310760498047e+00,-4.268450736999511719e-01,5.150480195879936218e-02
2.095033407211303711e+00,-2.308082282543182373e-01,7.060564041137695312e+00,-2.236299753189086914e+00,2.415042400360107422e+00,-3.554462432861328125e+00,3.374722242355346680e+00,-1.106570148468017578e+01,3.812344372272491455e-01,3.315108299255371094e+00,2.009791851043701172e+00,2.095237731933593750e+00,8.190574049949645996e-01,3.353401184082031250e+00,8.157513618469238281e+00,3.675329923629760742e+00,1.408315896987915039e+00,6.757212162017822266e+00,5.319494724273681641e+00,-5.634938478469848633e-01,5.381492152810096741e-02
2.549877643585205078e+00,-9.167925715446472168e-01,6.480352878570556641e+00,-3.885787725448608398e+00,2.772376060485839844e+00,-5.153885841369628906e+00,2.719306707382202148e+00,-1.134671115875244141e+01,-1.185601875185966492e-01,2.050322294235229492e+00,1.549131393432617188e+00,2.930283308029174805e+00,1.149100780487060547e+00,3.883871555328369141e+00,9.857883453369140625e+00,5.712466239929199219e+00,1.211233809590339661e-01,6.245985031127929688e+00,5.775986671447753906e+00,-6.512748003005981445e-01,5.320802703499794006e-02
2.669690132141113281e+00,-1.446871399879455566e+00,5.717089653015136719e+00,-5.336224555969238281e+00,2.878652095794677734e+00,-6.519603729248046875e+00,1.925480842590332031e+00,-1.113876438140869141e+01,-6.284772157669067383e-01,8.536317348480224609e-01,9.825284481048583984e-01,3.602864503860473633e+00,1.407854676246643066e+00,4.377888202667236328e+00,1.151699066162109375e+01,7.638860702514648438e+00,-1.197336912155151367e+00,5.446269989013671875e+00,6.073698997497558594e+00,-7.702768445014953613e-01,4.958622530102729797e-02
2.583158969879150391e+00,-1.700061917304992676e+00,5.020836830139160156e+00,-6.334406375885009766e+00,2.815502643585205078e+00,-7.586929321289062500e+00,1.155062556266784668e+00,-1.070132637023925781e+01,-1.054884314537048340e+00,-1.767277866601943970e-01,4.130877852439880371e-01,3.951652288436889648e+00,1.576836943626403809e+00,4.728601932525634766e+00,1.297666168212890625e+01,9.235605239868164062e+00,-2.276077270507812500e+00,4.481513023376464844e+00,6.168683528900146484e+00,-9.770599007606506348e-01,4.416331648826599121e-02
2.545439958572387695e+00,-1.606518626213073730e+00,4.630216121673583984e+00,-6.763244152069091797e+00,2.781617403030395508e+00,-8.307869911193847656e+00,5.810652375221252441e-01,-1.030323028564453125e+01,-1.300353050231933594e+00,-9.927546977996826172e-01,-1.919522508978843689e-02,3.966421604156494141e+00,1.682450771331787109e+00,4.885732173919677734e+00,1.415093135833740234e+01,1.037392902374267578e+01,-2.910119295120239258e+00,3.506021499633789062e+00,6.066610813140869141e+00,-1.276601195335388184e+00,3.881871327757835388e-02
2.820565462112426758e+00,-1.157510638236999512e+00,4.725010871887207031e+00,-6.619810104370117188e+00,3.037295818328857422e+00,-8.612522125244140625e+00,3.632719516754150391e-01,-1.009903049468994141e+01,-1.258597970008850098e+00,-1.560959458351135254e+00,-1.658120006322860718e-01,3.781234741210937500e+00,1.806547045707702637e+00,4.883217811584472656e+00,1.506558895111083984e+01,1.105383300781250000e+01,-2.979603528976440430e+00,2.707648277282714844e+00,5.851123809814453125e+00,-1.613698244094848633e+00,3.515775874257087708e-02
3.532784938812255859e+00,-4.615484178066253662e-01,5.365694522857666016e+00,-6.005094528198242188e+00,3.758124351501464844e+00,-8.446632385253906250e+00,5.841184258460998535e-01,-1.008404350280761719e+01,-8.473746180534362793e-01,-1.848968982696533203e+00,7.445032894611358643e-02,3.588094949722290039e+00,2.058700084686279297e+00,4.826651096343994141e+00,1.583754730224609375e+01,1.138605880737304688e+01,-2.468895435333251953e+00,2.271562099456787109e+00,5.654066562652587891e+00,-1.897402763366699219e+00,3.402227535843849182e-02
4.591129779815673828e+00,2.643477320671081543e-01,6.460740089416503906e+00,-5.072774887084960938e+00,4.930240631103515625e+00,-7.842545032501220703e+00,1.214090585708618164e+00,-1.012151145935058594e+01,-5.023383349180221558e-02,-1.833340525627136230e+00,7.034835815429687500e-01,3.556283712387084961e+00,2.510199546813964844e+00,4.831679344177246094e+00,1.660434722900390625e+01,1.151740360260009766e+01,-1.473536133766174316e+00,2.321208715438842773e+00,5.601612567901611328e+00,-2.043101072311401367e+00,3.547099605202674866e-02
5.691630840301513672e+00,7.619981765747070312e-01,7.782967090606689453e+00,-4.002876281738281250e+00,6.297966480255126953e+00,-6.942152023315429688e+00,2.110706806182861328e+00,-1.002971458435058594e+01,1.053110241889953613e+00,-1.510725259780883789e+00,1.620074987411499023e+00,3.765329122543334961e+00,3.155764341354370117e+00,4.990066051483154297e+00,1.745367240905761719e+01,1.159466552734375000e+01,-1.811323314905166626e-01,2.868664741516113281e+00,5.760392189025878906e+00,-2.015047311782836914e+00,3.895575553178787231e-02
6.463756561279296875e+00,8.268548846244812012e-01,9.039817810058593750e+00,-2.965177297592163086e+00,7.471622943878173828e+00,-5.997939109802246094e+00,3.070422172546386719e+00,-9.677516937255859375e+00,2.312086582183837891e+00,-9.090309739112854004e-01,2.648284196853637695e+00,4.192508697509765625e+00,3.918824434280395508e+00,5.333238124847412109e+00,1.838380432128906250e+01,1.171828460693359375e+01,1.185966849327087402e+00,3.818661928176879883e+00,6.133241653442382812e+00,-1.845820069313049316e+00,4.349768906831741333e-02
6.639038085937500000e+00,4.015446007251739502e-01,9.987768173217773438e+00,-2.053348541259765625e+00,8.067692756652832031e+00,-5.271781921386718750e+00,3.904957294464111328e+00,-9.018082618713378906e+00,3.559675216674804688e+00,-6.621252000331878662e-02,3.609333515167236328e+00,4.765111446380615234e+00,4.685845375061035156e+00,5.867479801177978516e+00,1.931909370422363281e+01,1.196037101745605469e+01,2.433205842971801758e+00,4.999449253082275391e+00,6.664870262145996094e+00,-1.615960597991943359e+00,4.784384742379188538e-02
6.195287704467773438e+00,-3.829720318317413330e-01,1.051567840576171875e+01,-1.282026410102844238e+00,7.913669109344482422e+00,-4.911833763122558594e+00,4.515592575073242188e+00,-8.077638626098632812e+00,4.661753654479980469e+00,9.942875504493713379e-01,4.381199836730957031e+00,5.410425662994384766e+00,5.368374824523925781e+00,6.592791557312011719e+00,2.016326141357421875e+01,1.236985874176025391e+01,3.470255851745605469e+00,6.247326850891113281e+00,7.294319152832031250e+00,-1.415964841842651367e+00,5.081959441304206848e-02
5.381005287170410156e+00,-1.261031985282897949e+00,1.068075275421142578e+01,-5.794938206672668457e-01,7.132771968841552734e+00,-4.889923572540283203e+00,4.911488056182861328e+00,-6.928311347961425781e+00,5.570241451263427734e+00,2.262422323226928711e+00,4.930776596069335938e+00,6.089823722839355469e+00,5.924167633056640625e+00,7.506659030914306641e+00,2.082002639770507812e+01,1.296735000610351562e+01,4.302327632904052734e+00,7.430797576904296875e+00,7.963462829589843750e+00,-1.301035046577453613e+00,5.142649263143539429e-02
4.582254886627197266e+00,-1.956994175910949707e+00,1.065623664855957031e+01,1.288932114839553833e-01,6.076172828674316406e+00,-5.053726196289062500e+00,5.186273574829101562e+00,-5.666580200195312500e+00,6.301586151123046875e+00,3.719214677810668945e+00,5.299683094024658203e+00,6.798760414123535156e+00,6.366425991058349609e+00,8.590227127075195312e+00,2.123437309265136719e+01,1.373739242553710938e+01,4.997168064117431641e+00,8.474720954895019531e+00,8.629771232604980469e+00,-1.276601195335388184e+00,4.931214451789855957e-02
4.174004077911376953e+00,-2.293750286102294922e+00,1.064152717590332031e+01,8.826521039009094238e-01,5.168976306915283203e+00,-5.209182262420654297e+00,5.461059570312500000e+00,-4.389862060546875000e+00,6.903870582580566406e+00,5.318895339965820312e+00,5.571160793304443359e+00,7.538372039794921875e+00,6.732113838195800781e+00,9.781900405883789062e+00,2.138395118713378906e+01,1.461560153961181641e+01,5.619050979614257812e+00,9.352260589599609375e+00,9.259220123291015625e+00,-1.305107355117797852e+00,4.484852030873298645e-02
4.351504325866699219e+00,-2.223904609680175781e+00,1.078698825836181641e+01,1.675928473472595215e+00,4.743872642517089844e+00,-5.173708915710449219e+00,5.831511974334716797e+00,-3.181523084640502930e+00,7.432766914367675781e+00,6.972158908843994141e+00,5.836962699890136719e+00,8.297298431396484375e+00,7.054235935211181641e+00,1.097231578826904297e+01,2.127391815185546875e+01,1.548608493804931641e+01,6.200979709625244141e+00,1.005804920196533203e+01,9.833379745483398438e+00,-1.322754025459289551e+00,3.919068351387977600e-02
5.110317707061767578e+00,-1.788616299629211426e+00,1.114328670501708984e+01,2.477986574172973633e+00,4.927160263061523438e+00,-4.820020675659179688e+00,6.337321281433105469e+00,-2.089334249496459961e+00,7.914847373962402344e+00,8.556211471557617188e+00,6.162357330322265625e+00,9.015323638916015625e+00,7.344674110412597656e+00,1.202068710327148438e+01,2.092318344116210938e+01,1.619689369201660156e+01,6.737744331359863281e+00,1.060013771057128906e+01,1.032389545440673828e+01,-1.277053713798522949e+00,3.368946164846420288e-02
6.286256313323974609e+00,-1.058978438377380371e+00,1.165975666046142578e+01,3.240527153015136719e+00,5.661850452423095703e+00,-4.086560249328613281e+00,6.951010227203369141e+00,-1.143270254135131836e+00,8.339988708496093750e+00,9.927046775817871094e+00,6.570046424865722656e+00,9.589062690734863281e+00,7.570424079895019531e+00,1.278119564056396484e+01,2.032143592834472656e+01,1.660123062133789062e+01,7.203287601470947266e+00,1.098791980743408203e+01,1.071092224121093750e+01,-1.138594985008239746e+00,2.955865301191806793e-02
7.655226707458496094e+00,-9.860034286975860596e-02,1.223833274841308594e+01,3.924032688140869141e+00,6.784679412841796875e+00,-2.980631351470947266e+00,7.608460903167724609e+00,-3.742420077323913574e-01,8.671498298645019531e+00,1.093731307983398438e+01,7.043004035949707031e+00,9.907175064086914062e+00,7.676037788391113281e+00,1.314573764801025391e+01,1.943428611755371094e+01,1.656775093078613281e+01,7.573290348052978516e+00,1.121468448638916016e+01,1.095759773254394531e+01,-9.100929498672485352e-01,2.746388316154479980e-02
9.059697151184082031e+00,1.050111532211303711e+00,1.278912448883056641e+01,4.513867378234863281e+00,8.140083312988281250e+00,-1.567963957786560059e+00,8.238432884216308594e+00,2.158771306276321411e-01,8.860028266906738281e+00,1.147760963439941406e+01,7.548122406005859375e+00,9.915127754211425781e+00,7.611349105834960938e+00,1.307031440734863281e+01,1.823422622680664062e+01,1.604236984252929688e+01,7.846015453338623047e+00,1.127909088134765625e+01,1.103557014465332031e+01,-6.132665276527404785e-01,2.738557383418083191e-02
1.043088531494140625e+01,2.299850225448608398e+00,1.325002384185791016e+01,4.977831363677978516e+00,9.606384277343750000e+00,-1.926987431943416595e-03,8.782916069030761719e+00,6.205302476882934570e-01,8.861293792724609375e+00,1.147314453125000000e+01,8.039998054504394531e+00,9.620873451232910156e+00,7.342033863067626953e+00,1.257001304626464844e+01,1.670578384399414062e+01,1.502766513824462891e+01,8.012777328491210938e+00,1.116235351562500000e+01,1.091648483276367188e+01,-2.806942760944366455e-01,2.891260385513305664e-02
1.174882411956787109e+01,3.463529109954833984e+00,1.357853794097900391e+01,5.248599529266357422e+00,1.108500576019287109e+01,1.454560399055480957e+00,9.187971115112304688e+00,8.256669044494628906e-01,8.632273674011230469e+00,1.088931179046630859e+01,8.464714050292968750e+00,9.095988273620605469e+00,6.857530117034912109e+00,1.168757152557373047e+01,1.487818717956542969e+01,1.355969047546386719e+01,8.023200035095214844e+00,1.082153606414794922e+01,1.055923080444335938e+01,4.916312918066978455e-02,3.153596073389053345e-02
1.298023223876953125e+01,4.286710262298583984e+00,1.373053646087646484e+01,5.229572296142578125e+00,1.243578910827636719e+01,2.507279396057128906e+00,9.404747009277343750e+00,8.209834098815917969e-01,8.138806343078613281e+00,9.736157417297363281e+00,8.762677192687988281e+00,8.430223464965820312e+00,6.165759563446044922e+00,1.047578525543212891e+01,1.281848716735839844e+01,1.171570873260498047e+01,7.783479690551757812e+00,1.019491291046142578e+01,9.922693252563476562e+00,3.428221940994262695e-01,3.466832637786865234e-02
1.400751399993896484e+01,4.533664703369140625e+00,1.363410758972167969e+01,4.825616359710693359e+00,1.343385982513427734e+01,2.931914329528808594e+00,9.378285408020019531e+00,6.195935606956481934e-01,7.353053092956542969e+00,8.070613861083984375e+00,8.873349189758300781e+00,7.697428703308105469e+00,5.283883571624755859e+00,8.983679771423339844e+00,1.064015674591064453e+01,9.588433265686035156e+00,7.170282840728759766e+00,9.224789619445800781e+00,8.979937553405761719e+00,5.790163874626159668e-01,3.758534416556358337e-02
1.463763999938964844e+01,4.072184562683105469e+00,1.319282054901123047e+01,3.995749473571777344e+00,1.379581356048583984e+01,2.649172067642211914e+00,9.054649353027343750e+00,2.505349218845367432e-01,6.263627052307128906e+00,5.990917205810546875e+00,8.750379562377929688e+00,6.920324802398681641e+00,4.236986160278320312e+00,7.269078254699707031e+00,8.470422744750976562e+00,7.275730133056640625e+00,6.093279361724853516e+00,7.885669231414794922e+00,7.742305278778076172e+00,7.527683973312377930e-01,3.940603137016296387e-02
1.465095233917236328e+01,2.903516530990600586e+00,1.230861186981201172e+01,2.737045288085937500e+00,1.327521514892578125e+01,1.742519259452819824e+00,8.398216247558593750e+00,-2.786988914012908936e-01,4.879385948181152344e+00,3.602001428604125977e+00,8.382419586181640625e+00,6.059148311614990234e+00,3.059391498565673828e+00,5.397346973419189453e+00,6.419319152832031250e+00,4.914094448089599609e+00,4.524676799774169922e+00,6.182919979095458984e+00,6.253744125366210938e+00,8.740328550338745117e-01,3.928856924176216125e-02
1.390767002105712891e+01,1.169847011566162109e+00,1.094879341125488281e+01,1.105120778083801270e+00,1.178581142425537109e+01,3.893214166164398193e-01,7.431376457214355469e+00,-9.812216758728027344e-01,3.243349313735961914e+00,1.017730236053466797e+00,7.829059123992919922e+00,5.037779808044433594e+00,1.790704965591430664e+00,3.442650794982910156e+00,4.565932750701904297e+00,2.619418621063232422e+00,2.532220840454101562e+00,4.175581455230712891e+00,4.596478939056396484e+00,9.482394456863403320e-01,3.658690303564071655e-02
1.244773101806640625e+01,-9.030728936195373535e-01,9.199989318847656250e+00,-7.873263359069824219e-01,9.506268501281738281e+00,-1.215318679809570312e+00,6.266080856323242188e+00,-1.876703977584838867e+00,1.464333653450012207e+00,-1.631287336349487305e+00,7.216106414794921875e+00,3.793731927871704102e+00,5.193780660629272461e-01,1.498011112213134766e+00,2.949807405471801758e+00,5.178974270820617676e-01,2.930964529514312744e-01,1.973681688308715820e+00,2.879671812057495117e+00,9.699584841728210449e-01,3.132060915231704712e-02
1.047969818115234375e+01,-3.085750341415405273e+00,7.248519420623779297e+00,-2.823207139968872070e+00,6.833966732025146484e+00,-2.911771774291992188e+00,5.066182136535644531e+00,-3.011980772018432617e+00,-3.273351490497589111e-01,-4.234536170959472656e+00,6.703420639038085938e+00,2.314508199691772461e+00,-6.595367193222045898e-01,-3.674352169036865234e-01,1.581258893013000488e+00,-1.295179724693298340e+00,-1.982506990432739258e+00,-2.979921400547027588e-01,1.209647774696350098e+00,9.355700612068176270e-01,2.429236099123954773e-02
8.305320739746093750e+00,-5.224773883819580078e+00,5.306856155395507812e+00,-4.916168689727783203e+00,4.269481182098388672e+00,-4.647871494293212891e+00,4.002658843994140625e+00,-4.425456523895263672e+00,-1.997534871101379395e+00,-6.703826427459716797e+00,6.426267623901367188e+00,6.637308001518249512e-01,-1.631184339523315430e+00,-2.102149486541748047e+00,4.499711394309997559e-01,-2.755427837371826172e+00,-4.122616291046142578e+00,-2.537462711334228516e+00,-3.299499452114105225e-01,8.419068455696105957e-01,1.691172085702419281e-02
6.228569030761718750e+00,-7.227848529815673828e+00,3.564589262008666992e+00,-7.009130477905273438e+00,2.259479045867919922e+00,-6.434050559997558594e+00,3.207815170288085938e+00,-6.096524238586425781e+00,-3.431123018264770508e+00,-8.958785057067871094e+00,6.457482814788818359e+00,-9.961355328559875488e-01,-2.288630723953247070e+00,-3.664649248123168945e+00,-4.440556168556213379e-01,-3.834517717361450195e+00,-6.023005962371826172e+00,-4.658854484558105469e+00,-1.669655084609985352e+00,6.894212961196899414e-01,1.072529610246419907e-02
4.466879367828369141e+00,-9.032610893249511719e+00,2.113245010375976562e+00,-9.043547630310058594e+00,1.062718987464904785e+00,-8.252573013305664062e+00,2.730501890182495117e+00,-7.909032821655273438e+00,-4.559772968292236328e+00,-1.091903495788574219e+01,6.768688678741455078e+00,-2.452636957168579102e+00,-2.561906576156616211e+00,-5.003396034240722656e+00,-1.092224955558776855e+00,-4.529873847961425781e+00,-7.657618522644042969e+00,-6.604469776153564453e+00,-2.765519857406616211e+00,5.020948648452758789e-01,6.848991848528385162e-03
3.109003067016601562e+00,-1.057046318054199219e+01,9.446512460708618164e-01,-1.094770336151123047e+01,7.084656953811645508e-01,-9.998063087463378906e+00,2.522885799407958984e+00,-9.651288986206054688e+00,-5.373362541198730469e+00,-1.249080848693847656e+01,7.237862586975097656e+00,-3.499000310897827148e+00,-2.440450668334960938e+00,-6.059309005737304688e+00,-1.494536995887756348e+00,-4.867250442504882812e+00,-9.036877632141113281e+00,-8.326004028320312500e+00,-3.584937334060668945e+00,3.242705464363098145e-01,5.615622736513614655e-03
2.163814783096313477e+00,-1.174162483215332031e+01,1.604333287104964256e-03,-1.261182785034179688e+01,1.042695999145507812e+00,-1.145663642883300781e+01,2.483194351196289062e+00,-1.104228496551513672e+01,-5.894667625427246094e+00,-1.355577373504638672e+01,7.690955638885498047e+00,-4.004572391510009766e+00,-1.978389859199523926e+00,-6.761993885040283203e+00,-1.675061702728271484e+00,-4.895579814910888672e+00,-1.015036010742187500e+01,-9.767101287841796875e+00,-4.110895633697509766e+00,2.134131044149398804e-01,6.477023474872112274e-03
1.602470397949218750e+00,-1.245504856109619141e+01,-7.600245475769042969e-01,-1.389687728881835938e+01,1.815892219543457031e+00,-1.240502262115478516e+01,2.500495910644531250e+00,-1.182629966735839844e+01,-6.159115791320800781e+00,-1.398890399932861328e+01,7.961487293243408203e+00,-3.946630239486694336e+00,-1.281338334083557129e+00,-7.051113128662109375e+00,-1.700850963592529297e+00,-4.681822299957275391e+00,-1.094421577453613281e+01,-1.083786106109619141e+01,-4.336306095123291016e+00,2.143180668354034424e-01,8.395598269999027252e-03
1.405001401901245117e+00,-1.263964080810546875e+01,-1.310816287994384766e+00,-1.465209960937500000e+01,2.787778377532958984e+00,-1.268776512145996094e+01,2.518814802169799805e+00,-1.183566665649414062e+01,-6.167973041534423828e+00,-1.366294002532958984e+01,7.948244094848632812e+00,-3.402430534362792969e+00,-4.615107178688049316e-01,-6.882669925689697266e+00,-1.645833849906921387e+00,-4.292937755584716797e+00,-1.130900669097900391e+01,-1.142557048797607422e+01,-4.244157314300537109e+00,3.351300358772277832e-01,1.039248239248991013e-02
1.586939096450805664e+00,-1.226047897338867188e+01,-1.549438118934631348e+00,-1.474137973785400391e+01,3.792009353637695312e+00,-1.227877998352050781e+01,2.555453062057495117e+00,-1.107881546020507812e+01,-5.883279800415039062e+00,-1.250085449218750000e+01,7.643659591674804688e+00,-2.512851238250732422e+00,4.005624651908874512e-01,-6.247865200042724609e+00,-1.565027594566345215e+00,-3.783010005950927734e+00,-1.111618804931640625e+01,-1.140946960449218750e+01,-3.824524879455566406e+00,5.396506786346435547e-01,1.184120215475559235e-02
2.179345846176147461e+00,-1.132379817962646484e+01,-1.341869831085205078e+00,-1.406958293914794922e+01,4.754654407501220703e+00,-1.129283428192138672e+01,2.687757253646850586e+00,-9.721541404724121094e+00,-5.235444545745849609e+00,-1.051158046722412109e+01,7.125298500061035156e+00,-1.434676527976989746e+00,1.275837421417236328e+00,-5.185667037963867188e+00,-1.472186326980590820e+00,-3.206121683120727539e+00,-1.026674556732177734e+01,-1.070099639892578125e+01,-3.077408790588378906e+00,7.496010661125183105e-01,1.262429356575012207e-02
3.164471864700317383e+00,-9.886973381042480469e+00,-6.014880537986755371e-01,-1.262646389007568359e+01,5.660310268402099609e+00,-9.931289672851562500e+00,3.003252267837524414e+00,-8.032676696777343750e+00,-4.167529106140136719e+00,-7.822375297546386719e+00,6.515183448791503906e+00,-3.053766489028930664e-01,2.188077211380004883e+00,-3.784068107604980469e+00,-1.341520905494689941e+00,-2.606055021286010742e+00,-8.732884407043457031e+00,-9.293444633483886719e+00,-2.025492191314697266e+00,8.776527047157287598e-01,1.321161258965730667e-02
4.458004474639892578e+00,-8.069738388061523438e+00,6.308470964431762695e-01,-1.051593875885009766e+01,6.493575572967529297e+00,-8.388205528259277344e+00,3.526363134384155273e+00,-6.311964511871337891e+00,-2.697247266769409180e+00,-4.704504966735839844e+00,5.913581848144531250e+00,7.637090682983398438e-01,3.166325569152832031e+00,-2.186371088027954102e+00,-1.121452808380126953e+00,-2.021440744400024414e+00,-6.608409404754638672e+00,-7.300866127014160156e+00,-7.481647729873657227e-01,8.676981329917907715e-01,1.424920931458473206e-02
5.880224704742431641e+00,-6.085372447967529297e+00,2.168814420700073242e+00,-7.988285064697265625e+00,7.212863922119140625e+00,-6.812778949737548828e+00,4.189920425415039062e+00,-4.833856582641601562e+00,-9.587212800979614258e-01,-1.544214725494384766e+00,5.373464584350585938e+00,1.655560612678527832e+00,4.217183589935302734e+00,-5.962163805961608887e-01,-7.810349464416503906e-01,-1.501211166381835938e+00,-4.115667819976806641e+00,-4.966127395629882812e+00,6.170585751533508301e-01,7.238097190856933594e-01,1.622651703655719757e-02
7.213695049285888672e+00,-4.208270072937011719e+00,3.728028774261474609e+00,-5.393305301666259766e+00,7.742703437805175781e+00,-5.269695281982421875e+00,4.851441860198974609e+00,-3.784755945205688477e+00,8.177639245986938477e-01,1.225364923477172852e+00,4.899561405181884766e+00,2.250885725021362305e+00,5.297085285186767578e+00,7.676712870597839355e-01,-3.099516034126281738e-01,-1.086572766304016113e+00,-1.560391187667846680e+00,-2.627363443374633789e+00,1.894385933876037598e+00,5.106920003890991211e-01,1.908480189740657806e-02
8.249852180480957031e+00,-2.700351715087890625e+00,5.011030197143554688e+00,-3.123247146606445312e+00,8.012244224548339844e+00,-3.794428110122680664e+00,5.333844184875488281e+00,-3.233041286468505859e+00,2.342453718185424805e+00,3.226919174194335938e+00,4.459711074829101562e+00,2.434936523437500000e+00,6.304377555847167969e+00,1.691595196723937988e+00,2.436572760343551636e-01,-8.110057115554809570e-01,7.273719310760498047e-01,-6.508865356445312500e-01,2.889595508575439453e+00,3.229131102561950684e-01,2.227590046823024750e-02
8.855571746826171875e+00,-1.729995727539062500e+00,5.805346965789794922e+00,-1.492786169052124023e+00,7.967577457427978516e+00,-2.434970378875732422e+00,5.491591453552246094e+00,-3.159042358398437500e+00,3.344573736190795898e+00,4.217091560363769531e+00,4.014184951782226562e+00,2.122504472732543945e+00,7.087240219116210938e+00,2.018425464630126953e+00,7.972661256790161133e-01,-7.054145336151123047e-01,2.467947959899902344e+00,6.573721766471862793e-01,3.436819076538085938e+00,2.364895492792129517e-01,2.486010268330574036e-02
8.986477851867675781e+00,-1.284729599952697754e+00,6.039065837860107422e+00,-6.351109743118286133e-01,7.619484901428222656e+00,-1.260181784629821777e+00,5.262603282928466797e+00,-3.468152284622192383e+00,3.658368825912475586e+00,4.165740966796875000e+00,3.535552263259887695e+00,1.305636644363403320e+00,7.503095149993896484e+00,1.699137330055236816e+00,1.247718095779418945e+00,-7.775255441665649414e-01,3.524106025695800781e+00,1.121636271476745605e+00,3.441071987152099609e+00,2.672581374645233154e-01,2.587812207639217377e-02
8.724664688110351562e+00,-1.182455539703369141e+00,5.800444126129150391e+00,-4.565505981445312500e-01,7.034196853637695312e+00,-3.357922732830047607e-01,4.686570644378662109e+00,-4.016119956970214844e+00,3.272451400756835938e+00,3.249245643615722656e+00,3.026650190353393555e+00,9.226416796445846558e-02,7.462169647216796875e+00,8.204669356346130371e-01,1.526241779327392578e+00,-1.004160165786743164e+00,3.927113533020019531e+00,7.553238272666931152e-01,2.917948961257934570e+00,3.663510978221893311e-01,2.511460706591606140e-02
8.207695960998535156e+00,-1.148779988288879395e+00,5.274168014526367188e+00,-6.819464564323425293e-01,6.325690269470214844e+00,2.766418755054473877e-01,3.881549596786499023e+00,-4.665251255035400391e+00,2.317147731781005859e+00,1.784639120101928711e+00,2.503559350967407227e+00,-1.324473261833190918e+00,6.953902721405029297e+00,-4.227449297904968262e-01,1.589855194091796875e+00,-1.359564542770385742e+00,3.848943948745727539e+00,-2.711560726165771484e-01,1.973775863647460938e+00,4.387477934360504150e-01,2.317645587027072906e-02
7.624164104461669922e+00,-9.242759943008422852e-01,4.677613258361816406e+00,-9.629594683647155762e-01,5.635666847229003906e+00,5.906839370727539062e-01,2.998163700103759766e+00,-5.286281108856201172e+00,1.021477699279785156e+00,1.369569599628448486e-01,1.985198020935058594e+00,-2.712807655334472656e+00,6.048264026641845703e+00,-1.775319218635559082e+00,1.429962038993835449e+00,-1.799956798553466797e+00,3.539739847183227539e+00,-1.659922957420349121e+00,7.772561311721801758e-01,3.944048285484313965e-01,2.114041708409786224e-02
7.158226013183593750e+00,-3.418129682540893555e-01,4.184025764465332031e+00,-1.005404114723205566e+00,5.091964721679687500e+00,7.263166904449462891e-01,2.171770334243774414e+00,-5.787414073944091797e+00,-3.614983260631561279e-01,-1.375651001930236816e+00,1.478187799453735352e+00,-3.875054836273193359e+00,4.878590583801269531e+00,-3.000932455062866211e+00,1.074070572853088379e+00,-2.286706209182739258e+00,3.237484216690063477e+00,-3.082234859466552734e+00,-4.745530188083648682e-01,1.966713815927505493e-01,2.018112875521183014e-02
6.947444438934326172e+00,6.310375332832336426e-01,3.880027770996093750e+00,-6.526742577552795410e-01,4.746953010559082031e+00,8.734260797500610352e-01,1.482770204544067383e+00,-6.120878219604492188e+00,-1.610352158546447754e+00,-2.551131725311279297e+00,9.740152359008789062e-01,-4.707828521728515625e+00,3.603302955627441406e+00,-3.938683748245239258e+00,5.771980285644531250e-01,-2.788908004760742188e+00,3.101990222930908203e+00,-4.249604225158691406e+00,-1.614365696907043457e+00,-1.214215606451034546e-01,2.084675803780555725e-02
7.049507141113281250e+00,1.906968355178833008e+00,3.749276161193847656e+00,8.059410005807876587e-02,4.582148075103759766e+00,1.232331275939941406e+00,9.494819045066833496e-01,-6.288547039031982422e+00,-2.589696645736694336e+00,-3.320273160934448242e+00,4.575457870960235596e-01,-5.204311370849609375e+00,2.355739116668701172e+00,-4.533263206481933594e+00,1.671202108263969421e-02,-3.280808210372924805e+00,3.176685571670532227e+00,-4.971494674682617188e+00,-2.523096799850463867e+00,-4.770702719688415527e-01,2.290237322449684143e-02
7.448882579803466797e+00,3.351277112960815430e+00,3.713319301605224609e+00,1.084630250930786133e+00,4.522078990936279297e+00,1.948055028915405273e+00,5.454448461532592773e-01,-6.317584514617919922e+00,-3.243858098983764648e+00,-3.705402135848999023e+00,-8.162559568881988525e-02,-5.434943199157714844e+00,1.225670814514160156e+00,-4.806040763854980469e+00,-5.197040438652038574e-01,-3.723775863647460938e+00,3.435513734817504883e+00,-5.163372516632080078e+00,-3.135533571243286133e+00,-7.748016715049743652e-01,2.558446303009986877e-02
8.079008102416992188e+00,4.855453491210937500e+00,3.705147266387939453e+00,2.237954616546630859e+00,4.505136489868164062e+00,3.082153797149658203e+00,2.391094267368316650e-01,-6.230471611022949219e+00,-3.565245151519775391e+00,-3.753403902053833008e+00,-6.312020421028137207e-01,-5.473570823669433594e+00,2.540232241153717041e-01,-4.809812068939208984e+00,-9.237353205680847168e-01,-4.061152458190917969e+00,3.841995477676391602e+00,-4.837314128875732422e+00,-3.421904325485229492e+00,-9.381466507911682129e-01,2.795331552624702454e-02
8.835602760314941406e+00,6.312234878540039062e+00,3.695340871810913086e+00,3.449823141098022461e+00,4.518998622894287109e+00,4.550117492675781250e+00,-1.073826919309794903e-03,-6.048752784729003906e+00,-3.594347000122070312e+00,-3.522326469421386719e+00,-1.172265291213989258e+00,-5.367912292480468750e+00,-5.671246051788330078e-01,-4.602400779724121094e+00,-1.118014216423034668e+00,-4.231128215789794922e+00,4.380496978759765625e+00,-4.076511383056640625e+00,-3.389297723770141602e+00,-9.376941919326782227e-01,2.949992194771766663e-02
9.612166404724121094e+00,7.620594024658203125e+00,3.693706512451171875e+00,4.676328182220458984e+00,4.605251789093017578e+00,6.171451091766357422e+00,-2.076721340417861938e-01,-5.774300575256347656e+00,-3.403286218643188477e+00,-3.067985773086547852e+00,-1.701031565666198730e+00,-5.128191471099853516e+00,-1.283978700637817383e+00,-4.232831001281738281e+00,-1.081909298896789551e+00,-4.192497730255126953e+00,5.059703826904296875e+00,-3.011119365692138672e+00,-3.083079576492309570e+00,-7.852087020874023438e-01,3.051794134080410004e-02
1.032216644287109375e+01,8.640839576721191406e+00,3.739469766616821289e+00,5.889660358428955078e+00,4.817803859710693359e+00,7.699928283691406250e+00,-4.193590581417083740e-01,-5.406178474426269531e+00,-3.103409528732299805e+00,-2.454012155532836914e+00,-2.243040800094604492e+00,-4.757817745208740234e+00,-1.962547779083251953e+00,-3.758927106857299805e+00,-8.790339827537536621e-01,-3.958136558532714844e+00,5.888301372528076172e+00,-1.807521343231201172e+00,-2.589727640151977539e+00,-5.168884396553039551e-01,3.167300298810005188e-02
1.091457366943359375e+01,9.219561576843261719e+00,3.850608587265014648e+00,7.044448375701904297e+00,5.159735202789306641e+00,8.910189628601074219e+00,-6.931272745132446289e-01,-4.937829971313476562e+00,-2.837695837020874023e+00,-1.764128923416137695e+00,-2.856939315795898438e+00,-4.280648708343505859e+00,-2.680721998214721680e+00,-3.252340316772460938e+00,-6.503694653511047363e-01,-3.607883214950561523e+00,6.828073501586914062e+00,-6.495447158813476562e-01,-2.035415887832641602e+00,-1.707418113946914673e-01,3.363073244690895081e-02
1.140935516357421875e+01,9.290654182434082031e+00,4.028758049011230469e+00,8.123128890991210938e+00,5.581758499145507812e+00,9.725029945373535156e+00,-1.078845262527465820e+00,-4.324293613433837891e+00,-2.741532802581787109e+00,-1.057500958442687988e+00,-3.612725257873535156e+00,-3.740993261337280273e+00,-3.503190040588378906e+00,-2.791007041931152344e+00,-5.626860857009887695e-01,-3.262780427932739258e+00,7.821695804595947266e+00,3.152121901512145996e-01,-1.549152493476867676e+00,2.292498797178268433e-01,3.646943718194961548e-02
1.188860607147216797e+01,8.943920135498046875e+00,4.277186393737792969e+00,9.153509140014648438e+00,5.977598190307617188e+00,1.024773788452148438e+01,-1.584654927253723145e+00,-3.473772525787353516e+00,-2.879451036453247070e+00,-3.263141214847564697e-01,-4.533100128173828125e+00,-3.187704324722290039e+00,-4.447113990783691406e+00,-2.411381006240844727e+00,-7.414914369583129883e-01,-3.036145687103271484e+00,8.810107231140136719e+00,1.026368141174316406e+00,-1.213163018226623535e+00,6.726796030998229980e-01,3.956265002489089966e-02
1.246548175811767578e+01,8.436291694641113281e+00,4.613872051239013672e+00,1.022779846191406250e+01,6.248678684234619141e+00,1.071723556518554688e+01,-2.141350746154785156e+00,-2.287914037704467773e+00,-3.210960149765014648e+00,5.064575076103210449e-01,-5.557525634765625000e+00,-2.644640684127807617e+00,-5.468928337097167969e+00,-2.083293914794921875e+00,-1.214294075965881348e+00,-2.974336385726928711e+00,9.774198532104492188e+00,1.533570051193237305e+00,-1.030282616615295410e+00,1.145067930221557617e+00,4.183361679315567017e-02
1.322429466247558594e+01,8.120738983154296875e+00,5.071503162384033203e+00,1.145869445800781250e+01,6.334931850433349609e+00,1.139435672760009766e+01,-2.622735023498535156e+00,-7.255033850669860840e-01,-3.594347000122070312e+00,1.563608646392822266e+00,-6.539385318756103516e+00,-2.103849172592163086e+00,-6.465659141540527344e+00,-1.714981317520141602e+00,-1.889971971511840820e+00,-3.036145687103271484e+00,1.071918201446533203e+01,1.973681688308715820e+00,-9.111976623535156250e-01,1.609764218330383301e+00,4.253840073943138123e-02
1.415173339843750000e+01,8.314062118530273438e+00,5.674595355987548828e+00,1.289449501037597656e+01,6.248678684234619141e+00,1.242620849609375000e+01,-2.876148700714111328e+00,1.134776949882507324e+00,-3.848672866821289062e+00,2.926630258560180664e+00,-7.287603855133056641e+00,-1.532382488250732422e+00,-7.315850734710693359e+00,-1.192052960395812988e+00,-2.598316192626953125e+00,-3.118558406829833984e+00,1.166069126129150391e+01,2.501010417938232422e+00,-7.354056835174560547e-01,2.008850812911987305e+00,4.161826893687248230e-02
1.511689090728759766e+01,9.135995864868164062e+00,6.395364284515380859e+00,1.444884872436523438e+01,6.046908378601074219e+00,1.374393367767333984e+01,-2.813049793243408203e+00,3.056879281997680664e+00,-3.849938154220581055e+00,4.544171810150146484e+00,-7.644213676452636719e+00,-9.075184464454650879e-01,-7.932371616363525391e+00,-4.717694818973541260e-01,-3.172556400299072266e+00,-3.100530624389648438e+00,1.256050968170166016e+01,3.186672210693359375e+00,-4.192636013031005859e-01,2.281243562698364258e+00,3.975842520594596863e-02
1.588014125823974609e+01,1.044435501098632812e+01,7.129208564758300781e+00,1.589928627014160156e+01,5.777368068695068359e+00,1.506896114349365234e+01,-2.446668624877929688e+00,4.729820251464843750e+00,-3.600673437118530273e+00,6.223111152648925781e+00,-7.558135509490966797e+00,-2.428902238607406616e-01,-8.307300567626953125e+00,3.830172419548034668e-01,-3.530167102813720703e+00,-2.915102243423461914e+00,1.330398941040039062e+01,3.985045433044433594e+00,2.021639235317707062e-02,2.382598876953125000e+00,3.821181878447532654e-02
1.621073532104492188e+01,1.189240550994873047e+01,7.709419250488281250e+00,1.694869422912597656e+01,5.455459594726562500e+00,1.604134368896484375e+01,-1.918468952178955078e+00,5.832312583923339844e+00,-3.235001087188720703e+00,7.639715671539306641e+00,-7.121122837066650391e+00,3.740210831165313721e-01,-8.529089927673339844e+00,1.186265349388122559e+00,-3.717568874359130859e+00,-2.593178033828735352e+00,1.374521350860595703e+01,4.721695899963378906e+00,4.469372928142547607e-01,2.303414821624755859e+00,3.799646720290184021e-02
1.598664093017578125e+01,1.304610633850097656e+01,7.943138122558593750e+00,1.733654975891113281e+01,5.059619903564453125e+00,1.637103652954101562e+01,-1.443191051483154297e+00,6.138612270355224609e+00,-2.964226245880126953e+00,8.451277732849121094e+00,-6.535601615905761719e+00,8.046092391014099121e-01,-8.737677574157714844e+00,1.700394392013549805e+00,-3.875742912292480469e+00,-2.240349054336547852e+00,1.372610473632812500e+01,5.160465717315673828e+00,6.581712365150451660e-01,2.083962440490722656e+00,3.932772204279899597e-02
1.526332855224609375e+01,1.354251003265380859e+01,7.712687969207763672e+00,1.694283866882324219e+01,4.580607891082763672e+00,1.594953060150146484e+01,-1.217255949974060059e+00,5.611251831054687500e+00,-2.968022108078002930e+00,8.427834510803222656e+00,-6.021024227142333984e+00,9.261737465858459473e-01,-9.050558090209960938e+00,1.743133783340454102e+00,-4.157705307006835938e+00,-1.972508192062377930e+00,1.319107818603515625e+01,5.117527961730957031e+00,4.795438647270202637e-01,1.794828176498413086e+00,4.167699813842773438e-02
1.425157737731933594e+01,1.320700073242187500e+01,7.009897708892822266e+00,1.583781433105468750e+01,4.039986610412597656e+00,1.488742160797119141e+01,-1.351595759391784668e+00,4.401976108551025391e+00,-3.333694696426391602e+00,7.530316829681396484e+00,-5.751438140869140625e+00,6.762281060218811035e-01,-9.546943664550781250e+00,1.246603250503540039e+00,-4.668332099914550781e+00,-1.882369399070739746e+00,1.218008422851562500e+01,4.524450778961181641e+00,-1.768407672643661499e-01,1.519720792770385742e+00,4.392838850617408752e-02
1.320876312255859375e+01,1.208323383331298828e+01,5.942636489868164062e+00,1.420296192169189453e+01,3.497825145721435547e+00,1.343719482421875000e+01,-1.856387615203857422e+00,2.795540809631347656e+00,-4.034672260284423828e+00,5.901612281799316406e+00,-5.811030864715576172e+00,8.999193459749221802e-02,-1.023343372344970703e+01,2.661125957965850830e-01,-5.445447444915771484e+00,-2.024016141891479492e+00,1.082514476776123047e+01,3.433564186096191406e+00,-1.281211495399475098e+00,1.336466670036315918e+00,4.506387189030647278e-02
1.234345054626464844e+01,1.038822937011718750e+01,4.698860645294189453e+00,1.227246189117431641e+01,3.018813133239746094e+00,1.188785076141357422e+01,-2.647160530090332031e+00,1.113232851028442383e+00,-4.969731330871582031e+00,3.805170774459838867e+00,-6.182775497436523438e+00,-7.007452249526977539e-01,-1.108626556396484375e+01,-1.063835024833679199e+00,-6.454666137695312500e+00,-2.407749652862548828e+00,9.275650024414062500e+00,1.991125106811523438e+00,-2.727242469787597656e+00,1.299363374710083008e+00,4.443739727139472961e-02
1.173551177978515625e+01,8.398874282836914062e+00,3.469794273376464844e+00,1.022926235198974609e+01,2.612191915512084961e+00,1.045536041259765625e+01,-3.617053031921386719e+00,-3.882924616336822510e-01,-6.046504020690917969e+00,1.520072340965270996e+00,-6.809916973114013672e+00,-1.527838110923767090e+00,-1.209223747253417969e+01,-2.612507343292236328e+00,-7.665040969848632812e+00,-3.054173469543457031e+00,7.660145282745361328e+00,3.514408767223358154e-01,-4.394431114196777344e+00,1.431939840316772461e+00,4.220558702945709229e-02
1.132504272460937500e+01,6.342168807983398438e+00,2.379651546478271484e+00,8.180209159851074219e+00,2.207111120223999023e+00,9.208581924438476562e+00,-4.686682701110839844e+00,-1.585391283035278320e+00,-7.227031230926513672e+00,-7.516304850578308105e-01,-7.638538360595703125e+00,-2.275402784347534180e+00,-1.328567409515380859e+01,-4.309510231018066406e+00,-9.105799674987792969e+00,-4.027672290802001953e+00,6.049851894378662109e+00,-1.380827784538269043e+00,-6.223235130310058594e+00,1.717001795768737793e+00,3.905364125967025757e-02
1.102772998809814453e+01,4.390231609344482422e+00,1.505249381065368652e+00,6.213118076324462891e+00,1.720397830009460449e+00,8.121433258056640625e+00,-5.794985771179199219e+00,-2.465886354446411133e+00,-8.501191139221191406e+00,-2.875979661941528320e+00,-8.623235702514648438e+00,-2.904811382293701172e+00,-1.469561958312988281e+01,-6.137245655059814453e+00,-1.084915161132812500e+01,-5.397781848907470703e+00,4.515991210937500000e+00,-3.129198074340820312e+00,-8.196641921997070312e+00,2.100704193115234375e+00,3.580380976200103760e-02
1.080585479736328125e+01,2.656562089920043945e+00,8.890817761421203613e-01,4.448004722595214844e+00,1.115086793899536133e+00,7.140703678131103516e+00,-6.884970188140869141e+00,-3.090663433074951172e+00,-9.838616371154785156e+00,-4.756971836090087891e+00,-9.718605041503906250e+00,-3.464916944503784180e+00,-1.631019210815429688e+01,-8.078114509582519531e+00,-1.295183372497558594e+01,-7.192831039428710938e+00,3.159314632415771484e+00,-4.810478210449218750e+00,-1.030331039428710938e+01,2.502053260803222656e+00,3.314130008220672607e-02
1.069491672515869141e+01,1.238445401191711426e+00,5.572991967201232910e-01,3.048794269561767578e+00,4.189021587371826172e-01,6.245527267456054688e+00,-7.884376525878906250e+00,-3.557138442993164062e+00,-1.115706157684326172e+01,-6.318697452545166016e+00,-1.086978244781494141e+01,-4.064786434173583984e+00,-1.802773666381835938e+01,-1.007932090759277344e+01,-1.539493370056152344e+01,-9.374189376831054688e+00,2.122264623641967773e+00,-6.328058242797851562e+00,-1.248653411865234375e+01,2.826481103897094727e+00,3.134018927812576294e-02
1.075038623809814453e+01,2.406500875949859619e-01,5.344176888465881348e-01,2.194046258926391602e+00,-2.726618349552154541e-01,5.481810569763183594e+00,-8.705680847167968750e+00,-3.929944038391113281e+00,-1.230975246429443359e+01,-7.472968101501464844e+00,-1.199447536468505859e+01,-4.802125930786132812e+00,-1.966079139709472656e+01,-1.202144622802734375e+01,-1.803231239318847656e+01,-1.178218269348144531e+01,1.566392183303833008e+00,-7.545074462890625000e+00,-1.460879707336425781e+01,2.995255708694458008e+00,3.028301335871219635e-02
1.097669887542724609e+01,-2.495168894529342651e-01,8.155339360237121582e-01,1.996459007263183594e+00,-8.548694252967834473e-01,4.965362548828125000e+00,-9.277643203735351562e+00,-4.247484207153320312e+00,-1.315370941162109375e+01,-8.159502983093261719e+00,-1.299998283386230469e+01,-5.717835903167724609e+00,-2.100076675415039062e+01,-1.375490379333496094e+01,-2.059748268127441406e+01,-1.420047664642333984e+01,1.592448711395263672e+00,-8.351498603820800781e+00,-1.648438453674316406e+01,2.981228828430175781e+00,2.969569526612758636e-02
