Fp1,Fp2,F7,F3,Fz,F4,F8,T3,C3,Cz,C4,T4,T5,P3,Pz,P4,T6,O1,Oz,O2,A1
3.378125429153442383e+00,-6.145294383168220520e-02,-1.042940378189086914e+00,-9.217659235000610352e-01,9.781870841979980469e+00,-8.538847416639328003e-02,7.204424858093261719e+00,-2.356342315673828125e+00,4.417940616607666016e+00,-5.502465724945068359e+00,2.801078796386718750e+00,-2.609162963926792145e-02,1.236663722991943359e+01,7.577682137489318848e-01,-2.383626937866210938e+00,2.526602029800415039e+00,-7.129444599151611328e+00,2.590909481048583984e+00,4.961007595062255859e+00,-7.937034368515014648e-01,-6.540231406688690186e-02
3.368373155593872070e+00,4.442580342292785645e-01,-1.624712824821472168e+00,-1.006199479103088379e+00,1.017870235443115234e+01,-1.253959298133850098e+00,6.981166362762451172e+00,-1.962421536445617676e+00,3.444833755493164062e+00,-5.529465675354003906e+00,2.628314256668090820e+00,-7.226171493530273438e-01,1.153118801116943359e+01,8.791018724441528320e-01,-2.562303066253662109e+00,1.767377376556396484e+00,-8.292872428894042969e+00,2.548318624496459961e+00,4.457621097564697266e+00,-4.915536344051361084e-01,-6.240974366664886475e-02
3.510905981063842773e+00,9.641147851943969727e-01,-2.086247205734252930e+00,-1.547738790512084961e+00,1.036567974090576172e+01,-2.428091049194335938e+00,6.573649406433105469e+00,-1.861827969551086426e+00,2.273246288299560547e+00,-5.812528133392333984e+00,2.826809644699096680e+00,-1.352478504180908203e+00,1.075957584381103516e+01,1.049146175384521484e+00,-2.147949695587158203e+00,1.373475313186645508e+00,-9.184907913208007812e+00,2.170011520385742188e+00,3.912575244903564453e+00,-2.011094093322753906e-01,-5.796622484922409058e-02
3.852234363555908203e+00,1.357838511466979980e+00,-2.420822381973266602e+00,-2.400808811187744141e+00,1.028611469268798828e+01,-3.553763866424560547e+00,6.007872581481933594e+00,-1.931144595146179199e+00,9.022590517997741699e-01,-6.382136821746826172e+00,3.299154996871948242e+00,-1.648252725601196289e+00,1.014432239532470703e+01,1.236017704010009766e+00,-1.140567183494567871e+00,1.428149461746215820e+00,-9.555291175842285156e+00,1.515281438827514648e+00,3.362321853637695312e+00,6.324116140604019165e-02,-5.295269191265106201e-02
4.372854232788085938e+00,1.501653671264648438e+00,-2.646362066268920898e+00,-3.362574577331542969e+00,9.894256591796875000e+00,-4.589669227600097656e+00,5.320010662078857422e+00,-1.986090540885925293e+00,-6.148319244384765625e-01,-7.147711753845214844e+00,3.832151889801025391e+00,-1.418376326560974121e+00,9.780720710754394531e+00,1.438830852508544922e+00,3.546122312545776367e-01,1.885423779487609863e+00,-9.247194290161132812e+00,7.369543313980102539e-01,2.867614507675170898e+00,2.795501649379730225e-01,-4.835371673107147217e-02
4.999998569488525391e+00,1.347818493843078613e+00,-2.771080970764160156e+00,-4.212733268737792969e+00,9.215963363647460938e+00,-5.512768268585205078e+00,4.567714691162109375e+00,-1.843230843544006348e+00,-2.143868446350097656e+00,-7.916770935058593750e+00,4.177680969238281250e+00,-6.314328312873840332e-01,9.745563507080078125e+00,1.673527240753173828e+00,2.161104679107666016e+00,2.603642702102661133e+00,-8.272851943969726562e+00,3.462263569235801697e-02,2.500489711761474609e+00,4.156273007392883301e-01,-4.477817565202713013e-02
5.654899120330810547e+00,9.652935862541198730e-01,-2.781536340713500977e+00,-4.763977527618408203e+00,8.380529403686523438e+00,-6.320679187774658203e+00,3.848200559616088867e+00,-1.412115812301635742e+00,-3.513936758041381836e+00,-8.490734100341796875e+00,4.162977695465087891e+00,5.363392829895019531e-01,1.004810237884521484e+01,1.935678839683532715e+00,4.054194927215576172e+00,3.387719154357910156e+00,-6.812449455261230469e+00,-4.297012984752655029e-01,2.296531438827514648e+00,4.522071778774261475e-01,-4.239447787404060364e-02
6.285794258117675781e+00,5.067351460456848145e-01,-2.647855520248413086e+00,-4.909552574157714844e+00,7.578909873962402344e+00,-7.015784263610839844e+00,3.263772249221801758e+00,-7.248675823211669922e-01,-4.588121891021728516e+00,-8.737216949462890625e+00,3.742093801498413086e+00,1.763879299163818359e+00,1.059211635589599609e+01,2.187202692031860352e+00,5.779570102691650391e+00,4.052506923675537109e+00,-5.165187358856201172e+00,-6.034052371978759766e-01,2.234042167663574219e+00,3.963618874549865723e-01,-4.095648974180221558e-02
6.882181644439697266e+00,1.454288214445114136e-01,-2.361823797225952148e+00,-4.641694545745849609e+00,6.973219871520996094e+00,-7.590933799743652344e+00,2.883950233459472656e+00,8.917915076017379761e-02,-5.318641185760498047e+00,-8.629217147827148438e+00,3.023467063903808594e+00,2.726295232772827148e+00,1.118886566162109375e+01,2.366988897323608398e+00,7.107035160064697266e+00,4.487414360046386719e+00,-3.641386270523071289e+00,-5.608143210411071777e-01,2.249664545059204102e+00,2.868661284446716309e-01,-4.011442512273788452e-02
7.437309265136718750e+00,-3.101678099483251572e-03,-1.977211713790893555e+00,-4.070069313049316406e+00,6.606225490570068359e+00,-8.030240058898925781e+00,2.701952219009399414e+00,8.601143956184387207e-01,-5.781762599945068359e+00,-8.249478340148925781e+00,2.185375452041625977e+00,3.208269357681274414e+00,1.159965229034423828e+01,2.413042545318603516e+00,7.856817245483398438e+00,4.651436805725097656e+00,-2.482407569885253906e+00,-4.747974872589111328e-01,2.249664545059204102e+00,1.890759319067001343e-01,-3.964804857969284058e-02
7.900916099548339844e+00,5.289196223020553589e-02,-1.628446936607360840e+00,-3.399453639984130859e+00,6.373497486114501953e+00,-8.320992469787597656e+00,2.617735624313354492e+00,1.445078372955322266e+00,-6.140130519866943359e+00,-7.755642890930175781e+00,1.380366563796997070e+00,3.166891574859619141e+00,1.159039974212646484e+01,2.274881601333618164e+00,7.905048847198486328e+00,4.527177333831787109e+00,-1.810600399971008301e+00,-5.324204564094543457e-01,2.135968446731567383e+00,1.756633073091506958e-01,-3.941486030817031860e-02
8.167977333068847656e+00,1.896343231201171875e-01,-1.475348949432373047e+00,-2.856943845748901367e+00,6.057225704193115234e+00,-8.448891639709472656e+00,2.488867521286010742e+00,1.784898519515991211e+00,-6.548119068145751953e+00,-7.299259185791015625e+00,6.672535538673400879e-01,2.736256361007690430e+00,1.103158283233642578e+01,1.939221382141113281e+00,7.235287666320800781e+00,4.125819683074951172e+00,-1.618178844451904297e+00,-8.539397120475769043e-01,1.853898644447326660e+00,2.832081615924835205e-01,-3.935008496046066284e-02
8.095211029052734375e+00,2.173364311456680298e-01,-1.642636537551879883e+00,-2.615289211273193359e+00,5.422693252563476562e+00,-8.394872665405273438e+00,2.188175201416015625e+00,1.893100023269653320e+00,-7.066373825073242188e+00,-6.975261688232421875e+00,1.662987843155860901e-02,2.130915164947509766e+00,9.936153411865234375e+00,1.433516979217529297e+00,5.952765464782714844e+00,3.466002702713012695e+00,-1.807263612747192383e+00,-1.414301872253417969e+00,1.412133693695068359e+00,4.904941022396087646e-01,-3.924644738435745239e-02
7.563338279724121094e+00,-3.905548900365829468e-02,-2.144499301910400391e+00,-2.729808330535888672e+00,4.321710109710693359e+00,-8.174027442932128906e+00,1.671571969985961914e+00,1.817020893096923828e+00,-7.600250244140625000e+00,-6.804553031921386719e+00,-6.101008653640747070e-01,1.539366722106933594e+00,8.471571922302246094e+00,8.250774145126342773e-01,4.312891483306884766e+00,2.623524188995361328e+00,-2.229923725128173828e+00,-2.078218221664428711e+00,8.965966105461120605e-01,7.211912274360656738e-01,-3.892257437109947205e-02
6.544603824615478516e+00,-6.549855470657348633e-01,-2.854724645614624023e+00,-3.099569082260131836e+00,2.751292467117309570e+00,-7.801451206207275391e+00,1.000101089477539062e+00,1.598927259445190430e+00,-7.917268276214599609e+00,-6.723553657531738281e+00,-1.168828606605529785e+00,1.061223745346069336e+00,6.907994747161865234e+00,2.139809429645538330e-01,2.686171293258666992e+00,1.731342196464538574e+00,-2.732666969299316406e+00,-2.643591165542602539e+00,4.513600468635559082e-01,8.704370856285095215e-01,-3.813232854008674622e-02
5.135779857635498047e+00,-1.576817631721496582e+00,-3.548520088195800781e+00,-3.507179260253906250e+00,8.576412796974182129e-01,-7.313686370849609375e+00,3.263692259788513184e-01,1.229520797729492188e+00,-7.759218692779541016e+00,-6.653876781463623047e+00,-1.510681629180908203e+00,6.505112648010253906e-01,5.512802600860595703e+00,-3.236068189144134521e-01,1.438726902008056641e+00,9.460231661796569824e-01,-3.189807176589965820e+00,-2.947572946548461914e+00,2.126854658126831055e-01,8.536103367805480957e-01,-3.648706153035163879e-02
3.542413234710693359e+00,-2.641875505447387695e+00,-3.972713470458984375e+00,-3.712925434112548828e+00,-1.106624007225036621e+00,-6.767929553985595703e+00,-1.557559967041015625e-01,6.445568203926086426e-01,-6.951512336730957031e+00,-6.542393684387207031e+00,-1.400406479835510254e+00,1.784983724355697632e-01,4.453455448150634766e+00,-7.513743638992309570e-01,8.741980195045471191e-01,4.179209470748901367e-01,-3.516812801361083984e+00,-2.936716556549072266e+00,2.447980493307113647e-01,6.475437283515930176e-01,-3.362403810024261475e-02
2.030065298080444336e+00,-3.641509532928466797e+00,-3.939106702804565430e+00,-3.544058322906494141e+00,-2.844128608703613281e+00,-6.216611862182617188e+00,-2.778416275978088379e-01,-2.185186743736267090e-01,-5.486798286437988281e+00,-6.383007526397705078e+00,-6.523730158805847168e-01,-4.674543142318725586e-01,3.764186382293701172e+00,-1.084377646446228027e+00,1.100009560585021973e+00,2.228337824344635010e-01,-3.665856122970581055e+00,-2.668644428253173828e+00,5.155851840972900391e-01,3.078385889530181885e-01,-2.949143573641777039e-02
8.365406990051269531e-01,-4.403022766113281250e+00,-3.400649785995483398e+00,-2.992814064025878906e+00,-4.072416305541992188e+00,-5.706603527069091797e+00,3.698104619979858398e-02,-1.384220123291015625e+00,-3.544260263442993164e+00,-6.228847503662109375e+00,7.389324307441711426e-01,-1.311866998672485352e+00,3.334896326065063477e+00,-1.401439309120178223e+00,1.983524680137634277e+00,3.123005032539367676e-01,-3.641386270523071289e+00,-2.298688650131225586e+00,8.861817121505737305e-01,-4.942486062645912170e-02,-2.440017275512218475e-02
7.961656153202056885e-02,-4.869832992553710938e+00,-2.479074478149414062e+00,-2.222236633300781250e+00,-4.630366802215576172e+00,-5.269680500030517578e+00,7.265387773513793945e-01,-2.801827907562255859e+00,-1.441834926605224609e+00,-6.152203083038330078e+00,2.534580230712890625e+00,-2.255126476287841797e+00,2.999976396560668945e+00,-1.802637457847595215e+00,3.200276374816894531e+00,5.459080934524536133e-01,-3.502353191375732422e+00,-2.006398439407348633e+00,1.176930785179138184e+00,-3.071910440921783447e-01,-1.888140104711055756e-02
-2.767153978347778320e-01,-5.096165180206298828e+00,-1.415603399276733398e+00,-1.499213695526123047e+00,-4.530910491943359375e+00,-4.916169643402099609e+00,1.612224817276000977e+00,-4.327637195587158203e+00,4.740553200244903564e-01,-6.201847553253173828e+00,4.328390121459960938e+00,-3.111032962799072266e+00,2.622497320175170898e+00,-2.361480712890625000e+00,4.358930587768554688e+00,7.695748805999755859e-01,-3.331064701080322266e+00,-1.919546365737915039e+00,1.248967051506042480e+00,-4.052251279354095459e-01,-1.354399789124727249e-02
-3.614849150180816650e-01,-5.183397293090820312e+00,-4.865598082542419434e-01,-1.067340970039367676e+00,-3.935166120529174805e+00,-4.629389286041259766e+00,2.465128660202026367e+00,-5.751162528991699219e+00,1.934175014495849609e+00,-6.379523754119873047e+00,5.716020107269287109e+00,-3.693386554718017578e+00,2.146022558212280273e+00,-3.088597059249877930e+00,5.144886493682861328e+00,9.050175547599792480e-01,-3.200929880142211914e+00,-2.082393884658813477e+00,1.050216197967529297e+00,-3.608415424823760986e-01,-8.867291733622550964e-03
-3.149742186069488525e-01,-5.204616069793701172e+00,8.550396561622619629e-02,-1.045989990234375000e+00,-3.097742557525634766e+00,-4.380740165710449219e+00,3.082904577255249023e+00,-6.860227108001708984e+00,2.811717033386230469e+00,-6.641683101654052734e+00,6.449349880218505859e+00,-3.910236597061157227e+00,1.622362852096557617e+00,-3.915791273117065430e+00,5.423314094543457031e+00,9.907565116882324219e-01,-3.151990175247192383e+00,-2.459030628204345703e+00,6.379601359367370605e-01,-2.547599077224731445e-01,-4.877193830907344818e-03
-2.024483233690261841e-01,-5.149211883544921875e+00,1.990205347537994385e-01,-1.366255164146423340e+00,-2.253357172012329102e+00,-4.159895420074462891e+00,3.366075277328491211e+00,-7.510281085968017578e+00,3.143437147140502930e+00,-6.932584285736083984e+00,6.511839389801025391e+00,-3.824416160583496094e+00,1.192147850990295410e+00,-4.722615718841552734e+00,5.286292552947998047e+00,1.158506631851196289e+00,-3.193144083023071289e+00,-2.973461627960205078e+00,1.449886858463287354e-01,-1.845265328884124756e-01,-1.133238081820309162e-03
1.510172244161367416e-02,-4.934078216552734375e+00,-1.116564050316810608e-01,-1.815596938133239746e+00,-1.528319478034973145e+00,-3.998631238937377930e+00,3.363814592361450195e+00,-7.678500652313232422e+00,3.089222431182861328e+00,-7.226969242095947266e+00,6.124038219451904297e+00,-3.625189781188964844e+00,1.022837400436401367e+00,-5.385079860687255859e+00,4.961825370788574219e+00,1.549923539161682129e+00,-3.313268423080444336e+00,-3.556371688842773438e+00,-2.889650762081146240e-01,-2.011094093322753906e-01,2.843905007466673851e-03
4.329478442668914795e-01,-4.473162174224853516e+00,-6.971629261970520020e-01,-2.129068613052368164e+00,-9.057219624519348145e-01,-3.978770971298217773e+00,3.238337516784667969e+00,-7.472241401672363281e+00,2.856742858886718750e+00,-7.548354148864746094e+00,5.624124050140380859e+00,-3.541668176651000977e+00,1.227305173873901367e+00,-5.818161010742187500e+00,4.704225063323974609e+00,2.255716562271118164e+00,-3.513475894927978516e+00,-4.170181274414062500e+00,-5.649596452713012695e-01,-2.864624559879302979e-01,7.429926656186580658e-03
1.125357151031494141e+00,-3.768231868743896484e+00,-1.336440443992614746e+00,-2.093160152435302734e+00,-2.632331550121307373e-01,-4.216298103332519531e+00,3.197642326354980469e+00,-7.081701755523681641e+00,2.619668483734130859e+00,-7.955964088439941406e+00,5.330056667327880859e+00,-3.708711624145507812e+00,1.790748119354248047e+00,-5.992633819580078125e+00,4.685590267181396484e+00,3.285826683044433594e+00,-3.792654037475585938e+00,-4.796517372131347656e+00,-6.552220582962036133e-01,-3.637679219245910645e-01,1.267664693295955658e-02
2.074325561523437500e+00,-2.943651914596557617e+00,-1.792747259140014648e+00,-1.617614746093750000e+00,5.473371148109436035e-01,-4.787476062774658203e+00,3.410161972045898438e+00,-6.697925090789794922e+00,2.488266944885253906e+00,-8.492476463317871094e+00,5.425628662109375000e+00,-4.093371391296386719e+00,2.599367380142211914e+00,-5.925324440002441406e+00,4.913593769073486328e+00,4.545816421508789062e+00,-4.134119033813476562e+00,-5.396130084991455078e+00,-5.779783129692077637e-01,-3.442586660385131836e-01,1.811768859624862671e-02
3.144821643829345703e+00,-2.217502832412719727e+00,-1.883859276771545410e+00,-7.519283294677734375e-01,1.597597479820251465e+00,-5.658939361572265625e+00,3.922808408737182617e+00,-6.443482398986816406e+00,2.500212669372558594e+00,-9.127407073974609375e+00,5.914515495300292969e+00,-4.494122505187988281e+00,3.483852624893188477e+00,-5.646345615386962891e+00,5.222714900970458984e+00,5.874148845672607422e+00,-4.471134662628173828e+00,-5.884672164916992188e+00,-3.662088513374328613e-01,-1.781860291957855225e-01,2.305349335074424744e-02
4.126797676086425781e+00,-1.801381587982177734e+00,-1.514183521270751953e+00,3.670587241649627686e-01,2.818922996520996094e+00,-6.628114223480224609e+00,4.642887592315673828e+00,-6.315838813781738281e+00,2.646316528320312500e+00,-9.710080146789550781e+00,6.679090023040771484e+00,-4.605995655059814453e+00,4.291546821594238281e+00,-5.148612022399902344e+00,5.370697975158691406e+00,7.091890335083007812e+00,-4.664668560028076172e+00,-6.108483314514160156e+00,-1.644211634993553162e-02,1.090879365801811218e-01,2.693995088338851929e-02
4.821457386016845703e+00,-1.787825226783752441e+00,-6.919351816177368164e-01,1.594741821289062500e+00,4.027318954467773438e+00,-7.354200839996337891e+00,5.397444725036621094e+00,-6.205946445465087891e+00,2.908200740814208984e+00,-9.994013786315917969e+00,7.561291694641113281e+00,-4.159269332885742188e+00,4.961387157440185547e+00,-4.392269611358642578e+00,5.143790245056152344e+00,8.049929618835449219e+00,-4.521186828613281250e+00,-5.886342525482177734e+00,5.155851840972900391e-01,4.312347173690795898e-01,2.994547970592975616e-02
5.116275310516357422e+00,-2.099621295928955078e+00,4.895333349704742432e-01,2.815631389617919922e+00,5.008954524993896484e+00,-7.496399402618408203e+00,6.012394428253173828e+00,-5.977709293365478516e+00,3.260136365890502930e+00,-9.746661186218261719e+00,8.404896736145019531e+00,-3.065057754516601562e+00,5.526680469512939453e+00,-3.347205877304077148e+00,4.451009273529052734e+00,8.642646789550781250e+00,-3.857165336608886719e+00,-5.102169513702392578e+00,1.255042433738708496e+00,6.887570619583129883e-01,3.282146155834197998e-02
5.037507057189941406e+00,-2.513384819030761719e+00,1.879364609718322754e+00,3.969556570053100586e+00,5.616633415222167969e+00,-6.834659576416015625e+00,6.392216682434082031e+00,-5.528842449188232422e+00,3.689259052276611328e+00,-8.822570800781250000e+00,9.072061538696289062e+00,-1.447494029998779297e+00,6.104001045227050781e+00,-2.028477430343627930e+00,3.385529518127441406e+00,8.837734222412109375e+00,-2.583623647689819336e+00,-3.770996332168579102e+00,2.184571266174316406e+00,8.106899857521057129e-01,3.639700263738632202e-02
4.708931446075439453e+00,-2.760935783386230469e+00,3.302055835723876953e+00,5.002169132232666016e+00,5.832454204559326172e+00,-5.392813205718994141e+00,6.540866851806640625e+00,-4.855964660644531250e+00,4.164326190948486328e+00,-7.263549804687500000e+00,9.424942970275878906e+00,3.830883502960205078e-01,6.821951389312744141e+00,-5.405903458595275879e-01,2.170970201492309570e+00,8.658800125122070312e+00,-7.773076295852661133e-01,-2.079888582229614258e+00,3.200891017913818359e+00,7.921561598777770996e-01,4.107370972633361816e-02
4.261078357696533203e+00,-2.662504911422729492e+00,4.571649074554443359e+00,5.800890922546386719e+00,5.744932174682617188e+00,-3.459229707717895508e+00,6.521649837493896484e+00,-4.057133674621582031e+00,4.627448081970214844e+00,-5.289080142974853516e+00,9.333046913146972656e+00,2.048159837722778320e+00,7.759172916412353516e+00,9.295837879180908203e-01,1.091240167617797852e+00,8.176673889160156250e+00,1.312635540962219238e+00,-3.637272119522094727e-01,4.134759426116943359e+00,6.914395689964294434e-01,4.659248143434524536e-02
3.759212970733642578e+00,-2.189211130142211914e+00,5.523844242095947266e+00,6.184238910675048828e+00,5.497285842895507812e+00,-1.497047424316406250e+00,6.402955532073974609e+00,-3.281126499176025391e+00,4.989491462707519531e+00,-3.244062662124633789e+00,8.700801849365234375e+00,3.235088348388671875e+00,8.899011611938476562e+00,2.158861875534057617e+00,3.732471764087677002e-01,7.478336811065673828e+00,3.342516422271728516e+00,9.966750741004943848e-01,4.800444602966308594e+00,6.016969680786132812e-01,5.212420597672462463e-02
3.168076992034912109e+00,-1.493121862411499023e+00,6.011517047882080078e+00,5.912498474121093750e+00,5.184992313385009766e+00,-7.536710705608129501e-03,6.207392215728759766e+00,-2.661504268646240234e+00,5.126406669616699219e+00,-1.503010630607604980e+00,7.522695541381835938e+00,3.798285484313964844e+00,1.011841678619384766e+01,2.945316553115844727e+00,9.701168537139892578e-02,6.640828609466552734e+00,4.983105182647705078e+00,1.682304501533508301e+00,5.043458938598632812e+00,6.158411502838134766e-01,5.678795650601387024e-02
2.373644351959228516e+00,-8.353439569473266602e-01,5.927126407623291016e+00,4.776042461395263672e+00,4.779210090637207031e+00,6.359319090843200684e-01,5.885787010192871094e+00,-2.257439374923706055e+00,4.922412395477294922e+00,-3.463737666606903076e-01,5.912677288055419922e+00,3.796752929687500000e+00,1.124530315399169922e+01,3.186212539672851562e+00,1.825131475925445557e-01,5.733735561370849609e+00,6.031969547271728516e+00,1.559542536735534668e+00,4.808255672454833984e+00,7.755733132362365723e-01,6.023395061492919922e-02
1.279892683029174805e+00,-4.763952791690826416e-01,5.237812042236328125e+00,2.702082872390747070e+00,4.168547153472900391e+00,2.991039156913757324e-01,5.375966548919677734e+00,-2.042727231979370117e+00,4.329727172851562500e+00,1.056552454829216003e-01,4.104164123535156250e+00,3.441210746765136719e+00,1.214459133148193359e+01,2.921403884887695312e+00,4.444983899593353271e-01,4.826642513275146484e+00,6.489109992980957031e+00,7.027146220207214355e-01,4.158193111419677734e+00,1.078942418098449707e+00,6.282492727041244507e-02
-1.244303807616233826e-01,-5.677533149719238281e-01,4.013028144836425781e+00,-1.560410410165786743e-01,3.227689027786254883e+00,-8.925046920776367188e-01,4.669452667236328125e+00,-1.921000599861145020e+00,3.409915924072265625e+00,-8.508531749248504639e-02,2.394898414611816406e+00,3.004445552825927734e+00,1.277094745635986328e+01,2.328906059265136719e+00,7.075797915458679199e-01,4.005288124084472656e+00,6.525814533233642578e+00,-6.334693431854248047e-01,3.272059440612792969e+00,1.486198306083679199e+00,6.549362838268280029e-02
-1.741802453994750977e+00,-1.116490960121154785e+00,2.416327714920043945e+00,-3.419834136962890625e+00,1.897956013679504395e+00,-2.637019634246826172e+00,3.836896419525146484e+00,-1.813644528388977051e+00,2.332974195480346680e+00,-7.330806255340576172e-01,1.042189240455627441e+00,2.670358657836914062e+00,1.316970539093017578e+01,1.650500416755676270e+00,8.763903975486755371e-01,3.356654405593872070e+00,6.384557247161865234e+00,-2.117468595504760742e+00,2.378114700317382812e+00,1.942959070205688477e+00,6.941895186901092529e-02
-3.368926763534545898e+00,-1.985865950584411621e+00,7.240346670150756836e-01,-6.539022922515869141e+00,2.738317847251892090e-01,-4.568220138549804688e+00,3.038818120956420898e+00,-1.698680520057678223e+00,1.348840713500976562e+00,-1.592719674110412598e+00,2.132873237133026123e-01,2.475729942321777344e+00,1.345096492767333984e+01,1.115569591522216797e+00,9.991617202758789062e-01,2.981391191482543945e+00,6.271106243133544922e+00,-3.425258636474609375e+00,1.702014803886413574e+00,2.383380889892578125e+00,7.539114356040954590e-02
-4.730490207672119141e+00,-2.927737951278686523e+00,-7.180739045143127441e-01,-8.935188293457031250e+00,-1.378140211105346680e+00,-6.343717098236083984e+00,2.480954647064208984e+00,-1.599777579307556152e+00,7.341017723083496094e-01,-2.414036273956298828e+00,-2.564228139817714691e-02,2.339336633682250977e+00,1.373222351074218750e+01,8.932722210884094238e-01,1.253473758697509766e+00,2.980148553848266602e+00,6.291127204895019531e+00,-4.299623966217041016e+00,1.425152301788330078e+00,2.731377363204956055e+00,8.350088447332382202e-02
-5.557180404663085938e+00,-3.688072443008422852e+00,-1.598574161529541016e+00,-1.017645835876464844e+01,-2.697927713394165039e+00,-7.710094928741455078e+00,2.326086759567260742e+00,-1.574417948722839355e+00,6.835627555847167969e-01,-3.012386798858642578e+00,2.996695637702941895e-01,2.117888927459716797e+00,1.408102130889892578e+01,1.034975767135620117e+00,1.814714074134826660e+00,3.387719154357910156e+00,6.416812896728515625e+00,-4.606946468353271484e+00,1.629110574722290039e+00,2.916959285736083984e+00,9.313930571079254150e-02
-5.676457405090332031e+00,-4.084153652191162109e+00,-1.736735820770263672e+00,-1.012016963958740234e+01,-3.367269754409790039e+00,-8.538660049438476562e+00,2.616605281829833984e+00,-1.675856828689575195e+00,1.236735820770263672e+00,-3.291965484619140625e+00,1.115706086158752441e+00,1.725566506385803223e+00,1.449920940399169922e+01,1.486655712127685547e+00,2.779345989227294922e+00,4.176765918731689453e+00,6.524702548980712891e+00,-4.347225666046142578e+00,2.283512830734252930e+00,2.879891633987426758e+00,1.033477410674095154e-01
-5.088322162628173828e+00,-4.048789501190185547e+00,-1.172140121459960938e+00,-8.959450721740722656e+00,-3.245932817459106445e+00,-8.808757781982421875e+00,3.237772464752197266e+00,-1.915083408355712891e+00,2.235571622848510742e+00,-3.255385160446166992e+00,2.301164388656616211e+00,1.182291984558105469e+00,1.491647148132324219e+01,2.109265565872192383e+00,4.078310489654541016e+00,5.214331626892089844e+00,6.470201492309570312e+00,-3.629861831665039062e+00,3.246890306472778320e+00,2.595056295394897461e+00,1.131027489900588989e-01
-3.958562374114990234e+00,-3.630310773849487305e+00,-1.699083298444747925e-01,-7.156260967254638672e+00,-2.437351703643798828e+00,-8.590296745300292969e+00,3.960112333297729492e+00,-2.260820865631103516e+00,3.360295772552490234e+00,-2.995838642120361328e+00,3.709011316299438477e+00,5.961071848869323730e-01,1.521993446350097656e+01,2.725676059722900391e+00,5.501142501831054688e+00,6.296630382537841797e+00,6.168777942657470703e+00,-2.661963701248168945e+00,4.284039497375488281e+00,2.092692613601684570e+00,1.216011419892311096e-01
-2.578244924545288086e+00,-2.941883563995361328e+00,8.793731331825256348e-01,-5.270578861236572266e+00,-1.234922885894775391e+00,-8.011174201965332031e+00,4.525323867797851562e+00,-2.638680458068847656e+00,4.252540111541748047e+00,-2.643970012664794922e+00,5.166481971740722656e+00,1.179642453789710999e-01,1.531800556182861328e+01,3.188869476318359375e+00,6.814357280731201172e+00,7.218634605407714844e+00,5.623768806457519531e+00,-1.684044003486633301e+00,5.148475646972656250e+00,1.458641529083251953e+00,1.283894926309585571e-01
-1.256440758705139160e+00,-2.102568387985229492e+00,1.597066760063171387e+00,-3.757568359375000000e+00,-1.160828582942485809e-02,-7.230273723602294922e+00,4.744625568389892578e+00,-2.941306352615356445e+00,4.657771587371826172e+00,-2.317359447479248047e+00,6.484270572662353516e+00,-1.440948545932769775e-01,1.519773006439208984e+01,3.415595054626464844e+00,7.868875503540039062e+00,7.826262950897216797e+00,4.917481422424316406e+00,-9.015412330627441406e-01,5.650993824005126953e+00,8.036178350448608398e-01,1.334937065839767456e-01
-2.182019501924514771e-01,-1.200186729431152344e+00,1.786758899688720703e+00,-2.821035385131835938e+00,9.372064471244812012e-01,-6.396147727966308594e+00,4.579018592834472656e+00,-3.050353050231933594e+00,4.541072368621826172e+00,-2.058684110641479492e+00,7.506154060363769531e+00,-1.709137707948684692e-01,1.495718002319335938e+01,3.423565864562988281e+00,8.670177459716796875e+00,8.067325592041015625e+00,4.165591239929199219e+00,-4.188447892665863037e-01,5.733445167541503906e+00,2.224855571985244751e-01,1.372894793748855591e-01
4.539526700973510742e-01,-2.742287814617156982e-01,1.511182546615600586e+00,-2.371693611145019531e+00,1.498140931129455566e+00,-5.630340576171875000e+00,4.160762310028076172e+00,-2.865227222442626953e+00,4.089896202087402344e+00,-1.829621195793151855e+00,8.169643402099609375e+00,-1.536406483501195908e-02,1.477306652069091797e+01,3.303117990493774414e+00,9.360766410827636719e+00,7.991528034210205078e+00,3.458191871643066406e+00,-2.175820916891098022e-01,5.477412700653076172e+00,-2.315926402807235718e-01,1.404763758182525635e-01
8.042832612991333008e-01,6.346364021301269531e-01,1.048901200294494629e+00,-2.127127647399902344e+00,1.730869174003601074e+00,-5.032153129577636719e+00,3.711419343948364258e+00,-2.332673311233520508e+00,3.606558799743652344e+00,-1.559623122215270996e+00,8.502306938171386719e+00,2.344349622726440430e-01,1.480267238616943359e+01,3.161414384841918945e+00,1.010506725311279297e+01,7.709459304809570312e+00,2.800844192504882812e+00,-2.092309445142745972e-01,5.037383556365966797e+00,-5.566658377647399902e-01,1.440519243478775024e-01
9.333129525184631348e-01,1.451554179191589355e+00,7.516670227050781250e-01,-1.775806427001953125e+00,1.795515894889831543e+00,-4.671492576599121094e+00,3.437292098999023438e+00,-1.461989879608154297e+00,3.346512317657470703e+00,-1.191206336021423340e+00,8.592365264892578125e+00,5.225467085838317871e-01,1.511353778839111328e+01,3.065764427185058594e+00,1.099954414367675781e+01,7.332953453063964844e+00,2.106791734695434570e+00,-2.935775518417358398e-01,4.574788570404052734e+00,-7.868751883506774902e-01,1.487545371055603027e-01
9.213101863861083984e-01,2.075146436691284180e+00,8.913222551345825195e-01,-1.134305596351623535e+00,1.840271234512329102e+00,-4.576164245605468750e+00,3.442944049835205078e+00,-3.157308995723724365e-01,3.401645898818969727e+00,-7.043389081954956055e-01,8.546417236328125000e+00,8.780888915061950684e-01,1.566587829589843750e+01,3.056022405624389648e+00,1.203323459625244141e+01,6.973844051361083984e+00,1.252573251724243164e+00,-4.054829478263854980e-01,4.207664012908935547e+00,-9.648972153663635254e-01,1.547396779060363770e-01
7.817780971527099609e-01,2.404035329818725586e+00,1.520891189575195312e+00,-2.307695895433425903e-01,1.899945139884948730e+00,-4.692941665649414062e+00,3.678071975708007812e+00,1.011427283287048340e+00,3.666286706924438477e+00,-1.321172267198562622e-01,8.456358909606933594e+00,1.422129750251770020e+00,1.630426216125488281e+01,3.149015188217163086e+00,1.310419559478759766e+01,6.726567745208740234e+00,1.347484439611434937e-01,-5.541334152221679688e-01,3.987215280532836914e+00,-1.117557287216186523e+00,1.614502966403961182e-01
4.757076799869537354e-01,2.391657829284667969e+00,2.479807376861572266e+00,7.183799147605895996e-01,1.903923392295837402e+00,-4.896309852600097656e+00,3.981025218963623047e+00,2.385923624038696289e+00,3.890496492385864258e+00,4.522979259490966797e-01,8.368138313293457031e+00,2.278802394866943359e+00,1.681311798095703125e+01,3.344743251800537109e+00,1.409075069427490234e+01,6.659467697143554688e+00,-1.254468679428100586e+00,-8.038328289985656738e-01,3.894349098205566406e+00,-1.241441130638122559e+00,1.676686406135559082e-01
-3.290932253003120422e-02,2.089881658554077148e+00,3.473824262619018555e+00,1.408405780792236328e+00,1.742803931236267090e+00,-5.029769897460937500e+00,4.177153587341308594e+00,3.625168323516845703e+00,3.801363945007324219e+00,9.313267469406127930e-01,8.303811073303222656e+00,3.461133480072021484e+00,1.699630737304687500e+01,3.613980054855346680e+00,1.491178417205810547e+01,6.802365779876708984e+00,-2.817198991775512695e+00,-1.238927721977233887e+00,3.854425430297851562e+00,-1.305577874183654785e+00,1.722805649042129517e-01
-7.395718693733215332e-01,1.618945598602294922e+00,4.204213619232177734e+00,1.580184340476989746e+00,1.333043217658996582e+00,-4.956684589385986328e+00,4.156240940093994141e+00,4.527128696441650391e+00,3.232569694519042969e+00,1.176937818527221680e+00,8.246835708618164062e+00,4.838859081268310547e+00,1.674002838134765625e+01,3.890301942825317383e+00,1.553660202026367188e+01,7.134138584136962891e+00,-4.368806362152099609e+00,-1.913700580596923828e+00,3.777181625366210938e+00,-1.277289390563964844e+00,1.746513098478317261e-01
-1.561010837554931641e+00,1.128559231758117676e+00,4.490245819091796875e+00,1.120167136192321777e+00,6.985109448432922363e-01,-4.589669227600097656e+00,3.929590940475463867e+00,4.916822910308837891e+00,2.195140361785888672e+00,1.089841723442077637e+00,8.162291526794433594e+00,6.170609951019287109e+00,1.607203865051269531e+01,4.074516296386718750e+00,1.597836017608642578e+01,7.598868370056152344e+00,-5.704635143280029297e+00,-2.813954591751098633e+00,3.594053268432617188e+00,-1.146821141242980957e+00,1.751565486192703247e-01
-2.361444950103759766e+00,7.472130656242370605e-01,4.306528091430664062e+00,9.046608209609985352e-02,-4.045066237449645996e-02,-3.912040948867797852e+00,3.619855165481567383e+00,4.693657398223876953e+00,8.498822450637817383e-01,6.264902353286743164e-01,8.020771980285644531e+00,7.202754974365234375e+00,1.516812419891357422e+01,4.063888549804687500e+00,1.626994132995605469e+01,8.113302230834960938e+00,-6.656732559204101562e+00,-3.856178045272827148e+00,3.279870748519897461e+00,-9.402667880058288574e-01,1.749492734670639038e-01
-3.018596172332763672e+00,5.456359982490539551e-01,3.762843370437622070e+00,-1.321612119674682617e+00,-7.157601118087768555e-01,-2.984174966812133789e+00,3.393205404281616211e+00,3.865240097045898438e+00,-5.734817981719970703e-01,-1.791491508483886719e-01,7.827790260314941406e+00,7.755224704742431641e+00,1.429104042053222656e+01,3.768968343734741211e+00,1.645300292968750000e+01,8.586730003356933594e+00,-7.135005950927734375e+00,-4.910093307495117188e+00,2.856331825256347656e+00,-7.127399444580078125e-01,1.750269979238510132e-01
-3.460447788238525391e+00,5.379737019538879395e-01,3.019757986068725586e+00,-2.888970375061035156e+00,-1.183205604553222656e+00,-1.926026582717895508e+00,3.394335985183715820e+00,2.522020816802978516e+00,-1.901280999183654785e+00,-1.237367391586303711e+00,7.653187751770019531e+00,7.764419555664062500e+00,1.365820789337158203e+01,3.129531145095825195e+00,1.653740882873535156e+01,8.922230720520019531e+00,-7.128332138061523438e+00,-5.862124443054199219e+00,2.346870183944702148e+00,-5.093558430671691895e-01,1.756877005100250244e-01
-3.729759693145751953e+00,6.817889213562011719e-01,2.199750185012817383e+00,-4.434007167816162109e+00,-1.401015281677246094e+00,-8.940935134887695312e-01,3.658289670944213867e+00,8.026323914527893066e-01,-3.090327501296997070e+00,-2.447132825851440430e+00,7.607239723205566406e+00,7.260223865509033203e+00,1.335659503936767578e+01,2.129635572433471680e+00,1.651329231262207031e+01,9.009211540222167969e+00,-6.700110912322998047e+00,-6.642956733703613281e+00,1.764504194259643555e+00,-3.491359949111938477e-01,1.763224899768829346e-01
-3.937557697296142578e+00,9.175516366958618164e-01,1.370033621788024902e+00,-5.853849411010742188e+00,-1.426873922348022461e+00,-3.136888146400451660e-02,4.115545272827148438e+00,-1.142457485198974609e+00,-4.183809280395507812e+00,-3.677801370620727539e+00,7.770814418792724609e+00,6.315432071685791016e+00,1.333346462249755859e+01,8.162209391593933105e-01,1.636311721801757812e+01,8.729628562927246094e+00,-5.935986042022705078e+00,-7.226702213287353516e+00,1.121384620666503906e+00,-2.186677604913711548e-01,1.759079247713088989e-01
-4.185864925384521484e+00,1.201645731925964355e+00,5.798985362052917480e-01,-7.073768615722656250e+00,-1.344325065612792969e+00,5.747627019882202148e-01,4.653061389923095703e+00,-3.158554553985595703e+00,-5.212049484252929688e+00,-4.810051441192626953e+00,8.145750045776367188e+00,4.989045143127441406e+00,1.345188999176025391e+01,-7.008924484252929688e-01,1.606605339050292969e+01,7.967918395996093750e+00,-4.901580810546875000e+00,-7.590812206268310547e+00,4.583033025264739990e-01,-7.844489812850952148e-02,1.736926436424255371e-01
-4.526443004608154297e+00,1.493402004241943359e+00,-1.064286679029464722e-01,-8.010301589965820312e+00,-1.221993565559387207e+00,9.060298800468444824e-01,5.177012443542480469e+00,-5.102798938751220703e+00,-6.122671604156494141e+00,-5.726302623748779297e+00,8.599716186523437500e+00,3.317077398300170898e+00,1.356661415100097656e+01,-2.275573015213012695e+00,1.558812236785888672e+01,6.642071247100830078e+00,-3.639161586761474609e+00,-7.696036815643310547e+00,-1.587789505720138550e-01,1.134775206446647644e-01,1.697673201560974121e-01
-4.894027709960937500e+00,1.772191405296325684e+00,-5.477990508079528809e-01,-8.514962196350097656e+00,-1.047944784164428711e+00,1.036312460899353027e+00,5.671572208404541016e+00,-6.804435729980468750e+00,-6.734653949737548828e+00,-6.309846878051757812e+00,8.915839195251464844e+00,1.372323155403137207e+00,1.360177135467529297e+01,-3.740433216094970703e+00,1.491616916656494141e+01,4.762027740478515625e+00,-2.155402183532714844e+00,-7.458864212036132812e+00,-6.283169388771057129e-01,3.668541312217712402e-01,1.648833453655242920e-01
-5.129581928253173828e+00,2.040371417999267578e+00,-5.567608475685119629e-01,-8.392679214477539062e+00,-7.386351227760314941e-01,1.134024381637573242e+00,6.180262088775634766e+00,-8.073266983032226562e+00,-6.801733016967773438e+00,-6.452684402465820312e+00,8.884593963623046875e+00,-6.712780594825744629e-01,1.357031440734863281e+01,-4.928971767425537109e+00,1.408417415618896484e+01,2.480626106262207031e+00,-4.547512233257293701e-01,-6.786596298217773438e+00,-8.444259166717529297e-01,6.407154798507690430e-01,1.600252687931060791e-01
-5.037310600280761719e+00,2.319160938262939453e+00,3.023931570351123810e-02,-7.465850830078125000e+00,-1.946081966161727905e-01,1.417627215385437012e+00,6.747734546661376953e+00,-8.714021682739257812e+00,-6.130941867828369141e+00,-6.080783843994140625e+00,8.401221275329589844e+00,-2.515653133392333984e+00,1.353700733184814453e+01,-5.710998058319091797e+00,1.317763900756835938e+01,7.620775699615478516e-02,1.424974083900451660e+00,-5.644159317016601562e+00,-7.472202777862548828e-01,8.601947426795959473e-01,1.557112932205200195e-01
-4.469429969787597656e+00,2.641566276550292969e+00,1.266972541809082031e+00,-5.664601802825927734e+00,6.209349036216735840e-01,2.095255374908447266e+00,7.364379882812500000e+00,-8.604975700378417969e+00,-4.694713115692138672e+00,-5.191532611846923828e+00,7.513505935668945312e+00,-3.816753387451171875e+00,1.355088520050048828e+01,-6.021860122680664062e+00,1.230179691314697266e+01,-2.118212223052978516e+00,3.401466369628906250e+00,-4.117568969726562500e+00,-3.531902432441711426e-01,9.528637528419494629e-01,1.514232307672500610e-01
-3.397433280944824219e+00,3.050025224685668945e+00,3.039175271987915039e+00,-3.107332944869995117e+00,1.648320317268371582e+00,3.270181417465209961e+00,7.940330028533935547e+00,-7.773176670074462891e+00,-2.687852621078491211e+00,-3.904251337051391602e+00,6.408915996551513672e+00,-4.343170642852783203e+00,1.358234214782714844e+01,-5.905840396881103516e+00,1.152241802215576172e+01,-3.842931985855102539e+00,5.334580421447753906e+00,-2.434812307357788086e+00,1.953273266553878784e-01,8.916534185409545898e-01,1.458915174007415771e-01
-1.957101941108703613e+00,3.543947935104370117e+00,5.059322357177734375e+00,-1.152800247073173523e-01,2.719466447830200195e+00,4.856609821319580078e+00,8.339368820190429688e+00,-6.448554515838623047e+00,-4.990515410900115967e-01,-2.485455036163330078e+00,5.304326057434082031e+00,-4.092605113983154297e+00,1.349537372589111328e+01,-5.532982826232910156e+00,1.081429100036621094e+01,-4.999786376953125000e+00,7.039680480957031250e+00,-9.508130550384521484e-01,6.449034214019775391e-01,7.302142381668090820e-01,1.377688050270080566e-01
-4.109963178634643555e-01,4.048480033874511719e+00,6.938320159912109375e+00,2.857362985610961914e+00,3.605623722076416016e+00,6.574909210205078125e+00,8.438846588134765625e+00,-5.010658740997314453e+00,1.422352075576782227e+00,-1.290495991706848145e+00,4.355958938598632812e+00,-3.297999143600463867e+00,1.309754085540771484e+01,-5.144183635711669922e+00,1.005902767181396484e+01,-5.665816307067871094e+00,8.309885025024414062e+00,-3.886748477816581726e-02,7.099964618682861328e-01,5.880404710769653320e-01,1.262130737304687500e-01
9.378139972686767578e-01,4.427468776702880859e+00,8.294544219970703125e+00,5.345726490020751953e+00,4.112851619720458984e+00,8.023905754089355469e+00,8.183936119079589844e+00,-3.887223720550537109e+00,2.703287839889526367e+00,-6.773391366004943848e-01,3.587708473205566406e+00,-2.352440834045410156e+00,1.221213054656982422e+01,-4.982995986938476562e+00,9.062606811523437500e+00,-6.048535346984863281e+00,8.952774047851562500e+00,2.209590934216976166e-02,1.580072939395904541e-01,6.119393110275268555e-01,1.113668009638786316e-01
1.835770606994628906e+00,4.517647743225097656e+00,8.871088981628417969e+00,7.019839763641357422e+00,4.140699386596679688e+00,8.821488380432128906e+00,7.614768505096435547e+00,-3.377493381500244141e+00,3.181111812591552734e+00,-8.637248873710632324e-01,2.909516096115112305e+00,-1.620667576789855957e+00,1.078178024291992188e+01,-5.192008495330810547e+00,7.670467853546142578e+00,-6.343029975891113281e+00,8.834874153137207031e+00,-8.313915729522705078e-01,-1.081364631652832031e+00,8.953114151954650879e-01,9.438297152519226074e-02
2.150843143463134766e+00,4.192884922027587891e+00,8.608208656311035156e+00,7.773918628692626953e+00,3.721987724304199219e+00,8.747609138488769531e+00,6.837603092193603516e+00,-3.556702136993408203e+00,2.925659656524658203e+00,-1.845298409461975098e+00,2.192727327346801758e+00,-1.296541929244995117e+00,8.909188270568847656e+00,-5.754394531250000000e+00,5.847533226013183594e+00,-6.622613430023193359e+00,7.912807464599609375e+00,-2.418110132217407227e+00,-2.869254112243652344e+00,1.426451206207275391e+00,7.698459178209304810e-02
1.900285363197326660e+00,3.429013729095458984e+00,7.638090133666992188e+00,7.714717864990234375e+00,2.993966341018676758e+00,7.789555549621582031e+00,5.987524986267089844e+00,-4.281144618988037109e+00,2.175843715667724609e+00,-3.401706695556640625e+00,1.374852776527404785e+00,-1.367803573608398438e+00,6.822876930236816406e+00,-6.522250652313232422e+00,3.737400770187377930e+00,-6.810245037078857422e+00,6.256647109985351562e+00,-4.385641098022460938e+00,-4.907968997955322266e+00,2.086352109909057617e+00,6.098533421754837036e-02
1.205625653266906738e+00,2.306783199310302734e+00,6.222120285034179688e+00,7.098450183868408203e+00,2.108803749084472656e+00,6.140369415283203125e+00,5.173055648803710938e+00,-5.238896369934082031e+00,1.241330265998840332e+00,-5.149726390838623047e+00,5.073545575141906738e-01,-1.655149102210998535e+00,4.818907260894775391e+00,-7.248481273651123047e+00,1.645903587341308594e+00,-6.704624652862548828e+00,4.047691345214843750e+00,-6.315591812133789062e+00,-6.805214881896972656e+00,2.688457012176513672e+00,4.766773432493209839e-02
2.386531531810760498e-01,9.918168783187866211e-01,4.670229434967041016e+00,6.218206405639648438e+00,1.175902009010314941e+00,4.119400978088378906e+00,4.464281082153320312e+00,-6.066468238830566406e+00,4.170839786529541016e-01,-6.654747486114501953e+00,-2.664098143577575684e-01,-1.909545660018920898e+00,3.182239532470703125e+00,-7.656764507293701172e+00,-1.589408703148365021e-02,-6.057233333587646484e+00,1.564007043838500977e+00,-7.841346740722656250e+00,-8.170433044433593750e+00,3.054255723953247070e+00,3.751112148165702820e-02
-8.408451676368713379e-01,-3.249177634716033936e-01,3.264714956283569336e+00,5.303994655609130859e+00,2.201253026723861694e-01,2.054740667343139648e+00,3.899069547653198242e+00,-6.450245380401611328e+00,-7.268554717302322388e-02,-7.554450988769531250e+00,-7.718378305435180664e-01,-1.918740630149841309e+00,2.109014749526977539e+00,-7.507975578308105469e+00,-8.446005582809448242e-01,-4.679197311401367188e+00,-8.740745782852172852e-01,-8.734919548034667969e+00,-8.692914009094238281e+00,3.079129934310913086e+00,3.008798323571681976e-02
-1.897088170051574707e+00,-1.478976130485534668e+00,2.196762800216674805e+00,4.463541507720947266e+00,-7.784177064895629883e-01,1.815318614244461060e-01,3.509639024734497070e+00,-6.216090679168701172e+00,-1.094412356615066528e-01,-7.661579132080078125e+00,-8.839509487152099609e-01,-1.586952447891235352e+00,1.668622612953186035e+00,-6.675467491149902344e+00,-5.705574154853820801e-01,-2.535723686218261719e+00,-2.968466758728027344e+00,-8.943698883056640625e+00,-8.237261772155761719e+00,2.777467966079711914e+00,2.434897981584072113e-02
-2.830302953720092773e+00,-2.364264965057373047e+00,1.552257537841796875e+00,3.681317806243896484e+00,-1.829672574996948242e+00,-1.422373294830322266e+00,3.329901933670043945e+00,-5.363158702850341797e+00,3.031413555145263672e-01,-7.020551681518554688e+00,-5.733424425125122070e-01,-9.701173901557922363e-01,1.776870250701904297e+00,-5.205293178558349609e+00,8.347358107566833496e-01,1.979819089174270630e-01,-4.515625476837158203e+00,-8.592949867248535156e+00,-6.902420520782470703e+00,2.276811361312866211e+00,1.889498159289360046e-02
-3.573723793029785156e+00,-2.954261064529418945e+00,1.310288071632385254e+00,2.869009017944335938e+00,-2.886894941329956055e+00,-2.797489643096923828e+00,3.372857809066772461e+00,-4.042763233184814453e+00,1.039173960685729980e+00,-5.877850055694580078e+00,8.463291823863983154e-02,-2.084602415561676025e-01,2.228364706039428711e+00,-3.312665700912475586e+00,3.116967201232910156e+00,3.165295124053955078e+00,-5.444365501403808594e+00,-7.919847488403320312e+00,-4.993023872375488281e+00,1.766400218009948730e+00,1.265073660761117935e-02
-4.086091995239257812e+00,-3.282560825347900391e+00,1.372274041175842285e+00,1.956738591194152832e+00,-3.849633693695068359e+00,-4.020080089569091797e+00,3.596681594848632812e+00,-2.494975566864013672e+00,1.895581483840942383e+00,-4.553117752075195312e+00,9.190486073493957520e-01,5.577944517135620117e-01,2.767752647399902344e+00,-1.312874555587768555e+00,5.811359405517578125e+00,5.935035705566406250e+00,-5.805850982666015625e+00,-7.184111118316650391e+00,-2.922196626663208008e+00,1.411575436592102051e+00,5.240554921329021454e-03
-4.349402427673339844e+00,-3.411640882492065430e+00,1.620218157768249512e+00,9.736215472221374512e-01,-4.593567848205566406e+00,-5.092527866363525391e+00,3.910938978195190430e+00,-9.412704706192016602e-01,2.658262014389038086e+00,-3.305900812149047852e+00,1.725895524024963379e+00,1.266579985618591309e+00,3.215546369552612305e+00,4.982736408710479736e-01,8.413673400878906250e+00,8.158035278320312500e+00,-5.714645385742187500e+00,-6.548588752746582031e+00,-1.053591609001159668e+00,1.275254368782043457e+00,-3.024648176506161690e-03
-4.356153964996337891e+00,-3.403389215469360352e+00,1.979438424110412598e+00,6.814456731081008911e-02,-5.016258239746093750e+00,-5.918709754943847656e+00,4.211066246032714844e+00,4.594309329986572266e-01,3.184787273406982422e+00,-2.234618186950683594e+00,2.339760780334472656e+00,1.950079202651977539e+00,3.533812999725341797e+00,1.941878318786621094e+00,1.054244041442871094e+01,9.675242424011230469e+00,-5.267515659332275391e+00,-6.019125938415527344e+00,4.227190911769866943e-01,1.299397110939025879e+00,-1.151008438318967819e-02
-4.122850418090820312e+00,-3.314978122711181641e+00,2.449934720993041992e+00,-5.325952172279357910e-01,-5.076926708221435547e+00,-6.365165710449218750e+00,4.427542209625244141e+00,1.622596383094787598e+00,3.436563730239868164e+00,-1.279173493385314941e+00,2.674262285232543945e+00,2.673423528671264648e+00,3.801193952560424805e+00,2.991370201110839844e+00,1.203213882446289062e+01,1.052144813537597656e+01,-4.508951663970947266e+00,-5.459599018096923828e+00,1.516282558441162109e+00,1.346219301223754883e+00,-1.951619051396846771e-02
-3.680998563766479492e+00,-3.186487436294555664e+00,3.107882738113403320e+00,-6.034417748451232910e-01,-4.796459197998046875e+00,-6.338950634002685547e+00,4.560366630554199219e+00,2.533010005950927734e+00,3.497210741043090820e+00,-2.836645245552062988e-01,2.758806467056274414e+00,3.486419677734375000e+00,4.162019729614257812e+00,3.762768745422363281e+00,1.293867301940917969e+01,1.088925552368164062e+01,-3.426719427108764648e+00,-4.671250343322753906e+00,2.387661695480346680e+00,1.272328019142150879e+00,-2.656363509595394135e-02
-3.069607973098754883e+00,-3.039725065231323242e+00,4.064558506011962891e+00,-1.143647264689207077e-02,-4.236519336700439453e+00,-5.874223232269287109e+00,4.669452667236328125e+00,3.224484920501708984e+00,3.538560867309570312e+00,8.991011381149291992e-01,2.723886013031005859e+00,4.369145393371582031e+00,4.752293109893798828e+00,4.445602416992187500e+00,1.345935535430908203e+01,1.101599979400634766e+01,-2.014144659042358398e+00,-3.491232872009277344e+00,3.242550611495971680e+00,9.952964186668395996e-01,-3.276901692152023315e-02
-2.338939905166625977e+00,-2.879406452178955078e+00,5.389416694641113281e+00,1.234686136245727539e+00,-3.463742494583129883e+00,-5.152108192443847656e+00,4.833364009857177734e+00,3.765491962432861328e+00,3.752662658691406250e+00,2.331832885742187500e+00,2.727561950683593750e+00,5.239610671997070312e+00,5.609947681427001953e+00,5.217886924743652344e+00,1.379807281494140625e+01,1.108061504364013672e+01,-3.134937584400177002e-01,-1.881131172180175781e+00,4.222418308258056641e+00,5.326828956604003906e-01,-3.858574852347373962e-02
-1.541506409645080566e+00,-2.701405763626098633e+00,7.053330421447753906e+00,2.973823070526123047e+00,-2.534819126129150391e+00,-4.448264598846435547e+00,5.099013328552246094e+00,4.246481418609619141e+00,4.263566493988037109e+00,3.941369533538818359e+00,2.878271341323852539e+00,5.974448680877685547e+00,6.646164894104003906e+00,6.159329414367675781e+00,1.405019283294677734e+01,1.114274501800537109e+01,1.550659894943237305e+00,3.378751873970031738e-02,5.329000473022460938e+00,-1.139424392022192478e-03,-4.446725919842720032e-02
-7.178168892860412598e-01,-2.484503984451293945e+00,8.897228240966796875e+00,4.943939208984375000e+00,-1.494504332542419434e+00,-4.016108036041259766e+00,5.457356929779052734e+00,4.770581722259521484e+00,5.074948310852050781e+00,5.537841796875000000e+00,3.199907302856445312e+00,6.484007835388183594e+00,7.667578697204589844e+00,7.222105979919433594e+00,1.417734813690185547e+01,1.115268516540527344e+01,3.410364627838134766e+00,1.999648213386535645e+00,6.420827865600585938e+00,-4.503403007984161377e-01,-5.071150138974189758e-02
7.961656153202056885e-02,-2.217502832412719727e+00,1.067167091369628906e+01,6.854854583740234375e+00,-4.243526458740234375e-01,-3.964471578598022461e+00,5.824744224548339844e+00,5.434161186218261719e+00,6.073784351348876953e+00,6.910477161407470703e+00,3.595060110092163086e+00,6.756794929504394531e+00,8.447516441345214844e+00,8.261856079101562500e+00,1.407540416717529297e+01,1.103588199615478516e+01,5.118801116943359375e+00,3.742533206939697266e+00,7.304358005523681641e+00,-6.993273496627807617e-01,-5.747394263744354248e-02
7.780272364616394043e-01,-1.917494773864746094e+00,1.210108375549316406e+01,8.453269004821777344e+00,5.204838514328002930e-01,-4.218681335449218750e+00,6.074002742767333984e+00,6.313297748565673828e+00,7.074458122253417969e+00,7.900760650634765625e+00,3.907506704330444336e+00,6.883993148803710938e+00,8.807416915893554688e+00,9.114733695983886719e+00,1.365885925292968750e+01,1.076126861572265625e+01,6.603672981262207031e+00,5.053663730621337891e+00,7.822498798370361328e+00,-7.156663537025451660e-01,-6.459911912679672241e-02
1.325653195381164551e+00,-1.613360881805419922e+00,1.300398921966552734e+01,9.600399971008300781e+00,1.158994436264038086e+00,-4.537238121032714844e+00,6.109611034393310547e+00,7.462937831878662109e+00,7.916162967681884766e+00,8.475594520568847656e+00,4.028809547424316406e+00,7.051802635192871094e+00,8.685291290283203125e+00,9.679777145385742188e+00,1.291784572601318359e+01,1.037979221343994141e+01,7.917256355285644531e+00,5.871241092681884766e+00,7.932723045349121094e+00,-5.488620996475219727e-01,-7.186679542064666748e-02
1.685736060142517090e+00,-1.333392620086669922e+00,1.333856391906738281e+01,1.027975082397460938e+01,1.329064965248107910e+00,-4.643688678741455078e+00,5.894265174865722656e+00,8.873783111572265625e+00,8.496903419494628906e+00,8.709883689880371094e+00,3.966320037841796875e+00,7.416540145874023438e+00,8.104269981384277344e+00,9.922444343566894531e+00,1.187648200988769531e+01,9.959795951843261719e+00,9.180788040161132812e+00,6.253724098205566406e+00,7.679294109344482422e+00,-2.871940433979034424e-01,-7.892719656229019165e-02
1.835020422935485840e+00,-1.093504071235656738e+00,1.319069385528564453e+01,1.057575321197509766e+01,9.521249532699584961e-01,-4.380740165710449219e+00,5.459052562713623047e+00,1.044693088531494141e+01,8.765219688415527344e+00,8.701173782348632812e+00,3.852369070053100586e+00,7.997361183166503906e+00,7.122639656066894531e+00,9.840964317321777344e+00,1.054463291168212891e+01,9.508734703063964844e+00,1.048769760131835938e+01,6.303830623626708984e+00,7.121229648590087891e+00,-1.871021930128335953e-03,-8.517143875360488892e-02
1.782508373260498047e+00,-8.789600729942321777e-01,1.272841262817382812e+01,1.064368820190429688e+01,8.188080042600631714e-02,-3.776991844177246094e+00,4.904015064239501953e+00,1.203529357910156250e+01,8.740409851074218750e+00,8.538304328918457031e+00,3.896479129791259766e+00,8.663236618041992188e+00,5.846797466278076172e+00,9.453050613403320312e+00,8.923393249511718750e+00,8.974419593811035156e+00,1.183576107025146484e+01,6.122611045837402344e+00,6.313207626342773438e+00,2.783308327198028564e-01,-8.992587774991989136e-02
1.570959687232971191e+00,-6.673630475997924805e-01,1.211228656768798828e+01,1.065824604034423828e+01,-1.112591505050659180e+00,-3.035017013549804688e+00,4.348977565765380859e+00,1.345797348022460938e+01,8.495984077453613281e+00,8.266564369201660156e+00,4.260387420654296875e+00,9.172795295715332031e+00,4.421998977661132812e+00,8.779959678649902344e+00,7.024822235107421875e+00,8.261170387268066406e+00,1.309706783294677734e+01,5.777708530426025391e+00,5.304698944091796875e+00,5.546308159828186035e-01,-9.278889745473861694e-02
1.250635981559753418e+00,-4.616601169109344482e-01,1.144164180755615234e+01,1.076111888885498047e+01,-2.398563623428344727e+00,-2.425707817077636719e+00,3.888330698013305664e+00,1.457633686065673828e+01,8.141291618347167969e+00,7.895534515380859375e+00,4.940417766571044922e+00,9.290032386779785156e+00,3.051787137985229492e+00,7.858000755310058594e+00,4.946479320526123047e+00,7.314314365386962891e+00,1.404471588134765625e+01,5.321735382080078125e+00,4.177287101745605469e+00,8.162989020347595215e-01,-9.382528811693191528e-02
8.800507187843322754e-01,-3.042885065078735352e-01,1.074859333038330078e+01,1.102994728088378906e+01,-3.552258729934692383e+00,-2.160376310348510742e+00,3.570116758346557617e+00,1.531937694549560547e+01,7.819679737091064453e+00,7.437408924102783203e+00,5.761968135833740234e+00,8.909204483032226562e+00,1.987814426422119141e+00,6.764226436614990234e+00,2.926233053207397461e+00,6.205921173095703125e+00,1.446070289611816406e+01,4.838203907012939453e+00,3.089798927307128906e+00,1.003831744194030762e+00,-9.357914328575134277e-02
5.274695754051208496e-01,-2.695135176181793213e-01,1.003090000152587891e+01,1.145017433166503906e+01,-4.396644115447998047e+00,-2.316079854965209961e+00,3.393205404281616211e+00,1.567356681823730469e+01,7.655197620391845703e+00,6.901767730712890625e+00,6.441998481750488281e+00,8.079350471496582031e+00,1.461379170417785645e+00,5.602257728576660156e+00,1.294032096862792969e+00,5.117409229278564453e+00,1.421934127807617188e+01,4.426492214202880859e+00,2.234042167663574219e+00,1.017975926399230957e+00,-9.300912916660308838e-02
2.649091780185699463e-01,-4.192228317260742188e-01,9.302750587463378906e+00,1.193445396423339844e+01,-4.827290534973144531e+00,-2.823704957962036133e+00,3.319728136062622070e+00,1.566426849365234375e+01,7.728709220886230469e+00,6.311255931854248047e+00,6.739741325378417969e+00,6.993567466735839844e+00,1.612185716629028320e+00,4.494313240051269531e+00,3.699586689472198486e-01,4.276173591613769531e+00,1.336067390441894531e+01,4.195165634155273438e+00,1.783598065376281738e+00,7.650870680809020996e-01,-9.277594834566116333e-02
1.456317454576492310e-01,-7.669727802276611328e-01,8.623145103454589844e+00,1.235953330993652344e+01,-4.826296329498291016e+00,-3.518810033798217773e+00,3.299380540847778320e+00,1.533121109008789062e+01,8.048483848571777344e+00,5.687647342681884766e+00,6.576166629791259766e+00,5.867939472198486328e+00,2.420804977416992188e+00,3.554641723632812500e+00,3.294002711772918701e-01,3.856176853179931641e+00,1.207712173461914062e+01,4.204351902008056641e+00,1.813107013702392578e+00,2.127309143543243408e-01,-9.297026693820953369e-02
2.086462527513504028e-01,-1.240855813026428223e+00,8.101118087768554688e+00,1.263127326965332031e+01,-4.435432434082031250e+00,-4.225036621093750000e+00,3.295423984527587891e+00,1.472426891326904297e+01,8.571332931518554688e+00,5.062296867370605469e+00,6.079927921295166016e+00,4.869509696960449219e+00,3.734580039978027344e+00,2.868265151977539062e+00,1.141664147377014160e+00,3.912093639373779297e+00,1.065453720092773438e+01,4.439019203186035156e+00,2.276569604873657227e+00,-5.803207755088806152e-01,-9.313867986202239990e-02
4.607042372226715088e-01,-1.694699048995971680e+00,7.856161594390869141e+00,1.272638225555419922e+01,-3.748188018798828125e+00,-4.819252490997314453e+00,3.314641237258911133e+00,1.389838790893554688e+01,9.223747253417968750e+00,4.467430114746093750e+00,5.557958602905273438e+00,4.038889408111572266e+00,5.312960624694824219e+00,2.479466199874877930e+00,2.586419582366943359e+00,4.369368076324462891e+00,9.376545906066894531e+00,4.810645103454589844e+00,3.019498348236083984e+00,-1.473113656044006348e+00,-9.276299178600311279e-02
8.695482611656188965e-01,-1.964057922363281250e+00,7.965197086334228516e+00,1.267688655853271484e+01,-2.890873193740844727e+00,-5.276830196380615234e+00,3.403379201889038086e+00,1.288484477996826172e+01,9.908321380615234375e+00,3.907402038574218750e+00,5.339246273040771484e+00,3.267271041870117188e+00,6.902443408966064453e+00,2.351933002471923828e+00,4.349065303802490234e+00,5.050309181213378906e+00,8.427784919738769531e+00,5.171414852142333984e+00,3.817105531692504883e+00,-2.287625551223754883e+00,-9.183023869991302490e-02
1.351909279823303223e+00,-1.945786237716674805e+00,8.414035797119140625e+00,1.252742958068847656e+01,-2.004715919494628906e+00,-5.650995254516601562e+00,3.622116088867187500e+00,1.167518615722656250e+01,1.052949237823486328e+01,3.356954336166381836e+00,5.625961780548095703e+00,2.351596593856811523e+00,8.301336288452148438e+00,2.356361150741577148e+00,6.111710548400878906e+00,5.703913211822509766e+00,7.837173461914062500e+00,5.350129604339599609e+00,4.438527107238769531e+00,-2.872903585433959961e+00,-9.088453650474548340e-02
1.802012801170349121e+00,-1.647546410560607910e+00,9.095134735107421875e+00,1.229936218261718750e+01,-1.208069682121276855e+00,-6.014038562774658203e+00,4.015502929687500000e+00,1.023559951782226562e+01,1.101007366180419922e+01,2.773410320281982422e+00,6.403401851654052734e+00,1.121757864952087402e+00,9.403242111206054688e+00,2.312078714370727539e+00,7.637582778930664062e+00,6.110241413116455078e+00,7.507943153381347656e+00,5.229037761688232422e+00,4.718861579895019531e+00,-3.154080867767333984e+00,-9.083271771669387817e-02
2.113334417343139648e+00,-1.192524433135986328e+00,9.850170135498046875e+00,1.197424507141113281e+01,-5.665754079818725586e-01,-6.396942138671875000e+00,4.586931705474853516e+00,8.557632446289062500e+00,1.130871295928955078e+01,2.147188901901245117e+00,7.463881969451904297e+00,-4.122839868068695068e-01,1.020075893402099609e+01,2.067640304565429688e+00,8.811583518981933594e+00,6.148761749267578125e+00,7.292164325714111328e+00,4.782251358032226562e+00,4.614712238311767578e+00,-3.144082307815551758e+00,-9.227070212364196777e-02
2.228110790252685547e+00,-7.828868031501770020e-01,1.052902889251708984e+01,1.151616859436035156e+01,-7.128217071294784546e-02,-6.747274875640869141e+00,5.292880535125732422e+00,6.684394836425781250e+00,1.142173671722412109e+01,1.517483830451965332e+00,8.493117332458496094e+00,-2.016821384429931641e+00,1.072904491424560547e+01,1.561050176620483398e+00,9.570135116577148438e+00,5.820717334747314453e+00,7.085283279418945312e+00,4.094951629638671875e+00,4.198116779327392578e+00,-2.916311740875244141e+00,-9.493941068649291992e-02
2.162845849990844727e+00,-6.072435975074768066e-01,1.105105590820312500e+01,1.091736984252929688e+01,3.444458842277526855e-01,-6.949848651885986328e+00,6.063263416290283203e+00,4.735923767089843750e+00,1.137119770050048828e+01,9.748747944831848145e-01,9.202554702758789062e+00,-3.304895401000976562e+00,1.102233123779296875e+01,8.516468405723571777e-01,9.866101264953613281e+00,5.242911338806152344e+00,6.879514217376708984e+00,3.333326816558837891e+00,3.616618871688842773e+00,-2.560511350631713867e+00,-9.762106090784072876e-02
1.982804417610168457e+00,-7.775821089744567871e-01,1.141475677490234375e+01,1.023704910278320312e+01,7.591794133186340332e-01,-6.864847183227539062e+00,6.818385601043701172e+00,2.891427278518676758e+00,1.120028400421142578e+01,6.473932862281799316e-01,9.417591094970703125e+00,-3.892612695693969727e+00,1.110837364196777344e+01,1.041607037186622620e-01,9.649059295654296875e+00,4.604218006134033203e+00,6.764951229095458984e+00,2.691123485565185547e+00,3.055082559585571289e+00,-2.153011560440063477e+00,-9.865745157003402710e-02
1.774256467819213867e+00,-1.272683739662170410e+00,1.168286514282226562e+01,9.594577789306640625e+00,1.216679215431213379e+00,-6.377876281738281250e+00,7.496074199676513672e+00,1.341948866844177246e+00,1.096780395507812500e+01,6.569738388061523438e-01,9.110658645629882812e+00,-3.589942216873168945e+00,1.101122856140136719e+01,-4.750524759292602539e-01,8.877353668212890625e+00,4.079843997955322266e+00,6.869503974914550781e+00,2.332859039306640625e+00,2.677542924880981445e+00,-1.746487259864807129e+00,-9.685672819614410400e-02
1.606967926025390625e+00,-1.939892172813415527e+00,1.194499874114990234e+01,9.148147583007812500e+00,1.700037598609924316e+00,-5.436505317687988281e+00,8.070328712463378906e+00,2.311935424804687500e-01,1.075002670288085938e+01,1.082874059677124023e+00,8.381004333496093750e+00,-2.490366697311401367e+00,1.079010772705078125e+01,-7.079776525497436523e-01,7.597024440765380859e+00,3.792804718017578125e+00,7.293276309967041016e+00,2.350396394729614258e+00,2.603770732879638672e+00,-1.378493666648864746e+00,-9.208934009075164795e-02
1.515446901321411133e+00,-2.546391725540161133e+00,1.226986503601074219e+01,9.023922920227050781e+00,2.150575399398803711e+00,-4.068538665771484375e+00,8.551888465881347656e+00,-4.061805605888366699e-01,1.059473419189453125e+01,1.914642214775085449e+00,7.388527393341064453e+00,-9.670523405075073242e-01,1.051717567443847656e+01,-5.290769338607788086e-01,5.971400737762451172e+00,3.772923231124877930e+00,8.048503875732421875e+00,2.727033376693725586e+00,2.860671281814575195e+00,-1.070003390312194824e+00,-8.553417772054672241e-02
1.513196349143981934e+00,-2.842273950576782227e+00,1.267837524414062500e+01,9.262666702270507812e+00,2.533482789993286133e+00,-2.369304895401000977e+00,8.977492332458496094e+00,-6.783747673034667969e-01,1.049457454681396484e+01,3.010311841964721680e+00,6.320695400238037109e+00,4.673763811588287354e-01,1.022758960723876953e+01,-3.222894296050071716e-02,4.229582309722900391e+00,3.928247451782226562e+00,9.041754722595214844e+00,3.329986333847045898e+00,3.343227863311767578e+00,-8.185777068138122559e-01,-7.918629050254821777e-02
1.592714667320251465e+00,-2.652484893798828125e+00,1.313916301727294922e+01,9.801294326782226562e+00,2.852738142013549805e+00,-4.690864384174346924e-01,9.375967025756835938e+00,-7.865762114524841309e-01,1.036960506439208984e+01,4.130368232727050781e+00,5.341084480285644531e+00,1.367725610733032227e+00,9.913023948669433594e+00,5.762106180191040039e-01,2.618208646774291992e+00,4.102210521697998047e+00,1.009951782226562500e+01,3.944630861282348633e+00,3.846614360809326172e+00,-6.051951050758361816e-01,-7.523506134748458862e-02
1.721744298934936523e+00,-1.958753228187561035e+00,1.357829284667968750e+01,1.050005435943603516e+01,3.136189222335815430e+00,1.493890166282653809e+00,9.725832939147949219e+00,-9.361985325813293457e-01,1.009577560424804688e+01,5.020490646362304688e+00,4.539751052856445312e+00,1.556224226951599121e+00,9.528142929077148438e+00,1.071287274360656738e+00,1.309378504753112793e+00,4.146944046020507812e+00,1.101935958862304688e+01,4.355507373809814453e+00,4.149514198303222656e+00,-4.054690003395080566e-01,-7.493709772825241089e-02
1.857525587081909180e+00,-9.101986289024353027e-01,1.391286849975585938e+01,1.119493293762207031e+01,3.406710624694824219e+00,3.392519950866699219e+00,9.959264755249023438e+00,-1.254040241241455078e+00,9.560979843139648438e+00,5.486455440521240234e+00,3.951616764068603516e+00,1.174629449844360352e+00,9.053519248962402344e+00,1.312183260917663574e+00,3.579007685184478760e-01,3.986649274826049805e+00,1.162220573425292969e+01,4.411460399627685547e+00,4.097439765930175781e+00,-2.011094093322753906e-01,-7.817581295967102051e-02
1.936293721199035645e+00,2.126211822032928467e-01,1.405775070190429688e+01,1.173938369750976562e+01,3.635460615158081055e+00,5.099697589874267578e+00,9.968873023986816406e+00,-1.773069024085998535e+00,8.709167480468750000e+00,5.443778038024902344e+00,3.547274351119995117e+00,5.608594417572021484e-01,8.503953933715820312e+00,1.263472676277160645e+00,-3.425535261631011963e-01,3.600202798843383789e+00,1.178125953674316406e+01,4.054866313934326172e+00,3.645259857177734375e+00,1.227319706231355667e-02,-8.350025862455368042e-02
1.876279950141906738e+00,1.078459620475769043e+00,1.393452548980712891e+01,1.201209449768066406e+01,3.708063840866088867e+00,6.465281009674072266e+00,9.651789665222167969e+00,-2.460317134857177734e+00,7.540336132049560547e+00,4.901169300079345703e+00,3.289965391159057617e+00,4.363754391670227051e-02,7.909054279327392578e+00,9.605814218521118164e-01,-1.002449393272399902e+00,2.986361503601074219e+00,1.141198825836181641e+01,3.314119100570678711e+00,2.851124286651611328e+00,2.268751412630081177e-01,-8.870811760425567627e-02
1.596465468406677246e+00,1.425030827522277832e+00,1.349016857147216797e+01,1.191989707946777344e+01,3.474341154098510742e+00,7.324033737182617188e+00,8.970145225524902344e+00,-3.252385616302490234e+00,6.120647907257080078e+00,3.960530757904052734e+00,3.185204029083251953e+00,-1.946676522493362427e-01,7.323406696319580078e+00,4.903028309345245361e-01,-1.796078324317932129e+00,2.181160926818847656e+00,1.048547267913818359e+01,2.279411792755126953e+00,1.861709833145141602e+00,4.295276403427124023e-01,-9.155818819999694824e-02
1.052590370178222656e+00,1.140347361564636230e+00,1.271123504638671875e+01,1.139582633972167969e+01,2.816933870315551758e+00,7.540112018585205078e+00,7.986112117767333984e+00,-4.082493305206298828e+00,4.566801071166992188e+00,2.784732818603515625e+00,3.280775785446166992e+00,-1.502248942852020264e-01,6.809924125671386719e+00,-4.108541086316108704e-02,-2.728921175003051758e+00,1.262884497642517090e+00,9.052877426147460938e+00,1.077681183815002441e+00,8.722952008247375488e-01,6.119393110275268555e-01,-9.065134823322296143e-02
2.446545362472534180e-01,2.697936296463012695e-01,1.164104270935058594e+01,1.041270923614501953e+01,1.706004977226257324e+00,7.049963951110839844e+00,6.839298725128173828e+00,-4.886396408081054688e+00,3.030413389205932617e+00,1.579322099685668945e+00,3.609763622283935547e+00,7.275522500276565552e-02,6.428744316101074219e+00,-5.184491872787475586e-01,-3.605859279632568359e+00,3.644894361495971680e-01,7.245449066162109375e+00,-1.482675522565841675e-01,8.336725085973739624e-02,7.682573199272155762e-01,-8.578031510114669800e-02
-7.433227300643920898e-01,-1.019238829612731934e+00,1.038414573669433594e+01,9.000631332397460938e+00,2.489676773548126221e-01,5.895692348480224609e+00,5.697571754455566406e+00,-5.603230953216552734e+00,1.659426212310791016e+00,5.420069694519042969e-01,4.128057003021240234e+00,3.692957758903503418e-01,6.225201606750488281e+00,-8.372821211814880371e-01,-4.104617595672607422e+00,-3.425462245941162109e-01,5.287865161895751953e+00,-1.263146042823791504e+00,-3.523223400115966797e-01,8.931165933609008789e-01,-7.791671901941299438e-02
-1.740302085876464844e+00,-2.502775669097900391e+00,9.085426330566406250e+00,7.262464523315429688e+00,-1.323439121246337891e+00,4.213935375213623047e+00,4.696582794189453125e+00,-6.189040184020996094e+00,5.429722070693969727e-01,-1.843749284744262695e-01,4.701488018035888672e+00,7.064478397369384766e-01,6.199295997619628906e+00,-9.364745616912841797e-01,-3.933614969253540039e+00,-7.041409015655517578e-01,3.457079648971557617e+00,-2.160894632339477539e+00,-3.879065513610839844e-01,9.840785861015319824e-01,-6.874467432498931885e-02
-2.554239273071289062e+00,-3.983365297317504883e+00,7.879312992095947266e+00,5.371929645538330078e+00,-2.738704681396484375e+00,2.214416027069091797e+00,3.884939193725585938e+00,-6.623536586761474609e+00,-3.161919713020324707e-01,-5.493077635765075684e-01,5.118695735931396484e+00,1.120225310325622559e+00,6.282563686370849609e+00,-8.257687091827392578e-01,-3.012830018997192383e+00,-6.643779277801513672e-01,2.013361454010009766e+00,-2.791406393051147461e+00,-9.628960490226745605e-02,1.045288920402526855e+00,-6.003900244832038879e-02
-3.053854227066040039e+00,-5.317192554473876953e+00,6.853929519653320312e+00,3.554182291030883789e+00,-3.789959669113159180e+00,1.362507343292236328e-01,3.225337743759155273e+00,-6.913482666015625000e+00,-9.961721897125244141e-01,-5.954687595367431641e-01,5.179347515106201172e+00,1.626719713211059570e+00,6.359354496002197266e+00,-5.937291979789733887e-01,-1.550535678863525391e+00,-3.313628733158111572e-01,1.124662995338439941e+00,-3.158857107162475586e+00,3.558902144432067871e-01,1.086989998817443848e+00,-5.296564847230911255e-02
-3.231645107269287109e+00,-6.415257453918457031e+00,6.030187606811523438e+00,2.040201663970947266e+00,-4.411562442779541016e+00,-1.790183186531066895e+00,2.636952877044677734e+00,-7.085928440093994141e+00,-1.609992146492004395e+00,-4.247602820396423340e-01,4.786032199859619141e+00,2.164630413055419922e+00,6.298291683197021484e+00,-3.714317679405212402e-01,3.233750537037849426e-02,5.011329799890518188e-02,8.276886343955993652e-01,-3.307507514953613281e+00,7.785611748695373535e-01,1.130641937255859375e+00,-4.786143079400062561e-02
-3.198637723922729492e+00,-7.216850757598876953e+00,5.379707813262939453e+00,1.022146582603454590e+00,-4.686062335968017578e+00,-3.375817060470581055e+00,2.057046175003051758e+00,-7.157781124114990234e+00,-2.242190122604370117e+00,-1.443106979131698608e-01,4.003078460693359375e+00,2.598330736160278320e+00,6.013332366943359375e+00,-2.704679965972900391e-01,1.296224474906921387e+00,2.041948884725570679e-01,1.029008269309997559e+00,-3.298321247100830078e+00,1.028518557548522949e+00,1.201363086700439453e+00,-4.429884254932403564e-02
-3.132622480392456055e+00,-7.677766799926757812e+00,4.865895748138427734e+00,6.106543540954589844e-01,-4.789497375488281250e+00,-4.496723651885986328e+00,1.491269588470458984e+00,-7.134111881256103516e+00,-2.910224676132202148e+00,1.640096604824066162e-01,3.038170337677001953e+00,2.746217727661132812e+00,5.476719856262207031e+00,-3.457480072975158691e-01,1.957216501235961914e+00,-7.663123309612274170e-02,1.557333469390869141e+00,-3.181405067443847656e+00,1.046744585037231445e+00,1.324027538299560547e+00,-4.150059446692466736e-02
-3.182133913040161133e+00,-7.768535137176513672e+00,4.474562644958496094e+00,8.290169835090637207e-01,-4.894921302795410156e+00,-5.090939044952392578e+00,1.009709596633911133e+00,-6.983644485473632812e+00,-3.546097993850708008e+00,4.749429225921630859e-01,2.139427423477172852e+00,2.504847526550292969e+00,4.737490177154541016e+00,-5.636171698570251465e-01,1.984620928764343262e+00,-8.395835757255554199e-01,2.226916074752807617e+00,-2.977637052536010742e+00,8.705593943595886230e-01,1.507658600807189941e+00,-3.896144032478332520e-02
-3.400434017181396484e+00,-7.492692947387695312e+00,4.228112220764160156e+00,1.632591366767883301e+00,-5.093833923339843750e+00,-5.155285835266113281e+00,6.994086503982543945e-01,-6.626917839050292969e+00,-4.021165370941162109e+00,8.259403705596923828e-01,1.485128045082092285e+00,1.912532687187194824e+00,3.910367012023925781e+00,-8.062844872474670410e-01,1.566979169845581055e+00,-1.952947258949279785e+00,2.900947809219360352e+00,-2.662798643112182617e+00,6.153945922851562500e-01,1.731527328491210938e+00,-3.673320263624191284e-02
-3.735011100769042969e+00,-6.909769535064697266e+00,4.178822040557861328e+00,2.940825939178466797e+00,-5.382257938385009766e+00,-4.723923683166503906e+00,5.982358455657958984e-01,-5.934597492218017578e+00,-4.195755004882812500e+00,1.299743413925170898e+00,1.108354330062866211e+00,1.191487073898315430e+00,3.126727819442749023e+00,-9.054769277572631836e-01,9.739497303962707520e-01,-3.152050018310546875e+00,3.509356021881103516e+00,-2.171751022338867188e+00,4.322660863399505615e-01,1.937837839126586914e+00,-3.541180863976478577e-02
-4.060585975646972656e+00,-6.125269412994384766e+00,4.384943962097167969e+00,4.652789115905761719e+00,-5.662724971771240234e+00,-3.872320652008056641e+00,6.807566881179809570e-01,-4.783266544342041016e+00,-3.978896379470825195e+00,1.966899871826171875e+00,9.135348796844482422e-01,6.497449874877929688e-01,2.493895292282104492e+00,-7.124058604240417480e-01,4.039400219917297363e-01,-4.153580188751220703e+00,4.044354915618896484e+00,-1.443530917167663574e+00,4.426809549331665039e-01,2.058795452117919922e+00,-3.555431216955184937e-02
-4.241377353668212891e+00,-5.250589847564697266e+00,4.876351356506347656e+00,6.652019977569580078e+00,-5.798980712890625000e+00,-2.723609924316406250e+00,8.734937310218811035e-01,-3.124741554260253906e+00,-3.374265193939208984e+00,2.824796915054321289e+00,7.628254294395446777e-01,5.133516788482666016e-01,2.033148765563964844e+00,-1.801320016384124756e-01,-1.090687587857246399e-01,-4.786060333251953125e+00,4.525964736938476562e+00,-4.739623963832855225e-01,6.718085408210754395e-01,2.051723241806030273e+00,-3.725139796733856201e-02
-4.192616462707519531e+00,-4.371784210205078125e+00,5.631385803222656250e+00,8.779356956481933594e+00,-5.676649093627929688e+00,-1.438261389732360840e+00,1.098447799682617188e+00,-1.033410787582397461e+00,-2.470994234085083008e+00,3.780241727828979492e+00,5.698438286781311035e-01,8.374773859977722168e-01,1.694527983665466309e+00,6.311206817626953125e-01,-6.593474149703979492e-01,-5.029608726501464844e+00,4.968645572662353516e+00,6.726504564285278320e-01,1.060631155967712402e+00,1.924669146537780762e+00,-3.990714624524116516e-02
-3.920303583145141602e+00,-3.543667793273925781e+00,6.567897796630859375e+00,1.082517242431640625e+01,-5.251969814300537109e+00,-1.815115660429000854e-01,1.312097668647766113e+00,1.297992110252380371e+00,-1.404160380363464355e+00,4.681686878204345703e+00,3.474555015563964844e-01,1.498755216598510742e+00,1.386438488960266113e+00,1.578763008117675781e+00,-1.388302206993103027e+00,-4.992331027984619141e+00,5.374621868133544922e+00,1.876051187515258789e+00,1.498056530952453613e+00,1.733234405517578125e+00,-4.245925322175025940e-02
-3.509209156036376953e+00,-2.800426006317138672e+00,7.560420989990234375e+00,1.254101657867431641e+01,-4.572682380676269531e+00,9.203292131423950195e-01,1.497486948966979980e+00,3.589664697647094727e+00,-3.143541812896728516e-01,5.376714229583740234e+00,1.526359617710113525e-01,2.258879899978637695e+00,1.029313683509826660e+00,2.485665559768676758e+00,-2.396780967712402344e+00,-4.868071556091308594e+00,5.731658458709716797e+00,2.998445749282836914e+00,1.863445639610290527e+00,1.548384189605712891e+00,-4.376769438385963440e-02
-3.074109077453613281e+00,-2.166813850402832031e+00,8.465566635131835938e+00,1.368911933898925781e+01,-3.742220640182495117e+00,1.809269189834594727e+00,1.665919899940490723e+00,5.548279762268066406e+00,7.083728313446044922e-01,5.781711101531982422e+00,2.581948041915893555e-02,2.886442422866821289e+00,5.963230729103088379e-01,3.190640687942504883e+00,-3.686975955963134766e+00,-4.830793857574462891e+00,6.028632640838623047e+00,3.937950134277343750e+00,2.073479175567626953e+00,1.420354604721069336e+00,-4.308108612895011902e-02
-2.696022033691406250e+00,-1.666407465934753418e+00,9.168323516845703125e+00,1.410740470886230469e+01,-2.867003679275512695e+00,2.506757497787475586e+00,1.839439749717712402e+00,6.944754600524902344e+00,1.618994951248168945e+00,5.893194198608398438e+00,-5.688692256808280945e-02,3.238919496536254883e+00,1.105963438749313354e-01,3.580325365066528320e+00,-5.170097351074218750e+00,-4.984875202178955078e+00,6.284453392028808594e+00,4.656148910522460938e+00,2.081290483474731445e+00,1.353535294532775879e+00,-4.036056622862815857e-02
-2.393702507019042969e+00,-1.292723655700683594e+00,9.608946800231933594e+00,1.377937602996826172e+01,-2.023612737655639648e+00,3.110505819320678711e+00,2.040654897689819336e+00,7.688639163970947266e+00,2.419350147247314453e+00,5.802614212036132812e+00,-1.561346054077148438e-01,3.328571319580078125e+00,-3.501501083374023438e-01,3.621950864791870117e+00,-6.666373252868652344e+00,-5.300494194030761719e+00,6.542498588562011719e+00,5.185611724853515625e+00,1.896426081657409668e+00,1.300128698348999023e+00,-3.618909791111946106e-02
-2.113137960433959961e+00,-9.885897040367126465e-01,9.800879478454589844e+00,1.285739994049072266e+01,-1.234922885894775391e+00,3.751591205596923828e+00,2.296695709228515625e+00,7.848405361175537109e+00,3.127815961837768555e+00,5.640615463256835938e+00,-3.013302981853485107e-01,3.281063556671142578e+00,-6.906214356422424316e-01,3.372198343276977539e+00,-7.958760738372802734e+00,-5.637236595153808594e+00,6.868391990661621094e+00,5.595653057098388672e+00,1.565753340721130371e+00,1.199899792671203613e+00,-3.130511566996574402e-02
-1.750054359436035156e+00,-6.455550193786621094e-01,9.821790695190429688e+00,1.163456916809082031e+01,-4.601569771766662598e-01,4.545997142791748047e+00,2.628474712371826172e+00,7.617632389068603516e+00,3.758176088333129883e+00,5.526519298553466797e+00,-4.759326875209808350e-01,3.264205932617187500e+00,-8.386524319648742676e-01,2.954172849655151367e+00,-8.840083122253417969e+00,-5.808714866638183594e+00,7.328868865966796875e+00,5.953917503356933594e+00,1.161308407783508301e+00,1.015537261962890625e+00,-2.623976394534111023e-02
-1.198677539825439453e+00,-1.545792073011398315e-01,9.772500038146972656e+00,1.044182395935058594e+01,3.444458842277526855e-01,5.521527290344238281e+00,3.033731222152709961e+00,7.202578067779541016e+00,4.296647071838378906e+00,5.494293689727783203e+00,-5.880458354949951172e-01,3.367650270462036133e+00,-7.840659618377685547e-01,2.486551284790039062e+00,-9.196339607238769531e+00,-5.705579280853271484e+00,7.957297801971435547e+00,6.273766517639160156e+00,7.369016408920288086e-01,7.572833299636840820e-01,-2.118736691772937775e-02
-3.967430293560028076e-01,5.096821784973144531e-01,9.734413146972656250e+00,9.547022819519042969e+00,1.181869387626647949e+00,6.577292442321777344e+00,3.452552795410156250e+00,6.724124908447265625e+00,4.675230503082275391e+00,5.464681148529052734e+00,-5.825320482254028320e-01,3.527797460556030273e+00,-6.314089894294738770e-01,2.007416248321533203e+00,-9.107549667358398438e+00,-5.394931316375732422e+00,8.715861320495605469e+00,6.505928516387939453e+00,2.769106328487396240e-01,4.802517592906951904e-01,-1.610906049609184265e-02
6.414958238601684570e-01,1.231705427169799805e+00,9.737400054931640625e+00,9.067595481872558594e+00,1.979510307312011719e+00,7.492447853088378906e+00,3.769636154174804688e+00,6.180582046508789062e+00,4.805713176727294922e+00,5.292230606079101562e+00,-4.814464449882507324e-01,3.566876649856567383e+00,-5.620194673538208008e-01,1.459200739860534668e+00,-8.830217361450195312e+00,-5.097951412200927734e+00,9.492221832275390625e+00,6.561046123504638672e+00,-2.750785648822784424e-01,2.427264153957366943e-01,-1.092711556702852249e-02
1.799012064933776855e+00,1.758635044097900391e+00,9.746361732482910156e+00,8.951135635375976562e+00,2.584205627441406250e+00,7.989745616912841797e+00,3.844809293746948242e+00,5.489952564239501953e+00,4.637556076049804688e+00,4.836718082427978516e+00,-3.913883566856384277e-01,3.297154903411865234e+00,-7.470582127571105957e-01,7.400553226470947266e-01,-8.672369003295898438e+00,-5.051975250244140625e+00,1.011953830718994141e+01,6.380661487579345703e+00,-9.659329652786254883e-01,6.250955909490585327e-02,-5.667440593242645264e-03
2.857505559921264648e+00,1.796946525573730469e+00,9.687362670898437500e+00,9.023922920227050781e+00,2.804004430770874023e+00,7.834042549133300781e+00,3.570681810379028320e+00,4.566858768463134766e+00,4.187298774719238281e+00,4.059820175170898438e+00,-4.630672633647918701e-01,2.627448320388793945e+00,-1.263316273689270020e+00,-2.155578881502151489e-01,-8.836794853210449219e+00,-5.362623691558837891e+00,1.042763519287109375e+01,5.965609073638916016e+00,-1.778294444084167480e+00,-1.003928259015083313e-01,-5.891338805668056011e-04
3.562667846679687500e+00,1.150367259979248047e+00,9.497671127319335938e+00,9.078270912170410156e+00,2.493700265884399414e+00,6.918092727661132812e+00,2.931427955627441406e+00,3.406229496002197266e+00,3.563370943069458008e+00,3.040795326232910156e+00,-7.883790731430053711e-01,1.599134564399719238e+00,-2.040478944778442383e+00,-1.382840752601623535e+00,-9.305956840515136719e+00,-5.929246425628662109e+00,1.029861259460449219e+01,5.381863594055175781e+00,-2.623636245727539062e+00,-3.245055377483367920e-01,4.009842872619628906e-03
3.713452577590942383e+00,-1.746190339326858521e-01,9.158615112304687500e+00,8.950164794921875000e+00,1.628428936004638672e+00,5.286383152008056641e+00,2.017481327056884766e+00,2.072308540344238281e+00,2.908200740814208984e+00,1.922480821609497070e+00,-1.321375966072082520e+00,3.539706766605377197e-01,-2.899058818817138672e+00,-2.651087284088134766e+00,-9.834311485290527344e+00,-6.484685420989990234e+00,9.730245590209960938e+00,4.712101459503173828e+00,-3.386527061462402344e+00,-6.727459430694580078e-01,8.051760494709014893e-03
3.238593339920043945e+00,-1.932229876518249512e+00,8.706789016723632812e+00,8.586227416992187500e+00,3.404676318168640137e-01,3.151814937591552734e+00,1.012535691261291504e+00,7.028841972351074219e-01,2.355027675628662109e+00,8.660045862197875977e-01,-1.848858952522277832e+00,-9.141808152198791504e-01,-3.617009162902832031e+00,-3.846710920333862305e+00,-1.005573844909667969e+01,-6.713322639465332031e+00,8.858231544494628906e+00,4.023966789245605469e+00,-3.956742286682128906e+00,-1.140236735343933105e+00,1.176980603486299515e-02
2.222859621047973633e+00,-3.713417053222656250e+00,8.207913398742675781e+00,8.042747497558593750e+00,-1.114580631256103516e+00,8.321501612663269043e-01,1.234583705663681030e-01,-5.727093219757080078e-01,1.976444005966186523e+00,-1.192455086857080460e-02,-2.058381795883178711e+00,-2.061264038085937500e+00,-4.027795314788818359e+00,-4.814723014831542969e+00,-9.663309097290039062e+00,-6.427525997161865234e+00,7.918368816375732422e+00,3.353369474411010742e+00,-4.281339645385742188e+00,-1.645039081573486328e+00,1.547489687800407410e-02
8.567953705787658691e-01,-5.121509552001953125e+00,7.704556941986083984e+00,7.434243202209472656e+00,-2.469177722930908203e+00,-1.333399891853332520e+00,-5.044913291931152344e-01,-1.669094204902648926e+00,1.772449970245361328e+00,-6.590489149093627930e-01,-1.699987411499023438e+00,-3.007588624954223633e+00,-4.061101913452148438e+00,-5.463016510009765625e+00,-8.549597740173339844e+00,-5.640964508056640625e+00,7.156467914581298828e+00,2.715341806411743164e+00,-4.353375911712646484e+00,-2.066195487976074219e+00,1.932249218225479126e-02
-6.495512127876281738e-01,-5.925460338592529297e+00,7.184770584106445312e+00,6.870382308959960938e+00,-3.539329290390014648e+00,-3.056465864181518555e+00,-8.198792338371276855e-01,-2.578662395477294922e+00,1.694344162940979004e+00,-1.068400859832763672e+00,-7.222139835357666016e-01,-3.729400396347045898e+00,-3.743760585784912109e+00,-5.780963897705078125e+00,-6.832991123199462891e+00,-4.541269302368164062e+00,6.746042728424072266e+00,2.129091024398803711e+00,-4.191945075988769531e+00,-2.301525831222534180e+00,2.302758209407329559e-02
-2.131892204284667969e+00,-6.114660263061523438e+00,6.608225822448730469e+00,6.410365104675292969e+00,-4.246464729309082031e+00,-4.163073062896728516e+00,-8.413572311401367188e-01,-3.357205629348754883e+00,1.698938608169555664e+00,-1.255657553672790527e+00,6.819569468498229980e-01,-4.242791175842285156e+00,-3.143309831619262695e+00,-5.825246334075927734e+00,-4.783148765563964844e+00,-3.367018699645996094e+00,6.726022243499755859e+00,1.640548706054687500e+00,-3.818744897842407227e+00,-2.319328069686889648e+00,2.630516327917575836e-02
-3.498706579208374023e+00,-5.860625743865966797e+00,5.939075469970703125e+00,6.048368453979492188e+00,-4.613459110260009766e+00,-4.609529018402099609e+00,-6.050989627838134766e-01,-4.063050746917724609e+00,1.797260046005249023e+00,-1.231270551681518555e+00,2.159644603729248047e+00,-4.551591873168945312e+00,-2.301383733749389648e+00,-5.656973361968994141e+00,-2.655477762222290039e+00,-2.263595581054687500e+00,7.001863479614257812e+00,1.319864630699157715e+00,-3.226832151412963867e+00,-2.169350624084472656e+00,2.912932448089122772e-02
-4.685479640960693359e+00,-5.380848884582519531e+00,5.200470924377441406e+00,5.748484134674072266e+00,-4.688051700592041016e+00,-4.447470188140869141e+00,-1.224085316061973572e-01,-4.701270580291748047e+00,2.076603412628173828e+00,-9.804337024688720703e-01,3.359806537628173828e+00,-4.609827041625976562e+00,-1.204103946685791016e+00,-5.285887241363525391e+00,-5.716536045074462891e-01,-1.197450518608093262e+00,7.410064220428466797e+00,1.238023281097412109e+00,-2.381490230560302734e+00,-1.951090693473815918e+00,3.199234977364540100e-02
-5.598439693450927734e+00,-4.818554878234863281e+00,4.496967315673828125e+00,5.480625629425048828e+00,-4.475214958190917969e+00,-3.797646522521972656e+00,6.236703395843505859e-01,-5.205083370208740234e+00,2.666532039642333984e+00,-4.857275784015655518e-01,4.087622642517089844e+00,-4.367690563201904297e+00,1.762851029634475708e-01,-4.676562309265136719e+00,1.471612095832824707e+00,-2.941268123686313629e-02,7.804917812347412109e+00,1.436780691146850586e+00,-1.268832683563232422e+00,-1.761363029479980469e+00,3.559380024671554565e-02
-6.066547393798828125e+00,-4.192604541778564453e+00,4.013774871826171875e+00,5.252558231353759766e+00,-3.903340101242065430e+00,-2.813377857208251953e+00,1.653485298156738281e+00,-5.473051071166992188e+00,3.684664726257324219e+00,2.362994700670242310e-01,4.363310813903808594e+00,-3.818285942077636719e+00,1.811102390289306641e+00,-3.799771547317504883e+00,3.500627517700195312e+00,1.337440133094787598e+00,8.125249862670898438e+00,1.904445052146911621e+00,6.340537965297698975e-02,-1.642844319343566895e+00,4.024459794163703918e-02
-5.879004001617431641e+00,-3.442879438400268555e+00,3.949548482894897461e+00,5.101160049438476562e+00,-2.872971057891845703e+00,-1.673405528068542480e+00,2.934253931045532227e+00,-5.418950080871582031e+00,5.156729698181152344e+00,1.110744833946228027e+00,4.366986751556396484e+00,-3.039005041122436523e+00,3.560643672943115234e+00,-2.705111742019653320e+00,5.447430133819580078e+00,2.831037282943725586e+00,8.409989356994628906e+00,2.565021038055419922e+00,1.466811895370483398e+00,-1.575781226158142090e+00,4.542654380202293396e-02
-4.887276172637939453e+00,-2.528120040893554688e+00,4.447677135467529297e+00,5.075927257537841797e+00,-1.356259822845458984e+00,-5.509102344512939453e-01,4.350673198699951172e+00,-5.012349605560302734e+00,7.007378578186035156e+00,2.041802644729614258e+00,4.333904266357421875e+00,-2.184631109237670898e+00,5.233394145965576172e+00,-1.514802098274230957e+00,7.135535717010498047e+00,4.201617717742919922e+00,8.753678321838378906e+00,3.343348264694213867e+00,2.768673181533813477e+00,-1.528715014457702637e+00,4.975346848368644714e-02
-3.115368366241455078e+00,-1.507267594337463379e+00,5.536540031433105469e+00,5.204033374786376953e+00,5.344077348709106445e-01,4.071430861949920654e-01,5.737136840820312500e+00,-4.295515060424804688e+00,9.102453231811523438e+00,2.956312179565429688e+00,4.440503597259521484e+00,-1.424506425857543945e+00,6.677621364593505859e+00,-3.909159898757934570e-01,8.368729591369628906e+00,5.149716854095458984e+00,9.248635292053222656e+00,4.204351902008056641e+00,3.854425430297851562e+00,-1.504328489303588867e+00,5.160601064562797546e-02
-7.973352074623107910e-01,-5.512499213218688965e-01,7.089924812316894531e+00,5.464127540588378906e+00,2.531493663787841797e+00,1.109397768974304199e+00,6.917297840118408203e+00,-3.382565259933471680e+00,1.128390312194824219e+01,3.821176767349243164e+00,4.751111984252929688e+00,-8.781668543815612793e-01,7.861869335174560547e+00,5.292713046073913574e-01,9.050549507141113281e+00,5.481489181518554688e+00,9.898198127746582031e+00,5.152207374572753906e+00,4.714521884918212891e+00,-1.559442162513732910e+00,5.020688846707344055e-02
1.666231513023376465e+00,1.194949224591255188e-01,8.833001136779785156e+00,5.771776199340820312e+00,4.282922267913818359e+00,1.517722249031066895e+00,7.762853622436523438e+00,-2.449327945709228516e+00,1.337897682189941406e+01,4.627686977386474609e+00,5.217943668365478516e+00,-5.892888307571411133e-01,8.851826667785644531e+00,1.157195091247558594e+00,9.222648620605468750e+00,5.185751914978027344e+00,1.059558677673339844e+01,6.185244560241699219e+00,5.421866416931152344e+00,-1.764777183532714844e+00,4.630747437477111816e-02
3.838731288909912109e+00,3.346283733844757080e-01,1.040580368041992188e+01,6.013430595397949219e+00,5.485351085662841797e+00,1.636883139610290527e+00,8.235370635986328125e+00,-1.702061772346496582e+00,1.520481586456298828e+01,5.337520599365234375e+00,5.749102592468261719e+00,-5.387160181999206543e-01,9.724284172058105469e+00,1.458315014839172363e+00,9.037395477294921875e+00,4.417829036712646484e+00,1.114504528045654297e+01,7.229973316192626953e+00,6.047627925872802734e+00,-2.138867378234863281e+00,4.190281778573989868e-02
5.399840354919433594e+00,6.350128352642059326e-02,1.146852779388427734e+01,6.095922946929931641e+00,5.970698833465576172e+00,1.535199284553527832e+00,8.373847007751464844e+00,-1.302223682403564453e+00,1.657396507263183594e+01,5.893194198608398438e+00,6.256368637084960938e+00,-6.475241780281066895e-01,1.048109245300292969e+01,1.450344204902648926e+00,8.648254394531250000e+00,3.396417379379272461e+00,1.133969116210937500e+01,8.140248298645019531e+00,6.611767768859863281e+00,-2.612942695617675781e+00,3.911752253770828247e-02
6.237783432006835938e+00,-5.712897777557373047e-01,1.180086231231689453e+01,5.994020462036132812e+00,5.757861614227294922e+00,1.347719430923461914e+00,8.244978904724121094e+00,-1.295461058616638184e+00,1.730908012390136719e+01,6.225901603698730469e+00,6.673576354980468750e+00,-8.099701404571533203e-01,1.101122856140136719e+01,1.187307000160217285e+00,8.096879005432128906e+00,2.269385099411010742e+00,1.103604316711425781e+01,8.734015464782714844e+00,7.043117523193359375e+00,-3.039707899093627930e+00,3.893615677952766418e-02
6.445580959320068359e+00,-1.351074814796447754e+00,1.135799884796142578e+01,5.764982700347900391e+00,5.014921665191650391e+00,1.241269111633300781e+00,7.909243583679199219e+00,-1.600623011589050293e+00,1.728059387207031250e+01,6.301675319671630859e+00,6.945588588714599609e+00,-9.111157655715942383e-01,1.113150405883789062e+01,7.489117383956909180e-01,7.299961566925048828e+00,1.061584353446960449e+00,1.020184516906738281e+01,8.870139122009277344e+00,7.231453895568847656e+00,-3.249432563781738281e+00,4.050369560718536377e-02
6.232532024383544922e+00,-2.044806480407714844e+00,1.028033733367919922e+01,5.510711193084716797e+00,3.978585481643676758e+00,1.351691484451293945e+00,7.394901275634765625e+00,-2.039345979690551758e+00,1.644715881347656250e+01,6.137063503265380859e+00,7.015429496765136719e+00,-8.689717650413513184e-01,1.068926143646240234e+01,2.308082282543182373e-01,6.142403602600097656e+00,-3.052684366703033447e-01,8.914957046508789062e+00,8.506864547729492188e+00,7.073494434356689453e+00,-3.126767873764038086e+00,4.117734730243682861e-02
5.822187423706054688e+00,-2.502775669097900391e+00,8.838229179382324219e+00,5.315640926361083984e+00,2.875613212585449219e+00,1.725062251091003418e+00,6.706473827362060547e+00,-2.432421445846557617e+00,1.486482620239257812e+01,5.790420532226562500e+00,6.798554897308349609e+00,-6.804731488227844238e-01,9.638240814208984375e+00,-3.094364702701568604e-01,4.549664497375488281e+00,-1.949219465255737305e+00,7.329981327056884766e+00,7.700978279113769531e+00,6.498939514160156250e+00,-2.656594514846801758e+00,3.780908137559890747e-02
5.364582538604736328e+00,-2.686081171035766602e+00,7.343096256256103516e+00,5.208885669708251953e+00,1.858173370361328125e+00,2.297034263610839844e+00,5.854135513305664062e+00,-2.677565336227416992e+00,1.268797016143798828e+01,5.333166122436523438e+00,6.197555065155029297e+00,-4.375703930854797363e-01,8.074664115905761719e+00,-8.514524698257446289e-01,2.556823015213012695e+00,-3.946067094802856445e+00,5.633779525756835938e+00,6.592780590057373047e+00,5.499978065490722656e+00,-1.927191853523254395e+00,2.857226505875587463e-02
4.924981117248535156e+00,-2.639518022537231445e+00,6.061553955078125000e+00,5.146773815155029297e+00,1.007820606231689453e+00,2.906343460083007812e+00,4.897798061370849609e+00,-2.775622844696044922e+00,1.015366554260253906e+01,4.837588787078857422e+00,5.179347515106201172e+00,-3.004108071327209473e-01,6.205772399902343750e+00,-1.417380928993225098e+00,3.359773159027099609e-01,-6.265989303588867188e+00,4.014323711395263672e+00,5.351799488067626953e+00,4.133891582489013672e+00,-1.079758048057556152e+00,1.375190075486898422e-02
4.491381645202636719e+00,-2.455033779144287109e+00,5.142966270446777344e+00,5.021579265594482422e+00,3.295274078845977783e-01,3.357565879821777344e+00,3.931286573410034180e+00,-2.804363965988159180e+00,7.519201755523681641e+00,4.349850654602050781e+00,3.819286346435546875e+00,-4.191802740097045898e-01,4.264716148376464844e+00,-2.035562515258789062e+00,-1.856367826461791992e+00,-8.756146430969238281e+00,2.620657444000244141e+00,4.123345375061035156e+00,2.511772632598876953e+00,-2.506141960620880127e-01,-4.255360458046197891e-03
4.019523143768310547e+00,-2.238131999969482422e+00,4.600775241851806641e+00,4.694520473480224609e+00,-2.363799214363098145e-01,3.475137948989868164e+00,3.039383172988891602e+00,-2.834795475006103516e+00,4.998680591583251953e+00,3.891724824905395508e+00,2.275433540344238281e+00,-8.643742203712463379e-01,2.405076742172241211e+00,-2.719282150268554688e+00,-3.794400930404663086e+00,-1.118665885925292969e+01,1.549547672271728516e+00,2.990094423294067383e+00,7.733537554740905762e-01,4.709848463535308838e-01,-2.218489162623882294e-02
3.473397254943847656e+00,-2.069561719894409180e+00,4.345362663269042969e+00,4.046226024627685547e+00,-7.644937634468078613e-01,3.159759044647216797e+00,2.277478456497192383e+00,-2.880443096160888672e+00,2.740043401718139648e+00,3.463211774826049805e+00,7.720150351524353027e-01,-1.582354903221130371e+00,6.953187584877014160e-01,-3.432228088378906250e+00,-5.309311389923095703e+00,-1.329534053802490234e+01,8.643932938575744629e-01,1.989626765251159668e+00,-9.251412749290466309e-01,1.053824186325073242e+00,-3.713480383157730103e-02
2.820747137069702148e+00,-1.992938756942749023e+00,4.252010345458984375e+00,3.017495632171630859e+00,-1.341341376304626465e+00,2.420167207717895508e+00,1.647833108901977539e+00,-2.849166154861450195e+00,8.213965296745300293e-01,3.075633764266967773e+00,-4.373363852500915527e-01,-2.391519784927368164e+00,-8.377271890640258789e-01,-4.080521583557128906e+00,-6.282712936401367188e+00,-1.481875991821289062e+01,5.896642208099365234e-01,1.139479756355285645e+00,-2.408395290374755859e+00,1.493514299392700195e+00,-4.738210141658782959e-02
2.019562959671020508e+00,-2.009442090988159180e+00,4.192264556884765625e+00,1.631620883941650391e+00,-2.056433439254760742e+00,1.361224412918090820e+00,1.099578261375427246e+00,-2.593033075332641602e+00,-7.324501276016235352e-01,2.751636266708374023e+00,-1.154125213623046875e+00,-3.071954011917114258e+00,-2.164454936981201172e+00,-4.543715000152587891e+00,-6.640065193176269531e+00,-1.556804370880126953e+01,7.109009623527526855e-01,4.530152380466461182e-01,-3.521920680999755859e+00,1.784934043884277344e+00,-5.256404727697372437e-02
1.027834653854370117e+00,-2.078402757644653320e+00,4.072026729583740234e+00,2.095330710289999843e-04,-2.981378555297851562e+00,1.521388441324234009e-01,5.592362284660339355e-01,-1.990317225456237793e+00,-1.934361100196838379e+00,2.511250734329223633e+00,-1.273589968681335449e+00,-3.458912611007690430e+00,-3.205297946929931641e+00,-4.731472015380859375e+00,-6.328752040863037109e+00,-1.545869541168212891e+01,1.174714803695678711e+00,-6.726139038801193237e-02,-4.167644023895263672e+00,1.908330082893371582e+00,-5.356157198548316956e-02
-1.626891791820526123e-01,-2.121429443359375000e+00,3.841259479522705078e+00,-1.691372871398925781e+00,-4.112198829650878906e+00,-1.023581624031066895e+00,-1.275754440575838089e-02,-1.042709350585937500e+00,-2.814659833908081055e+00,2.336187601089477539e+00,-8.104341626167297363e-01,-3.515615463256835938e+00,-3.848307609558105469e+00,-4.626080036163330078e+00,-5.326850414276123047e+00,-1.454166126251220703e+01,1.897686123847961426e+00,-4.505791664123535156e-01,-4.348168373107910156e+00,1.855655074119567871e+00,-5.217540264129638672e-02
-1.502497434616088867e+00,-2.054826498031616211e+00,3.495481967926025391e+00,-3.225734233856201172e+00,-5.345458984375000000e+00,-2.021355152130126953e+00,-5.960555672645568848e-01,8.157124370336532593e-02,-3.433074235916137695e+00,2.140221357345581055e+00,1.213913187384605408e-01,-3.357000589370727539e+00,-4.035196781158447266e+00,-4.334702491760253906e+00,-3.728630542755126953e+00,-1.301948451995849609e+01,2.779711008071899414e+00,-7.720984220504760742e-01,-4.201492309570312500e+00,1.657636046409606934e+00,-5.063377320766448975e-02
-2.881314516067504883e+00,-1.828494310379028320e+00,3.078756809234619141e+00,-4.391305446624755859e+00,-6.494181156158447266e+00,-2.755386114120483398e+00,-1.129614949226379395e+00,1.094269037246704102e+00,-3.885169267654418945e+00,1.802288174629211426e+00,1.327066898345947266e+00,-3.177697181701660156e+00,-3.815925836563110352e+00,-4.037125110626220703e+00,-1.776347279548645020e+00,-1.119784259796142578e+01,3.712900161743164062e+00,-1.132032990455627441e+00,-3.947195291519165039e+00,1.383774638175964355e+00,-5.104832723736763000e-02
-4.169361114501953125e+00,-1.455989241600036621e+00,2.660537719726562500e+00,-5.059009552001953125e+00,-7.352490425109863281e+00,-3.208991765975952148e+00,-1.556914687156677246e+00,1.685150384902954102e+00,-4.298670768737792969e+00,1.196969985961914062e+00,2.567662954330444336e+00,-3.176164627075195312e+00,-3.368132114410400391e+00,-3.937932491302490234e+00,1.397624164819717407e-01,-9.427146911621093750e+00,4.581578254699707031e+00,-1.623080611228942871e+00,-3.824820280075073242e+00,1.122838258743286133e+00,-5.510320141911506653e-02
-5.241357326507568359e+00,-1.016881227493286133e+00,2.319988012313842773e+00,-5.208466529846191406e+00,-7.751311302185058594e+00,-3.415537357330322266e+00,-1.855346202850341797e+00,1.633585572242736816e+00,-4.792115688323974609e+00,2.528477311134338379e-01,3.591384410858154297e+00,-3.478835105895996094e+00,-2.919413089752197266e+00,-4.170857429504394531e+00,1.600960493087768555e+00,-7.990708827972412109e+00,5.270069122314453125e+00,-2.292842864990234375e+00,-4.002741336822509766e+00,9.450600743293762207e-01,-6.343317776918411255e-02
-6.014035224914550781e+00,-6.166740655899047852e-01,2.119093656539916992e+00,-4.951283931732177734e+00,-7.611077308654785156e+00,-3.448107957839965820e+00,-2.044126749038696289e+00,8.651863336563110352e-01,-5.442691326141357422e+00,-1.031820416450500488e+00,4.185032367706298828e+00,-4.120190143585205078e+00,-2.669610738754272461e+00,-4.763355731964111328e+00,2.314568758010864258e+00,-7.019000530242919922e+00,5.672708511352539062e+00,-3.131298303604125977e+00,-4.527825355529785156e+00,8.714125752449035645e-01,-7.522210478782653809e-02
-6.439383029937744141e+00,-3.325800299644470215e-01,2.068309783935546875e+00,-4.495148658752441406e+00,-6.955659389495849609e+00,-3.395677089691162109e+00,-2.164516925811767578e+00,-5.515761971473693848e-01,-6.274289131164550781e+00,-2.601293087005615234e+00,4.225466728210449219e+00,-5.061917304992675781e+00,-2.719571113586425781e+00,-5.646345615386962891e+00,2.240029096603393555e+00,-6.463561534881591797e+00,5.706076622009277344e+00,-4.103372097015380859e+00,-5.342790603637695312e+00,8.745828270912170410e-01,-8.830651640892028809e-02
-6.500147342681884766e+00,-1.634203046560287476e-01,2.134030103683471680e+00,-4.054541587829589844e+00,-5.891475200653076172e+00,-3.308292627334594727e+00,-2.240820407867431641e+00,-2.414669752120971680e+00,-7.229937076568603516e+00,-4.336248397827148438e+00,3.723714590072631836e+00,-6.190610408782958984e+00,-3.032286643981933594e+00,-6.665725231170654297e+00,1.633845686912536621e+00,-6.099481582641601562e+00,5.351264476776123047e+00,-5.144760608673095703e+00,-6.294017314910888672e+00,8.914095759391784668e-01,-9.992703050374984741e-02
-6.182074069976806641e+00,-1.724744029343128204e-02,2.269204378128051758e+00,-3.739128828048706055e+00,-4.570693016052246094e+00,-3.151000261306762695e+00,-2.235733509063720703e+00,-4.439219951629638672e+00,-8.142396926879882812e+00,-6.041590690612792969e+00,2.859892129898071289e+00,-7.324667453765869141e+00,-3.416242122650146484e+00,-7.603625774383544922e+00,9.838153123855590820e-01,-5.581320285797119141e+00,4.693916797637939453e+00,-6.151909351348876953e+00,-7.155849456787109375e+00,8.472698330879211426e-01,-1.078165397047996521e-01
-5.468659877777099609e+00,2.438597381114959717e-01,2.449934720993041992e+00,-3.504267692565917969e+00,-3.137525320053100586e+00,-2.814172267913818359e+00,-2.046952962875366211e+00,-6.298086643218994141e+00,-8.778269767761230469e+00,-7.477806091308593750e+00,1.944607973098754883e+00,-8.230380058288574219e+00,-3.605906724929809570e+00,-8.226235389709472656e+00,8.292549848556518555e-01,-4.544997215270996094e+00,3.925342559814453125e+00,-6.982013225555419922e+00,-7.663575172424316406e+00,6.848551630973815918e-01,-1.110941246151924133e-01
-4.386160850524902344e+00,7.124381065368652344e-01,2.674727439880371094e+00,-3.177209138870239258e+00,-1.731210708618164062e+00,-2.170703649520874023e+00,-1.559740781784057617e+00,-7.697097778320312500e+00,-8.906914710998535156e+00,-8.411477088928222656e+00,1.316039323806762695e+00,-8.665613174438476562e+00,-3.357029676437377930e+00,-8.336055755615234375e+00,1.546151876449584961e+00,-2.722112655639648438e+00,3.282454252243041992e+00,-7.469720363616943359e+00,-7.578520298004150391e+00,3.717314600944519043e-01,-1.105759292840957642e-01
-3.059105396270751953e+00,1.349586725234985352e+00,2.942835569381713867e+00,-2.572587251663208008e+00,-5.049123764038085938e-01,-1.195967674255371094e+00,-7.237933278083801270e-01,-8.471414566040039062e+00,-8.412550926208496094e+00,-8.709345817565917969e+00,1.196574568748474121e+00,-8.494738578796386719e+00,-2.576166152954101562e+00,-7.860463142395019531e+00,3.177256584167480469e+00,-5.177936330437660217e-02,2.934315681457519531e+00,-7.497279167175292969e+00,-6.787856578826904297e+00,-9.405230730772018433e-02,-1.083865538239479065e-01
-1.713295936584472656e+00,1.982609629631042480e+00,3.216918468475341797e+00,-1.604027748107910156e+00,3.862175941467285156e-01,-1.627517305314540863e-02,3.794990777969360352e-01,-8.624417304992675781e+00,-7.368689537048339844e+00,-8.401896476745605469e+00,1.588051557540893555e+00,-7.761432647705078125e+00,-1.373414397239685059e+00,-6.892451286315917969e+00,5.407968044281005859e+00,3.277128458023071289e+00,2.905396938323974609e+00,-7.055503368377685547e+00,-5.355809211730957031e+00,-6.856708526611328125e-01,-1.068708375096321106e-01
-6.045408248901367188e-01,2.388121366500854492e+00,3.423787355422973633e+00,-3.433476388454437256e-01,8.317826390266418457e-01,1.123697042465209961e+00,1.550051569938659668e+00,-8.319255828857421875e+00,-6.026187896728515625e+00,-7.691191673278808594e+00,2.253378629684448242e+00,-6.700936317443847656e+00,-5.316293984651565552e-02,-5.684428691864013672e+00,7.646352291107177734e+00,6.829702854156494141e+00,3.066675186157226562e+00,-6.284692287445068359e+00,-3.554033279418945312e+00,-1.339962959289550781e+00,-1.075185760855674744e-01
5.336052551865577698e-02,2.382227420806884766e+00,3.475317955017089844e+00,9.969135522842407227e-01,8.019456863403320312e-01,1.949084639549255371e+00,2.518258571624755859e+00,-7.804453849792480469e+00,-4.750765800476074219e+00,-6.877713680267333984e+00,2.793727159500122070e+00,-5.659595966339111328e+00,9.858295917510986328e-01,-4.566741943359375000e+00,9.227032661437988281e+00,1.003559398651123047e+01,3.194585323333740234e+00,-5.441226482391357422e+00,-1.777426481246948242e+00,-1.964259505271911621e+00,-1.102002337574958801e-01
1.823902130126953125e-01,1.927205324172973633e+00,3.336409568786621094e+00,2.165396213531494141e+00,3.772665262222290039e-01,2.277174234390258789e+00,3.064817667007446289e+00,-7.301486015319824219e+00,-3.864034652709960938e+00,-6.228847503662109375e+00,2.859892129898071289e+00,-4.946979045867919922e+00,1.412343859672546387e+00,-3.821912765502929688e+00,9.677559852600097656e+00,1.239776420593261719e+01,3.114502429962158203e+00,-4.787331104278564453e+00,-4.122079610824584961e-01,-2.460038661956787109e+00,-1.135037243366241455e-01
-1.221798583865165710e-01,1.152135491371154785e+00,3.077263116836547852e+00,2.969941139221191406e+00,-2.463255673646926880e-01,2.096049785614013672e+00,3.115686893463134766e+00,-6.932079792022705078e+00,-3.529557943344116211e+00,-5.887430667877197266e+00,2.304840326309204102e+00,-4.720167636871337891e+00,1.071872591972351074e+00,-3.588101863861083984e+00,8.856526374816894531e+00,1.360432243347167969e+01,2.818640232086181641e+00,-4.485854625701904297e+00,2.847217917442321777e-01,-2.743166923522949219e+00,-1.156153678894042969e-01
-6.578030586242675781e-01,2.821711897850036621e-01,2.871887683868408203e+00,3.336790323257446289e+00,-8.430644273757934570e-01,1.563003420829772949e+00,2.759038448333740234e+00,-6.686090469360351562e+00,-3.686688661575317383e+00,-5.802076339721679688e+00,1.244360446929931641e+00,-4.937017917633056641e+00,4.583278670907020569e-02,-3.816598892211914062e+00,6.954667568206787109e+00,1.361550617218017578e+01,2.507206439971923828e+00,-4.510908126831054688e+00,2.829859852790832520e-01,-2.776820421218872070e+00,-1.150842234492301941e-01
-1.221182703971862793e+00,-4.787529110908508301e-01,2.932380199432373047e+00,3.296999692916870117e+00,-1.261776208877563477e+00,9.171515703201293945e-01,2.195522785186767578e+00,-6.474759578704833984e+00,-4.090082168579101562e+00,-5.776818752288818359e+00,-2.564228139817714691e-02,-5.414394378662109375e+00,-1.381741166114807129e+00,-4.309018611907958984e+00,4.400585174560546875e+00,1.262267398834228516e+01,2.517216920852661133e+00,-4.662899017333984375e+00,-2.308152765035629272e-01,-2.587580442428588867e+00,-1.116641387343406677e-01
-1.674286961555480957e+00,-1.028669357299804688e+00,3.416319131851196289e+00,2.928209543228149414e+00,-1.476602196693420410e+00,3.833109140396118164e-01,1.639354944229125977e+00,-6.191576004028320312e+00,-4.423640251159667969e+00,-5.570400714874267578e+00,-1.174342274665832520e+00,-5.920888900756835938e+00,-2.842622041702270508e+00,-4.799666881561279297e+00,1.691942811012268066e+00,1.095884132385253906e+01,3.171227931976318359e+00,-4.662064075469970703e+00,-9.390278458595275879e-01,-2.255435228347778320e+00,-1.063396856188774109e-01
-1.967604398727416992e+00,-1.400585055351257324e+00,4.361045837402343750e+00,2.311941623687744141e+00,-1.574069499969482422e+00,8.938078582286834717e-02,1.233533263206481934e+00,-5.770605087280273438e+00,-4.430991172790527344e+00,-5.011243343353271484e+00,-2.006920099258422852e+00,-6.248846054077148438e+00,-4.010216236114501953e+00,-5.050305366516113281e+00,-7.536182403564453125e-01,9.009211540222167969e+00,4.639415740966796875e+00,-4.273735523223876953e+00,-1.517054200172424316e+00,-1.883052110671997070e+00,-1.008597761392593384e-01
-2.088382244110107422e+00,-1.710023522377014160e+00,5.664992809295654297e+00,1.506426334381103516e+00,-1.648661851882934570e+00,2.344511263072490692e-02,1.028926849365234375e+00,-5.220299243927001953e+00,-3.997274160385131836e+00,-4.079314708709716797e+00,-2.501320600509643555e+00,-6.263404846191406250e+00,-4.700410842895507812e+00,-4.930742740631103516e+00,-2.663150787353515625e+00,7.108044147491455078e+00,6.850595474243164062e+00,-3.425258636474609375e+00,-1.750521302223205566e+00,-1.546761155128479004e+00,-9.697332233190536499e-02
-2.006613492965698242e+00,-2.064256906509399414e+00,7.141455173492431641e+00,5.825098156929016113e-01,-1.703362941741943359e+00,9.573603421449661255e-02,1.023274660110473633e+00,-4.586306571960449219e+00,-3.148217678070068359e+00,-2.886968374252319336e+00,-2.756791353225708008e+00,-5.878744602203369141e+00,-4.874347209930419922e+00,-4.417953014373779297e+00,-3.890864133834838867e+00,5.528707504272460938e+00,9.504456520080566406e+00,-2.207661151885986328e+00,-1.556110024452209473e+00,-1.273387551307678223e+00,-9.602761268615722656e-02
-1.660033702850341797e+00,-2.493345022201538086e+00,8.591778755187988281e+00,-3.317016363143920898e-01,-1.637721657752990723e+00,2.212521433830261230e-01,1.201316237449645996e+00,-3.918500661849975586e+00,-1.979386806488037109e+00,-1.597945332527160645e+00,-2.870742559432983398e+00,-5.056553363800048828e+00,-4.599565029144287109e+00,-3.575702905654907227e+00,-4.379756927490234375e+00,4.452621936798095703e+00,1.217611312866210938e+01,-8.121839761734008789e-01,-9.598575830459594727e-01,-1.054883718490600586e+00,-9.846313297748565674e-02
-9.931302070617675781e-01,-2.939526081085205078e+00,9.867346763610839844e+00,-1.045989990234375000e+00,-1.303547859191894531e+00,3.753668665885925293e-01,1.566442728042602539e+00,-3.248158931732177734e+00,-5.835896134376525879e-01,-3.507285714149475098e-01,-2.889121770858764648e+00,-3.831312417984008789e+00,-3.988011837005615234e+00,-2.521782875061035156e+00,-4.146272182464599609e+00,3.944401025772094727e+00,1.444513130187988281e+01,5.749420523643493652e-01,-3.813980519771575928e-02,-8.734475374221801758e-01,-1.040855422616004944e-01
-2.465742453932762146e-02,-3.291401863098144531e+00,1.090094470977783203e+01,-1.352668166160583496e+00,-5.964123606681823730e-01,5.827067494392395020e-01,2.140697479248046875e+00,-2.609939575195312500e+00,9.849593639373779297e-01,7.867470979690551758e-01,-2.758629322052001953e+00,-2.359337091445922852e+00,-3.146085500717163086e+00,-1.403210639953613281e+00,-3.277007579803466797e+00,3.919549226760864258e+00,1.600786209106445312e+01,1.838470935821533203e+00,1.102290749549865723e+00,-7.222506999969482422e-01,-1.121693775057792664e-01
1.117105245590209961e+00,-3.449362754821777344e+00,1.169556045532226562e+01,-1.107131481170654297e+00,4.657827913761138916e-01,8.718704581260681152e-01,2.934253931045532227e+00,-2.075694799423217773e+00,2.677558898925781250e+00,1.780514121055603027e+00,-2.414938449859619141e+00,-9.348696470260620117e-01,-2.200537443161010742e+00,-3.997724652290344238e-01,-1.950638651847839355e+00,4.155642032623291016e+00,1.673305702209472656e+01,2.934141874313354492e+00,2.316493272781372070e+00,-6.108040213584899902e-01,-1.213025525212287903e-01
2.218358516693115234e+00,-3.379223346710205078e+00,1.228853607177734375e+01,-2.841471135616302490e-01,1.722912669181823730e+00,1.243652343750000000e+00,3.894547939300537109e+00,-1.740101337432861328e+00,4.405076026916503906e+00,2.614024400711059570e+00,-1.847021102905273438e+00,9.497661143541336060e-02,-1.305875182151794434e+00,3.149447143077850342e-01,-4.521707594394683838e-01,4.328362464904785156e+00,1.664963722229003906e+01,3.866965293884277344e+00,3.423075437545776367e+00,-5.525200963020324707e-01,-1.292697936296463013e-01
3.069804430007934570e+00,-3.111632823944091797e+00,1.273886775970458984e+01,1.034763097763061523e+00,2.942249059677124023e+00,1.672631382942199707e+00,4.914754390716552734e+00,-1.654723644256591797e+00,6.048974037170410156e+00,3.289019346237182617e+00,-1.128394365310668945e+00,4.781039357185363770e-01,-6.184563040733337402e-01,6.346632838249206543e-01,9.125640988349914551e-01,4.155642032623291016e+00,1.594446182250976562e+01,4.662829875946044922e+00,4.248455524444580078e+00,-5.554465055465698242e-01,-1.330396682024002075e-01
3.579921722412109375e+00,-2.705531597137451172e+00,1.311899852752685547e+01,2.708876371383666992e+00,3.923884391784667969e+00,2.144508361816406250e+00,5.860352516174316406e+00,-1.766306400299072266e+00,7.492553710937500000e+00,3.842950820922851562e+00,-4.024159014225006104e-01,2.076160460710525513e-01,-2.419024556875228882e-01,5.903809666633605957e-01,1.929812192916870117e+00,3.524404525756835938e+00,1.489671039581298828e+01,5.363491535186767578e+00,4.698899269104003906e+00,-6.198270916938781738e-01,-1.289459317922592163e-01
3.819977045059204102e+00,-2.193926572799682617e+00,1.350809192657470703e+01,4.611057281494140625e+00,4.589248180389404297e+00,2.693442821502685547e+00,6.631865978240966797e+00,-1.898176908493041992e+00,8.675168037414550781e+00,4.364656925201416016e+00,2.096114903688430786e-01,-4.551942348480224609e-01,-1.799144744873046875e-01,3.521418869495391846e-01,2.550246000289916992e+00,2.553939104080200195e+00,1.382337570190429688e+01,6.034923553466796875e+00,4.796104907989501953e+00,-7.388336062431335449e-01,-1.132316738367080688e-01
3.976763010025024414e+00,-1.560314297676086426e+00,1.395319652557373047e+01,6.647167205810546875e+00,4.983095645904541016e+00,3.391725540161132812e+00,7.184077262878417969e+00,-1.822097778320312500e+00,9.596817016601562500e+00,4.956910610198974609e+00,6.617398262023925781e-01,-1.120303273200988770e+00,-3.510753214359283447e-01,1.395865827798843384e-01,2.864847421646118164e+00,1.506432771682739258e+00,1.298361682891845703e+01,6.732244968414306641e+00,4.650296688079833984e+00,-9.046623706817626953e-01,-8.291729539632797241e-02
4.258077621459960938e+00,-7.428071498870849609e-01,1.444236278533935547e+01,8.735684394836425781e+00,5.227758884429931641e+00,4.324357986450195312e+00,7.515856266021728516e+00,-1.364777684211730957e+00,1.030068874359130859e+01,5.705066680908203125e+00,1.005430817604064941e+00,-1.445961594581604004e+00,-6.443617343902587891e-01,1.280731707811355591e-01,3.013926982879638672e+00,6.415877938270568848e-01,1.251757812500000000e+01,7.480507850646972656e+00,4.400339126586914062e+00,-1.102437615394592285e+00,-3.638342395424842834e-02
4.799702644348144531e+00,3.281449079513549805e-01,1.487925243377685547e+01,1.077858829498291016e+01,5.456508636474609375e+00,5.526293754577636719e+00,7.649811744689941406e+00,-5.008568167686462402e-01,1.081342983245849609e+01,6.615221500396728516e+00,1.356473565101623535e+00,-1.293476819992065430e+00,-9.820574522018432617e-01,3.689691722393035889e-01,3.107101678848266602e+00,9.608925133943557739e-02,1.241747474670410156e+01,8.238792419433593750e+00,4.147778034210205078e+00,-1.300700545310974121e+00,2.607197500765323639e-02
5.599386215209960938e+00,1.655488848686218262e+00,1.509508323669433594e+01,1.262059783935546875e+01,5.737970352172851562e+00,6.922858715057373047e+00,7.589899063110351562e+00,6.149705052375793457e-01,1.111758327484130859e+01,7.595052719116210938e+00,1.795736432075500488e+00,-7.655273675918579102e-01,-1.351209759712219238e+00,7.754811644554138184e-01,3.171775817871093750e+00,-1.673405468463897705e-01,1.253648662567138672e+01,8.888511657714843750e+00,3.922122240066528320e+00,-1.449458718299865723e+00,1.018320173025131226e-01
6.547604560852050781e+00,3.139615058898925781e+00,1.491510009765625000e+01,1.406179141998291016e+01,6.090046405792236328e+00,8.311480522155761719e+00,7.323684692382812500e+00,1.703747510910034180e+00,1.114790725708007812e+01,8.477336883544921875e+00,2.293812751770019531e+00,-1.073146238923072815e-01,-1.796227931976318359e+00,1.187307000160217285e+00,3.154237031936645508e+00,-3.089962005615234375e-01,1.265883541107177734e+01,9.266819000244140625e+00,3.686051368713378906e+00,-1.477259397506713867e+00,1.860386282205581665e-01
7.495072364807128906e+00,4.577767372131347656e+00,1.423997497558593750e+01,1.493135929107666016e+01,6.496823310852050781e+00,9.419675827026367188e+00,6.844950675964355469e+00,2.479754686355590820e+00,1.083456516265869141e+01,9.080041885375976562e+00,2.679775953292846680e+00,4.451549947261810303e-01,-2.372623682022094727e+00,1.450344204902648926e+00,2.974464654922485352e+00,-5.003556013107299805e-01,1.258765125274658203e+01,9.231743812561035156e+00,3.381415843963623047e+00,-1.317771077156066895e+00,2.719034850597381592e-01
8.295506477355957031e+00,5.706481456756591797e+00,1.308091163635253906e+01,1.514778137207031250e+01,6.905589580535888672e+00,9.995620727539062500e+00,6.154262542724609375e+00,2.762938022613525391e+00,1.014355754852294922e+01,9.274266242980957031e+00,2.692641496658325195e+00,7.715795040130615234e-01,-3.089648723602294922e+00,1.488427042961120605e+00,2.573265552520751953e+00,-8.321280479431152344e-01,1.220392036437988281e+01,8.725664138793945312e+00,2.976103067398071289e+00,-9.500214457511901855e-01,3.516277074813842773e-01
8.852134704589843750e+00,6.291172981262207031e+00,1.156412029266357422e+01,1.476152229309082031e+01,7.238768577575683594e+00,9.917768478393554688e+00,5.267446041107177734e+00,2.543999195098876953e+00,9.111641883850097656e+00,9.026042938232421875e+00,2.087965726852416992e+00,8.980115056037902832e-01,-3.901968717575073242e+00,1.317497134208679199e+00,1.922139048576354980e+00,-1.290645003318786621e+00,1.149652004241943359e+01,7.805367469787597656e+00,2.494414329528808594e+00,-4.159552156925201416e-01,4.181897938251495361e-01
9.136449813842773438e+00,6.215139389038085938e+00,9.883776664733886719e+00,1.394144916534423828e+01,7.409833908081054688e+00,9.255233764648437500e+00,4.204283714294433594e+00,1.957344532012939453e+00,7.826111793518066406e+00,8.387627601623535156e+00,7.315807938575744629e-01,9.141028523445129395e-01,-4.742969989776611328e+00,1.008406400680541992e+00,9.936808347702026367e-01,-1.808806419372558594e+00,1.054998397827148438e+01,6.611988067626953125e+00,1.987556338310241699e+00,1.883443295955657959e-01,4.672498703002929688e-01
9.166457176208496094e+00,5.521996974945068359e+00,8.226584434509277344e+00,1.289622020721435547e+01,7.332257747650146484e+00,8.222506523132324219e+00,2.979470968246459961e+00,1.175420165061950684e+00,6.382532119750976562e+00,7.445247650146484375e+00,-1.323213815689086914e+00,8.673613071441650391e-01,-5.572868824005126953e+00,6.178359985351562500e-01,-2.208783626556396484e-01,-2.319512367248535156e+00,9.487771987915039062e+00,5.310043811798095703e+00,1.498056530952453613e+00,7.394811511039733887e-01,4.984063208103179932e-01
9.015672683715820312e+00,4.423342704772949219e+00,6.740413188934326172e+00,1.180731868743896484e+01,6.984159946441650391e+00,7.089684009552001953e+00,1.643876671791076660e+00,3.300964236259460449e-01,4.861765384674072266e+00,6.275546073913574219e+00,-3.787864685058593750e+00,7.118116021156311035e-01,-6.389814853668212891e+00,1.670416444540023804e-01,-1.663441419601440430e+00,-2.766845941543579102e+00,8.442244529724121094e+00,4.037328720092773438e+00,1.034593939781188965e+00,1.134056091308593750e+00,5.149237513542175293e-01
8.762113571166992188e+00,3.225668430328369141e+00,5.496211528778076172e+00,1.077373600006103516e+01,6.432176589965820312e+00,6.088732719421386719e+00,3.031955361366271973e-01,-5.236805677413940430e-01,3.333647727966308594e+00,4.940362453460693359e+00,-6.230460166931152344e+00,3.547369539737701416e-01,-7.192883014678955078e+00,-3.430910706520080566e-01,-3.169582605361938477e+00,-3.089920282363891602e+00,7.506831169128417969e+00,2.875683784484863281e+00,5.876215100288391113e-01,1.324271440505981445e+00,5.216473340988159180e-01
8.461295127868652344e+00,2.215425252914428711e+00,4.503688335418701172e+00,9.816822052001953125e+00,5.784715175628662109e+00,5.353907585144042969e+00,-8.854437470436096191e-01,-1.376612186431884766e+00,1.886392593383789062e+00,3.522437095642089844e+00,-8.189682960510253906e+00,-2.406429350376129150e-01,-7.932112693786621094e+00,-8.735936284065246582e-01,-4.449912071228027344e+00,-3.178144454956054688e+00,6.708225727081298828e+00,1.872710704803466797e+00,1.771012693643569946e-01,1.315979957580566406e+00,5.218935012817382812e-01
