Fp1,Fp2,F7,F3,Fz,F4,F8,T3,C3,Cz,C4,T4,T5,P3,Pz,P4,T6,O1,Oz,O2,A1
1.688596725463867188e+01,1.106470394134521484e+01,6.090383529663085938e+00,1.625404167175292969e+01,1.410828495025634766e+01,1.464214897155761719e+01,3.809941411018371582e-01,8.993607163429260254e-01,4.861218929290771484e+00,3.716823577880859375e+00,8.315933495759963989e-02,-1.788240051269531250e+01,-7.062184810638427734e-01,-3.244035482406616211e+00,-1.738841295242309570e+00,-2.303538799285888672e+00,1.323567867279052734e+01,6.586596012115478516e+00,-2.134250402450561523e+00,1.869247674942016602e+00,-5.612489953637123108e-02
1.518511962890625000e+01,1.179340267181396484e+01,6.073722362518310547e+00,1.589724826812744141e+01,1.396054744720458984e+01,1.388995838165283203e+01,1.103863716125488281e+00,1.331019401550292969e+00,5.649078845977783203e+00,4.545636177062988281e+00,-5.799281597137451172e-01,-1.697835922241210938e+01,5.772328376770019531e-01,-1.351473212242126465e+00,-1.464694976806640625e+00,-1.750335097312927246e-01,1.315319824218750000e+01,7.496076583862304688e+00,-2.051966935396194458e-01,1.563639760017395020e+00,-5.692692846059799194e-02
1.348539924621582031e+01,1.233195114135742188e+01,5.877357959747314453e+00,1.544479370117187500e+01,1.364486885070800781e+01,1.317493915557861328e+01,1.633552551269531250e+00,1.796584725379943848e+00,6.335822582244873047e+00,5.344729900360107422e+00,-1.328102111816406250e+00,-1.561315822601318359e+01,1.644718766212463379e+00,3.266609013080596924e-01,-1.373312950134277344e+00,2.115072011947631836e+00,1.304243850708007812e+01,8.286307334899902344e+00,1.617846012115478516e+00,1.496928930282592773e+00,-5.743553489446640015e-02
1.177440643310546875e+01,1.259611988067626953e+01,5.470348834991455078e+00,1.488374996185302734e+01,1.313220787048339844e+01,1.249709320068359375e+01,1.950327277183532715e+00,2.229547500610351562e+00,6.859658241271972656e+00,6.016695499420166016e+00,-2.168697595596313477e+00,-1.416059970855712891e+01,2.397512435913085938e+00,1.564750909805297852e+00,-1.663275361061096191e+00,4.095828533172607422e+00,1.282799053192138672e+01,8.847578048706054688e+00,3.098525285720825195e+00,1.714190006256103516e+00,-5.765071138739585876e-02
1.001156616210937500e+01,1.252210140228271484e+01,4.862215042114257812e+00,1.419472694396972656e+01,1.241246128082275391e+01,1.182799339294433594e+01,2.067689657211303711e+00,2.572526931762695312e+00,7.181262016296386719e+00,6.480632305145263672e+00,-3.050369024276733398e+00,-1.295182704925537109e+01,2.797048330307006836e+00,2.209900140762329102e+00,-2.425964593887329102e+00,5.384012699127197266e+00,1.243562030792236328e+01,9.119467735290527344e+00,4.050887107849121094e+00,2.230748414993286133e+00,-5.757246538996696472e-02
8.163063049316406250e+00,1.209202861785888672e+01,4.116031646728515625e+00,1.337125968933105469e+01,1.150962162017822266e+01,1.116545295715332031e+01,2.040685892105102539e+00,2.798137187957763672e+00,7.320296287536621094e+00,6.724983692169189453e+00,-3.873360395431518555e+00,-1.219812107086181641e+01,2.872636079788208008e+00,2.219223260879516602e+00,-3.617446660995483398e+00,5.754923820495605469e+00,1.182526683807373047e+01,9.103568077087402344e+00,4.388036727905273438e+00,3.023165225982666016e+00,-5.729860067367553711e-02
6.226643562316894531e+00,1.134673976898193359e+01,3.323434591293334961e+00,1.243920326232910156e+01,1.047293376922607422e+01,1.054883193969726562e+01,1.945134282112121582e+00,2.923331260681152344e+00,7.345574855804443359e+00,6.791024208068847656e+00,-4.518843650817871094e+00,-1.197465038299560547e+01,2.713747262954711914e+00,1.661709785461425781e+00,-5.061986923217773438e+00,5.171624183654785156e+00,1.100989151000976562e+01,8.876197814941406250e+00,4.137781143188476562e+00,4.032843112945556641e+00,-5.680955946445465088e-02
4.256410121917724609e+00,1.039215755462646484e+01,2.599862813949584961e+00,1.145931625366210938e+01,9.373111724853515625e+00,1.006996631622314453e+01,1.865161538124084473e+00,3.005489826202392578e+00,7.354001522064208984e+00,6.779467105865478516e+00,-4.885595798492431641e+00,-1.222249984741210938e+01,2.437620162963867188e+00,7.014441490173339844e-01,-6.510041713714599609e+00,3.731073856353759766e+00,1.005194282531738281e+01,8.553427696228027344e+00,3.426985740661621094e+00,5.179548740386962891e+00,-5.618358403444290161e-02
2.352677583694458008e+00,9.377593994140625000e+00,2.042902708053588867e+00,1.052338218688964844e+01,8.287178039550781250e+00,9.842558860778808594e+00,1.863084435462951660e+00,3.128075599670410156e+00,7.439668655395507812e+00,6.802581310272216797e+00,-4.934007167816162109e+00,-1.278320789337158203e+01,2.166120767593383789e+00,-4.359578192234039307e-01,-7.696251869201660156e+00,1.647200942039489746e+00,9.049219131469726562e+00,8.264047622680664062e+00,2.455507278442382812e+00,6.373132228851318359e+00,-5.547936260700225830e-02
6.416854262351989746e-01,8.470230102539062500e+00,1.712059020996093750e+00,9.732233047485351562e+00,7.288372039794921875e+00,9.960636138916015625e+00,1.972137928009033203e+00,3.383680105209350586e+00,7.654539585113525391e+00,6.969334602355957031e+00,-4.697818756103515625e+00,-1.341095733642578125e+01,2.004146814346313477e+00,-1.491317749023437500e+00,-8.399190902709960938e+00,-7.875751852989196777e-01,8.113657951354980469e+00,8.108226776123046875e+00,1.463174223899841309e+00,7.529754638671875000e+00,-5.477514117956161499e-02
-7.661072611808776855e-01,7.820654869079589844e+00,1.620422363281250000e+00,9.180238723754882812e+00,6.442354679107666016e+00,1.047230052947998047e+01,2.191283702850341797e+00,3.863590717315673828e+00,8.002826690673828125e+00,7.362277507781982422e+00,-4.288523674011230469e+00,-1.381117248535156250e+01,2.008774757385253906e+00,-2.197998523712158203e+00,-8.488816261291503906e+00,-3.233124494552612305e+00,7.337165832519531250e+00,8.151157379150390625e+00,7.002421021461486816e-01,8.590817451477050781e+00,-5.420785397291183472e-02
-1.815470814704895020e+00,7.534790515899658203e+00,1.741811156272888184e+00,8.933327674865722656e+00,5.810997962951660156e+00,1.135131454467773438e+01,2.495595216751098633e+00,4.643445491790771484e+00,8.445207595825195312e+00,8.034242630004882812e+00,-3.863091468811035156e+00,-1.366286945343017578e+01,2.218569517135620117e+00,-2.304280519485473633e+00,-7.942280769348144531e+00,-5.316997528076171875e+00,6.797509670257568359e+00,8.419867515563964844e+00,3.961119651794433594e-01,9.524769783020019531e+00,-5.387530475854873657e-02
-2.516549348831176758e+00,7.659856319427490234e+00,2.034572124481201172e+00,9.022525787353515625e+00,5.453650474548339844e+00,1.253207874298095703e+01,2.855991363525390625e+00,5.785840988159179688e+00,8.928316116333007812e+00,9.011647224426269531e+00,-3.574090957641601562e+00,-1.266131496429443359e+01,2.642787218093872070e+00,-1.603193283081054688e+00,-6.850967407226562500e+00,-6.685212135314941406e+00,6.546534061431884766e+00,8.914358139038085938e+00,7.280482649803161621e-01,1.032259559631347656e+01,-5.383618175983428955e-02
-2.942606687545776367e+00,8.188195228576660156e+00,2.466573238372802734e+00,9.446539878845214844e+00,5.424608230590820312e+00,1.392275714874267578e+01,3.250661611557006836e+00,7.310339450836181641e+00,9.405806541442871094e+00,1.029449081420898438e+01,-3.531547546386718750e+00,-1.058913326263427734e+01,3.252118110656738281e+00,3.205513581633567810e-02,-5.411699295043945312e+00,-7.069974422454833984e+00,6.619587898254394531e+00,9.623497962951660156e+00,1.789896845817565918e+00,1.098880290985107422e+01,-5.401223525404930115e-02
-3.200720787048339844e+00,9.063653945922851562e+00,3.033053874969482422e+00,1.017693042755126953e+01,5.768065929412841797e+00,1.544900512695312500e+01,3.681682825088500977e+00,9.202594757080078125e+00,9.867849349975585938e+00,1.186626243591308594e+01,-3.773603916168212891e+00,-7.373188495635986328e+00,4.007997035980224609e+00,2.614516973495483398e+00,-3.900379657745361328e+00,-6.362011909484863281e+00,7.036702156066894531e+00,1.052661895751953125e+01,3.567754507064819336e+00,1.152609539031982422e+01,-5.428609997034072876e-02
-3.393460988998413086e+00,1.019690227508544922e+01,3.755435705184936523e+00,1.117233085632324219e+01,6.502964973449707031e+00,1.706052970886230469e+01,4.171904563903808594e+00,1.140522766113281250e+01,1.032006072998046875e+01,1.366752624511718750e+01,-4.259183406829833984e+00,-3.145531892776489258e+00,4.845633983612060547e+00,6.028587818145751953e+00,-2.629817008972167969e+00,-4.661362171173095703e+00,7.801411628723144531e+00,1.159827995300292969e+01,5.929542064666748047e+00,1.192275524139404297e+01,-5.440346896648406982e-02
-3.595218420028686523e+00,1.147691059112548828e+01,4.676561832427978516e+00,1.238490867614746094e+01,7.617940425872802734e+00,1.871141433715820312e+01,4.756639480590820312e+00,1.379825973510742188e+01,1.080176544189453125e+01,1.561738204956054688e+01,-4.897331714630126953e+00,1.746442079544067383e+00,5.689441680908203125e+00,1.004119300842285156e+01,-1.893488049507141113e+00,-2.265062570571899414e+00,8.898398399353027344e+00,1.280827045440673828e+01,8.645858764648437500e+00,1.214812946319580078e+01,-5.414916947484016418e-02
-3.837552547454833984e+00,1.277606105804443359e+01,5.840465545654296875e+00,1.375778484344482422e+01,9.059958457946777344e+00,2.034917831420898438e+01,5.471200466156005859e+00,1.623041534423828125e+01,1.134807014465332031e+01,1.760686111450195312e+01,-5.561886310577392578e+00,6.805003166198730469e+00,6.448405742645263672e+00,1.433162212371826172e+01,-1.900517344474792480e+00,4.021100103855133057e-01,1.028877830505371094e+01,1.411048126220703125e+01,1.142473888397216797e+01,1.215443992614746094e+01,-5.342538654804229736e-02
-4.122717857360839844e+00,1.395525169372558594e+01,7.261427402496337891e+00,1.522502994537353516e+01,1.074441719055175781e+01,2.187761306762695312e+01,6.337397575378417969e+00,1.852303123474121094e+01,1.198706531524658203e+01,1.952699851989746094e+01,-6.139887332916259766e+00,1.147147464752197266e+01,7.053108692169189453e+00,1.855306243896484375e+01,-2.715926885604858398e+00,2.906143426895141602e+00,1.190539073944091797e+01,1.545562171936035156e+01,1.397421741485595703e+01,1.188759613037109375e+01,-5.219299718737602234e-02
-4.439443111419677734e+00,1.487792968750000000e+01,8.923976898193359375e+00,1.670778846740722656e+01,1.257030010223388672e+01,2.316770744323730469e+01,7.351076602935791016e+00,2.050918197631835938e+01,1.273560237884521484e+01,2.127543067932128906e+01,-6.540380477905273438e+00,1.525828552246093750e+01,7.458815097808837891e+00,2.239598846435546875e+01,-4.227246284484863281e+00,4.922297954559326172e+00,1.365986251831054688e+01,1.679599380493164062e+01,1.605968093872070312e+01,1.129531192779541016e+01,-5.058893933892250061e-02
-4.778710842132568359e+00,1.542668724060058594e+01,1.077694034576416016e+01,1.811815261840820312e+01,1.444164085388183594e+01,2.407514572143554688e+01,8.482117652893066406e+00,2.207019615173339844e+01,1.360772514343261719e+01,2.279436874389648438e+01,-6.713487148284912109e+00,1.785257530212402344e+01,7.670152664184570312e+00,2.563105773925781250e+01,-6.163844108581542969e+00,6.312059402465820312e+00,1.545557403564453125e+01,1.810138320922851562e+01,1.755078697204589844e+01,1.034873867034912109e+01,-4.884794726967811584e-02
-5.146157264709472656e+00,1.551857185363769531e+01,1.273701095581054688e+01,1.937209892272949219e+01,1.628646469116210938e+01,2.447529411315917969e+01,9.678591728210449219e+00,2.313564872741699219e+01,1.461607265472412109e+01,2.407556152343750000e+01,-6.644537925720214844e+00,1.917308235168457031e+01,7.738027095794677734e+00,2.814826011657714844e+01,-8.146133422851562500e+00,7.130833625793457031e+00,1.719826316833496094e+01,1.936861419677734375e+01,1.842842102050781250e+01,9.058694839477539062e+00,-4.718520119786262512e-02
-5.555307865142822266e+00,1.512550830841064453e+01,1.470541191101074219e+01,2.040369415283203125e+01,1.806310081481933594e+01,2.430473899841308594e+01,1.087506580352783203e+01,2.371988868713378906e+01,1.577749919891357422e+01,2.515037536621093750e+01,-6.349669456481933594e+00,1.937014389038085938e+01,7.750368118286132812e+00,2.993826866149902344e+01,-9.778709411621093750e+00,7.564845561981201172e+00,1.881251716613769531e+01,2.061835479736328125e+01,1.879163932800292969e+01,7.490088462829589844e+00,-4.579632356762886047e-02
-6.020814895629882812e+00,1.427557277679443359e+01,1.658098602294921875e+01,2.117674636840820312e+01,1.975639915466308594e+01,2.358534812927246094e+01,1.200506877899169922e+01,2.389985466003417969e+01,1.710183334350585938e+01,2.608485412597656250e+01,-5.872891902923583984e+00,1.875052070617675781e+01,7.818243026733398438e+00,3.107753562927246094e+01,-1.074700832366943359e+01,7.844952583312988281e+00,2.024178123474121094e+01,2.188399696350097656e+01,1.880206680297851562e+01,5.766424179077148438e+00,-4.470086842775344849e-02
-6.547187328338623047e+00,1.304023075103759766e+01,1.826852798461914062e+01,2.169642257690429688e+01,2.135878181457519531e+01,2.241551589965820312e+01,1.300628376007080078e+01,2.379552650451660156e+01,1.858626747131347656e+01,2.693347930908203125e+01,-5.269951820373535156e+00,1.769614601135253906e+01,8.038836479187011719e+00,3.168539237976074219e+01,-1.088056755065917969e+01,8.138911247253417969e+00,2.144717025756835938e+01,2.318779754638671875e+01,1.865434646606445312e+01,4.064395427703857422e+00,-4.389883577823638916e-02
-7.120899200439453125e+00,1.152157688140869141e+01,1.968829917907714844e+01,2.198599243164062500e+01,2.285004615783691406e+01,2.094393348693847656e+01,1.383093738555908203e+01,2.354253005981445312e+01,2.018445777893066406e+01,2.772761917114257812e+01,-4.605397224426269531e+00,1.656457138061523438e+01,8.483107566833496094e+00,3.189049911499023438e+01,-1.018465709686279297e+01,8.514439582824707031e+00,2.239569282531738281e+01,2.451862907409667969e+01,1.852747917175292969e+01,2.581431150436401367e+00,-4.323374107480049133e-02
-7.716027259826660156e+00,9.822980880737304688e+00,2.077603721618652344e+01,2.208553314208984375e+01,2.418347167968750000e+01,1.933896827697753906e+01,1.444786834716796875e+01,2.325171470642089844e+01,2.181073379516601562e+01,2.846067237854003906e+01,-3.934974670410156250e+00,1.561583805084228516e+01,9.177282333374023438e+00,3.179540443420410156e+01,-8.808653831481933594e+00,8.939216613769531250e+00,2.305200004577636719e+01,2.581288909912109375e+01,1.855007171630859375e+01,1.496928930282592773e+00,-4.264688864350318909e-02
-8.287485122680664062e+00,8.033777236938476562e+00,2.149485015869140625e+01,2.202736091613769531e+01,2.528076744079589844e+01,1.774275016784667969e+01,1.485188674926757812e+01,2.299480628967285156e+01,2.333870506286621094e+01,2.908641052246093750e+01,-3.292425394058227539e+00,1.499418354034423828e+01,1.010901832580566406e+01,3.146723556518554688e+01,-6.966952323913574219e+00,9.323979377746582031e+00,2.338309860229492188e+01,2.696087074279785156e+01,1.879685211181640625e+01,9.208716154098510742e-01,-4.206003621220588684e-02
-8.772153854370117188e+00,6.227982521057128906e+00,2.184354400634765625e+01,2.182698822021484375e+01,2.605228614807128906e+01,1.626460647583007812e+01,1.506376171112060547e+01,2.278484535217285156e+01,2.461528968811035156e+01,2.952888298034667969e+01,-2.667480230331420898e+00,1.472601890563964844e+01,1.123203849792480469e+01,3.093396186828613281e+01,-4.872193336486816406e+00,9.593313217163085938e+00,2.335717773437500000e+01,2.781788063049316406e+01,1.927303314208984375e+01,8.631757497787475586e-01,-4.153187200427055359e-02
-9.084369659423828125e+00,4.461749553680419922e+00,2.185663604736328125e+01,2.148958587646484375e+01,2.641720962524414062e+01,1.495701980590820312e+01,1.512815570831298828e+01,2.258662223815917969e+01,2.550005149841308594e+01,2.970719337463378906e+01,-2.013194561004638672e+00,1.476258659362792969e+01,1.249080753326416016e+01,3.019371795654296875e+01,-2.675508022308349609e+00,9.716436386108398438e+00,2.297069740295410156e+01,2.825195121765136719e+01,1.992647933959960938e+01,1.218366026878356934e+00,-4.114063829183578491e-02
-9.115929603576660156e+00,2.793782234191894531e+00,2.160433769226074219e+01,2.101644706726074219e+01,2.633008193969726562e+01,1.382654666900634766e+01,1.510322856903076172e+01,2.232449722290039062e+01,2.588485336303710938e+01,2.955034637451171875e+01,-1.253284692764282227e+00,1.500637340545654297e+01,1.379585552215576172e+01,2.921853637695312500e+01,-4.753079414367675781e-01,9.719514846801757812e+00,2.225665473937988281e+01,2.816291046142578125e+01,2.065812873840332031e+01,1.789915800094604492e+00,-4.100370407104492188e-02
-8.748483657836914062e+00,1.298099398612976074e+00,2.117947769165039062e+01,2.041791534423828125e+01,2.579595565795898438e+01,1.285350894927978516e+01,1.504195117950439453e+01,2.190848731994628906e+01,2.571070861816406250e+01,2.900220680236816406e+01,-3.217347860336303711e-01,1.535986232757568359e+01,1.504382705688476562e+01,2.796366500854492188e+01,1.656355500221252441e+00,9.634866714477539062e+00,2.128456687927246094e+01,2.750147056579589844e+01,2.132895278930664062e+01,2.339829683303833008e+00,-4.121888428926467896e-02
-7.880589008331298828e+00,5.254787206649780273e-02,2.067250061035156250e+01,1.971984291076660156e+01,2.487038612365722656e+01,1.199417495727539062e+01,1.496821022033691406e+01,2.125382614135742188e+01,2.496638488769531250e+01,2.801819992065429688e+01,7.961250543594360352e-01,1.573569965362548828e+01,1.609434509277343750e+01,2.637503051757812500e+01,3.603497505187988281e+00,9.468649864196777344e+00,2.015930175781250000e+01,2.627557945251464844e+01,2.176863861083984375e+01,2.654452562332153320e+00,-4.176661372184753418e-02
-6.459270477294921875e+00,-8.624731302261352539e-01,2.014410209655761719e+01,1.895584106445312500e+01,2.364555549621582031e+01,1.120262527465820312e+01,1.486123371124267578e+01,2.029009246826171875e+01,2.367856597900390625e+01,2.657190513610839844e+01,2.037213563919067383e+00,1.606277847290039062e+01,1.678543281555175781e+01,2.440229034423828125e+01,5.188625812530517578e+00,9.165456771850585938e+00,1.898808288574218750e+01,2.453134727478027344e+01,2.179123115539550781e+01,2.602165699005126953e+00,-4.268601164221763611e-02
-4.502562522888183594e+00,-1.392087817192077637e+00,1.960380363464355469e+01,1.814788627624511719e+01,2.222626495361328125e+01,1.043731498718261719e+01,1.465559005737304688e+01,1.897816467285156250e+01,2.189359283447265625e+01,2.463360595703125000e+01,3.256297111511230469e+00,1.628624916076660156e+01,1.693506622314453125e+01,2.199510192871093750e+01,6.185041904449462891e+00,8.612937927246093750e+00,1.785692596435546875e+01,2.233555603027343750e+01,2.122641754150390625e+01,2.166742086410522461e+00,-4.387927427887916565e-02
-2.123178958892822266e+00,-1.533743739128112793e+00,1.900518989562988281e+01,1.729856491088867188e+01,2.071353530883789062e+01,9.682937622070312500e+00,1.424637889862060547e+01,1.729978179931640625e+01,1.965781211853027344e+01,2.219174575805664062e+01,4.253862380981445312e+00,1.632891273498535156e+01,1.639978027343750000e+01,1.912735557556152344e+01,6.383622646331787109e+00,7.687969684600830078e+00,1.680589294433593750e+01,1.975975418090820312e+01,1.994907188415527344e+01,1.446444988250732422e+00,-4.524859413504600525e-02
5.086833834648132324e-01,-1.344869136810302734e+00,1.825305747985839844e+01,1.638202095031738281e+01,1.917555236816406250e+01,8.941679954528808594e+00,1.352662563323974609e+01,1.526276969909667969e+01,1.702459144592285156e+01,1.924962806701660156e+01,4.842132568359375000e+00,1.609731483459472656e+01,1.511324405670166016e+01,1.580838012695312500e+01,5.687712669372558594e+00,6.307442188262939453e+00,1.581966495513916016e+01,1.687549209594726562e+01,1.791748237609863281e+01,6.161652803421020508e-01,-4.667659848928451538e-02
3.184504032135009766e+00,-9.492533802986145020e-01,1.723791313171386719e+01,1.534913158416748047e+01,1.765271949768066406e+01,8.239780426025390625e+00,1.241324043273925781e+01,1.288669109344482422e+01,1.403746700286865234e+01,1.584687328338623047e+01,4.894944667816162109e+00,1.544925117492675781e+01,1.311402225494384766e+01,1.206614112854003906e+01,4.176393032073974609e+00,4.472895622253417969e+00,1.483579444885253906e+01,1.375432109832763672e+01,1.517335891723632812e+01,-1.329796761274337769e-01,-4.802635684609413147e-02
5.717178344726562500e+00,-5.127997994422912598e-01,1.585979461669921875e+01,1.414560317993164062e+01,1.613746452331542969e+01,7.614412784576416016e+00,1.087298870086669922e+01,1.020675563812255859e+01,1.075261116027832031e+01,1.205447864532470703e+01,4.397628784179687500e+00,1.420797348022460938e+01,1.055174732208251953e+01,7.967764854431152344e+00,2.100964546203613281e+00,2.262820720672607422e+00,1.376001644134521484e+01,1.047096920013427734e+01,1.185747241973876953e+01,-6.549471020698547363e-01,-4.920005798339843750e-02
7.986103057861328125e+00,-2.128975540399551392e-01,1.406514644622802734e+01,1.272618865966796875e+01,1.459947967529296875e+01,7.087441921234130859e+00,8.941182136535644531e+00,7.262087345123291016e+00,7.240246295928955078e+00,7.979759216308593750e+00,3.447007894515991211e+00,1.219064426422119141e+01,7.647013187408447266e+00,3.582241058349609375e+00,-1.853454560041427612e-01,-2.073535472154617310e-01,1.249100017547607422e+01,7.089036464691162109e+00,8.159250259399414062e+00,-8.974500894546508789e-01,-5.002164840698242188e-02
9.946191787719726562e+00,-2.001357525587081909e-01,1.186229801177978516e+01,1.106632709503173828e+01,1.299078369140625000e+01,6.661054611206054688e+00,6.707140922546386719e+00,4.095721244812011719e+00,3.570589780807495117e+00,3.751494884490966797e+00,2.230858564376831055e+00,9.224579811096191406e+00,4.637381553649902344e+00,-1.025169372558593750e+00,-2.334582328796386719e+00,-2.840667009353637695e+00,1.094508552551269531e+01,3.662584066390991211e+00,4.282025814056396484e+00,-9.145785570144653320e-01,-5.047156661748886108e-02
1.163238716125488281e+01,-5.625708699226379395e-01,9.311944961547851562e+00,9.169896125793457031e+00,1.127223110198974609e+01,6.300265312194824219e+00,4.298614501953125000e+00,7.637338638305664062e-01,-1.749032586812973022e-01,-5.048367381095886230e-01,9.633639454841613770e-01,5.206172943115234375e+00,1.712593674659729004e+00,-5.809716224670410156e+00,-4.109504222869873047e+00,-5.606338500976562500e+00,9.072784423828125000e+00,2.122818529605865479e-01,3.926362097263336182e-01,-8.514736890792846680e-01,-5.053025484085083008e-02
1.311907958984375000e+01,-1.305307507514953613e+00,6.533095359802246094e+00,7.066629409790039062e+00,9.432458877563476562e+00,5.948222637176513672e+00,1.855814099311828613e+00,-2.679102420806884766e+00,-3.914778947830200195e+00,-4.675315380096435547e+00,-1.618309468030929565e-01,1.252646744251251221e-01,-1.019368290901184082e+00,-1.073783683776855469e+01,-5.438059329986572266e+00,-8.530532836914062500e+00,6.870563507080078125e+00,-3.261870384216308594e+00,-3.395956039428710938e+00,-8.920410871505737305e-01,-5.031507462263107300e-02
1.448742294311523438e+01,-2.342841863632202148e+00,3.666179418563842773e+00,4.810820579528808594e+00,7.508084297180175781e+00,5.539328098297119141e+00,-4.883187711238861084e-01,-6.161061763763427734e+00,-7.563369274139404297e+00,-8.660880088806152344e+00,-1.014162421226501465e+00,-5.896251201629638672e+00,-3.532279491424560547e+00,-1.576291561126708984e+01,-6.390542030334472656e+00,-1.165634155273437500e+01,4.389087677001953125e+00,-6.763052940368652344e+00,-7.033351898193359375e+00,-1.202156424522399902e+00,-4.994340240955352783e-02
1.580166339874267578e+01,-3.513098716735839844e+00,8.742388486862182617e-01,2.489082813262939453e+00,5.591286182403564453e+00,5.036409854888916016e+00,-2.623692035675048828e+00,-9.590857505798339844e+00,-1.102236843109130859e+01,-1.237072372436523438e+01,-1.532016158103942871e+00,-1.259630489349365234e+01,-5.849279403686523438e+00,-2.080104637145996094e+01,-7.096996307373046875e+00,-1.496529769897460938e+01,1.740295171737670898e+00,-1.026582527160644531e+01,-1.047436714172363281e+01,-1.876477122306823730e+00,-4.963041469454765320e-02
1.708772468566894531e+01,-4.608061313629150391e+00,-1.676114320755004883e+00,2.216395586729049683e-01,3.824750661849975586e+00,4.439467906951904297e+00,-4.462023735046386719e+00,-1.285111904144287109e+01,-1.416959381103515625e+01,-1.569753074645996094e+01,-1.712458133697509766e+00,-1.959093475341796875e+01,-7.998134613037109375e+00,-2.570679283142089844e+01,-7.661105155944824219e+00,-1.832350349426269531e+01,-9.049625992774963379e-01,-1.368273735046386719e+01,-1.367729187011718750e+01,-2.902381896972656250e+00,-4.947392269968986511e-02
1.834335517883300781e+01,-5.408226013183593750e+00,-3.825408697128295898e+00,-1.840260148048400879e+00,2.380207300186157227e+00,3.794420480728149414e+00,-5.940998554229736328e+00,-1.580361175537109375e+01,-1.685618019104003906e+01,-1.852242660522460938e+01,-1.595097422599792480e+00,-2.641084861755371094e+01,-9.969590187072753906e+00,-3.027504730224609375e+01,-8.098685264587402344e+00,-2.147085952758789062e+01,-3.335771799087524414e+00,-1.683889007568359375e+01,-1.656218338012695312e+01,-4.166282176971435547e+00,-4.955216869711875916e-02
1.954262733459472656e+01,-5.729823112487792969e+00,-5.439164638519287109e+00,-3.522098064422607422e+00,1.415494561195373535e+00,3.184358596801757812e+00,-7.020109653472900391e+00,-1.829836463928222656e+01,-1.891641235351562500e+01,-2.071333122253417969e+01,-1.234213590621948242e+00,-3.257660675048828125e+01,-1.170965385437011719e+01,-3.426341247558593750e+01,-8.334169387817382812e+00,-2.408262634277343750e+01,-5.322366237640380859e+00,-1.951009178161621094e+01,-1.902476692199707031e+01,-5.474356174468994141e+00,-4.984559491276741028e-02
2.064496612548828125e+01,-5.468206405639648438e+00,-6.424555301666259766e+00,-4.667454242706298828e+00,1.041731476783752441e+00,2.692373275756835938e+00,-7.682739734649658203e+00,-2.020887756347656250e+01,-2.021406364440917969e+01,-2.215137100219726562e+01,-6.972887516021728516e-01,-3.767173385620117188e+01,-1.314428043365478516e+01,-3.744254302978515625e+01,-8.260360717773437500e+00,-2.585868835449218750e+01,-6.671506881713867188e+00,-2.144671249389648438e+01,-2.095729637145996094e+01,-6.602130413055419922e+00,-5.021726712584495544e-02
2.159063339233398438e+01,-4.623375415802001953e+00,-6.756588935852050781e+00,-5.174203395843505859e+00,1.284172415733337402e+00,2.381875991821289062e+00,-7.944468498229980469e+00,-2.144125556945800781e+01,-2.065082740783691406e+01,-2.277710723876953125e+01,-6.354143470525741577e-02,-4.142604064941406250e+01,-1.420868206024169922e+01,-3.965768051147460938e+01,-7.826295852661132812e+00,-2.663744735717773438e+01,-7.266542434692382812e+00,-2.246749305725097656e+01,-2.229720687866210938e+01,-7.345866203308105469e+00,-5.056937783956527710e-02
2.229734802246093750e+01,-3.311462402343750000e+00,-6.494770050048828125e+00,-5.034588813781738281e+00,2.068317174911499023e+00,2.263799428939819336e+00,-7.855148315429687500e+00,-2.198637199401855469e+01,-2.023513031005859375e+01,-2.262191200256347656e+01,5.804749727249145508e-01,-4.376638793945312500e+01,-1.489205741882324219e+01,-4.087153244018554688e+01,-7.089966773986816406e+00,-2.645430183410644531e+01,-7.112186431884765625e+00,-2.252155303955078125e+01,-2.304623603820800781e+01,-7.571240901947021484e+00,-5.078455433249473572e-02
2.267042922973632812e+01,-1.740484952926635742e+00,-5.785479545593261719e+00,-4.357199668884277344e+00,3.231275796890258789e+00,2.294411897659301758e+00,-7.492675304412841797e+00,-2.191855812072753906e+01,-1.908915138244628906e+01,-2.182612037658691406e+01,1.139404892921447754e+00,-4.482888793945312500e+01,-1.523760223388671875e+01,-4.116613769531250000e+01,-6.227108955383300781e+00,-2.553702735900878906e+01,-6.345120906829833984e+00,-2.171542358398437500e+01,-2.328432655334472656e+01,-7.243997097015380859e+00,-5.080411583185195923e-02
2.261069107055664062e+01,-1.758883297443389893e-01,-4.842931747436523438e+00,-3.355336189270019531e+00,4.549548149108886719e+00,2.377502918243408203e+00,-6.950522899627685547e+00,-2.139300537109375000e+01,-1.743619155883789062e+01,-2.061922264099121094e+01,1.538430929183959961e+00,-4.491827392578125000e+01,-1.533478641510009766e+01,-4.072982025146484375e+01,-5.487265110015869141e+00,-2.423653030395507812e+01,-5.218677043914794922e+00,-2.030668258666992188e+01,-2.314355850219726562e+01,-6.446171283721923828e+00,-5.058893933892250061e-02
2.204712295532226562e+01,1.116881966590881348e+00,-3.908714532852172852e+00,-2.303056478500366211e+00,5.788269519805908203e+00,2.392808914184570312e+00,-6.321127891540527344e+00,-2.061575889587402344e+01,-1.557397747039794922e+01,-1.927859497070312500e+01,1.736477017402648926e+00,-4.443273544311523438e+01,-1.527925300598144531e+01,-3.979379653930664062e+01,-5.093619346618652344e+00,-2.291910552978515625e+01,-4.040388584136962891e+00,-1.865785026550292969e+01,-2.276296043395996094e+01,-5.359865665435791016e+00,-5.013902112841606140e-02
2.096958160400390625e+01,1.940017938613891602e+00,-3.200613737106323242e+00,-1.480882048606872559e+00,6.749193668365478516e+00,2.213507652282714844e+00,-5.677192687988281250e+00,-1.979547691345214844e+01,-1.381007099151611328e+01,-1.806839561462402344e+01,1.745279073715209961e+00,-4.375419616699218750e+01,-1.513733291625976562e+01,-3.857807922363281250e+01,-5.163913249969482422e+00,-2.185562133789062500e+01,-3.118966817855834961e+00,-1.711554908752441406e+01,-2.225549888610839844e+01,-4.241106510162353516e+00,-4.947392269968986511e-02
1.944231224060058594e+01,2.199082374572753906e+00,-2.868579864501953125e+00,-1.093063950538635254e+00,7.309838294982910156e+00,1.747761607170104980e+00,-5.059222221374511719e+00,-1.909908485412597656e+01,-1.240568637847900391e+01,-1.717354393005371094e+01,1.633786439895629883e+00,-4.315082550048828125e+01,-1.492290973663330078e+01,-3.723557281494140625e+01,-5.666514873504638672e+00,-2.118151855468750000e+01,-2.671217203140258789e+00,-1.597074890136718750e+01,-2.167678260803222656e+01,-3.357638597488403320e+00,-4.865232855081558228e-02
1.760169982910156250e+01,1.919599056243896484e+00,-2.966166973114013672e+00,-1.245605707168579102e+00,7.434846878051757812e+00,9.605852365493774414e-01,-4.479680061340332031e+00,-1.860743713378906250e+01,-1.153215980529785156e+01,-1.667823600769042969e+01,1.491486787796020508e+00,-4.271607589721679688e+01,-1.461130237579345703e+01,-3.583153533935546875e+01,-6.432718753814697266e+00,-2.086755180358886719e+01,-2.798472166061401367e+00,-1.537290859222412109e+01,-2.103550148010253906e+01,-2.924017906188964844e+00,-4.771336913108825684e-02
1.562357521057128906e+01,1.239395141601562500e+00,-3.455291986465454102e+00,-1.920409202575683594e+00,7.169677257537841797e+00,-1.217823699116706848e-01,-3.944798231124877930e+00,-1.831010055541992188e+01,-1.125409126281738281e+01,-1.655275917053222656e+01,1.407867312431335449e+00,-4.236461639404296875e+01,-1.416394615173339844e+01,-3.436223602294921875e+01,-7.230554580688476562e+00,-2.080291175842285156e+01,-3.468918561935424805e+00,-1.533951854705810547e+01,-2.030906486511230469e+01,-3.044818639755249023e+00,-4.673528298735618591e-02
1.367588520050048828e+01,3.486216068267822266e-01,-4.238368034362792969e+00,-3.002421855926513672e+00,6.610295295715332031e+00,-1.400944113731384277e+00,-3.472232818603515625e+00,-1.811578941345214844e+01,-1.153496837615966797e+01,-1.667988777160644531e+01,1.425471425056457520e+00,-4.187094879150390625e+01,-1.356541347503662109e+01,-3.276800918579101562e+01,-7.857928276062011719e+00,-2.083523178100585938e+01,-4.554121971130371094e+00,-1.576722908020019531e+01,-1.948357009887695312e+01,-3.673162937164306641e+00,-4.577676206827163696e-02
1.187246704101562500e+01,-5.459805130958557129e-01,-5.195197105407714844e+00,-4.318418025970458984e+00,5.860243797302246094e+00,-2.715091466903686523e+00,-3.111836671829223633e+00,-1.788105010986328125e+01,-1.225822639465332031e+01,-1.692258834838867188e+01,1.525227904319763184e+00,-4.094659423828125000e+01,-1.284964275360107422e+01,-3.098172760009765625e+01,-8.209397315979003906e+00,-2.082907676696777344e+01,-5.873805522918701172e+00,-1.649386024475097656e+01,-1.856422805786132812e+01,-4.610721111297607422e+00,-4.493560642004013062e-02
1.024713706970214844e+01,-1.292545795440673828e+00,-6.231761455535888672e+00,-5.690001487731933594e+00,5.002861976623535156e+00,-3.869616746902465820e+00,-2.945659637451171875e+00,-1.744939231872558594e+01,-1.326938343048095703e+01,-1.712566375732421875e+01,1.629385471343994141e+00,-3.932338714599609375e+01,-1.208913612365722656e+01,-2.894745635986328125e+01,-8.293750762939453125e+00,-2.068132781982421875e+01,-7.254759788513183594e+00,-1.734132957458496094e+01,-1.757710838317871094e+01,-5.555490970611572266e+00,-4.427050799131393433e-02
8.760445594787597656e+00,-1.823436617851257324e+00,-7.289747238159179688e+00,-6.960752010345458984e+00,4.079818725585937500e+00,-4.661166667938232422e+00,-3.066138029098510742e+00,-1.669561958312988281e+01,-1.439991283416748047e+01,-1.716859054565429688e+01,1.639654517173767090e+00,-3.681441879272460938e+01,-1.137182235717773438e+01,-2.662790107727050781e+01,-8.198853492736816406e+00,-2.029964256286621094e+01,-8.567373275756835938e+00,-1.816176986694335938e+01,-1.655349349975585938e+01,-6.177524566650390625e+00,-4.380102828145027161e-02
7.330109596252441406e+00,-2.156519651412963867e+00,-8.359634399414062500e+00,-8.025959014892578125e+00,3.103741645812988281e+00,-4.921371936798095703e+00,-3.550128221511840820e+00,-1.553627014160156250e+01,-1.549533271789550781e+01,-1.697377014160156250e+01,1.473882675170898438e+00,-3.334656524658203125e+01,-1.075786399841308594e+01,-2.399695968627929688e+01,-8.010817527770996094e+00,-1.957629013061523438e+01,-9.742126464843750000e+00,-1.884070014953613281e+01,-1.549685859680175781e+01,-6.212683200836181641e+00,-4.354672506451606750e-02
5.872723102569580078e+00,-2.393888950347900391e+00,-9.454512596130371094e+00,-8.828742980957031250e+00,2.059478044509887695e+00,-4.567142486572265625e+00,-4.424633979797363281e+00,-1.394917488098144531e+01,-1.643065261840820312e+01,-1.649662399291992188e+01,1.108597755432128906e+00,-2.897466659545898438e+01,-1.025497245788574219e+01,-2.104717445373535156e+01,-7.748972415924072266e+00,-1.837737083435058594e+01,-1.076252460479736328e+01,-1.931929206848144531e+01,-1.437939739227294922e+01,-5.538362503051757812e+00,-4.344891756772994995e-02
4.343199729919433594e+00,-2.679753303527832031e+00,-1.059104442596435547e+01,-9.365224838256835938e+00,9.508162140846252441e-01,-3.620344400405883789e+00,-5.648111343383789062e+00,-1.197997665405273438e+01,-1.712582206726074219e+01,-1.573055076599121094e+01,5.848759412765502930e-01,-2.385515975952148438e+01,-9.806073188781738281e+00,-1.779159355163574219e+01,-7.343025207519531250e+00,-1.656590843200683594e+01,-1.164977550506591797e+01,-1.958323097229003906e+01,-1.314376068115234375e+01,-4.216766357421875000e+00,-4.348804056644439697e-02
2.744920969009399414e+00,-3.164701700210571289e+00,-1.177755928039550781e+01,-9.674186706542968750e+00,-2.058288156986236572e-01,-2.234039068222045898e+00,-7.115661144256591797e+00,-9.734309196472167969e+00,-1.755696868896484375e+01,-1.470196437835693359e+01,2.473911736160516739e-03,-1.823385810852050781e+01,-9.324779510498046875e+00,-1.427683448791503906e+01,-6.664688587188720703e+00,-1.405725860595703125e+01,-1.244394207000732422e+01,-1.966114234924316406e+01,-1.173433494567871094e+01,-2.475973367691040039e+00,-4.362497478723526001e-02
1.126353859901428223e+00,-3.969971179962158203e+00,-1.299858760833740234e+01,-9.830606460571289062e+00,-1.354897499084472656e+00,-6.574996709823608398e-01,-8.682917594909667969e+00,-7.359534263610839844e+00,-1.775217819213867188e+01,-1.348186016082763672e+01,-5.227148532867431641e-01,-1.240940284729003906e+01,-8.740130424499511719e+00,-1.060545063018798828e+01,-5.597978115081787109e+00,-1.086527061462402344e+01,-1.319569015502929688e+01,-1.962934112548828125e+01,-1.013721656799316406e+01,-6.486366391181945801e-01,-4.384015128016471863e-02
-4.516363739967346191e-01,-5.158094882965087891e+00,-1.422437572479248047e+01,-9.931439399719238281e+00,-2.416839122772216797e+00,8.118963241577148438e-01,-1.020343589782714844e+01,-5.034315586090087891e+00,-1.778588294982910156e+01,-1.218250751495361328e+01,-8.953347802162170410e-01,-6.710903167724609375e+00,-8.024358749389648438e+00,-6.932201385498046875e+00,-4.130592346191406250e+00,-7.153083324432373047e+00,-1.395333003997802734e+01,-1.960072135925292969e+01,-8.394117355346679688e+00,9.253790974617004395e-01,-4.411401599645614624e-02
-1.936074376106262207e+00,-6.706100940704345703e+00,-1.541684055328369141e+01,-1.007622432708740234e+01,-3.303263664245605469e+00,1.907383561134338379e+00,-1.155777740478515625e+01,-2.925578355789184570e+00,-1.775358200073242188e+01,-1.093268394470214844e+01,-1.075776696205139160e+00,-1.441060900688171387e+00,-7.219116687774658203e+00,-3.443547010421752930e+00,-2.397846937179565430e+00,-3.206960678100585938e+00,-1.475103092193603516e+01,-1.968817138671875000e+01,-6.611045837402343750e+00,1.986442446708679199e+00,-4.448568820953369141e-02
-3.294273138046264648e+00,-8.505514144897460938e+00,-1.652362060546875000e+01,-1.033735561370849609e+01,-3.942196369171142578e+00,2.471526622772216797e+00,-1.267635631561279297e+01,-1.159820556640625000e+00,-1.773111152648925781e+01,-9.852916717529296875e+00,-1.083111763000488281e+00,3.150243520736694336e+00,-6.424672603607177734e+00,-3.259468078613281250e-01,-6.563147902488708496e-01,6.083425879478454590e-01,-1.559115123748779297e+01,-1.997119140625000000e+01,-4.923558235168457031e+00,2.425472021102905273e+00,-4.495516791939735413e-02
-4.509325504302978516e+00,-1.036490821838378906e+01,-1.748402023315429688e+01,-1.072517299652099609e+01,-4.281866073608398438e+00,2.497765779495239258e+00,-1.353736019134521484e+01,2.042729407548904419e-01,-1.774515533447265625e+01,-9.014198303222656250e+00,-9.789542555809020996e-01,6.906580448150634766e+00,-5.752094745635986328e+00,2.286348581314086914e+00,7.776814103126525879e-01,3.941923618316650391e+00,-1.642773628234863281e+01,-2.045614242553710938e+01,-3.460257768630981445e+00,2.298360824584960938e+00,-4.558114334940910339e-02
-5.556434631347656250e+00,-1.203542804718017578e+01,-1.821473121643066406e+01,-1.116470050811767578e+01,-4.315959453582763672e+00,2.143536567687988281e+00,-1.415533065795898438e+01,1.200608968734741211e+00,-1.774936866760253906e+01,-8.403320312500000000e+00,-8.469235301017761230e-01,9.775130271911621094e+00,-5.276971340179443359e+00,4.346724510192871094e+00,1.645811438560485840e+00,6.538300037384033203e+00,-1.715473937988281250e+01,-2.104762268066406250e+01,-2.299349784851074219e+00,1.793521881103515625e+00,-4.630492627620697021e-02
-6.370226860046386719e+00,-1.325162792205810547e+01,-1.863007164001464844e+01,-1.150727367401123047e+01,-4.069730281829833984e+00,1.682163596153259277e+00,-1.456038665771484375e+01,1.933515787124633789e+00,-1.763701820373535156e+01,-7.919571399688720703e+00,-7.530350685119628906e-01,1.179245948791503906e+01,-5.013185024261474609e+00,5.890607833862304688e+00,1.825060963630676270e+00,8.282042503356933594e+00,-1.762369918823242188e+01,-2.156278228759765625e+01,-1.458212733268737793e+00,1.160670161247253418e+00,-4.710695520043373108e-02
-6.850386619567871094e+00,-1.377996635437011719e+01,-1.863126182556152344e+01,-1.155122566223144531e+01,-3.607577323913574219e+00,1.446010708808898926e+00,-1.478368663787841797e+01,2.556877851486206055e+00,-1.726766586303710938e+01,-7.404452800750732422e+00,-7.368979454040527344e-01,1.305405235290527344e+01,-4.911372661590576172e+00,7.022416114807128906e+00,1.362878322601318359e+00,9.207011222839355469e+00,-1.765315628051757812e+01,-2.177902221679687500e+01,-8.916617631912231445e-01,6.378012299537658691e-01,-4.790898412466049194e-02
-6.871802330017089844e+00,-1.346092128753662109e+01,-1.814927673339843750e+01,-1.110006427764892578e+01,-3.017890453338623047e+00,1.728082299232482910e+00,-1.485223484039306641e+01,3.215450763702392578e+00,-1.650227546691894531e+01,-6.681305408477783203e+00,-8.014463186264038086e-01,1.367773914337158203e+01,-4.871264934539794922e+00,7.868941307067871094e+00,4.367558360099792480e-01,9.456336975097656250e+00,-1.709346961975097656e+01,-2.149759292602539062e+01,-5.145404338836669922e-01,3.853817582130432129e-01,-4.865232855081558228e-02
-6.317251682281494141e+00,-1.224472141265869141e+01,-1.715079498291015625e+01,-1.001158809661865234e+01,-2.408000230789184570e+00,2.725172519683837891e+00,-1.478887939453125000e+01,4.030516147613525391e+00,-1.526080036163330078e+01,-5.621350288391113281e+00,-9.305430054664611816e-01,1.378337955474853516e+01,-4.809560298919677734e+00,8.540194511413574219e+00,-7.318807840347290039e-01,9.231636047363281250e+00,-1.586333560943603516e+01,-2.061355209350585938e+01,-2.347407490015029907e-01,4.584030807018280029e-01,-4.925874248147010803e-02
-5.129250049591064453e+00,-1.020283412933349609e+01,-1.566913890838623047e+01,-8.248308181762695312e+00,-1.880186080932617188e+00,4.505065917968750000e+00,-1.461439418792724609e+01,5.050325870513916016e+00,-1.354042911529541016e+01,-4.173405170440673828e+00,-1.105116963386535645e+00,1.348270988464355469e+01,-4.659927368164062500e+00,9.107030868530273438e+00,-1.960267186164855957e+00,8.728366851806640625e+00,-1.397453880310058594e+01,-1.914121055603027344e+01,2.768008038401603699e-02,8.217068314552307129e-01,-4.972822219133377075e-02
-3.335977077484130859e+00,-7.508818149566650391e+00,-1.378642368316650391e+01,-5.877446651458740234e+00,-1.516524791717529297e+00,7.004351139068603516e+00,-1.434435653686523438e+01,6.264447212219238281e+00,-1.141559600830078125e+01,-2.383698463439941406e+00,-1.311964988708496094e+00,1.289965534210205078e+01,-4.408482074737548828e+00,9.603013038635253906e+00,-3.169322967529296875e+00,8.120442390441894531e+00,-1.153666019439697266e+01,-1.721571922302246094e+01,3.439753949642181396e-01,1.377029657363891602e+00,-5.011945590376853943e-02
-1.060289740562438965e+00,-4.403872489929199219e+00,-1.162879848480224609e+01,-3.060594558715820312e+00,-1.356160283088684082e+00,1.005684661865234375e+01,-1.398499870300292969e+01,7.614195823669433594e+00,-9.015502929687500000e+00,-3.611979186534881592e-01,-1.543752193450927734e+00,1.216423320770263672e+01,-4.073735713958740234e+00,1.006356811523437500e+01,-4.353775501251220703e+00,7.541759967803955078e+00,-8.722907066345214844e+00,-1.502628803253173828e+01,7.801848649978637695e-01,2.008078336715698242e+00,-5.051069334149360657e-02
1.506198644638061523e+00,-1.150889754295349121e+00,-9.324793815612792969e+00,-5.880411714315414429e-03,-1.390253543853759766e+00,1.343514537811279297e+01,-1.351866531372070312e+01,9.023932456970214844e+00,-6.491824150085449219e+00,1.758712887763977051e+00,-1.785808444023132324e+00,1.142881202697753906e+01,-3.660316228866577148e+00,1.054276847839355469e+01,-5.517140388488769531e+00,7.109287261962890625e+00,-5.728876113891601562e+00,-1.275576686859130859e+01,1.419726967811584473e+00,2.613885164260864258e+00,-5.101929605007171631e-02
4.149332523345947266e+00,2.011483907699584961e+00,-6.983895301818847656e+00,3.083737373352050781e+00,-1.553143501281738281e+00,1.688122940063476562e+01,-1.290277194976806641e+01,1.042454147338867188e+01,-3.976571798324584961e+00,3.872019529342651367e+00,-1.998524546623229980e+00,1.083559989929199219e+01,-3.138914108276367188e+00,1.114130306243896484e+01,-6.585608005523681641e+00,6.941530704498291016e+00,-2.728953361511230469e+00,-1.051068496704101562e+01,2.365137100219726562e+00,3.125034570693969727e+00,-5.172351747751235962e-02
6.683133602142333984e+00,4.904583930969238281e+00,-4.676319599151611328e+00,6.044082164764404297e+00,-1.747601270675659180e+00,2.015019798278808594e+01,-1.207396411895751953e+01,1.177168178558349609e+01,-1.566648125648498535e+00,5.924238204956054688e+00,-2.108550071716308594e+00,1.049023628234863281e+01,-2.418515205383300781e+00,1.198969268798828125e+01,-7.362355709075927734e+00,7.155458450317382812e+00,1.543188244104385376e-01,-8.294223785400390625e+00,3.734591484069824219e+00,3.498254776000976562e+00,-5.270160362124443054e-02
8.983617782592773438e+00,7.421210765838623047e+00,-2.428248167037963867e+00,8.770443916320800781e+00,-1.866296291351318359e+00,2.303213691711425781e+01,-1.096992683410644531e+01,1.304448795318603516e+01,6.901975274085998535e-01,7.930228710174560547e+00,-2.016128778457641602e+00,1.043944740295410156e+01,-1.374168515205383301e+00,1.322405338287353516e+01,-7.538090705871582031e+00,7.849569797515869141e+00,2.847886562347412109e+00,-6.020522117614746094e+00,5.634101390838623047e+00,3.712811231613159180e+00,-5.387530475854873657e-02
1.100231838226318359e+01,9.524354934692382812e+00,-2.492018193006515503e-01,1.120852756500244141e+01,-1.835991144180297852e+00,2.536524200439453125e+01,-9.550152778625488281e+00,1.423904705047607422e+01,2.779921531677246094e+00,9.937870025634765625e+00,-1.624437689781188965e+00,1.065682315826416016e+01,1.098220869898796082e-01,1.493761539459228516e+01,-6.801761627197265625e+00,9.068496704101562500e+00,5.321114063262939453e+00,-3.562380790710449219e+00,8.119278907775878906e+00,3.759689331054687500e+00,-5.516637489199638367e-02
1.274374294281005859e+01,1.123316001892089844e+01,1.852489113807678223e+00,1.333894157409667969e+01,-1.633957147598266602e+00,2.705767059326171875e+01,-7.827105998992919922e+00,1.535405731201171875e+01,4.713758945465087891e+00,1.199174022674560547e+01,-8.703956604003906250e-01,1.105094432830810547e+01,2.090533018112182617e+00,1.714529418945312500e+01,-4.953031539916992188e+00,1.076760768890380859e+01,7.555149078369140625e+00,-8.243988752365112305e-01,1.118317222595214844e+01,3.637986898422241211e+00,-5.639876425266265869e-02
1.423607158660888672e+01,1.258208179473876953e+01,3.838741779327392578e+00,1.514617347717285156e+01,-1.301863670349121094e+00,2.808537292480468750e+01,-5.869334697723388672e+00,1.637647438049316406e+01,6.500135898590087891e+00,1.410504627227783203e+01,2.503982186317443848e-01,1.148366451263427734e+01,4.535569667816162109e+00,1.977064132690429688e+01,-2.009473085403442383e+00,1.280223083496093750e+01,9.520534515380859375e+00,2.209323167800903320e+00,1.470934391021728516e+01,3.348606109619140625e+00,-5.743553489446640015e-02
1.548944664001464844e+01,1.361195945739746094e+01,5.636960983276367188e+00,1.660566329956054688e+01,-9.243124723434448242e-01,2.848114776611328125e+01,-3.791084766387939453e+00,1.729065322875976562e+01,8.146074295043945312e+00,1.622826004028320312e+01,1.670461654663085938e+00,1.181277561187744141e+01,7.316895008087158203e+00,2.266262626647949219e+01,1.767068505287170410e+00,1.493997001647949219e+01,1.117249488830566406e+01,5.451335430145263672e+00,1.852052879333496094e+01,2.895152568817138672e+00,-5.819844081997871399e-02
1.647569084167480469e+01,1.433555316925048828e+01,7.151939392089843750e+00,1.768121147155761719e+01,-5.896935462951660156e-01,2.832371330261230469e+01,-1.715950608253479004e+00,1.805355453491210938e+01,9.655787467956542969e+00,1.827222251892089844e+01,3.279769182205200195e+00,1.192044734954833984e+01,1.025402355194091797e+01,2.562546539306640625e+01,5.949557304382324219e+00,1.692380523681640625e+01,1.245211601257324219e+01,8.731507301330566406e+00,2.239080047607421875e+01,2.277626276016235352e+00,-5.857011303305625916e-02
1.712491989135742188e+01,1.473882579803466797e+01,8.286090850830078125e+00,1.832886886596679688e+01,-3.560916483402252197e-01,2.770927810668945312e+01,2.553228735923767090e-01,1.862475204467773438e+01,1.101663589477539062e+01,2.009990310668945312e+01,4.952157974243164062e+00,1.173151302337646484e+01,1.316184329986572266e+01,2.847269821166992188e+01,1.006878185272216797e+01,1.853672790527343750e+01,1.330755424499511719e+01,1.183677959442138672e+01,2.609597396850585938e+01,1.489717006683349609e+00,-5.860923603177070618e-02
1.734133148193359375e+01,1.477711200714111328e+01,8.979910850524902344e+00,1.850984954833984375e+01,-2.146678119897842407e-01,2.673186683654785156e+01,2.079114437103271484e+00,1.896512222290039062e+01,1.221878910064697266e+01,2.158747291564941406e+01,6.593739509582519531e+00,1.124394130706787109e+01,1.590306091308593750e+01,3.104210853576660156e+01,1.375394153594970703e+01,1.965561676025390625e+01,1.370699405670166016e+01,1.455886173248291016e+01,2.944488143920898438e+01,5.206064581871032715e-01,-5.835493281483650208e-02
1.702911376953125000e+01,1.439170551300048828e+01,9.210787773132324219e+00,1.821381568908691406e+01,-1.022863537073135376e-01,2.547019767761230469e+01,3.767887115478515625e+00,1.904597663879394531e+01,1.324118041992187500e+01,2.263091850280761719e+01,8.157569885253906250e+00,1.051664638519287109e+01,1.839900398254394531e+01,3.322181701660156250e+01,1.682051467895507812e+01,2.028201103210449219e+01,1.365868377685546875e+01,1.672762298583984375e+01,3.229849243164062500e+01,-6.260991692543029785e-01,-5.790501460433006287e-02
1.611726188659667969e+01,1.353538894653320312e+01,9.015613555908203125e+00,1.744334983825683594e+01,8.206972479820251465e-02,2.397674942016601562e+01,5.376687049865722656e+00,1.885427474975585938e+01,1.404448890686035156e+01,2.315594291687011719e+01,9.624577522277832031e+00,9.689805030822753906e+00,2.063732910156250000e+01,3.492792129516601562e+01,1.926674270629882812e+01,2.052210235595703125e+01,1.320032978057861328e+01,1.822699356079101562e+01,3.456990814208984375e+01,-1.909832477569580078e+00,-5.743553489446640015e-02
1.458210182189941406e+01,1.218774223327636719e+01,8.475314140319824219e+00,1.622947883605957031e+01,4.204767942428588867e-01,2.230399894714355469e+01,6.961599349975585938e+00,1.839001274108886719e+01,1.457253742218017578e+01,2.313447952270507812e+01,1.101823520660400391e+01,8.952352523803710938e+00,2.260878562927246094e+01,3.609515762329101562e+01,2.121739959716796875e+01,2.055442237854003906e+01,1.239555835723876953e+01,1.899178504943847656e+01,3.620352172851562500e+01,-3.231428861618041992e+00,-5.710298568010330200e-02
1.244279766082763672e+01,1.037301445007324219e+01,7.674386978149414062e+00,1.462003421783447266e+01,9.381890892982482910e-01,2.050005340576171875e+01,8.552742958068847656e+00,1.767145156860351562e+01,1.474527645111083984e+01,2.255001831054687500e+01,1.232533836364746094e+01,8.523694992065429688e+00,2.429794311523437500e+01,3.665639877319335938e+01,2.282537269592285156e+01,2.054980468750000000e+01,1.131035518646240234e+01,1.899655532836914062e+01,3.715935897827148438e+01,-4.428618431091308594e+00,-5.710298568010330200e-02
9.771486282348632812e+00,8.162671089172363281e+00,6.684236049652099609e+00,1.267189407348632812e+01,1.568282842636108398e+00,1.863269615173339844e+01,1.012311458587646484e+01,1.672988700866699219e+01,1.447844314575195312e+01,2.141246414184570312e+01,1.351948261260986328e+01,8.625272750854492188e+00,2.565389633178710938e+01,3.653892898559570312e+01,2.419961929321289062e+01,2.064522552490234375e+01,9.997741699218750000e+00,1.825084304809570312e+01,3.740787506103515625e+01,-5.294958114624023438e+00,-5.761158838868141174e-02
6.674116611480712891e+00,5.672843933105468750e+00,5.540564060211181641e+00,1.043676948547363281e+01,2.164283275604248047e+00,1.678501892089843750e+01,1.159378051757812500e+01,1.559531593322753906e+01,1.370181846618652344e+01,1.973667907714843750e+01,1.454052066802978516e+01,9.423671722412109375e+00,2.659488868713378906e+01,3.568308258056640625e+01,2.537879943847656250e+01,2.090532493591308594e+01,8.481284141540527344e+00,1.679281234741210938e+01,3.692474365234375000e+01,-5.626709461212158203e+00,-5.866792052984237671e-02
3.293836116790771484e+00,3.042637348175048828e+00,4.231470108032226562e+00,7.963782310485839844e+00,2.522893667221069336e+00,1.504011058807373047e+01,1.284426212310791016e+01,1.429773235321044922e+01,1.238029289245605469e+01,1.756393432617187500e+01,1.532243537902832031e+01,1.100015544891357422e+01,2.703298950195312500e+01,3.405342483520507812e+01,2.632776832580566406e+01,2.130701828002929688e+01,6.760982513427734375e+00,1.469242191314697266e+01,3.570127105712890625e+01,-5.281435489654541016e+00,-6.023285537958145142e-02
-2.093021571636199951e-01,4.251924157142639160e-01,2.706970453262329102e+00,5.282666206359863281e+00,2.434503793716430664e+00,1.347231769561767578e+01,1.373330783843994141e+01,1.285408878326416016e+01,1.051667499542236328e+01,1.492560386657714844e+01,1.580801486968994141e+01,1.331002807617187500e+01,2.688952827453613281e+01,3.164437294006347656e+01,2.696392822265625000e+01,2.174872398376464844e+01,4.788527488708496094e+00,1.203234958648681641e+01,3.374441146850585938e+01,-4.225780963897705078e+00,-6.203253194689750671e-02
-3.658338069915771484e+00,-2.041663408279418945e+00,8.861396908760070801e-01,2.415397405624389648e+00,1.733698248863220215e+00,1.212099742889404297e+01,1.412070846557617188e+01,1.125916862487792969e+01,8.161522865295410156e+00,1.186791324615478516e+01,1.596205043792724609e+01,1.615826225280761719e+01,2.609816932678222656e+01,2.847829246520996094e+01,2.716426658630371094e+01,2.204730033874511719e+01,2.507361173629760742e+00,8.914358139038085938e+00,3.106980514526367188e+01,-2.563418626785278320e+00,-6.377352774143218994e-02
-6.877438068389892578e+00,-4.249454498291015625e+00,-1.309567928314208984e+00,-6.406094431877136230e-01,3.320868909358978271e-01,1.096647262573242188e+01,1.387871265411376953e+01,9.484281539916992188e+00,5.379436969757080078e+00,8.428836822509765625e+00,1.576693916320800781e+01,1.921980857849121094e+01,2.460646438598632812e+01,2.459061431884765625e+01,2.677764892578125000e+01,2.196419143676757812e+01,-1.496796160936355591e-01,5.406815528869628906e+00,2.769482994079589844e+01,-5.125104188919067383e-01,-6.508415937423706055e-02
-9.715566635131835938e+00,-6.134372234344482422e+00,-3.946797370910644531e+00,-3.890525341033935547e+00,-1.756440281867980957e+00,9.936583518981933594e+00,1.291177082061767578e+01,7.473352432250976562e+00,2.250468492507934570e+00,4.629837989807128906e+00,1.521681118011474609e+01,2.208023262023925781e+01,2.236968040466308594e+01,2.001863288879394531e+01,2.563537216186523438e+01,2.123468208312988281e+01,-3.229725837707519531e+00,1.557422757148742676e+00,2.363512802124023438e+01,1.642971634864807129e+00,-6.565144658088684082e-02
-1.206338977813720703e+01,-7.687483310699462891e+00,-7.046969890594482422e+00,-7.340814113616943359e+00,-4.423289775848388672e+00,8.908880233764648438e+00,1.117106819152832031e+01,5.159870624542236328e+00,-1.139715313911437988e+00,4.775206744670867920e-01,1.430139827728271484e+01,2.429868507385253906e+01,1.935542106628417969e+01,1.480895805358886719e+01,2.359509086608886719e+01,1.962175750732421875e+01,-6.748095512390136719e+00,-2.624279975891113281e+00,1.891329002380371094e+01,3.620858430862426758e+00,-6.529933959245681763e-02
-1.387469768524169922e+01,-8.954730033874511719e+00,-1.057438278198242188e+01,-1.097984027862548828e+01,-7.477792263031005859e+00,7.745608806610107422e+00,8.676337242126464844e+00,2.490368366241455078e+00,-4.702638626098632812e+00,-4.023161888122558594e+00,1.303096961975097656e+01,2.549526977539062500e+01,1.558219814300537109e+01,9.032447814941406250e+00,2.060759925842285156e+01,1.699460029602050781e+01,-1.066472625732421875e+01,-7.133522987365722656e+00,1.358666896820068359e+01,5.207495212554931641e+00,-6.400826573371887207e-02
-1.517315769195556641e+01,-1.002799701690673828e+01,-1.442192935943603516e+01,-1.477140903472900391e+01,-1.067245578765869141e+01,6.317758083343505859e+00,5.536632537841796875e+00,-5.703652501106262207e-01,-8.332972526550292969e+00,-8.844142913818359375e+00,1.144513416290283203e+01,2.542213249206542969e+01,1.113331127166748047e+01,2.808434724807739258e+00,1.678888130187988281e+01,1.337783527374267578e+01,-1.487121677398681641e+01,-1.193691635131835938e+01,7.773439407348632812e+00,6.296504974365234375e+00,-6.183691695332527161e-02
-1.603879928588867188e+01,-1.102979850769042969e+01,-1.841347694396972656e+01,-1.863407707214355469e+01,-1.373327255249023438e+01,4.557544231414794922e+00,1.949288606643676758e+00,-3.991031885147094727e+00,-1.190291690826416016e+01,-1.390947437286376953e+01,9.642181396484375000e+00,2.401020622253417969e+01,6.193874835968017578e+00,-3.671027421951293945e+00,1.243417263031005859e+01,8.969997406005859375e+00,-1.919671440124511719e+01,-1.694223976135253906e+01,1.664768934249877930e+00,6.890592098236083984e+00,-5.892222374677658081e-02
-1.658207702636718750e+01,-1.207626628875732422e+01,-2.232290649414062500e+01,-2.245408630371093750e+01,-1.639759635925292969e+01,2.462780237197875977e+00,-1.818772554397583008e+00,-7.681648254394531250e+00,-1.525799179077148438e+01,-1.907551956176757812e+01,7.764411449432373047e+00,2.136715888977050781e+01,1.030760049819946289e+00,-1.015235424041748047e+01,7.984566688537597656e+00,4.111218929290771484e+00,-2.341734313964843750e+01,-2.199049377441406250e+01,-4.489086627960205078e+00,7.073596477508544922e+00,-5.530330911278724670e-02
-1.691120147705078125e+01,-1.325417995452880859e+01,-2.590268325805664062e+01,-2.607630729675292969e+01,-1.845329284667968750e+01,1.078107580542564392e-01,-5.476741790771484375e+00,-1.148702526092529297e+01,-1.825635147094726562e+01,-2.413589859008789062e+01,5.992266178131103516e+00,1.773474502563476562e+01,-4.056766986846923828e+00,-1.635772132873535156e+01,3.895217180252075195e+00,-8.091218471527099609e-01,-2.728919982910156250e+01,-2.685430717468261719e+01,-1.041875457763671875e+01,6.967219829559326172e+00,-5.092148855328559875e-02
-1.709943389892578125e+01,-1.458906459808349609e+01,-2.892431068420410156e+01,-2.934173583984375000e+01,-1.976020050048828125e+01,-2.367421865463256836e+00,-8.762889862060546875e+00,-1.521546077728271484e+01,-2.078705215454101562e+01,-2.885286521911621094e+01,4.478314399719238281e+00,1.342988967895507812e+01,-8.797206878662109375e+00,-2.203540802001953125e+01,5.070497393608093262e-01,-5.457050800323486328e+00,-3.058722877502441406e+01,-3.129835891723632812e+01,-1.588788318634033203e+01,6.677838802337646484e+00,-4.558114334940910339e-02
-1.716142654418945312e+01,-1.603752899169921875e+01,-3.121641540527343750e+01,-3.210688018798828125e+01,-2.027664947509765625e+01,-4.805482387542724609e+00,-1.149234580993652344e+01,-1.866872978210449219e+01,-2.281779289245605469e+01,-3.299362564086914062e+01,3.307642221450805664e+00,8.775607109069824219e+00,-1.302087211608886719e+01,-2.700454902648925781e+01,-2.074494838714599609e+00,-9.627874374389648438e+00,-3.313940048217773438e+01,-3.511277008056640625e+01,-2.073832321166992188e+01,6.269460201263427734e+00,-3.904753550887107849e-02
-1.707238197326660156e+01,-1.749620246887207031e+01,-3.269330978393554688e+01,-3.426961135864257812e+01,-2.006956481933593750e+01,-7.051121711730957031e+00,-1.358513545989990234e+01,-2.168382072448730469e+01,-2.438929939270019531e+01,-3.637491607666015625e+01,2.469980955123901367e+00,4.052251815795898438e+00,-1.667222976684570312e+01,-3.118123817443847656e+01,-3.993519306182861328e+00,-1.327542209625244141e+01,-3.485145568847656250e+01,-3.816398239135742188e+01,-2.490751266479492188e+01,5.752000331878662109e+00,-3.116417117416858673e-02
-1.678947067260742188e+01,-1.883108711242675781e+01,-3.336333084106445312e+01,-3.578468704223632812e+01,-1.928542137145996094e+01,-8.986263275146484375e+00,-1.506099414825439453e+01,-2.413944816589355469e+01,-2.561392211914062500e+01,-3.889437484741210938e+01,1.859705686569213867e+00,-5.106106996536254883e-01,-1.980064201354980469e+01,-3.456734085083007812e+01,-5.564588546752929688e+00,-1.646279335021972656e+01,-3.572692489624023438e+01,-4.040906524658203125e+01,-2.841109085083007812e+01,5.095709323883056641e+00,-2.193104848265647888e-02
-1.627211570739746094e+01,-1.991583824157714844e+01,-3.332167816162109375e+01,-3.666762161254882812e+01,-1.813256454467773438e+01,-1.054749679565429688e+01,-1.601754951477050781e+01,-2.598867034912109375e+01,-2.663631439208984375e+01,-4.054374313354492188e+01,1.315445780754089355e+00,-4.734204292297363281e+00,-2.251409339904785156e+01,-3.720946884155273438e+01,-7.153231620788574219e+00,-1.928387069702148438e+01,-3.585182189941406250e+01,-4.188617706298828125e+01,-3.130293464660644531e+01,4.260922431945800781e+00,-1.160247065126895905e-02
-1.553384113311767578e+01,-2.066750907897949219e+01,-3.272663497924804688e+01,-3.699080276489257812e+01,-1.683323287963867188e+01,-1.171514225006103516e+01,-1.658462905883789062e+01,-2.723930549621582031e+01,-2.758286857604980469e+01,-4.138741302490234375e+01,6.699624061584472656e-01,-8.472257614135742188e+00,-2.492056465148925781e+01,-3.915797042846679688e+01,-9.028322219848632812e+00,-2.180021667480468750e+01,-3.536283111572265625e+01,-4.269071578979492188e+01,-3.364560699462890625e+01,3.231411457061767578e+00,-6.870421930216252804e-04
-1.464114952087402344e+01,-2.106440162658691406e+01,-3.175909423828125000e+01,-3.685894393920898438e+01,-1.558567237854003906e+01,-1.251543807983398438e+01,-1.690140342712402344e+01,-2.793569755554199219e+01,-2.853504180908203125e+01,-4.154426193237304688e+01,-2.073081880807876587e-01,-1.160287666320800781e+01,-2.708638763427734375e+01,-4.044640350341796875e+01,-1.130584526062011719e+01,-2.400567436218261719e+01,-3.443669891357421875e+01,-4.294193649291992188e+01,-3.547560119628906250e+01,2.027911424636840820e+00,1.003276929259300232e-02
-1.370788192749023438e+01,-2.114735221862792969e+01,-3.058924102783203125e+01,-3.638451385498046875e+01,-1.452373027801513672e+01,-1.298774433135986328e+01,-1.709146881103515625e+01,-2.814565849304199219e+01,-2.950125694274902344e+01,-4.115131759643554688e+01,-1.389716386795043945e+00,-1.404480075836181641e+01,-2.903007698059082031e+01,-4.108222961425781250e+01,-1.394362545013427734e+01,-2.584791564941406250e+01,-3.323602294921875000e+01,-4.275749588012695312e+01,-3.681724929809570312e+01,7.243450284004211426e-01,1.961800269782543182e-02
-1.285914802551269531e+01,-2.099293518066406250e+01,-2.934560012817382812e+01,-3.565670776367187500e+01,-1.370675468444824219e+01,-1.318016433715820312e+01,-1.724206542968750000e+01,-2.793178558349609375e+01,-3.042393875122070312e+01,-4.033406448364257812e+01,-2.880196332931518555e+00,-1.576552391052246094e+01,-3.073311805725097656e+01,-4.107477188110351562e+01,-1.680107307434082031e+01,-2.728231048583984375e+01,-3.189748573303222656e+01,-4.222961807250976562e+01,-3.769835662841796875e+01,-5.729107856750488281e-01,2.712969481945037842e-02
-1.219075679779052734e+01,-2.067006111145019531e+01,-2.809125137329101562e+01,-3.472853088378906250e+01,-1.311075496673583984e+01,-1.312331295013427734e+01,-1.741135978698730469e+01,-2.735015487670898438e+01,-3.120477676391601562e+01,-3.918825531005859375e+01,-4.628869533538818359e+00,-1.680567741394042969e+01,-3.215848922729492188e+01,-4.045945739746093750e+01,-1.969718360900878906e+01,-2.830423927307128906e+01,-3.050003623962402344e+01,-4.141871643066406250e+01,-3.815715789794921875e+01,-1.742153882980346680e+00,3.180494159460067749e-02
-1.172637653350830078e+01,-2.021574211120605469e+01,-2.682381057739257812e+01,-3.360515213012695312e+01,-1.264860153198242188e+01,-1.282812213897705078e+01,-1.761492538452148438e+01,-2.644510650634765625e+01,-3.172159004211425781e+01,-3.777498245239257812e+01,-6.534512519836425781e+00,-1.726277732849121094e+01,-3.326608276367187500e+01,-3.930900192260742188e+01,-2.243161773681640625e+01,-2.895063972473144531e+01,-2.906605911254882812e+01,-4.035341644287109375e+01,-3.824926757812500000e+01,-2.672499895095825195e+00,3.321338444948196411e-02
-1.140627002716064453e+01,-1.960572814941406250e+01,-2.548020362854003906e+01,-3.223227310180664062e+01,-1.219528770446777344e+01,-1.227709865570068359e+01,-1.782472419738769531e+01,-2.525445938110351562e+01,-3.185921859741210938e+01,-3.611075210571289062e+01,-8.460693359375000000e+00,-1.727090263366699219e+01,-3.400962066650390625e+01,-3.773342132568359375e+01,-2.477767753601074219e+01,-2.925998878479003906e+01,-2.756374168395996094e+01,-3.904166412353515625e+01,-3.802507781982421875e+01,-3.290026187896728516e+00,3.141370788216590881e-02
-1.109179878234863281e+01,-1.877238273620605469e+01,-2.396522521972656250e+01,-3.054138755798339844e+01,-1.161949062347412109e+01,-1.143525695800781250e+01,-1.797220611572265625e+01,-2.380690193176269531e+01,-3.152638053894042969e+01,-3.419556808471679688e+01,-1.023577308654785156e+01,-1.696413993835449219e+01,-3.433048248291015625e+01,-3.584831619262695312e+01,-2.647527503967285156e+01,-2.922459030151367188e+01,-2.592120742797851562e+01,-3.745643234252929688e+01,-3.751761627197265625e+01,-3.568588972091674805e+00,2.707101032137870789e-02
-1.060938453674316406e+01,-1.762509536743164062e+01,-2.218842697143554688e+01,-2.845751190185546875e+01,-1.081893062591552734e+01,-1.025230598449707031e+01,-1.796701240539550781e+01,-2.213243103027343750e+01,-3.067111015319824219e+01,-3.201456832885742188e+01,-1.168224239349365234e+01,-1.643796730041503906e+01,-3.417930603027343750e+01,-3.375810623168945312e+01,-2.725202369689941406e+01,-2.877672767639160156e+01,-2.405951118469238281e+01,-3.556910324096679688e+01,-3.673730468750000000e+01,-3.535233736038208008e+00,2.131986990571022034e-02
-9.798974037170410156e+00,-1.610899353027343750e+01,-2.009982681274414062e+01,-2.594186401367187500e+01,-9.743099212646484375e+00,-8.680139541625976562e+00,-1.772397994995117188e+01,-2.026234626770019531e+01,-2.930043029785156250e+01,-2.956445503234863281e+01,-1.264753341674804688e+01,-1.573911380767822266e+01,-3.352832794189453125e+01,-3.154297065734863281e+01,-2.692164230346679688e+01,-2.781328201293945312e+01,-2.192563056945800781e+01,-3.337331008911132812e+01,-3.568067169189453125e+01,-3.258473634719848633e+00,1.556873042136430740e-02
-8.565887451171875000e+00,-1.422280025482177734e+01,-1.772203636169433594e+01,-2.301254463195800781e+01,-8.407149314880371094e+00,-6.707825183868408203e+00,-1.719948387145996094e+01,-1.823446273803710938e+01,-2.748456192016601562e+01,-2.686998748779296875e+01,-1.304655933380126953e+01,-1.487773704528808594e+01,-3.241302108764648438e+01,-2.926257133483886719e+01,-2.547710227966308594e+01,-2.626961517333984375e+01,-1.951367378234863281e+01,-3.088495826721191406e+01,-3.436508941650390625e+01,-2.832966566085815430e+00,1.130427978932857513e-02
-6.915760517120361328e+00,-1.205074214935302734e+01,-1.515740203857421875e+01,-1.975616455078125000e+01,-6.891893863677978516e+00,-4.368161678314208984e+00,-1.641637420654296875e+01,-1.609703636169433594e+01,-2.536394119262695312e+01,-2.399060821533203125e+01,-1.289985847473144531e+01,-1.387211894989013672e+01,-3.096296691894531250e+01,-2.697098731994628906e+01,-2.316443252563476562e+01,-2.418574333190917969e+01,-1.688608932495117188e+01,-2.816764640808105469e+01,-3.285486602783203125e+01,-2.362384557723999023e+00,9.700220078229904175e-03
-4.954544067382812500e+00,-9.753618240356445312e+00,-1.257491683959960938e+01,-1.632655906677246094e+01,-5.327392578125000000e+00,-1.746427059173583984e+00,-1.547124385833740234e+01,-1.391526794433593750e+01,-2.312816238403320312e+01,-2.103197860717773438e+01,-1.233946228027343750e+01,-1.276898670196533203e+01,-2.936482238769531250e+01,-2.472788047790527344e+01,-2.045987319946289062e+01,-2.172941970825195312e+01,-1.416424369812011719e+01,-2.533744621276855469e+01,-3.125601196289062500e+01,-1.930566906929016113e+00,1.132384128868579865e-02
-2.856944322586059570e+00,-7.540722370147705078e+00,-1.017689418792724609e+01,-1.292151641845703125e+01,-3.865170717239379883e+00,1.015250205993652344e+00,-1.451053333282470703e+01,-1.176871204376220703e+01,-2.098647499084472656e+01,-1.811957740783691406e+01,-1.157955169677734375e+01,-1.166991806030273438e+01,-2.784380912780761719e+01,-2.259105682373046875e+01,-1.793280601501464844e+01,-1.915151214599609375e+01,-1.150366783142089844e+01,-2.252950286865234375e+01,-2.969886589050292969e+01,-1.592505097389221191e+00,1.605777256190776825e-02
-8.303540349006652832e-01,-5.618795394897460938e+00,-8.151369094848632812e+00,-9.733652114868164062e+00,-2.644127368927001953e+00,3.750688314437866211e+00,-1.369211196899414062e+01,-9.749958038330078125e+00,-1.912426185607910156e+01,-1.540034675598144531e+01,-1.085484981536865234e+01,-1.070289993286132812e+01,-2.657115554809570312e+01,-2.060899353027343750e+01,-1.605068588256835938e+01,-1.668749427795410156e+01,-9.062253952026367188e+00,-1.988533210754394531e+01,-2.828248786926269531e+01,-1.355411171913146973e+00,2.304130047559738159e-02
9.437578320503234863e-01,-4.151188850402832031e+00,-6.629250049591064453e+00,-6.940068721771240234e+00,-1.765279293060302734e+00,6.295892238616943359e+00,-1.314165115356445312e+01,-7.952901840209960938e+00,-1.766651153564453125e+01,-1.299811172485351562e+01,-1.035900115966796875e+01,-9.985762596130371094e+00,-2.561165237426757812e+01,-1.878728675842285156e+01,-1.500682067871093750e+01,-1.446510696411132812e+01,-6.962543964385986328e+00,-1.753212928771972656e+01,-2.704337501525878906e+01,-1.192239999771118164e+00,3.088554181158542633e-02
2.341406345367431641e+00,-3.222129821777343750e+00,-5.661710262298583984e+00,-4.650649070739746094e+00,-1.267770409584045410e+00,8.521852493286132812e+00,-1.291315746307373047e+01,-6.457093715667724609e+00,-1.665675735473632812e+01,-1.101028251647949219e+01,-1.018882846832275391e+01,-9.581483840942382812e+00,-2.489279747009277344e+01,-1.709609985351562500e+01,-1.465710830688476562e+01,-1.245049095153808594e+01,-5.277591228485107422e+00,-1.553826904296875000e+01,-2.591896247863769531e+01,-1.046197295188903809e+00,3.800600022077560425e-02
3.310743093490600586e+00,-2.826514005661010742e+00,-5.215428352355957031e+00,-2.918394565582275391e+00,-1.127609252929687500e+00,1.036078357696533203e+01,-1.297962856292724609e+01,-5.319914340972900391e+00,-1.605708694458007812e+01,-9.497946739196777344e+00,-1.032379341125488281e+01,-9.477874755859375000e+00,-2.423101806640625000e+01,-1.547763252258300781e+01,-1.458857154846191406e+01,-1.048820304870605469e+01,-4.022714138031005859e+00,-1.394349765777587891e+01,-2.478933715820312500e+01,-8.586856722831726074e-01,4.283773899078369141e-02
3.870929718017578125e+00,-2.869904041290283203e+00,-5.192816734313964844e+00,-1.732963800430297852e+00,-1.270295739173889160e+00,1.181268692016601562e+01,-1.324135684967041016e+01,-4.562229633331298828e+00,-1.577761363983154297e+01,-8.479267120361328125e+00,-1.065533733367919922e+01,-9.593673706054687500e+00,-2.340726280212402344e+01,-1.387781143188476562e+01,-1.429158020019531250e+01,-8.393557548522949219e+00,-3.169633150100708008e+00,-1.274940681457519531e+01,-2.349982452392578125e+01,-5.855317115783691406e-01,4.422662034630775452e-02
4.088467121124267578e+00,-3.190225362777709961e+00,-5.452255249023437500e+00,-1.040062069892883301e+00,-1.587236762046813965e+00,1.294316005706787109e+01,-1.355605506896972656e+01,-4.174910545349121094e+00,-1.569194602966308594e+01,-7.942685604095458984e+00,-1.101915454864501953e+01,-9.837459564208984375e+00,-2.221482658386230469e+01,-1.228358459472656250e+01,-1.336897277832031250e+01,-6.064975261688232422e+00,-2.661790847778320312e+00,-1.193055629730224609e+01,-2.194267845153808594e+01,-2.150160074234008789e-01,4.160535335540771484e-02
4.058034420013427734e+00,-3.579460144042968750e+00,-5.842603206634521484e+00,-7.543693780899047852e-01,-1.958474278450012207e+00,1.384841251373291016e+01,-1.376793003082275391e+01,-4.127962589263916016e+00,-1.568071079254150391e+01,-7.843624114990234375e+00,-1.125827693939208984e+01,-1.014625549316406250e+01,-2.054572296142578125e+01,-1.074343013763427734e+01,-1.167840290069580078e+01,-3.568637371063232422e+00,-2.428489685058593750e+00,-1.144560623168945312e+01,-2.010051918029785156e+01,2.240135818719863892e-01,3.501306101679801941e-02
3.877692461013793945e+00,-3.815553426742553711e+00,-6.219860553741455078e+00,-7.802239656448364258e-01,-2.279203414916992188e+00,1.464652252197265625e+01,-1.373884963989257812e+01,-4.373134613037109375e+00,-1.563857936859130859e+01,-8.122647285461425781e+00,-1.125534343719482422e+01,-1.053428173065185547e+01,-1.840458106994628906e+01,-9.352443695068359375e+00,-9.363975524902343750e+00,-1.140017509460449219e+00,-2.391962766647338867e+00,-1.122618579864501953e+01,-1.802722167968750000e+01,6.657476425170898438e-01,2.511483989655971527e-02
3.638739824295043945e+00,-3.700697183609008789e+00,-6.456687450408935547e+00,-1.015500307083129883e+00,-2.461034059524536133e+00,1.542276573181152344e+01,-1.337118339538574219e+01,-4.862173557281494141e+00,-1.548128890991210938e+01,-8.693900108337402344e+00,-1.095460700988769531e+01,-1.108279991149902344e+01,-1.589012622833251953e+01,-8.231822967529296875e+00,-6.787703037261962891e+00,8.869105577468872070e-01,-2.470908164978027344e+00,-1.118166542053222656e+01,-1.586007690429687500e+01,1.020036458969116211e+00,1.298658642917871475e-02
3.407676935195922852e+00,-3.093235492706298828e+00,-6.455497264862060547e+00,-1.367122054100036621e+00,-2.449669599533081055e+00,1.622962188720703125e+01,-1.261715507507324219e+01,-5.539003849029541016e+00,-1.514985370635986328e+01,-9.456671714782714844e+00,-1.036633682250976562e+01,-1.189135742187500000e+01,-1.316279220581054688e+01,-7.465475082397460938e+00,-4.383650302886962891e+00,2.196641445159912109e+00,-2.578132390975952148e+00,-1.119756603240966797e+01,-1.375202083587646484e+01,1.187715053558349609e+00,-4.150612585362978280e-05
3.226207971572875977e+00,-1.944673657417297363e+00,-6.146075248718261719e+00,-1.744598388671875000e+00,-2.213542222976684570e+00,1.706490325927734375e+01,-1.148195934295654297e+01,-6.339724540710449219e+00,-1.459793090820312500e+01,-1.029539012908935547e+01,-9.541877746582031250e+00,-1.301683616638183594e+01,-1.039689254760742188e+01,-7.064587593078613281e+00,-2.522618770599365234e+00,2.615262985229492188e+00,-2.628798723220825195e+00,-1.114032554626464844e+01,-1.182470417022705078e+01,1.087648749351501465e+00,-1.273704972118139267e-02
3.098841667175292969e+00,-3.149919509887695312e-01,-5.490338325500488281e+00,-2.062609195709228516e+00,-1.752652168273925781e+00,1.788269233703613281e+01,-1.001544857025146484e+01,-7.186088085174560547e+00,-1.378619670867919922e+01,-1.107632350921630859e+01,-8.563384056091308594e+00,-1.440641689300537109e+01,-7.734348297119140625e+00,-6.924742698669433594e+00,-1.408459901809692383e+00,2.179712057113647461e+00,-2.538070440292358398e+00,-1.087002563476562500e+01,-1.013200378417968750e+01,6.729596257209777832e-01,-2.410239726305007935e-02
2.991763830184936523e+00,1.633734822273254395e+00,-4.476385116577148438e+00,-2.244883775711059570e+00,-1.079626083374023438e+00,1.861738967895507812e+01,-8.304864883422851562e+00,-7.973767280578613281e+00,-1.268375492095947266e+01,-1.165748214721679688e+01,-7.511539459228515625e+00,-1.588944911956787109e+01,-5.258460044860839844e+00,-6.850159168243408203e+00,-1.032387375831604004e+00,1.162400364875793457e+00,-2.237607002258300781e+00,-1.025787544250488281e+01,-8.632207870483398438e+00,-4.733735695481300354e-02,-3.357025980949401855e-02
2.844109058380126953e+00,3.662860870361328125e+00,-3.120877981185913086e+00,-2.215151071548461914e+00,-2.247695028781890869e-01,1.920777320861816406e+01,-6.441606044769287109e+00,-8.576263427734375000e+00,-1.124706935882568359e+01,-1.188532352447509766e+01,-6.445024967193603516e+00,-1.719979858398437500e+01,-2.972312211990356445e+00,-6.572334766387939453e+00,-1.195820689201354980e+00,5.035262089222669601e-03,-1.674384951591491699e+00,-9.192574501037597656e+00,-7.207140445709228516e+00,-1.009235858917236328e+00,-4.096458107233047485e-02
2.581486225128173828e+00,5.515873908996582031e+00,-1.453568339347839355e+00,-1.904896497726440430e+00,7.765617966651916504e-01,1.963197326660156250e+01,-4.507722377777099609e+00,-8.856646537780761719e+00,-9.432604789733886719e+00,-1.160795211791992188e+01,-5.390246391296386719e+00,-1.805305099487304688e+01,-8.003176450729370117e-01,-5.811580657958984375e+00,-1.557834506034851074e+00,-7.844970822334289551e-01,-8.142343759536743164e-01,-7.591443538665771484e+00,-5.676063060760498047e+00,-2.097344160079956055e+00,-4.646141827106475830e-02
2.144157648086547852e+00,6.986033439636230469e+00,4.910313189029693604e-01,-1.246898412704467773e+00,1.886486411094665527e+00,1.990748405456542969e+01,-2.550989627838134766e+00,-8.693633079528808594e+00,-7.182781219482421875e+00,-1.069493770599365234e+01,-4.332533836364746094e+00,-1.824198532104492188e+01,1.388645529747009277e+00,-4.351603984832763672e+00,-1.719510555267333984e+00,-7.552551031112670898e-01,3.605193197727203369e-01,-5.405191898345947266e+00,-3.853020191192626953e+00,-3.174634456634521484e+00,-5.043244361877441406e-02
1.515215754508972168e+00,7.964863300323486328e+00,2.673648118972778320e+00,-1.920331120491027832e-01,3.074699401855468750e+00,2.010427856445312500e+01,-5.807546973228454590e-01,-8.002457618713378906e+00,-4.456871032714843750e+00,-9.053822517395019531e+00,-3.229344129562377930e+00,-1.770159149169921875e+01,3.736497640609741211e+00,-2.082393884658813477e+00,-1.310048341751098633e+00,3.620947003364562988e-01,1.852232575416564941e+00,-2.617920160293579102e+00,-1.586816310882568359e+00,-4.114896774291992188e+00,-5.326889082789421082e-02
7.374919652938842773e-01,8.467678070068359375e+00,5.047868728637695312e+00,1.273919463157653809e+00,4.310895442962646484e+00,2.031856536865234375e+01,1.424792766571044922e+00,-6.757037639617919922e+00,-1.240831017494201660e+00,-6.654889106750488281e+00,-2.021996736526489258e+00,-1.652938652038574219e+01,6.358934402465820312e+00,9.531642794609069824e-01,-8.869130164384841919e-02,2.587560176849365234e+00,3.643231153488159180e+00,7.401621937751770020e-01,1.192063927650451660e+00,-4.833390712738037109e+00,-5.532287061214447021e-02
-8.869861811399459839e-02,8.620820045471191406e+00,7.548238277435302734e+00,3.125104665756225586e+00,5.564769268035888672e+00,2.064874267578125000e+01,3.493695259094238281e+00,-5.008233547210693359e+00,2.421803474426269531e+00,-3.557574272155761719e+00,-6.694155931472778320e-01,-1.495290374755859375e+01,9.285264968872070312e+00,4.568611145019531250e+00,1.992009043693542480e+00,5.671814918518066406e+00,5.688740253448486328e+00,4.586374759674072266e+00,4.443649291992187500e+00,-5.309381961822509766e+00,-5.684868246316909790e-02
-8.269726037979125977e-01,8.609333992004394531e+00,1.008907032012939453e+01,5.287837028503417969e+00,6.787075042724609375e+00,2.117571258544921875e+01,5.642570495605468750e+00,-2.865589380264282227e+00,6.414468288421630859e+00,1.027389392256736755e-01,8.313332796096801758e-01,-1.326265430450439453e+01,1.243835926055908203e+01,8.463747024536132812e+00,4.761590003967285156e+00,9.159300804138183594e+00,7.915705680847167969e+00,8.783977508544921875e+00,8.027171134948730469e+00,-5.578929901123046875e+00,-5.808106809854507446e-02
-1.331929445266723633e+00,8.633581161499023438e+00,1.255730724334716797e+01,7.648356914520263672e+00,7.914677619934082031e+00,2.194539642333984375e+01,7.848568439483642578e+00,-4.803819954395294189e-01,1.055599784851074219e+01,4.119672775268554688e+00,2.434772729873657227e+00,-1.172883319854736328e+01,1.564544486999511719e+01,1.228802776336669922e+01,7.852765560150146484e+00,1.249134254455566406e+01,1.023104286193847656e+01,1.314694023132324219e+01,1.172191715240478516e+01,-5.711450099945068359e+00,-5.921564996242523193e-02
-1.487474203109741211e+00,8.835218429565429688e+00,1.483632087707519531e+01,1.008644008636474609e+01,8.868025779724121094e+00,2.296435356140136719e+01,1.004937362670898438e+01,1.989592194557189941e+00,1.463011646270751953e+01,8.262084007263183594e+00,4.045547008514404297e+00,-1.054037570953369141e+01,1.867513084411621094e+01,1.570955657958984375e+01,1.079280948638916016e+01,1.513850784301757812e+01,1.253341865539550781e+01,1.747651290893554688e+01,1.526546764373779297e+01,-5.776358127593994141e+00,-6.044803559780120850e-02
-1.225978732109069824e+00,9.289538383483886719e+00,1.682614517211914062e+01,1.249349784851074219e+01,9.571356773376464844e+00,2.422164916992187500e+01,1.214839553833007812e+01,4.416531085968017578e+00,1.843038177490234375e+01,1.231864166259765625e+01,5.543362140655517578e+00,-9.774481773376464844e+00,2.129756736755371094e+01,1.847661399841308594e+01,1.311778068542480469e+01,1.671911048889160156e+01,1.474742221832275391e+01,2.158666610717773438e+01,1.842320632934570312e+01,-5.809713363647460938e+00,-6.195428594946861267e-02
-5.361715555191040039e-01,9.985055923461914062e+00,1.847917366027832031e+01,1.481006526947021484e+01,9.962798118591308594e+00,2.568667221069335938e+01,1.404281234741210938e+01,6.733924865722656250e+00,2.180230712890625000e+01,1.614570808410644531e+01,6.809389591217041016e+00,-9.400675773620605469e+00,2.335540771484375000e+01,2.046986389160156250e+01,1.447445392608642578e+01,1.705770301818847656e+01,1.683299255371093750e+01,2.535178947448730469e+01,2.103003692626953125e+01,-5.807910442352294922e+00,-6.373439729213714600e-02
5.447517633438110352e-01,1.085158252716064453e+01,1.982039833068847656e+01,1.702062797546386719e+01,1.003477287292480469e+01,2.732006263732910156e+01,1.564018821716308594e+01,8.918300628662109375e+00,2.467708206176757812e+01,1.967063713073730469e+01,7.757076740264892578e+00,-9.319414138793945312e+00,2.477306747436523438e+01,2.170981788635253906e+01,1.470466613769531250e+01,1.620660781860351562e+01,1.880898284912109375e+01,2.870828056335449219e+01,2.301817893981933594e+01,-5.732184410095214844e+00,-6.565144658088684082e-02
1.943527340888977051e+00,1.178446960449218750e+01,2.093312835693359375e+01,1.915750694274902344e+01,9.825162887573242188e+00,2.906934356689453125e+01,1.688339805603027344e+01,1.100095558166503906e+01,2.707577133178710938e+01,2.290828895568847656e+01,8.346814155578613281e+00,-9.396613121032714844e+00,2.559682083129882812e+01,2.233259201049804688e+01,1.386465454101562500e+01,1.440438079833984375e+01,2.072723770141601562e+01,3.167045211791992188e+01,2.441370010375976562e+01,-5.537460803985595703e+00,-6.735331565141677856e-02
3.566602945327758789e+00,1.266758632659912109e+01,2.194470214843750000e+01,2.125947952270507812e+01,9.429933547973632812e+00,3.087110328674316406e+01,1.775998306274414062e+01,1.302622985839843750e+01,2.908684921264648438e+01,2.591149711608886719e+01,8.605007171630859375e+00,-9.479907035827636719e+00,2.595779037475585938e+01,2.256380271911621094e+01,1.220396041870117188e+01,1.201115894317626953e+01,2.265138244628906250e+01,3.430031585693359375e+01,2.534694671630859375e+01,-5.204808235168457031e+00,-6.842920929193496704e-02
5.305773735046386719e+00,1.338607597351074219e+01,2.298007583618164062e+01,2.334077072143554688e+01,8.986721038818359375e+00,3.263787841796875000e+01,1.830317306518554688e+01,1.502933502197265625e+01,3.082266807556152344e+01,2.873804473876953125e+01,8.599139213562011719e+00,-9.431149482727050781e+00,2.604726219177246094e+01,2.265516662597656250e+01,1.010920047760009766e+01,9.444025039672851562e+00,2.461676788330078125e+01,3.666623687744140625e+01,2.600212860107421875e+01,-4.753157615661621094e+00,-6.858570128679275513e-02
7.041563034057617188e+00,1.383911895751953125e+01,2.411898803710937500e+01,2.537552261352539062e+01,8.624322891235351562e+00,3.428657531738281250e+01,1.857840347290039062e+01,1.700766181945800781e+01,3.237732315063476562e+01,3.141434860229492188e+01,8.452438354492187500e+00,-9.118290901184082031e+00,2.608119964599609375e+01,2.283976173400878906e+01,8.042559623718261719e+00,7.126216888427734375e+00,2.660218429565429688e+01,3.880796813964843750e+01,2.659300994873046875e+01,-4.244712829589843750e+00,-6.772498786449432373e-02
8.642095565795898438e+00,1.394504261016845703e+01,2.536857795715332031e+01,2.728358840942382812e+01,8.437440872192382812e+00,3.572317123413085938e+01,1.866979980468750000e+01,1.892078399658203125e+01,3.379996490478515625e+01,3.390739059448242188e+01,8.304270744323730469e+00,-8.423500061035156250e+00,2.626168441772460938e+01,2.330031585693359375e+01,6.469732284545898438e+00,5.436340332031250000e+00,2.851454544067382812e+01,4.072868728637695312e+01,2.731249618530273438e+01,-3.755199193954467773e+00,-6.614048779010772705e-02
9.975497245788574219e+00,1.364641666412353516e+01,2.665148925781250000e+01,2.893698692321777344e+01,8.461432456970214844e+00,3.688206863403320312e+01,1.866460800170898438e+01,2.068914985656738281e+01,3.507093048095703125e+01,3.612141036987304688e+01,8.294001579284667969e+00,-7.265516281127929688e+00,2.675377845764160156e+01,2.413938331604003906e+01,5.796668052673339844e+00,4.672972202301025391e+00,3.020421218872070312e+01,4.236320877075195312e+01,2.830830383300781250e+01,-3.347722053527832031e+00,-6.441906094551086426e-02
1.091665649414062500e+01,1.291644096374511719e+01,2.782253456115722656e+01,3.018317604064941406e+01,8.630636215209960938e+00,3.771516418457031250e+01,1.863241004943847656e+01,2.220843124389648438e+01,3.611438751220703125e+01,3.791772079467773438e+01,8.533123970031738281e+00,-5.603708267211914062e+00,2.765774726867675781e+01,2.538120269775390625e+01,6.306299209594726562e+00,5.011562824249267578e+00,3.149679374694824219e+01,4.361613082885742188e+01,2.964300155639648438e+01,-3.048424720764160156e+00,-6.326492130756378174e-02
1.136525630950927734e+01,1.176405048370361328e+01,2.869129562377929688e+01,3.086573600769042969e+01,8.804890632629394531e+00,3.820059204101562500e+01,1.860540771484375000e+01,2.337690925598144531e+01,3.681096267700195312e+01,3.914112472534179688e+01,9.093521118164062500e+00,-3.448232889175415039e+00,2.898130607604980469e+01,2.696051406860351562e+01,8.107581138610839844e+00,6.470581531524658203e+00,3.221790695190429688e+01,4.436184310913085938e+01,3.127487564086914062e+01,-2.834769487380981445e+00,-6.326492130756378174e-02
1.125930500030517578e+01,1.022880649566650391e+01,2.906379318237304688e+01,3.084763717651367188e+01,8.789737701416015625e+00,3.830554580688476562e+01,1.857009506225585938e+01,2.410590362548828125e+01,3.702583312988281250e+01,3.963973617553710938e+01,9.975192070007324219e+00,-8.580058217048645020e-01,3.063189888000488281e+01,2.875425148010253906e+01,1.108628654479980469e+01,8.893045425415039062e+00,3.223558044433593750e+01,4.447314071655273438e+01,3.306663513183593750e+01,-2.652667045593261719e+00,-6.463424116373062134e-02
1.057964229583740234e+01,8.368136405944824219e+00,2.876746177673339844e+01,3.002804756164550781e+01,8.374305725097656250e+00,3.799067687988281250e+01,1.845688629150390625e+01,2.434325027465820312e+01,3.662417984008789062e+01,3.929962539672851562e+01,1.110478782653808594e+01,2.077584743499755859e+00,3.241669845581054688e+01,3.059274101257324219e+01,1.491379070281982422e+01,1.196498775482177734e+01,3.146733665466308594e+01,4.383872985839843750e+01,3.480104827880859375e+01,-2.434504508972167969e+00,-6.715770065784454346e-02
9.352191925048828125e+00,6.252229690551757812e+00,2.768686485290527344e+01,2.835655212402343750e+01,7.398228168487548828e+00,3.719475555419921875e+01,1.815153694152832031e+01,2.407590866088867188e+01,3.549786376953125000e+01,3.806796264648437500e+01,1.233707427978515625e+01,5.271182537078857422e+00,3.406729125976562500e+01,3.229697799682617188e+01,1.908749389648437500e+01,1.527086544036865234e+01,2.989196586608886719e+01,4.237593078613281250e+01,3.622090148925781250e+01,-2.130699634552001953e+00,-7.026800513267517090e-02
7.642326354980468750e+00,3.943620443344116211e+00,2.578391647338867188e+01,2.584995460510253906e+01,5.788269519805908203e+00,3.586092758178710938e+01,1.752110290527343750e+01,2.334560966491699219e+01,3.359070968627929688e+01,3.597116470336914062e+01,1.348280811309814453e+01,8.659809112548828125e+00,3.530292129516601562e+01,3.371034240722656250e+01,2.303098297119140625e+01,1.838436317443847656e+01,2.754834938049316406e+01,4.005452728271484375e+01,3.708636856079101562e+01,-1.719616413116455078e+00,-7.326094806194305420e-02
5.544726371765136719e+00,1.502288222312927246e+00,2.311336517333984375e+01,2.261296463012695312e+01,3.598725080490112305e+00,3.397170257568359375e+01,1.645030021667480469e+01,2.224494552612304688e+01,3.091957092285156250e+01,3.311820220947265625e+01,1.435127639770507812e+01,1.220689582824707031e+01,3.587677001953125000e+01,3.471535873413085938e+01,2.621178245544433594e+01,2.096227073669433594e+01,2.454017829895019531e+01,3.691586685180664062e+01,3.722539901733398438e+01,-1.210269927978515625e+00,-7.558879256248474121e-02
3.186758279800415039e+00,-1.020719408988952637e+00,1.983230018615722656e+01,1.884078788757324219e+01,1.007638335227966309e+00,3.157737541198730469e+01,1.488304424285888672e+01,2.091084671020507812e+01,2.758696746826171875e+01,2.971379661560058594e+01,1.480164718627929688e+01,1.589822387695312500e+01,3.566080474853515625e+01,3.526727676391601562e+01,2.827315330505371094e+01,2.281990242004394531e+01,2.103359222412109375e+01,3.309032440185546875e+01,3.657369232177734375e+01,-6.279021501541137695e-01,-7.699723541736602783e-02
7.205849289894104004e-01,-3.567974567413330078e+00,1.618706893920898438e+01,1.481652832031250000e+01,-1.716033458709716797e+00,2.881132507324218750e+01,1.286295700073242188e+01,1.951023864746093750e+01,2.378529930114746094e+01,2.603862571716308594e+01,1.478991127014160156e+01,1.970534896850585938e+01,3.466736602783203125e+01,3.538661193847656250e+01,2.912195205688476562e+01,2.396341705322265625e+01,1.725599861145019531e+01,2.880209159851074219e+01,3.520423889160156250e+01,4.949535243213176727e-03,-7.762321084737777710e-02
-1.690358757972717285e+00,-6.076944351196289062e+00,1.248828315734863281e+01,1.087758922576904297e+01,-4.267976284027099609e+00,2.588346672058105469e+01,1.053440284729003906e+01,1.822830390930175781e+01,1.977999496459960938e+01,2.242619132995605469e+01,1.438795185089111328e+01,2.357545280456542969e+01,3.306150817871093750e+01,3.515353775024414062e+01,2.894621658325195312e+01,2.457134056091308594e+01,1.347958374023437500e+01,2.435326766967773438e+01,3.330125045776367188e+01,6.756641268730163574e-01,-7.772101461887359619e-02
-3.877002239227294922e+00,-8.477438926696777344e+00,9.062026977539062500e+00,7.363956928253173828e+00,-6.374181270599365234e+00,2.302995109558105469e+01,8.128992080688476562e+00,1.722023010253906250e+01,1.587299728393554688e+01,1.921000289916992188e+01,1.376740741729736328e+01,2.742524147033691406e+01,3.111936378479003906e+01,3.468738937377929688e+01,2.815541076660156250e+01,2.492532348632812500e+01,9.985958099365234375e+00,2.008570480346679688e+01,3.112368011474609375e+01,1.387847661972045898e+00,-7.752539962530136108e-02
-5.699581146240234375e+00,-1.069926738739013672e+01,6.196300983428955078e+00,4.556153297424316406e+00,-7.841453552246093750e+00,2.046725463867187500e+01,5.911569118499755859e+00,1.660860633850097656e+01,1.234939670562744141e+01,1.666247749328613281e+01,1.315566539764404297e+01,3.114907455444335938e+01,2.915407752990722656e+01,3.410377120971679688e+01,2.725564765930175781e+01,2.534086608886718750e+01,7.024919509887695312e+00,1.631740188598632812e+01,2.894263267517089844e+01,2.148712158203125000e+00,-7.668424397706985474e-02
-7.067924022674560547e+00,-1.268755626678466797e+01,4.069618225097656250e+00,2.613184690475463867e+00,-8.599081039428710938e+00,1.834406471252441406e+01,4.113742828369140625e+00,1.643907165527343750e+01,9.421255111694335938e+00,1.494211387634277344e+01,1.276837539672851562e+01,3.465756225585937500e+01,2.743406867980957031e+01,3.349777603149414062e+01,2.670384025573730469e+01,2.605498504638671875e+01,4.764961719512939453e+00,1.327891063690185547e+01,2.697187042236328125e+01,2.960060358047485352e+00,-7.423903048038482666e-02
-7.962870121002197266e+00,-1.441295146942138672e+01,2.735532522201538086e+00,1.545392155647277832e+00,-8.702624320983886719e+00,1.671067428588867188e+01,2.873647689819335938e+00,1.668293952941894531e+01,7.185475349426269531e+00,1.404726123809814453e+01,1.273610115051269531e+01,3.788772583007812500e+01,2.611205291748046875e+01,3.291416168212890625e+01,2.677413368225097656e+01,2.719542121887207031e+01,3.254395961761474609e+00,1.106244945526123047e+01,2.533130455017089844e+01,3.811074733734130859e+00,-6.842920929193496704e-02
-8.437394142150878906e+00,-1.588055801391601562e+01,2.085745811462402344e+00,1.209283113479614258e+00,-8.312445640563964844e+00,1.552990913391113281e+01,2.197515487670898438e+00,1.723327255249023438e+01,5.599925518035888672e+00,1.381941986083984375e+01,1.307351303100585938e+01,4.081925582885742188e+01,2.518957138061523438e+01,3.233240890502929688e+01,2.748234558105468750e+01,2.873600959777832031e+01,2.417811155319213867e+00,9.598057746887207031e+00,2.400355911254882812e+01,4.681020259857177734e+00,-5.677043646574020386e-02
-8.597447395324707031e+00,-1.712993812561035156e+01,1.904852867126464844e+00,1.361824870109558105e+00,-7.648258686065673828e+00,1.469681358337402344e+01,1.960713267326354980e+00,1.793748855590820312e+01,4.504505634307861328e+00,1.396636104583740234e+01,1.366618347167968750e+01,4.345214462280273438e+01,2.452162170410156250e+01,3.169471549987792969e+01,2.861056327819824219e+01,3.050745391845703125e+01,2.074929237365722656e+00,8.672677993774414062e+00,2.286350631713867188e+01,5.550966262817382812e+00,-3.646539151668548584e-02
-8.570396423339843750e+00,-1.821979522705078125e+01,1.909613132476806641e+00,1.694055676460266113e+00,-6.951241016387939453e+00,1.408019256591796875e+01,1.943057060241699219e+00,1.861823081970214844e+01,3.652044057846069336e+00,1.413311386108398438e+01,1.431460094451904297e+01,4.578842926025390625e+01,2.387218284606933594e+01,3.090972137451171875e+01,2.977041435241699219e+01,3.224811935424804688e+01,1.985379219055175781e+00,7.977847099304199219e+00,2.172171592712402344e+01,6.410995483398437500e+00,-4.716752562671899796e-03
-8.472334861755371094e+00,-1.921011161804199219e+01,1.823927044868469238e+00,1.930624723434448242e+00,-6.439842224121093750e+00,1.354884815216064453e+01,1.895281195640563965e+00,1.912552833557128906e+01,2.785538911819458008e+00,1.397296524047851562e+01,1.479431247711181641e+01,4.780982208251953125e+01,2.297129821777343750e+01,2.989911270141601562e+01,3.053486061096191406e+01,3.365173339843750000e+01,1.913503646850585938e+00,7.195566654205322266e+00,2.036964035034179688e+01,7.269221305847167969e+00,4.078376293182373047e-02
-8.379910469055175781e+00,-2.014172363281250000e+01,1.439529418945312500e+00,1.869866609573364258e+00,-6.264325141906738281e+00,1.300438499450683594e+01,1.600317120552062988e+00,1.934722518920898438e+01,1.692927956581115723e+00,1.323000526428222656e+01,1.491314029693603516e+01,4.945537567138671875e+01,2.161225891113281250e+01,2.862746047973632812e+01,3.055419158935546875e+01,3.445050048828125000e+01,1.675489306449890137e+00,6.065075874328613281e+00,1.865260696411132812e+01,8.147280693054199219e+00,1.012294143438339233e-01
-8.331443786621093750e+00,-2.102739143371582031e+01,6.612135171890258789e-01,1.418704867362976074e+00,-6.500452518463134766e+00,1.238557624816894531e+01,9.293779134750366211e-01,1.923637580871582031e+01,2.548383772373199463e-01,1.179526805877685547e+01,1.456105804443359375e+01,5.063977050781250000e+01,1.968553924560546875e+01,2.710968017578125000e+01,2.963334083557128906e+01,3.446127319335937500e+01,1.168825268745422363e+00,4.455994606018066406e+00,1.652022171020507812e+01,9.059597015380859375e+00,1.760529130697250366e-01
-8.332570075988769531e+00,-2.185180473327636719e+01,-4.955494999885559082e-01,5.810176730155944824e-01,-7.131809234619140625e+00,1.167055797576904297e+01,-1.341542452573776245e-01,1.880602264404296875e+01,-1.525920987129211426e+00,9.708377838134765625e+00,1.371899604797363281e+01,5.126142501831054688e+01,1.721890640258789062e+01,2.542035865783691406e+01,2.775824928283691406e+01,3.362864685058593750e+01,3.899765312671661377e-01,2.373093366622924805e+00,1.403330612182617188e+01,9.999858856201171875e+00,2.623786926269531250e-01
-8.384418487548828125e+00,-2.258433151245117188e+01,-1.920081853866577148e+00,-5.604603290557861328e-01,-8.066216468811035156e+00,1.086588859558105469e+01,-1.498882055282592773e+00,1.809398078918457031e+01,-3.532786369323730469e+00,7.137738704681396484e+00,1.245443534851074219e+01,5.122079467773437500e+01,1.435119533538818359e+01,2.367137145996093750e+01,2.507653617858886719e+01,3.200033187866210938e+01,-6.056773066520690918e-01,-2.939831651747226715e-02,1.135696125030517578e+01,1.091578102111816406e+01,3.547294735908508301e-01
-8.485860824584960938e+00,-2.319562149047851562e+01,-3.450531721115112305e+00,-1.889383792877197266e+00,-9.160988807678222656e+00,9.995621681213378906e+00,-3.001744508743286133e+00,1.714850425720214844e+01,-5.576165676116943359e+00,4.337607383728027344e+00,1.088913822174072266e+01,5.043661499023437500e+01,1.131071186065673828e+01,2.198018455505371094e+01,2.184125709533691406e+01,2.973485183715820312e+01,-1.712090253829956055e+00,-2.508209943771362305e+00,8.724062919616699219e+00,1.170909976959228516e+01,4.449284672737121582e-01
-8.650423049926757812e+00,-2.367291259765625000e+01,-4.914336681365966797e+00,-3.282943487167358398e+00,-1.025197219848632812e+01,9.094741821289062500e+00,-4.441251754760742188e+00,1.599567604064941406e+01,-7.428548336029052734e+00,1.585355639457702637e+00,9.169805526733398438e+00,4.887232208251953125e+01,8.351985931396484375e+00,2.044003105163574219e+01,1.835995101928710938e+01,2.703535842895507812e+01,-2.814968347549438477e+00,-4.777141571044921875e+00,6.381392478942871094e+00,1.224278640747070312e+01,5.230579376220703125e-01
-8.882613182067871094e+00,-2.402386283874511719e+01,-6.166306495666503906e+00,-4.636428833007812500e+00,-1.118511772155761719e+01,8.198235511779785156e+00,-5.629416465759277344e+00,1.465114498138427734e+01,-8.883490562438964844e+00,-8.730143904685974121e-01,7.447537899017333984e+00,4.654822921752929688e+01,5.738805294036865234e+00,1.911616897583007812e+01,1.495596694946289062e+01,2.413578987121582031e+01,-3.805908918380737305e+00,-6.575432777404785156e+00,4.551398277282714844e+00,1.237260246276855469e+01,5.786913633346557617e-01
-9.158761024475097656e+00,-2.426633644104003906e+01,-7.099333763122558594e+00,-5.863226890563964844e+00,-1.185309219360351562e+01,7.341087341308593750e+00,-6.416679859161376953e+00,1.311751747131347656e+01,-9.786509513854980469e+00,-2.844333171844482422e+00,5.866103649139404297e+00,4.357200622558593750e+01,3.679420948028564453e+00,1.802910995483398438e+01,1.194035816192626953e+01,2.128854942321777344e+01,-4.590649127960205078e+00,-7.697973251342773438e+00,3.383538484573364258e+00,1.198045063018798828e+01,6.026544570922851562e-01
-9.437163352966308594e+00,-2.441054534912109375e+01,-7.644392967224121094e+00,-6.887066841125488281e+00,-1.220791530609130859e+01,6.551724433898925781e+00,-6.718914031982421875e+00,1.141305255889892578e+01,-1.006317329406738281e+01,-4.213029384613037109e+00,4.544329643249511719e+00,4.014477920532226562e+01,2.328094959259033203e+00,1.716953277587890625e+01,9.585511207580566406e+00,1.874296188354492188e+01,-5.087886810302734375e+00,-8.035053253173828125e+00,2.947329044342041016e+00,1.101765060424804688e+01,5.889613032341003418e-01
-9.647937774658203125e+00,-2.445648765563964844e+01,-7.771731853485107422e+00,-7.645897388458251953e+00,-1.225463485717773438e+01,5.860758304595947266e+00,-6.521578788757324219e+00,9.579481124877929688e+00,-9.719099044799804688e+00,-4.934525489807128906e+00,3.561434507369995117e+00,3.655503082275390625e+01,1.752701520919799805e+00,1.650946807861328125e+01,8.093522071838378906e+00,1.674065780639648438e+01,-5.232816219329833984e+00,-7.566003322601318359e+00,3.208012104034423828e+00,9.525671005249023438e+00,5.361642241477966309e-01
-9.732473373413085938e+00,-2.437991714477539062e+01,-7.473020553588867188e+00,-8.095767021179199219e+00,-1.204249954223632812e+01,5.287868976593017578e+00,-5.881797790527343750e+00,7.689833641052246094e+00,-8.832932472229003906e+00,-5.036889076232910156e+00,2.945291280746459961e+00,3.312374114990234375e+01,1.922388553619384766e+00,1.600229835510253906e+01,7.545229434967041016e+00,1.547248172760009766e+01,-4.985375881195068359e+00,-6.371912479400634766e+00,4.042197704315185547e+00,7.638835906982421875e+00,4.479409754276275635e-01
-9.663718223571777344e+00,-2.415275573730468750e+01,-6.775630474090576172e+00,-8.221160888671875000e+00,-1.164348220825195312e+01,4.839615821838378906e+00,-4.915894508361816406e+00,5.826268196105957031e+00,-7.546516895294189453e+00,-4.615878582000732422e+00,2.653356790542602539e+00,3.012517356872558594e+01,2.696778535842895508e+00,1.557157707214355469e+01,7.858037471771240234e+00,1.501692295074462891e+01,-4.346743583679199219e+00,-4.608601570129394531e+00,5.239601135253906250e+00,5.563587188720703125e+00,3.327029943466186523e-01
-9.464215278625488281e+00,-2.375714111328125000e+01,-5.737875938415527344e+00,-8.053106307983398438e+00,-1.112829494476318359e+01,4.500692367553710938e+00,-3.782775878906250000e+00,4.063118457794189453e+00,-6.028377532958984375e+00,-3.826690673828125000e+00,2.571204423904418945e+00,2.770356369018554688e+01,3.833682060241699219e+00,1.510729312896728516e+01,8.750770568847656250e+00,1.527702236175537109e+01,-3.375833749771118164e+00,-2.498669862747192383e+00,6.529112815856933594e+00,3.526201248168945312e+00,2.022851556539535522e-01
-9.201592445373535156e+00,-2.320200157165527344e+01,-4.458534240722656250e+00,-7.673044681549072266e+00,-1.055754947662353516e+01,4.229554176330566406e+00,-2.654850006103515625e+00,2.438204288482666016e+00,-4.465297698974609375e+00,-2.875702619552612305e+00,2.537463188171386719e+00,2.582031631469726562e+01,5.018406391143798828e+00,1.447333145141601562e+01,9.798150062561035156e+00,1.596189880371093750e+01,-2.191653728485107422e+00,-2.965185046195983887e-01,7.617029666900634766e+00,1.726810932159423828e+00,6.995025277137756348e-02
-8.964893341064453125e+00,-2.253328323364257812e+01,-3.070894479751586914e+00,-7.198614120483398438e+00,-9.975438117980957031e+00,3.962788581848144531e+00,-1.688946843147277832e+00,9.423961639404296875e-01,-3.025803565979003906e+00,-1.985802412033081055e+00,2.384894371032714844e+00,2.425196075439453125e+01,5.939344406127929688e+00,1.352798271179199219e+01,1.050284671783447266e+01,1.662522888183593750e+01,-9.662335515022277832e-01,1.746632933616638184e+00,8.237455368041992188e+00,2.916259467601776123e-01,-5.172351747751235962e-02
-8.833019256591796875e+00,-2.182755661010742188e+01,-1.728478074073791504e+00,-6.759086608886718750e+00,-9.422369956970214844e+00,3.630425214767456055e+00,-9.899652600288391113e-01,-4.582122266292572021e-01,-1.832076787948608398e+00,-1.351810455322265625e+00,1.991736412048339844e+00,2.265719223022460938e+01,6.346593379974365234e+00,1.216682910919189453e+01,1.044309711456298828e+01,1.678836822509765625e+01,1.083655804395675659e-01,3.433624029159545898e+00,8.223551750183105469e+00,-7.523089051246643066e-01,-1.525836437940597534e-01
-8.852180480957031250e+00,-2.118053245544433594e+01,-5.848059058189392090e-01,-6.461759567260742188e+00,-8.927387237548828125e+00,3.177798748016357422e+00,-5.869863033294677734e-01,-1.806656479835510254e+00,-9.388883709907531738e-01,-1.102506279945373535e+00,1.331582903861999512e+00,2.069268226623535156e+01,6.139883518218994141e+00,1.037681961059570312e+01,9.425592422485351562e+00,1.608810043334960938e+01,8.589353561401367188e-01,4.653154850006103516e+00,7.550990104675292969e+00,-1.464492440223693848e+00,-2.261551916599273682e-01
-9.022377967834472656e+00,-2.067899513244628906e+01,2.399232983589172363e-01,-6.366097927093505859e+00,-8.529632568359375000e+00,2.576483488082885742e+00,-4.260024428367614746e-01,-3.122498035430908203e+00,-3.195548355579376221e-01,-1.262655258178710938e+00,4.924544990062713623e-01,1.813496017456054688e+01,5.410229206085205078e+00,8.266099929809570312e+00,7.546987056732177734e+00,1.441669368743896484e+01,1.174716711044311523e+00,5.395685195922851562e+00,6.367489337921142578e+00,-1.967528343200683594e+00,-2.701690196990966797e-01
-9.315432548522949219e+00,-2.039057731628417969e+01,6.719242930412292480e-01,-6.479857921600341797e+00,-8.266987800598144531e+00,1.850531935691833496e+00,-3.844582140445709229e-01,-4.380959033966064453e+00,1.298481523990631104e-01,-1.744753360748291016e+00,-3.364048600196838379e-01,1.495558452606201172e+01,4.419873714447021484e+00,6.064014911651611328e+00,5.220257759094238281e+00,1.197422218322753906e+01,1.022717475891113281e+00,5.766155719757080078e+00,4.975442409515380859e+00,-2.400247573852539062e+00,-2.863074243068695068e-01
-9.689641952514648438e+00,-2.034591102600097656e+01,6.969161033630371094e-01,-6.764257431030273438e+00,-8.168496131896972656e+00,1.054609060287475586e+00,-3.055241703987121582e-01,-5.516834259033203125e+00,5.694204568862915039e-01,-2.382047414779663086e+00,-9.158729314804077148e-01,1.133332920074462891e+01,3.548299312591552734e+00,4.080087661743164062e+00,3.058719396591186523e+00,9.213167190551757812e+00,4.536041319370269775e-01,5.926745891571044922e+00,3.758922100067138672e+00,-2.884351968765258789e+00,-2.793825864791870117e-01
-1.011231803894042969e+01,-2.053733825683593750e+01,3.529814183712005615e-01,-7.163710117340087891e+00,-8.239208221435546875e+00,2.739924490451812744e-01,-3.964113444089889526e-02,-6.446660995483398438e+00,1.169092535972595215e+00,-2.971461772918701172e+00,-1.020030498504638672e+00,7.605433940887451172e+00,3.179615497589111328e+00,2.620110750198364258e+00,1.707318663597106934e+00,6.696821689605712891e+00,-4.265774190425872803e-01,6.061895847320556641e+00,3.098525285720825195e+00,-3.491961717605590820e+00,-2.560650408267974854e-01
-1.056542682647705078e+01,-2.091891670227050781e+01,-2.849043905735015869e-01,-7.627799510955810547e+00,-8.448818206787109375e+00,-4.169735312461853027e-01,5.056267976760864258e-01,-7.096105098724365234e+00,2.066494226455688477e+00,-3.342941522598266602e+00,-5.007097125053405762e-01,4.147735118865966797e+00,3.599205255508422852e+00,1.920888304710388184e+00,1.642296791076660156e+00,4.889977931976318359e+00,-1.483502268791198730e+00,6.324245929718017578e+00,3.267100095748901367e+00,-4.244712829589843750e+00,-2.236904203891754150e-01
-1.103995037078857422e+01,-2.142300796508789062e+01,-1.120344400405883789e+00,-8.122913360595703125e+00,-8.731666564941406250e+00,-9.636238217353820801e-01,1.346897363662719727e+00,-7.432564258575439453e+00,3.337461948394775391e+00,-3.402378320693969727e+00,6.640943884849548340e-01,1.277153849601745605e+00,4.911966323852539062e+00,2.070055723190307617e+00,3.018300533294677734e+00,4.021954059600830078e+00,-2.591093540191650391e+00,6.796476364135742188e+00,4.361968517303466797e+00,-5.115560054779052734e+00,-1.888705939054489136e-01
-1.152461910247802734e+01,-2.197304153442382812e+01,-2.048610925674438477e+00,-8.632247924804687500e+00,-8.994310379028320312e+00,-1.355025410652160645e+00,2.416661262512207031e+00,-7.471687316894531250e+00,4.946886539459228516e+00,-3.151423215866088867e+00,2.371691465377807617e+00,-8.478480577468872070e-01,7.008372783660888672e+00,2.987435817718505859e+00,5.601602554321289062e+00,4.003485679626464844e+00,-3.649196624755859375e+00,7.481766700744628906e+00,6.278857231140136719e+00,-6.040496826171875000e+00,-1.566133499145507812e-01
-1.199801635742187500e+01,-2.250137901306152344e+01,-2.961406469345092773e+00,-9.138997077941894531e+00,-9.136997222900390625e+00,-1.610857844352722168e+00,3.592362642288208008e+00,-7.279983997344970703e+00,6.783821105957031250e+00,-2.670976161956787109e+00,4.419634342193603516e+00,-2.243523359298706055e+00,9.604584693908691406e+00,4.453006267547607422e+00,8.835123062133789062e+00,4.479051589965820312e+00,-4.585936069488525391e+00,8.326057434082031250e+00,8.741441726684570312e+00,-6.933881759643554688e+00,-1.299703121185302734e-01
-1.241280269622802734e+01,-2.295569992065429688e+01,-3.756383657455444336e+00,-9.601793289184570312e+00,-9.085226058959960938e+00,-1.763919830322265625e+00,4.729635715484619141e+00,-6.938308238983154297e+00,8.676931381225585938e+00,-2.084863662719726562e+00,6.554130554199218750e+00,-3.080522298812866211e+00,1.231186485290527344e+01,6.159109115600585938e+00,1.197374725341796875e+01,4.962313175201416016e+00,-5.351823329925537109e+00,9.246667861938476562e+00,1.137434005737304688e+01,-7.698351860046386719e+00,-1.098413243889808655e-01
-1.270811176300048828e+01,-2.330282020568847656e+01,-4.328814983367919922e+00,-9.943073272705078125e+00,-8.799852371215820312e+00,-1.840450882911682129e+00,5.711118221282958984e+00,-6.520994663238525391e+00,1.044083786010742188e+01,-1.500402331352233887e+00,8.546326637268066406e+00,-3.614820003509521484e+00,1.474918842315673828e+01,7.799951553344726562e+00,1.430399131774902344e+01,4.976164817810058594e+00,-5.904440879821777344e+00,1.017204856872558594e+01,1.380390453338623047e+01,-8.238348960876464844e+00,-9.563953429460525513e-02
-1.280391883850097656e+01,-2.352232360839843750e+01,-4.581112861633300781e+00,-1.004778480529785156e+01,-8.287191390991210938e+00,-1.838264346122741699e+00,6.477609157562255859e+00,-6.065862178802490234e+00,1.193089008331298828e+01,-9.753776788711547852e-01,1.023925399780273438e+01,-4.102392196655273438e+00,1.662962913513183594e+01,9.144323348999023438e+00,1.532149600982666016e+01,4.225108623504638672e+00,-6.195477962493896484e+00,1.106085872650146484e+01,1.574164772033691406e+01,-8.479950904846191406e+00,-8.572175353765487671e-02
-1.262019538879394531e+01,-2.358613204956054688e+01,-4.431161880493164062e+00,-9.799580574035644531e+00,-7.604063510894775391e+00,-1.739867210388183594e+00,7.048842430114746094e+00,-5.566390037536621094e+00,1.308388996124267578e+01,-4.866755008697509766e-01,1.159183502197265625e+01,-4.728109836578369141e+00,1.784212112426757812e+01,1.008780765533447266e+01,1.487864398956298828e+01,2.652200222015380859e+00,-6.174269199371337891e+00,1.191309928894042969e+01,1.705375289916992188e+01,-8.388899803161621094e+00,-7.828830182552337646e-02
-1.208705997467041016e+01,-2.344958114624023438e+01,-3.831359148025512695e+00,-9.091166496276855469e+00,-6.811079978942871094e+00,-1.503714323043823242e+00,7.508944511413574219e+00,-4.971718311309814453e+00,1.393494701385498047e+01,5.651035904884338379e-02,1.267888736724853516e+01,-5.561045646667480469e+00,1.845453643798828125e+01,1.067329025268554688e+01,1.319686222076416016e+01,4.498205184936523438e-01,-5.794859886169433594e+00,1.277965068817138672e+01,1.778018951416015625e+01,-7.995846271514892578e+00,-7.185250520706176758e-02
-1.115379142761230469e+01,-2.305268859863281250e+01,-2.779323577880859375e+00,-7.870831966400146484e+00,-5.972638607025146484e+00,-1.105752944946289062e+00,7.985664367675781250e+00,-4.212729454040527344e+00,1.460764694213867188e+01,7.846105694770812988e-01,1.366765022277832031e+01,-6.546347618103027344e+00,1.869981193542480469e+01,1.106112480163574219e+01,1.082619857788085938e+01,-2.003424167633056641e+00,-5.031329154968261719e+00,1.373842048645019531e+01,1.810865020751953125e+01,-7.404463768005371094e+00,-6.557320058345794678e-02
-9.810245513916015625e+00,-2.232781982421875000e+01,-1.323848962783813477e+00,-6.146334171295166016e+00,-5.130409240722656250e+00,-5.394232273101806641e-01,8.612982749938964844e+00,-3.220305919647216797e+00,1.528034687042236328e+01,1.837961792945861816e+00,1.476350498199462891e+01,-7.519460201263427734e+00,1.889880943298339844e+01,1.147133541107177734e+01,8.471352577209472656e+00,-4.238123893737792969e+00,-3.890745639801025391e+00,1.486096191406250000e+01,1.831024360656738281e+01,-6.777922630310058594e+00,-5.939170345664024353e-02
-8.095871925354003906e+00,-2.122264671325683594e+01,4.386675655841827393e-01,-3.999114513397216797e+00,-4.293230533599853516e+00,1.690355986356735229e-01,9.492681503295898438e+00,-1.947499752044677734e+00,1.614825630187988281e+01,3.320578575134277344e+00,1.615422821044921875e+01,-8.252850532531738281e+00,1.939398574829101562e+01,1.214631843566894531e+01,6.844047546386718750e+00,-5.792563915252685547e+00,-2.415528535842895508e+00,1.620928192138671875e+01,1.868215179443359375e+01,-6.307340145111083984e+00,-5.377749726176261902e-02
-6.106477260589599609e+00,-1.972441291809082031e+01,2.388027429580688477e+00,-1.553274750709533691e+00,-3.444687366485595703e+00,9.780780673027038574e-01,1.068084621429443359e+01,-3.760536313056945801e-01,1.736726188659667969e+01,5.288595199584960938e+00,1.796304893493652344e+01,-8.502730369567871094e+00,2.046610069274902344e+01,1.327066802978515625e+01,6.501364707946777344e+00,-6.301989078521728516e+00,-6.799094676971435547e-01,1.781677436828613281e+01,1.945377349853515625e+01,-6.164001941680908203e+00,-4.943479970097541809e-02
-3.980698823928833008e+00,-1.787650299072265625e+01,4.407602310180664062e+00,1.047692179679870605e+00,-2.558263063430786133e+00,1.852718472480773926e+00,1.217747688293457031e+01,1.482295513153076172e+00,1.903005218505859375e+01,7.728804111480712891e+00,2.021343994140625000e+01,-8.059852600097656250e+00,2.227095413208007812e+01,1.495066738128662109e+01,7.750839233398437500e+00,-5.544776916503906250e+00,1.237166047096252441e+00,1.967548561096191406e+01,2.075892639160156250e+01,-6.445269584655761719e+00,-4.689177870750427246e-02
-1.880844712257385254e+00,-1.577463531494140625e+01,6.416466712951660156e+00,3.671928167343139648e+00,-1.611228227615356445e+00,2.768904447555541992e+00,1.393272018432617188e+01,3.585816383361816406e+00,2.114786529541015625e+01,1.057186222076416016e+01,2.283058166503906250e+01,-6.794196605682373047e+00,2.483168601989746094e+01,1.718072128295898438e+01,1.061883163452148438e+01,-3.482450485229492188e+00,3.263822317123413086e+00,2.175202560424804688e+01,2.261151313781738281e+01,-7.142127513885498047e+00,-4.632448777556419373e-02
3.641346469521522522e-02,-1.355152988433837891e+01,8.383678436279296875e+00,6.223771572113037109e+00,-6.023206710815429688e-01,3.735382080078125000e+00,1.586660385131835938e+01,5.867999553680419922e+00,2.366171264648437500e+01,1.370054626464843750e+01,2.565897178649902344e+01,-4.681384086608886719e+00,2.802180290222167969e+01,1.986573600769042969e+01,1.486985778808593750e+01,-2.581421732902526855e-01,5.354106426239013672e+00,2.399551773071289062e+01,2.491073608398437500e+01,-8.133775711059570312e+00,-4.740038141608238220e-02
1.645963549613952637e+00,-1.136288166046142578e+01,1.031994724273681641e+01,8.642463684082031250e+00,4.406802058219909668e-01,4.776204109191894531e+00,1.787318992614746094e+01,8.242774009704589844e+00,2.644801139831542969e+01,1.695635986328125000e+01,2.848736190795898438e+01,-1.827055454254150391e+00,3.159757232666015625e+01,2.283043861389160156e+01,2.006457901000976562e+01,3.826494932174682617e+00,7.486808300018310547e+00,2.633123016357421875e+01,2.747238159179687500e+01,-9.211967468261718750e+00,-4.931742697954177856e-02
2.870033025741577148e+00,-9.355450630187988281e+00,1.225264549255371094e+01,1.088793087005615234e+01,1.455901384353637695e+00,5.902304172515869141e+00,1.982680702209472656e+01,1.059668350219726562e+01,2.934104347229003906e+01,2.015603828430175781e+01,3.107956504821777344e+01,1.553444743156433105e+00,3.522733306884765625e+01,2.584735107421875000e+01,2.563185882568359375e+01,8.346682548522949219e+00,9.647789955139160156e+00,2.867966079711914062e+01,3.005488014221191406e+01,-1.013510131835937500e+01,-5.111710354685783386e-02
3.677062273025512695e+00,-7.661959648132324219e+00,1.419248485565185547e+01,1.292526912689208984e+01,2.348639488220214844e+00,7.089628219604492188e+00,2.158205032348632812e+01,1.281235694885253906e+01,3.214138412475585938e+01,2.310310935974121094e+01,3.319058990478515625e+01,5.167573451995849609e+00,3.853777313232421875e+01,2.867593955993652344e+01,3.092323303222656250e+01,1.282069969177246094e+01,1.180405807495117188e+01,3.094223213195800781e+01,3.238712310791015625e+01,-1.069222736358642578e+01,-5.193869769573211670e-02
4.069305419921875000e+00,-6.378122806549072266e+00,1.609662246704101562e+01,1.470147609710693359e+01,3.015351772308349609e+00,8.268206596374511719e+00,2.297689819335937500e+01,1.474373626708984375e+01,3.462574005126953125e+01,2.559945297241210938e+01,3.459745025634765625e+01,8.702471733093261719e+00,4.114941024780273438e+01,3.108126449584960938e+01,3.529200363159179688e+01,1.677605628967285156e+01,1.388609313964843750e+01,3.299174499511718750e+01,3.420669174194335938e+01,-1.074812030792236328e+01,-5.133228376507759094e-02
4.081704139709472656e+00,-5.563920021057128906e+00,1.786508941650390625e+01,1.613769531250000000e+01,3.339869022369384766e+00,9.337454795837402344e+00,2.383997917175292969e+01,1.626953887939453125e+01,3.656519699096679688e+01,2.747171211242675781e+01,3.512263870239257812e+01,1.189810085296630859e+01,4.274601364135742188e+01,3.287313842773437500e+01,3.818811035156250000e+01,1.983414649963378906e+01,1.577842521667480469e+01,3.467873382568359375e+01,3.528591918945312500e+01,-1.027753829956054688e+01,-4.935654997825622559e-02
3.763851881027221680e+00,-5.230836868286132812e+00,1.935269546508789062e+01,1.714602279663085938e+01,3.243902921676635742e+00,1.018366909027099609e+01,2.402381324768066406e+01,1.729978179931640625e+01,3.774628448486328125e+01,2.858945274353027344e+01,3.466053009033203125e+01,1.459803104400634766e+01,4.311623764038085938e+01,3.391544723510742188e+01,3.924076461791992188e+01,2.177796745300292969e+01,1.733847808837890625e+01,3.584420394897460938e+01,3.545796966552734375e+01,-9.359812736511230469e+00,-4.652010649442672729e-02
3.189012527465820312e+00,-5.338036060333251953e+00,2.040592193603515625e+01,1.765018653869628906e+01,2.698410749435424805e+00,1.073031902313232422e+01,2.342972946166992188e+01,1.779925346374511719e+01,3.800328445434570312e+01,2.889489173889160156e+01,3.321552658081054688e+01,1.679210662841796875e+01,4.219375991821289062e+01,3.416157150268554688e+01,3.833572769165039062e+01,2.258904647827148438e+01,1.842721748352050781e+01,3.634028625488281250e+01,3.465854263305664062e+01,-8.151805877685546875e+00,-4.366409778594970703e-02
2.448484182357788086e+00,-5.791079998016357422e+00,2.091289710998535156e+01,1.760881805419921875e+01,1.742537140846252441e+00,1.096209907531738281e+01,2.204319190979003906e+01,1.779142951965332031e+01,3.726317596435546875e+01,2.840453720092773438e+01,3.090792465209960938e+01,1.859815406799316406e+01,4.008038330078125000e+01,3.364321517944335938e+01,3.567158889770507812e+01,2.245207023620605469e+01,1.895273399353027344e+01,3.608111572265625000e+01,3.292586898803710938e+01,-6.837421417236328125e+00,-4.149274900555610657e-02
1.652726292610168457e+00,-6.452141284942626953e+00,2.082840156555175781e+01,1.704001808166503906e+01,4.937141239643096924e-01,1.092930030822753906e+01,1.994313049316406250e+01,1.735585784912109375e+01,3.554561233520507812e+01,2.721910476684570312e+01,2.796510696411132812e+01,2.022136306762695312e+01,3.702910232543945312e+01,3.246292877197265625e+01,3.172458457946777344e+01,2.168716239929199219e+01,1.888674926757812500e+01,3.503966522216796875e+01,3.040593338012695312e+01,-5.592452526092529297e+00,-4.047553986310958862e-02
9.099437594413757324e-01,-7.156592369079589844e+00,2.019408607482910156e+01,1.600971603393554688e+01,-8.700157999992370605e-01,1.074125194549560547e+01,1.729780197143554688e+01,1.660338973999023438e+01,3.298542022705078125e+01,2.548057937622070312e+01,2.468634605407714844e+01,2.186082458496093750e+01,3.337157440185546875e+01,3.076801300048828125e+01,2.714669227600097656e+01,2.067908477783203125e+01,1.827757453918457031e+01,3.327953338623046875e+01,2.731249618530273438e+01,-4.543108463287353516e+00,-4.059290885925292969e-02
3.035446703433990479e-01,-7.752568244934082031e+00,1.912300872802734375e+01,1.462132644653320312e+01,-2.141567707061767578e+00,1.051821899414062500e+01,1.433154487609863281e+01,1.562400627136230469e+01,2.980027770996093750e+01,2.335076332092285156e+01,2.137824249267578125e+01,2.364452552795410156e+01,2.946568489074707031e+01,2.869831466674804688e+01,2.262503623962402344e+01,1.976489067077636719e+01,1.722889900207519531e+01,3.092474174499511719e+01,2.389059638977050781e+01,-3.758805274963378906e+00,-4.141450300812721252e-02
-1.247669681906700134e-01,-8.130317687988281250e+00,1.775917053222656250e+01,1.298214912414550781e+01,-3.126483678817749023e+00,1.034985065460205078e+01,1.128427600860595703e+01,1.448421955108642578e+01,2.624297142028808594e+01,2.096669006347656250e+01,1.830632972717285156e+01,2.555418395996093750e+01,2.560761833190917969e+01,2.636570739746093750e+01,1.871845054626464844e+01,1.914927101135253906e+01,1.586561870574951172e+01,2.813429069519042969e+01,2.034009552001953125e+01,-3.253966093063354492e+00,-4.231433942914009094e-02
