Fp1,Fp2,F7,F3,Fz,F4,F8,T3,C3,Cz,C4,T4,T5,P3,Pz,P4,T6,O1,Oz,O2,A1
-4.325065612792968750e+00,-7.034267902374267578e+00,2.964917182922363281e+00,-1.393202066421508789e+00,1.024246501922607422e+01,-1.689717864990234375e+01,-1.302269101142883301e+00,-6.275165557861328125e+00,4.259138107299804688e+00,-3.709385871887207031e+00,4.225523948669433594e+00,-1.022598266601562500e+01,7.698402404785156250e+00,-1.119830322265625000e+01,1.016131496429443359e+01,4.705502986907958984e+00,1.631946206092834473e+00,-1.509451389312744141e+00,1.566196918487548828e+00,-7.789220333099365234e+00,-7.202062010765075684e-02
-5.292627334594726562e+00,-7.889381885528564453e+00,1.341530799865722656e+00,-2.604047298431396484e+00,8.568585395812988281e+00,-1.716526985168457031e+01,-2.287307739257812500e+00,-7.431161403656005859e+00,3.000001668930053711e+00,-5.037138462066650391e+00,2.984558343887329102e+00,-1.091622447967529297e+01,6.362441062927246094e+00,-1.291195487976074219e+01,8.249195098876953125e+00,3.386672973632812500e+00,4.814817011356353760e-01,-2.917717218399047852e+00,-5.894998088479042053e-02,-7.148451805114746094e+00,-7.183995842933654785e-02
-6.553135871887207031e+00,-9.048880577087402344e+00,-5.146344304084777832e-01,-4.189371585845947266e+00,6.656207084655761719e+00,-1.746099853515625000e+01,-3.287662029266357422e+00,-8.587816238403320312e+00,1.429878711700439453e+00,-6.547974109649658203e+00,1.618491530418395996e+00,-1.117457199096679688e+01,4.799475669860839844e+00,-1.469640541076660156e+01,6.140682220458984375e+00,1.647465586662292480e+00,-1.022111535072326660e+00,-4.600656509399414062e+00,-1.902539014816284180e+00,-6.443952560424804688e+00,-7.247228175401687622e-02
-7.909061431884765625e+00,-1.030640125274658203e+01,-2.376865625381469727e+00,-5.922830581665039062e+00,4.738333702087402344e+00,-1.776593971252441406e+01,-4.153399944305419922e+00,-9.567183494567871094e+00,-2.577635645866394043e-01,-8.028025627136230469e+00,3.857440352439880371e-01,-1.092707061767578125e+01,3.218854188919067383e+00,-1.634328079223632812e+01,4.069937705993652344e+00,-3.077000975608825684e-01,-2.682295799255371094e+00,-6.347761631011962891e+00,-3.763944149017333984e+00,-5.782402038574218750e+00,-7.379113137722015381e-02
-9.152830123901367188e+00,-1.148911571502685547e+01,-4.025273799896240234e+00,-7.537597656250000000e+00,3.068849563598632812e+00,-1.806258964538574219e+01,-4.753934860229492188e+00,-1.022822380065917969e+01,-1.851870059967041016e+00,-9.268287658691406250e+00,-4.643951356410980225e-01,-1.017667961120605469e+01,1.824039816856384277e+00,-1.766834449768066406e+01,2.267882823944091797e+00,-2.266162872314453125e+00,-4.284157752990722656e+00,-7.937267303466796875e+00,-5.435568332672119141e+00,-5.268401622772216797e+00,-7.550744712352752686e-02
-1.011536979675292969e+01,-1.250802898406982422e+01,-5.297595977783203125e+00,-8.791687965393066406e+00,1.860974073410034180e+00,-1.835831832885742188e+01,-5.001403808593750000e+00,-1.050305271148681641e+01,-3.176561355590820312e+00,-1.012051200866699219e+01,-7.538625001907348633e-01,-9.006227493286132812e+00,7.798206806182861328e-01,-1.853160667419433594e+01,9.190392494201660156e-01,-4.039989471435546875e+00,-5.651932239532470703e+00,-9.207070350646972656e+00,-6.740023612976074219e+00,-4.976072311401367188e+00,-7.735022157430648804e-02
-1.070126342773437500e+01,-1.336185359954833984e+01,-6.116492748260498047e+00,-9.520402908325195312e+00,1.244397044181823730e+00,-1.867615890502929688e+01,-4.875654220581054688e+00,-1.039826107025146484e+01,-4.130307197570800781e+00,-1.053042221069335938e+01,-4.114326536655426025e-01,-7.563623428344726562e+00,1.719540506601333618e-01,-1.887192344665527344e+01,1.377890408039093018e-01,-5.493999958038330078e+00,-6.692943096160888672e+00,-1.008174896240234375e+01,-7.568863868713378906e+00,-4.937280178070068359e+00,-7.895813137292861938e-02
-1.089209747314453125e+01,-1.410862731933593750e+01,-6.489545345306396484e+00,-9.664857864379882812e+00,1.252090454101562500e+00,-1.904466819763183594e+01,-4.421826839447021484e+00,-9.979097366333007812e+00,-4.688324451446533203e+00,-1.053852367401123047e+01,5.126713514328002930e-01,-6.023398876190185547e+00,-3.763968823477625847e-03,-1.869894790649414062e+01,-4.996998235583305359e-02,-6.550712585449218750e+00,-7.399999141693115234e+00,-1.057706165313720703e+01,-7.894978046417236328e+00,-5.132627964019775391e+00,-7.998792082071304321e-02
-1.072637271881103516e+01,-1.481928730010986328e+01,-6.483479499816894531e+00,-9.272897720336914062e+00,1.819209456443786621e+00,-1.946753120422363281e+01,-3.737458705902099609e+00,-9.341125488281250000e+00,-4.900978565216064453e+00,-1.026552009582519531e+01,1.858648896217346191e+00,-4.553184986114501953e+00,1.669095158576965332e-01,-1.809152793884277344e+01,2.964130342006683350e-01,-7.180453777313232422e+00,-7.825031757354736328e+00,-1.077293586730957031e+01,-7.764842033386230469e+00,-5.499078273773193359e+00,-8.011438697576522827e-02
-1.027439785003662109e+01,-1.552736854553222656e+01,-6.198382377624511719e+00,-8.470574378967285156e+00,2.805073261260986328e+00,-1.991619300842285156e+01,-2.953942060470581055e+00,-8.580566406250000000e+00,-4.854609966278076172e+00,-9.860469818115234375e+00,3.393647909164428711e+00,-3.286099195480346680e+00,5.418867468833923340e-01,-1.717999267578125000e+01,1.044211864471435547e+00,-7.401358127593994141e+00,-8.042342185974121094e+00,-1.077743911743164062e+01,-7.279157161712646484e+00,-5.938957214355468750e+00,-7.894007116556167603e-02
-9.634936332702636719e+00,-1.621868324279785156e+01,-5.744197845458984375e+00,-7.431787014007568359e+00,4.014048099517822266e+00,-2.033168601989746094e+01,-2.218790292739868164e+00,-7.785737037658691406e+00,-4.656346321105957031e+00,-9.474052429199218750e+00,4.846463680267333984e+00,-2.307928562164306641e+00,9.555387496948242188e-01,-1.612123107910156250e+01,2.007825851440429688e+00,-7.277717590332031250e+00,-8.121436119079589844e+00,-1.069526195526123047e+01,-6.568058490753173828e+00,-6.337273120880126953e+00,-7.623010128736495972e-02
-8.916798591613769531e+00,-1.683518981933593750e+01,-5.241486549377441406e+00,-6.341474056243896484e+00,5.207635402679443359e+00,-2.065229034423828125e+01,-1.673069238662719727e+00,-7.037042140960693359e+00,-4.414911746978759766e+00,-9.222922325134277344e+00,5.965981006622314453e+00,-1.669948339462280273e+00,1.248121857643127441e+00,-1.508579826354980469e+01,2.974676847457885742e+00,-6.923282146453857422e+00,-8.115843772888183594e+00,-1.060745620727539062e+01,-5.770202636718750000e+00,-6.583189964294433594e+00,-7.196642458438873291e-02
-8.245532035827636719e+00,-1.731111335754394531e+01,-4.807774543762207031e+00,-5.379974365234375000e+00,6.133050918579101562e+00,-2.084852027893066406e+01,-1.439303994178771973e+00,-6.415545940399169922e+00,-4.232636928558349609e+00,-9.175126075744628906e+00,6.550394535064697266e+00,-1.397796034812927246e+00,1.296044945716857910e+00,-1.422736358642578125e+01,3.735424518585205078e+00,-6.496310710906982422e+00,-8.071902275085449219e+00,-1.057593631744384766e+01,-5.018049240112304688e+00,-6.586653232574462891e+00,-6.634776294231414795e-02
-7.745010852813720703e+00,-1.758325386047363281e+01,-4.561347484588623047e+00,-4.693583488464355469e+00,6.557291030883789062e+00,-2.092590713500976562e+01,-1.606163978576660156e+00,-5.991768836975097656e+00,-4.206254959106445312e+00,-9.346056938171386719e+00,6.492866039276123047e+00,-1.493443846702575684e+00,1.036251306533813477e+00,-1.366177845001220703e+01,4.112021923065185547e+00,-6.178143024444580078e+00,-8.042342185974121094e+00,-1.064573001861572266e+01,-4.421594142913818359e+00,-6.297095298767089844e+00,-6.000643968582153320e-02
-7.524045467376708984e+00,-1.761420822143554688e+01,-4.596226692199707031e+00,-4.384431362152099609e+00,6.316595077514648438e+00,-2.093419837951660156e+01,-2.204280853271484375e+00,-5.811844825744628906e+00,-4.402120590209960938e+00,-9.691969871520996094e+00,5.797048568725585938e+00,-1.926323771476745605e+00,4.721039831638336182e-01,-1.343892288208007812e+01,3.993323564529418945e+00,-6.127038478851318359e+00,-8.076696395874023438e+00,-1.084273052215576172e+01,-4.052101612091064453e+00,-5.714515209197998047e+00,-5.377351865172386169e-02
-7.641223907470703125e+00,-1.739236831665039062e+01,-4.961697101593017578e+00,-4.486562252044677734e+00,5.370297431945800781e+00,-2.092959213256835938e+01,-3.194155931472778320e+00,-5.865887641906738281e+00,-4.846615791320800781e+00,-1.011889171600341797e+01,4.587130069732666016e+00,-2.618537187576293945e+00,-3.148437142372131348e-01,-1.352581214904785156e+01,3.358827352523803711e+00,-6.438611984252929688e+00,-8.221302986145019531e+00,-1.116693496704101562e+01,-3.928937673568725586e+00,-4.897101879119873047e+00,-4.855231940746307373e-02
-8.069763183593750000e+00,-1.689580917358398438e+01,-5.623638153076171875e+00,-4.949369907379150391e+00,3.841494321823120117e+00,-2.093696212768554688e+01,-4.455682754516601562e+00,-6.076787948608398438e+00,-5.500566959381103516e+00,-1.049234771728515625e+01,3.088656902313232422e+00,-3.433022022247314453e+00,-1.181663274765014648e+00,-1.380981159210205078e+01,2.287306070327758789e+00,-7.109566688537597656e+00,-8.478559494018554688e+00,-1.157781982421875000e+01,-4.007174015045166016e+00,-3.946686029434204102e+00,-4.510163143277168274e-02
-8.705876350402832031e+00,-1.612323951721191406e+01,-6.470589637756347656e+00,-5.640361309051513672e+00,2.002753734588623047e+00,-2.092774963378906250e+01,-5.808297157287597656e+00,-6.306141376495361328e+00,-6.260046005249023438e+00,-1.066489887237548828e+01,1.581052541732788086e+00,-4.193273544311523438e+00,-1.955999612808227539e+00,-1.412438392639160156e+01,9.384625554084777832e-01,-8.040990829467773438e+00,-8.808519363403320312e+00,-1.198757934570312500e+01,-4.193082332611083984e+00,-2.994884729385375977e+00,-4.374664649367332458e-02
-9.377143859863281250e+00,-1.507466125488281250e+01,-7.328914165496826172e+00,-6.369997024536132812e+00,2.321555316448211670e-01,-2.082456779479980469e+01,-7.053701877593994141e+00,-6.395773887634277344e+00,-6.968360424041748047e+00,-1.050449943542480469e+01,3.327815532684326172e-01,-4.725745201110839844e+00,-2.476427555084228516e+00,-1.430057621002197266e+01,-4.869953095912933350e-01,-9.061435699462890625e+00,-9.121701240539550781e+00,-1.228364181518554688e+01,-4.360399246215820312e+00,-2.167773485183715820e+00,-4.428863897919654846e-02
-9.904447555541992188e+00,-1.380037403106689453e+01,-8.011327743530273438e+00,-6.937695980072021484e+00,-1.085626840591430664e+00,-2.052883911132812500e+01,-8.019394874572753906e+00,-6.225736141204833984e+00,-7.464020252227783203e+00,-9.945530891418457031e+00,-4.753528833389282227e-01,-4.918026924133300781e+00,-2.646260261535644531e+00,-1.422494983673095703e+01,-1.807782888412475586e+00,-9.996156692504882812e+00,-9.319836616516113281e+00,-1.235568714141845703e+01,-4.399130344390869141e+00,-1.557484626770019531e+00,-4.607721790671348572e-02
-1.015387153625488281e+01,-1.240097904205322266e+01,-8.376040458679199219e+00,-7.187041759490966797e+00,-1.659340143203735352e+00,-1.996962547302246094e+01,-8.611868858337402344e+00,-5.760437965393066406e+00,-7.627907752990722656e+00,-9.005815505981445312e+00,-7.931277751922607422e-01,-4.762229442596435547e+00,-2.456249475479125977e+00,-1.387497901916503906e+01,-2.911676406860351562e+00,-1.072151279449462891e+01,-9.323831558227539062e+00,-1.214180183410644531e+01,-4.242657661437988281e+00,-1.200039505958557129e+00,-4.813679307699203491e-02
-1.007519435882568359e+01,-1.102608966827392578e+01,-8.360875129699707031e+00,-7.043506622314453125e+00,-1.370285391807556152e+00,-1.913403129577636719e+01,-8.834348678588867188e+00,-5.069080829620361328e+00,-7.420050144195556641e+00,-7.790666103363037109e+00,-7.191629409790039062e-01,-4.358931541442871094e+00,-1.992992877960205078e+00,-1.332789802551269531e+01,-3.781410694122314453e+00,-1.120123767852783203e+01,-9.112113952636718750e+00,-1.165099143981933594e+01,-3.892530679702758789e+00,-1.067036747932434082e+00,-4.941950738430023193e-02
-9.698548316955566406e+00,-9.829188346862792969e+00,-7.988580703735351562e+00,-6.524572849273681641e+00,-2.866044640541076660e-01,-1.807917213439941406e+01,-8.769861221313476562e+00,-4.294682502746582031e+00,-6.886016845703125000e+00,-6.459672927856445312e+00,-4.552636742591857910e-01,-3.878720760345458984e+00,-1.401941299438476562e+00,-1.271886730194091797e+01,-4.479572296142578125e+00,-1.148808288574218750e+01,-8.719838142395019531e+00,-1.096092987060546875e+01,-3.403747081756591797e+00,-1.083662033081054688e+00,-4.914851114153862000e-02
-9.102610588073730469e+00,-8.923773765563964844e+00,-7.338013172149658203e+00,-5.717649459838867188e+00,1.368591666221618652e+00,-1.690823364257812500e+01,-8.541739463806152344e+00,-3.590803623199462891e+00,-6.127336978912353516e+00,-5.175665378570556641e+00,-2.324559688568115234e-01,-3.491199493408203125e+00,-8.319087028503417969e-01,-1.218224525451660156e+01,-5.106514930725097656e+00,-1.167766475677490234e+01,-8.206922531127929688e+00,-1.017743396759033203e+01,-2.853768825531005859e+00,-1.153627038002014160e+00,-4.685407504439353943e-02
-8.357688903808593750e+00,-8.316293716430664062e+00,-6.493336677551269531e+00,-4.720266342163085938e+00,3.301851987838745117e+00,-1.572255611419677734e+01,-8.257996559143066406e+00,-3.053008317947387695e+00,-5.255135536193847656e+00,-4.037476062774658203e+00,-2.288033962249755859e-01,-3.296945810317993164e+00,-3.795819282531738281e-01,-1.178963375091552734e+01,-5.742089748382568359e+00,-1.185570716857910156e+01,-7.620504856109619141e+00,-9.384932518005371094e+00,-2.303790807723999023e+00,-1.195883154869079590e+00,-4.250006377696990967e-02
-7.488891601562500000e+00,-7.912597656250000000e+00,-5.503078460693359375e+00,-3.611551523208618164e+00,5.242805957794189453e+00,-1.458754730224609375e+01,-7.974253654479980469e+00,-2.679319858551025391e+00,-4.346958637237548828e+00,-3.061306238174438477e+00,-5.091392993927001953e-01,-3.288071393966674805e+00,-5.505008995532989502e-02,-1.151770210266113281e+01,-6.403562545776367188e+00,-1.204364013671875000e+01,-6.955791950225830078e+00,-8.602562904357910156e+00,-1.765431761741638184e+00,-1.165403366088867188e+00,-3.642974048852920532e-02
-6.452696800231933594e+00,-7.533406734466552734e+00,-4.371029853820800781e+00,-2.420948266983032227e+00,6.998017311096191406e+00,-1.351518440246582031e+01,-7.683256149291992188e+00,-2.370878696441650391e+00,-3.425990104675292969e+00,-2.178297996520996094e+00,-1.008630275726318359e+00,-3.367942094802856445e+00,2.089473158121109009e-01,-1.126990604400634766e+01,-7.031584262847900391e+00,-1.219365692138671875e+01,-6.152064800262451172e+00,-7.780793190002441406e+00,-1.207707285881042480e+00,-1.064265847206115723e+00,-2.927543036639690399e-02
-5.175448894500732422e+00,-6.994285106658935547e+00,-3.069894552230834961e+00,-1.145696401596069336e+00,8.471866607666015625e+00,-1.247690963745117188e+01,-7.346311569213867188e+00,-1.987304091453552246e+00,-2.474642753601074219e+00,-1.280707955360412598e+00,-1.579346656799316406e+00,-3.405412197113037109e+00,5.158233046531677246e-01,-1.092315387725830078e+01,-7.518247127532958984e+00,-1.220354843139648438e+01,-5.123038291931152344e+00,-6.825063705444335938e+00,-5.856897234916687012e-01,-9.312630295753479004e-01,-2.181399241089820862e-02
-3.600231647491455078e+00,-6.177864074707031250e+00,-1.589056849479675293e+00,2.169646173715591431e-01,9.636878967285156250e+00,-1.144324111938476562e+01,-6.930370330810546875e+00,-1.414578676223754883e+00,-1.472929954528808594e+00,-2.769949138164520264e-01,-2.051443338394165039e+00,-3.306806325912475586e+00,9.429273605346679688e-01,-1.039698982238769531e+01,-7.752406120300292969e+00,-1.198264408111572266e+01,-3.810390233993530273e+00,-5.658825874328613281e+00,1.230850666761398315e-01,-8.169637322425842285e-01,-1.494874525815248489e-02
-1.738763689994812012e+00,-5.081564426422119141e+00,2.523062564432621002e-02,1.634831309318542480e+00,1.049305248260498047e+01,-1.041602134704589844e+01,-6.449136257171630859e+00,-6.256807446479797363e-01,-4.368407130241394043e-01,8.522835373878479004e-01,-2.312603235244750977e+00,-3.062263727188110352e+00,1.500348687171936035e+00,-9.698657035827636719e+00,-7.660685062408447266e+00,-1.148478603363037109e+01,-2.233294963836669922e+00,-4.273074626922607422e+00,8.860830068588256836e-01,-7.601604461669921875e-01,-9.564947336912155151e-03
3.118643164634704590e-01,-3.811146020889282227e+00,1.657715797424316406e+00,3.028775691986083984e+00,1.102719974517822266e+01,-9.444998741149902344e+00,-5.968708515167236328e+00,3.062338531017303467e-01,5.624737739562988281e-01,2.047990083694458008e+00,-2.343650102615356445e+00,-2.744752645492553711e+00,2.111578226089477539e+00,-8.922284126281738281e+00,-7.233371257781982422e+00,-1.074459266662597656e+01,-5.020056962966918945e-01,-2.754488945007324219e+00,1.615772485733032227e+00,-7.691658735275268555e-01,-6.475585978478193283e-03
2.379232168197631836e+00,-2.542017459869384766e+00,3.148410558700561523e+00,4.291146278381347656e+00,1.121074390411376953e+01,-8.611247062683105469e+00,-5.588235378265380859e+00,1.234194040298461914e+00,1.418686389923095703e+00,3.191040277481079102e+00,-2.213983297348022461e+00,-2.462739944458007812e+00,2.647980690002441406e+00,-8.208664894104003906e+00,-6.513628482818603516e+00,-9.856030464172363281e+00,1.202119946479797363e+00,-1.258417606353759766e+00,2.203706979751586914e+00,-8.231982588768005371e-01,-6.331054493784904480e-03
4.275853633880615234e+00,-1.436689138412475586e+00,4.340359687805175781e+00,5.323493003845214844e+00,1.101511001586914062e+01,-7.993993282318115234e+00,-5.399610996246337891e+00,2.003320217132568359e+00,2.021472930908203125e+00,4.148577690124511719e+00,-2.046877622604370117e+00,-2.298068046569824219e+00,2.981760978698730469e+00,-7.685719490051269531e+00,-5.572675228118896484e+00,-8.916363716125488281e+00,2.683342933654785156e+00,3.502557054162025452e-02,2.567002534866333008e+00,-8.820796608924865723e-01,-9.510747157037258148e-03
5.839353084564208984e+00,-5.906035304069519043e-01,5.131959915161132812e+00,6.079811096191406250e+00,1.044249534606933594e+01,-7.631011962890625000e+00,-5.443945407867431641e+00,2.508821249008178711e+00,2.310075044631958008e+00,4.829871177673339844e+00,-1.965607523918151855e+00,-2.254681348800659180e+00,3.040613889694213867e+00,-7.409765243530273438e+00,-4.481730461120605469e+00,-7.988237380981445312e+00,3.790665149688720703e+00,9.851265549659729004e-01,2.686293363571166992e+00,-9.056322574615478516e-01,-1.599659956991672516e-02
6.984356403350830078e+00,-1.665823534131050110e-02,5.503496170043945312e+00,6.584023475646972656e+00,9.552250862121582031e+00,-7.500190734863281250e+00,-5.697863101959228516e+00,2.723675727844238281e+00,2.294885396957397461e+00,5.208187580108642578e+00,-2.045964479446411133e+00,-2.258625507354736328e+00,2.835469245910644531e+00,-7.355057239532470703e+00,-3.300143480300903320e+00,-7.073298931121826172e+00,4.460171699523925781e+00,1.537851214408874512e+00,2.616577863693237305e+00,-8.675324916839599609e-01,-2.535501308739185333e-02
7.704168796539306641e+00,3.251294195652008057e-01,5.514869689941406250e+00,6.915257930755615234e+00,8.453183174133300781e+00,-7.528750419616699219e+00,-6.083172798156738281e+00,2.694017887115478516e+00,2.056648731231689453e+00,5.315120697021484375e+00,-2.310776948928833008e+00,-2.191573619842529297e+00,2.452084541320800781e+00,-7.441142082214355469e+00,-2.077551603317260742e+00,-6.120444297790527344e+00,4.715830326080322266e+00,1.731473684310913086e+00,2.463203668594360352e+00,-7.643167972564697266e-01,-3.680913522839546204e-02
8.059053421020507812e+00,4.786114096641540527e-01,5.269200801849365234e+00,7.178404808044433594e+00,7.281576633453369141e+00,-7.624562740325927734e+00,-6.499114036560058594e+00,2.498276233673095703e+00,1.709686756134033203e+00,5.217098712921142578e+00,-2.732650518417358398e+00,-1.957877635955810547e+00,2.008165359497070312e+00,-7.578716754913330078e+00,-8.711459636688232422e-01,-5.067028522491455078e+00,4.642328262329101562e+00,1.665056586265563965e+00,2.334617137908935547e+00,-6.084541082382202148e-01,-4.923884570598602295e-02
8.147773742675781250e+00,4.386287033557891846e-01,4.868851184844970703e+00,7.451673507690429688e+00,6.158329486846923828e+00,-7.717611312866210938e+00,-6.859434604644775391e+00,2.203675270080566406e+00,1.363524317741394043e+00,4.974069118499755859e+00,-3.264101505279541016e+00,-1.527955889701843262e+00,1.610487699508666992e+00,-7.717900753021240234e+00,2.381429970264434814e-01,-3.899863719940185547e+00,4.341929435729980469e+00,1.455674171447753906e+00,2.295111656188964844e+00,-4.234970808029174805e-01,-6.152402237057685852e-02
8.079140663146972656e+00,1.432725936174392700e-01,4.382821083068847656e+00,7.771866321563720703e+00,5.163672924041748047e+00,-7.779336929321289062e+00,-7.114158630371093750e+00,1.843827009201049805e+00,1.086914062500000000e+00,4.621675968170166016e+00,-3.850341558456420898e+00,-9.599858522415161133e-01,1.319586157798767090e+00,-7.869956970214843750e+00,1.153198480606079102e+00,-2.679945945739746094e+00,3.896124362945556641e+00,1.193383336067199707e+00,2.343137979507446289e+00,-2.316128164529800415e-01,-7.259874790906906128e-02
7.968657970428466797e+00,-4.990302324295043945e-01,3.837648391723632812e+00,8.109540939331054688e+00,4.337173938751220703e+00,-7.829085350036621094e+00,-7.247162818908691406e+00,1.422685980796813965e+00,8.966445326805114746e-01,4.170450210571289062e+00,-4.434754848480224609e+00,-3.644061982631683350e-01,1.147231101989746094e+00,-8.079939842224121094e+00,1.784457206726074219e+00,-1.537509202957153320e+00,3.353648424148559570e+00,9.232124090194702148e-01,2.419050455093383789e+00,-5.566118285059928894e-02,-8.177649974822998047e-02
7.915090560913085938e+00,-1.555347561836242676e+00,3.234849691390991211e+00,8.401211738586425781e+00,3.686525821685791016e+00,-7.909236431121826172e+00,-7.260866165161132812e+00,9.428883790969848633e-01,7.735289931297302246e-01,3.623633384704589844e+00,-4.952508926391601562e+00,1.444002836942672729e-01,1.069040775299072266e+00,-8.395316123962402344e+00,2.077965497970581055e+00,-6.341105699539184570e-01,2.737670421600341797e+00,6.507900953292846680e-01,2.439965248107910156e+00,7.941979914903640747e-02,-8.875014632940292358e-02
8.007159233093261719e+00,-3.020520210266113281e+00,2.575183153152465820e+00,8.565908432006835938e+00,3.220520973205566406e+00,-8.056639671325683594e+00,-7.156880855560302734e+00,4.307966828346252441e-01,6.839904189109802246e-01,2.999046802520751953e+00,-5.325072765350341797e+00,4.983954727649688721e-01,1.057270169258117676e+00,-8.820913314819335938e+00,2.039119005203247070e+00,-9.339020401239395142e-02,2.057777881622314453e+00,3.614820837974548340e-01,2.339264869689941406e+00,1.431503146886825562e-01,-9.362807869911193848e-02
8.298432350158691406e+00,-4.797815799713134766e+00,1.879879355430603027e+00,8.530944824218750000e+00,2.963339090347290039e+00,-8.288801193237304688e+00,-6.920697689056396484e+00,-5.559153482317924500e-02,6.080425381660461426e-01,2.339625835418701172e+00,-5.466610431671142578e+00,6.906769871711730957e-01,1.093422770500183105e+00,-9.310068130493164062e+00,1.732661604881286621e+00,3.684427961707115173e-02,1.332346081733703613e+00,4.177984595298767090e-02,2.091387510299682617e+00,1.008942127227783203e-01,-9.680777788162231445e-02
8.785561561584472656e+00,-6.719565391540527344e+00,1.196707487106323242e+00,8.246635437011718750e+00,2.955645561218261719e+00,-8.585451126098632812e+00,-6.538611888885498047e+00,-4.411431849002838135e-01,5.424875020980834961e-01,1.702077746391296387e+00,-5.307723045349121094e+00,7.656174898147583008e-01,1.170772314071655273e+00,-9.782327651977539062e+00,1.261105895042419434e+00,-1.923024654388427734e-01,5.893377661705017090e-01,-3.094423115253448486e-01,1.718021988868713379e+00,-7.990648597478866577e-02,-9.886734932661056519e-02
9.403260231018066406e+00,-8.592304229736328125e+00,5.848098397254943848e-01,7.692738056182861328e+00,3.223818063735961914e+00,-8.913424491882324219e+00,-6.007400512695312500e+00,-6.691788434982299805e-01,5.001165270805358887e-01,1.142299056053161621e+00,-4.825581550598144531e+00,7.695617079734802246e-01,1.284274339675903320e+00,-1.016367626190185547e+01,7.399128079414367676e-01,-6.637842655181884766e-01,-1.368929743766784668e-01,-6.786758899688720703e-01,1.269518613815307617e+00,-4.165698587894439697e-01,-1.002765297889709473e-01
1.002430820465087891e+01,-1.025352096557617188e+01,9.953789412975311279e-02,6.879374027252197266e+00,3.750271558761596680e+00,-9.239555358886718750e+00,-5.359306335449218750e+00,-7.304716706275939941e-01,4.945203959941864014e-01,6.918838620185852051e-01,-4.065844058990478516e+00,7.182866334915161133e-01,1.413750767707824707e+00,-1.042032146453857422e+01,2.640407979488372803e-01,-1.222638487815856934e+00,-8.119919300079345703e-01,-1.046783685684204102e+00,8.039736151695251465e-01,-8.993977904319763184e-01,-1.013785824179649353e-01
1.048465251922607422e+01,-1.159745597839355469e+01,-2.242294847965240479e-01,5.850707530975341797e+00,4.455873012542724609e+00,-9.543575286865234375e+00,-4.662847042083740234e+00,-6.770876049995422363e-01,5.288968086242675781e-01,3.540724515914916992e-01,-3.139913558959960938e+00,5.753080844879150391e-01,1.528934359550476074e+00,-1.057237815856933594e+01,-1.017655730247497559e-01,-1.740279436111450195e+00,-1.406398653984069824e+00,-1.393503069877624512e+00,3.717371821403503418e-01,-1.488904953002929688e+00,-1.023180410265922546e-01
1.063531112670898438e+01,-1.258154582977294922e+01,-3.736022710800170898e-01,4.682186603546142578e+00,5.196644783020019531e+00,-9.819957733154296875e+00,-4.009916305541992188e+00,-6.059088110923767090e-01,5.976496338844299316e-01,1.078022643923759460e-01,-2.205765008926391602e+00,2.646994888782501221e-01,1.596194863319396973e+00,-1.067696666717529297e+01,-3.305294513702392578e-01,-2.134279966354370117e+00,-1.892150282859802246e+00,-1.700822472572326660e+00,1.386403758078813553e-02,-2.118590116500854492e+00,-1.030948981642723083e-01
1.038253974914550781e+01,-1.320966148376464844e+01,-3.546463251113891602e-01,3.472261428833007812e+00,5.797834873199462891e+00,-1.006962203979492188e+01,-3.489183902740478516e+00,-6.237035393714904785e-01,6.855893135070800781e-01,-7.203979045152664185e-02,-1.431416988372802734e+00,-2.934099435806274414e-01,1.597876429557800293e+00,-1.079201507568359375e+01,-4.200926423072814941e-01,-2.381560564041137695e+00,-2.240485429763793945e+00,-1.950730562210083008e+00,-2.409850358963012695e-01,-2.714331865310668945e+00,-1.036368906497955322e-01
9.707924842834472656e+00,-1.351017665863037109e+01,-1.840429008007049561e-01,2.333183526992797852e+00,6.106673240661621094e+00,-1.028427886962890625e+01,-3.161912441253662109e+00,-8.102182745933532715e-01,7.791251540184020996e-01,-2.057061791419982910e-01,-9.483626484870910645e-01,-1.139448642730712891e+00,1.542386412620544434e+00,-1.093924427032470703e+01,-3.887994885444641113e-01,-2.500255346298217773e+00,-2.422642230987548828e+00,-2.122964382171630859e+00,-3.672476410865783691e-01,-3.207550764083862305e+00,-1.039982140064239502e-01
8.683447837829589844e+00,-1.352823352813720703e+01,1.147026419639587402e-01,1.362483143806457520e+00,6.028639316558837891e+00,-1.044918727874755859e+01,-3.044223785400390625e+00,-1.189179301261901855e+00,8.702626228332519531e-01,-3.012979030609130859e-01,-8.360456228256225586e-01,-2.246793031692504883e+00,1.460833072662353516e+00,-1.109532356262207031e+01,-2.765757143497467041e-01,-2.533226013183593750e+00,-2.421044349670410156e+00,-2.205141544342041016e+00,-3.540791571140289307e-01,-3.550448656082153320e+00,-1.042692139744758606e-01
7.434657573699951172e+00,-1.332316112518310547e+01,5.105025768280029297e-01,6.273270845413208008e-01,5.561535358428955078e+00,-1.053394412994384766e+01,-3.109516859054565430e+00,-1.726315379142761230e+00,9.510072469711303711e-01,-3.596250414848327637e-01,-1.110902667045593262e+00,-3.516836881637573242e+00,1.388528108596801758e+00,-1.119830322265625000e+01,-1.438494920730590820e-01,-2.521686315536499023e+00,-2.240485429763793945e+00,-2.193884372711181641e+00,-2.154226601123809814e-01,-3.718780279159545898e+00,-1.046124771237373352e-01
6.103841781616210938e+00,-1.298137283325195312e+01,9.540714621543884277e-01,1.461172848939895630e-01,4.782296180725097656e+00,-1.051091194152832031e+01,-3.302977800369262695e+00,-2.343198060989379883e+00,1.012565016746520996e+00,-3.920290172100067139e-01,-1.742799878120422363e+00,-4.801671981811523438e+00,1.342286467552185059e+00,-1.118543052673339844e+01,-6.615610420703887939e-02,-2.506849527359008789e+00,-1.920911908149719238e+00,-2.109455823898315430e+00,2.244778908789157867e-03,-3.709082126617431641e+00,-1.051544696092605591e-01
4.818223953247070312e+00,-1.261379051208496094e+01,1.380200862884521484e+00,-1.161098554730415344e-01,3.816215753555297852e+00,-1.036719322204589844e+01,-3.566568374633789062e+00,-2.942945003509521484e+00,1.038946986198425293e+00,-4.220027029514312744e-01,-2.674209117889404297e+00,-5.933667659759521484e+00,1.308656334877014160e+00,-1.101647949218750000e+01,-1.179516986012458801e-01,-2.516740560531616211e+00,-1.538222670555114746e+00,-1.989004731178283691e+00,2.183629870414733887e-01,-3.530359506607055664e+00,-1.059132590889930725e-01
3.663176298141479492e+00,-1.234422969818115234e+01,1.705484747886657715e+00,-2.292815595865249634e-01,2.790785551071166992e+00,-1.011107921600341797e+01,-3.854341506958007812e+00,-3.435923814773559570e+00,1.009367227554321289e+00,-4.868106544017791748e-01,-3.835731029510498047e+00,-6.765901565551757812e+00,1.241395831108093262e+00,-1.069949340820312500e+01,-3.531900048255920410e-01,-2.569493770599365234e+00,-1.196279048919677734e+00,-1.892193436622619629e+00,3.368794322013854980e-01,-3.194388866424560547e+00,-1.067804470658302307e-01
2.662135124206542969e+00,-1.228232097625732422e+01,1.846516966819763184e+00,-2.909279465675354004e-01,1.801624417304992676e+00,-9.772972106933593750e+00,-4.141308307647705078e+00,-3.758864402770996094e+00,9.030401706695556641e-01,-6.212871670722961426e-01,-5.157053947448730469e+00,-7.191879272460937500e+00,1.090900421142578125e+00,-1.027550601959228516e+01,-7.848199605941772461e-01,-2.670054674148559570e+00,-9.981434941291809082e-01,-1.878684878349304199e+00,2.826562225818634033e-01,-2.717795610427856445e+00,-1.075031086802482605e-01
1.793338418006896973e+00,-1.250287055969238281e+01,1.735056042671203613e+00,-3.994991779327392578e-01,8.893980979919433594e-01,-9.399856567382812500e+00,-4.416990280151367188e+00,-3.876836776733398438e+00,7.111717462539672852e-01,-8.424442410469055176e-01,-6.564212322235107422e+00,-7.159338951110839844e+00,8.218585252761840820e-01,-9.800831794738769531e+00,-1.371836662292480469e+00,-2.810180425643920898e+00,-1.034894466400146484e+00,-1.991256117820739746e+00,2.858176454901695251e-02,-2.122746467590332031e+00,-1.078463718295097351e-01
9.948489665985107422e-01,-1.302135562896728516e+01,1.343047261238098145e+00,-6.414842009544372559e-01,5.740375071763992310e-02,-9.044244766235351562e+00,-4.676550388336181641e+00,-3.781931638717651367e+00,4.417565762996673584e-01,-1.132459878921508789e+00,-7.975023269653320312e+00,-6.664337635040283203e+00,4.409959912300109863e-01,-9.314090728759765625e+00,-2.030072212219238281e+00,-2.956900119781494141e+00,-1.351272225379943848e+00,-2.249044179916381836e+00,-3.819653689861297607e-01,-1.443878054618835449e+00,-1.077018380165100098e-01
1.997075229883193970e-01,-1.380295276641845703e+01,6.902048587799072266e-01,-1.073008894920349121e+00,-7.152409553527832031e-01,-8.751279830932617188e+00,-4.905479431152343750e+00,-3.482058286666870117e+00,1.211765035986900330e-01,-1.442727923393249512e+00,-9.295433044433593750e+00,-5.740400314331054688e+00,6.325104273855686188e-03,-8.818499565124511719e+00,-2.654856681823730469e+00,-3.055812597274780273e+00,-1.946477770805358887e+00,-2.636289119720458984e+00,-8.389895558357238770e-01,-7.331442236900329590e-01,-1.071056425571441650e-01
-6.473273634910583496e-01,-1.476898670196533203e+01,-1.529551744461059570e-01,-1.717075586318969727e+00,-1.440625667572021484e+00,-8.550442695617675781e+00,-5.076369762420654297e+00,-2.995670080184936523e+00,-2.057991921901702881e-01,-1.706010103225708008e+00,-1.042499446868896484e+01,-4.447676658630371094e+00,-3.888302445411682129e-01,-8.284290313720703125e+00,-3.153389215469360352e+00,-3.050866842269897461e+00,-2.769379615783691406e+00,-3.109088182449340820e+00,-1.199961185455322266e+00,-5.773935094475746155e-02,-1.062926575541496277e-01
-1.559647560119628906e+00,-1.582788372039794922e+01,-1.081796050071716309e+00,-2.549761772155761719e+00,-2.112156152725219727e+00,-8.447259902954101562e+00,-5.155366420745849609e+00,-2.346493244171142578e+00,-4.944012165069580078e-01,-1.857498764991760254e+00,-1.127239418029785156e+01,-2.868996143341064453e+00,-6.376940608024597168e-01,-7.670433521270751953e+00,-3.471716403961181641e+00,-2.892607212066650391e+00,-3.733692407608032227e+00,-3.603275775909423828e+00,-1.330096840858459473e+00,5.130643844604492188e-01,-1.055880635976791382e-01
-2.503773450851440430e+00,-1.689193916320800781e+01,-1.980307340621948242e+00,-3.512181282043457031e+00,-2.708950042724609375e+00,-8.428834915161132812e+00,-5.111031532287597656e+00,-1.566822171211242676e+00,-7.094537019729614258e-01,-1.863169431686401367e+00,-1.178284263610839844e+01,-1.112825036048889160e+00,-6.570314168930053711e-01,-6.952791213989257812e+00,-3.610917091369628906e+00,-2.559602737426757812e+00,-4.731560707092285156e+00,-4.054686546325683594e+00,-1.145738005638122559e+00,9.210782051086425781e-01,-1.052990034222602844e-01
-3.409397602081298828e+00,-1.789279747009277344e+01,-2.752951383590698242e+00,-4.512324810028076172e+00,-3.214521169662475586e+00,-8.460157394409179688e+00,-4.937722682952880859e+00,-7.034500837326049805e-01,-8.397642970085144043e-01,-1.727882862091064453e+00,-1.195086193084716797e+01,6.857467293739318848e-01,-4.140529334545135498e-01,-6.145846366882324219e+00,-3.623865842819213867e+00,-2.079878091812133789e+00,-5.659921646118164062e+00,-4.405908584594726562e+00,-6.515321731567382812e-01,1.139978647232055664e+00,-1.055519282817840576e-01
-4.191147327423095703e+00,-1.877628517150878906e+01,-3.349684238433837891e+00,-5.452661991119384766e+00,-3.632166862487792969e+00,-8.501615524291992188e+00,-4.660428524017333984e+00,1.849663257598876953e-01,-9.029209613800048828e-01,-1.498624682426452637e+00,-1.183854484558105469e+01,2.364019155502319336e+00,6.013349443674087524e-02,-5.305111408233642578e+00,-3.600126266479492188e+00,-1.511132597923278809e+00,-6.441278934478759766e+00,-4.627673625946044922e+00,6.808724254369735718e-02,1.183620214462280273e+00,-1.062384545803070068e-01
-4.780388832092285156e+00,-1.950113296508789062e+01,-3.772780656814575195e+00,-6.244863986968994141e+00,-3.991562128067016602e+00,-8.506221771240234375e+00,-4.339605808258056641e+00,1.028566479682922363e+00,-9.460913538932800293e-01,-1.244253516197204590e+00,-1.156551456451416016e+01,3.756334543228149414e+00,6.789299845695495605e-01,-4.516670703887939453e+00,-3.640052080154418945e+00,-9.374415278434753418e-01,-7.034087657928466797e+00,-4.709850788116455078e+00,8.705906867980957031e-01,1.106035232543945312e+00,-1.070875748991966248e-01
-5.167078971862792969e+00,-2.002348899841308594e+01,-4.075317382812500000e+00,-6.829124450683593750e+00,-4.341065883636474609e+00,-8.439889907836914062e+00,-4.055057048797607422e+00,1.758807897567749023e+00,-1.028434872627258301e+00,-1.032007455825805664e+00,-1.128061294555664062e+01,4.724644660949707031e+00,1.318745374679565430e+00,-3.859368562698364258e+00,-3.826731920242309570e+00,-4.329889714717864990e-01,-7.434353351593017578e+00,-4.672702312469482422e+00,1.599505543708801270e+00,9.868869185447692871e-01,-1.076657027006149292e-01
-5.396414279937744141e+00,-2.029949760437011719e+01,-4.336909294128417969e+00,-7.174160480499267578e+00,-4.726838588714599609e+00,-8.273138999938964844e+00,-3.886584997177124023e+00,2.330215215682983398e+00,-1.204314231872558594e+00,-9.007714390754699707e-01,-1.112446498870849609e+01,5.191050529479980469e+00,1.860192298889160156e+00,-3.381476879119873047e+00,-4.199012756347656250e+00,-3.239430487155914307e-02,-7.674033641815185547e+00,-4.546622753143310547e+00,2.137089967727661133e+00,9.072237610816955566e-01,-1.076657027006149292e-01
-5.570508480072021484e+00,-2.026596450805664062e+01,-4.635654926300048828e+00,-7.274450778961181641e+00,-5.169762611389160156e+00,-7.993072032928466797e+00,-3.883360624313354492e+00,2.734220504760742188e+00,-1.503309130668640137e+00,-8.489250540733337402e-01,-1.118381881713867188e+01,5.170343399047851562e+00,2.221717357635498047e+00,-3.074950456619262695e+00,-4.739629268646240234e+00,2.890705466270446777e-01,-7.798666954040527344e+00,-4.367634296417236328e+00,2.436092138290405273e+00,9.307763576507568359e-01,-1.069611161947250366e-01
-5.798170089721679688e+00,-1.986484718322753906e+01,-5.025388717651367188e+00,-7.136436462402343750e+00,-5.662145137786865234e+00,-7.592318058013916016e+00,-4.055057048797607422e+00,3.007731676101684570e+00,-1.917425036430358887e+00,-8.319129943847656250e-01,-1.146963405609130859e+01,4.770003318786621094e+00,2.387346267700195312e+00,-2.876231193542480469e+00,-5.370888233184814453e+00,6.138324737548828125e-01,-7.851396560668945312e+00,-4.156000614166259766e+00,2.533693790435791016e+00,1.081097245216369629e+00,-1.056964620947837830e-01
-6.178164005279541016e+00,-1.906390380859375000e+01,-5.515210151672363281e+00,-6.764718055725097656e+00,-6.165518283843994141e+00,-7.073641300201416016e+00,-4.361370563507080078e+00,3.222585916519165039e+00,-2.397095918655395508e+00,-7.849271893501281738e-01,-1.190429115295410156e+01,4.167520999908447266e+00,2.412569046020507812e+00,-2.687166213989257812e+00,-5.958983898162841797e+00,1.068828940391540527e+00,-7.859385967254638672e+00,-3.911720991134643555e+00,2.535243034362792969e+00,1.340868353843688965e+00,-1.042150110006332397e-01
-6.722208023071289062e+00,-1.785926246643066406e+01,-6.063416004180908203e+00,-6.164815902709960938e+00,-6.632622241973876953e+00,-6.445333003997802734e+00,-4.721691131591796875e+00,3.463143825531005859e+00,-2.855181694030761719e+00,-6.423497200012207031e-01,-1.234625434875488281e+01,3.559122800827026367e+00,2.414250612258911133e+00,-2.404775857925415039e+00,-6.340976238250732422e+00,1.784294247627258301e+00,-7.825031757354736328e+00,-3.616784334182739258e+00,2.580945491790771484e+00,1.655364513397216797e+00,-1.029864996671676636e-01
-7.386778831481933594e+00,-1.631928443908691406e+01,-6.591149330139160156e+00,-5.340410709381103516e+00,-7.019494056701660156e+00,-5.725818634033203125e+00,-5.034453392028808594e+00,3.794652462005615234e+00,-3.190951347351074219e+00,-3.612452447414398193e-01,-1.262111091613769531e+01,3.104549646377563477e+00,2.540364027023315430e+00,-1.952629208564758301e+00,-6.349608898162841797e+00,2.857492446899414062e+00,-7.722768306732177734e+00,-3.236293792724609375e+00,2.805584430694580078e+00,1.947000980377197266e+00,-1.022638380527496338e-01
-8.036283493041992188e+00,-1.457165336608886719e+01,-6.992256641387939453e+00,-4.312664031982421875e+00,-7.294260978698730469e+00,-4.936287403106689453e+00,-5.192446231842041016e+00,4.241497039794921875e+00,-3.298078060150146484e+00,6.324680149555206299e-02,-1.256084346771240234e+01,2.887616634368896484e+00,2.929634094238281250e+00,-1.299349784851074219e+00,-5.839206695556640625e+00,4.319745063781738281e+00,-7.509453296661376953e+00,-2.729723215103149414e+00,3.303663492202758789e+00,2.132650613784790039e+00,-1.019567102193832397e-01
-8.503324508666992188e+00,-1.279693698883056641e+01,-7.152245044708251953e+00,-3.113780021667480469e+00,-7.433842658996582031e+00,-4.103456020355224609e+00,-5.100552558898925781e+00,4.771383285522460938e+00,-3.088621616363525391e+00,6.011527776718139648e-01,-1.204491615295410156e+01,2.895504951477050781e+00,3.687155246734619141e+00,-4.690734744071960449e-01,-4.720205783843994141e+00,6.111705780029296875e+00,-7.133954524993896484e+00,-2.063301801681518555e+00,4.113913059234619141e+00,2.143041610717773438e+00,-1.014689132571220398e-01
-8.627199172973632812e+00,-1.120407772064208984e+01,-6.971025943756103516e+00,-1.805404663085937500e+00,-7.414059162139892578e+00,-3.252199411392211914e+00,-4.687835693359375000e+00,5.308519363403320312e+00,-2.509019136428833008e+00,1.195765614509582520e+00,-1.102127933502197266e+01,3.031581163406372070e+00,4.840672492980957031e+00,4.682055115699768066e-01,-2.977499961853027344e+00,8.093248367309570312e+00,-6.553928375244140625e+00,-1.225771903991699219e+00,5.209996223449707031e+00,1.930375576019287109e+00,-9.980680048465728760e-02
-8.285707473754882812e+00,-9.980090141296386719e+00,-6.387941360473632812e+00,-4.639058411121368408e-01,-7.210731983184814453e+00,-2.399100303649902344e+00,-3.923665046691894531e+00,5.752727508544921875e+00,-1.560070157051086426e+00,1.772556424140930176e+00,-9.525545120239257812e+00,3.149908304214477539e+00,6.345625877380371094e+00,1.407093524932861328e+00,-6.887822747230529785e-01,1.005830478668212891e+01,-5.754195690155029297e+00,-2.430253028869628906e-01,6.505930900573730469e+00,1.489111065864562988e+00,-9.557925909757614136e-02
-7.448716163635253906e+00,-9.255242347717285156e+00,-5.406023979187011719e+00,8.150265216827392578e-01,-6.807374000549316406e+00,-1.557977795600891113e+00,-2.825774192810058594e+00,6.008443832397460938e+00,-3.073295652866363525e-01,2.246464490890502930e+00,-7.684642791748046875e+00,3.091730833053588867e+00,8.072539329528808594e+00,2.217256546020507812e+00,1.971137166023254395e+00,1.176289272308349609e+01,-4.766713619232177734e+00,8.095154762268066406e-01,7.863060474395751953e+00,8.524986505508422852e-01,-8.734095841646194458e-02
-6.163097858428955078e+00,-9.073386192321777344e+00,-4.110954761505126953e+00,1.921901106834411621e+00,-6.213877201080322266e+00,-7.408082485198974609e-01,-1.475577831268310547e+00,6.005807399749755859e+00,1.108499169349670410e+00,2.532429695129394531e+00,-5.704941272735595703e+00,2.715056180953979492e+00,9.824674606323242188e+00,2.759510755538940430e+00,4.736805915832519531e+00,1.296797466278076172e+01,-3.682560682296752930e+00,1.797890663146972656e+00,9.100124359130859375e+00,1.043578237295150757e-01,-7.368273288011550903e-02
-4.574489116668701172e+00,-9.398406982421875000e+00,-2.674852848052978516e+00,2.742625951766967773e+00,-5.484096050262451172e+00,3.214008361101150513e-02,-1.494772732257843018e-02,5.709888458251953125e+00,2.485954284667968750e+00,2.542150735855102539e+00,-3.850341558456420898e+00,1.921278715133666992e+00,1.136325836181640625e+01,2.893062829971313477e+00,7.288817882537841797e+00,1.347077846527099609e+01,-2.645544767379760742e+00,2.547614812850952148e+00,1.001804542541503906e+01,-6.313139796257019043e-01,-5.333992466330528259e-02
-2.885441303253173828e+00,-1.011938476562500000e+01,-1.321399092674255371e+00,3.169550180435180664e+00,-4.716947078704833984e+00,7.286227345466613770e-01,1.371522426605224609e+00,5.120686531066894531e+00,3.592395305633544922e+00,2.201909065246582031e+00,-2.392960071563720703e+00,6.581370234489440918e-01,1.244363021850585938e+01,2.495624542236328125e+00,9.299134254455566406e+00,1.314271926879882812e+01,-1.825838804244995117e+00,2.875197172164916992e+00,1.041310024261474609e+01,-1.203503131866455078e+00,-2.515628188848495483e-02
-1.323616147041320801e+00,-1.107896995544433594e+01,-2.871631979942321777e-01,3.123545408248901367e+00,-4.031128406524658203e+00,1.308103680610656738e+00,2.491177558898925781e+00,4.266541481018066406e+00,4.219964981079101562e+00,1.463098406791687012e+00,-1.560170650482177734e+00,-1.068452358245849609e+00,1.286484909057617188e+01,1.487546682357788086e+00,1.049367046356201172e+01,1.194752979278564453e+01,-1.384827375411987305e+00,2.636546134948730469e+00,1.012804126739501953e+01,-1.459810614585876465e+00,1.184378191828727722e-02
-9.323932975530624390e-02,-1.211207199096679688e+01,2.511853873729705811e-01,2.587129831314086914e+00,-3.526656389236450195e+00,1.734653234481811523e+00,3.186830997467041016e+00,3.199518918991088867e+00,4.231956481933593750e+00,3.289593756198883057e-01,-1.477074384689331055e+00,-3.191437482833862305e+00,1.250668621063232422e+01,-1.432383060455322266e-01,1.070840644836425781e+01,9.952798843383789062e+00,-1.415186882019042969e+00,1.775376439094543457e+00,9.089279174804687500e+00,-1.278317213058471680e+00,5.859972164034843445e-02
6.617265343666076660e-01,-1.306133842468261719e+01,2.246470749378204346e-01,1.621029973030090332e+00,-3.248592376708984375e+00,1.992609858512878418e+00,3.381098031997680664e+00,1.991456985473632812e+00,3.613181114196777344e+00,-1.134890079498291016e+00,-2.135452747344970703e+00,-5.583616733551025391e+00,1.136746215820312500e+01,-2.318691015243530273e+00,9.922840118408203125e+00,7.323380947113037109e+00,-1.915319442749023438e+00,3.547278046607971191e-01,7.332447528839111328e+00,-5.932142138481140137e-01,1.156896650791168213e-01
8.944100737571716309e-01,-1.379908370971679688e+01,-3.000532388687133789e-01,3.715406060218811035e-01,-3.165063142776489258e+00,2.101320028305053711e+00,3.095743179321289062e+00,7.346245646476745605e-01,2.471564292907714844e+00,-2.793163537979125977e+00,-3.389202594757080078e+00,-8.058625221252441406e+00,9.559836387634277344e+00,-4.870664119720458984e+00,8.254590034484863281e+00,4.299962997436523438e+00,-2.772575139999389648e+00,-1.436280131340026855e+00,5.009370326995849609e+00,5.892639160156250000e-01,1.832400709390640259e-01
6.617265343666076660e-01,-1.423244476318359375e+01,-1.142454981803894043e+00,-9.487960338592529297e-01,-3.178251981735229492e+00,2.118824243545532227e+00,2.444424629211425781e+00,-4.661875665187835693e-01,1.015762805938720703e+00,-4.470068931579589844e+00,-4.995426654815673828e+00,-1.039854335784912109e+01,7.298202514648437500e+00,-7.561821460723876953e+00,5.925946712493896484e+00,1.157849907875061035e+00,-3.790416717529296875e+00,-3.326350688934326172e+00,2.361728906631469727e+00,2.194995641708374023e+00,2.604018449783325195e-01
1.243783235549926758e-01,-1.431627941131591797e+01,-2.059164047241210938e+00,-2.109956264495849609e+00,-3.166162252426147461e+00,2.119745492935180664e+00,1.598032951354980469e+00,-1.501574993133544922e+00,-5.047941207885742188e-01,-5.978474140167236328e+00,-6.680181503295898438e+00,-1.239038276672363281e+01,4.831424236297607422e+00,-1.012827682495117188e+01,3.198045253753662109e+00,-1.844137310981750488e+00,-4.744343757629394531e+00,-5.020547389984130859e+00,-3.339391052722930908e-01,4.098598480224609375e+00,3.450250327587127686e-01
-4.949949979782104492e-01,-1.405703639984130859e+01,-2.816643238067626953e+00,-2.914119482040405273e+00,-3.025481462478637695e+00,2.184234619140625000e+00,7.363256216049194336e-01,-2.281245946884155273e+00,-1.866260170936584473e+00,-7.168509960174560547e+00,-8.215180397033691406e+00,-1.386848449707031250e+01,2.399116992950439453e+00,-1.233269214630126953e+01,3.072037994861602783e-01,-4.508174419403076172e+00,-5.437818050384521484e+00,-6.274590492248535156e+00,-2.832854270935058594e+00,6.151136875152587891e+00,4.336228370666503906e-01
-9.519920945167541504e-01,-1.351791477203369141e+01,-3.251871585845947266e+00,-3.241673231124877930e+00,-2.719940662384033203e+00,2.357434034347534180e+00,-4.381557810120284557e-04,-2.751157760620117188e+00,-2.921536207199096680e+00,-7.951066017150878906e+00,-9.465277671813964844e+00,-1.475593852996826172e+01,1.769985854625701904e-01,-1.401738071441650391e+01,-2.572846889495849609e+00,-6.730402946472167969e+00,-5.751799106597900391e+00,-6.950017929077148438e+00,-4.970023155212402344e+00,8.203675270080566406e+00,5.213896036148071289e-01
-1.037365198135375977e+00,-1.280467510223388672e+01,-3.308739423751831055e+00,-3.076976299285888672e+00,-2.281412601470947266e+00,2.640264987945556641e+00,-5.316496491432189941e-01,-2.908014535903930664e+00,-3.625053644180297852e+00,-8.318851470947265625e+00,-1.041586303710937500e+01,-1.508429527282714844e+01,-1.747492074966430664e+00,-1.512682914733886719e+01,-5.348227500915527344e+00,-8.504229545593261719e+00,-5.675101280212402344e+00,-7.035572052001953125e+00,-6.686574935913085938e+00,1.012390327453613281e+01,6.026163101196289062e-01
-6.305875778198242188e-01,-1.205790138244628906e+01,-3.033499240875244141e+00,-2.504677057266235352e+00,-1.801119923591613770e+00,2.984821319580078125e+00,-8.484419584274291992e-01,-2.801905632019042969e+00,-4.019183158874511719e+00,-8.332622528076171875e+00,-1.114181423187255859e+01,-1.497878742218017578e+01,-3.366788387298583984e+00,-1.571011447906494141e+01,-7.980091094970703125e+00,-9.903838157653808594e+00,-5.282824993133544922e+00,-6.635943889617919922e+00,-8.013494491577148438e+00,1.180237102508544922e+01,6.713591217994689941e-01
2.616448402404785156e-01,-1.142462730407714844e+01,-2.549743652343750000e+00,-1.680271744728088379e+00,-1.391167640686035156e+00,3.311873197555541992e+00,-9.846706986427307129e-01,-2.523781061172485352e+00,-4.201458454132080078e+00,-8.096883773803710938e+00,-1.177097225189208984e+01,-1.462775039672851562e+01,-4.726290702819824219e+00,-1.589113426208496094e+01,-1.045872592926025391e+01,-1.104297733306884766e+01,-4.713185310363769531e+00,-5.924494266510009766e+00,-9.042185783386230469e+00,1.314625358581542969e+01,7.219270467758178711e-01
1.503739476203918457e+00,-1.103124904632568359e+01,-2.009120464324951172e+00,-7.960602045059204102e-01,-1.147174596786499023e+00,3.532057523727416992e+00,-1.004822850227355957e+00,-2.188977241516113281e+00,-4.281403541564941406e+00,-7.724237918853759766e+00,-1.242843723297119141e+01,-1.423234081268310547e+01,-5.888216018676757812e+00,-1.583079433441162109e+01,-1.276686668395996094e+01,-1.204364013671875000e+01,-4.126768112182617188e+00,-5.102724075317382812e+00,-9.867153167724609375e+00,1.407865810394287109e+01,7.494964599609375000e-01
2.849621057510375977e+00,-1.095773220062255859e+01,-1.550386786460876465e+00,-3.790176287293434143e-02,-1.128490447998046875e+00,3.573514938354492188e+00,-9.741916060447692871e-01,-1.905580401420593262e+00,-4.353353977203369141e+00,-7.312707424163818359e+00,-1.319456672668457031e+01,-1.395821666717529297e+01,-6.899645328521728516e+00,-1.567712879180908203e+01,-1.487214183807373047e+01,-1.296846961975097656e+01,-3.669777870178222656e+00,-4.347371578216552734e+00,-1.055501365661621094e+01,1.453100681304931641e+01,7.505081295967102051e-01
4.001320838928222656e+00,-1.123245239257812500e+01,-1.274388313293457031e+00,4.460683166980743408e-01,-1.341709613800048828e+00,3.397551774978637695e+00,-9.492028951644897461e-01,-1.759268403053283691e+00,-4.471673011779785156e+00,-6.929530620574951172e+00,-1.409218978881835938e+01,-1.390299701690673828e+01,-7.775713443756103516e+00,-1.553311824798583984e+01,-1.672599220275878906e+01,-1.383230400085449219e+01,-3.443679571151733398e+00,-3.793521165847778320e+00,-1.112203311920166016e+01,1.444995784759521484e+01,7.230290770530700684e-01
4.680957317352294922e+00,-1.181929492950439453e+01,-1.221311688423156738e+00,5.693610906600952148e-01,-1.745067477226257324e+00,3.004168033599853516e+00,-9.572637677192687988e-01,-1.792880654335021973e+00,-4.643555164337158203e+00,-6.605491161346435547e+00,-1.507564830780029297e+01,-1.408245944976806641e+01,-8.495400428771972656e+00,-1.543657398223876953e+01,-1.827446556091308594e+01,-1.457249736785888672e+01,-3.494012355804443359e+00,-3.496333122253417969e+00,-1.153800296783447266e+01,1.380849647521972656e+01,6.669689416885375977e-01
4.711089134216308594e+00,-1.263184642791748047e+01,-1.362343907356262207e+00,3.310564160346984863e-01,-2.257233142852783203e+00,2.428372144699096680e+00,-9.951498508453369141e-01,-1.997849106788635254e+00,-4.839420795440673828e+00,-6.336537837982177734e+00,-1.604906272888183594e+01,-1.443744087219238281e+01,-9.006580352783203125e+00,-1.535692596435546875e+01,-1.946144676208496094e+01,-1.507695007324218750e+01,-3.797607183456420898e+00,-3.451304674148559570e+00,-1.173630428314208984e+01,1.260731506347656250e+01,5.844776034355163574e-01
4.068279743194580078e+00,-1.354371070861816406e+01,-1.601946949958801270e+00,-1.860370934009552002e-01,-2.763903379440307617e+00,1.744787216186523438e+00,-1.011271595954895020e+00,-2.320789813995361328e+00,-4.976926326751708984e+00,-6.091887950897216797e+00,-1.687545967102050781e+01,-1.485552978515625000e+01,-9.234424591064453125e+00,-1.520567321777343750e+01,-2.023514366149902344e+01,-1.520388698577880859e+01,-4.262586593627929688e+00,-3.577384471893310547e+00,-1.163715362548828125e+01,1.088728332519531250e+01,4.799993932247161865e-01
2.896492481231689453e+00,-1.441301155090332031e+01,-1.796813964843750000e+00,-8.209027647972106934e-01,-3.134289264678955078e+00,1.047383308410644531e+00,-9.161533117294311523e-01,-2.670752048492431641e+00,-4.944148540496826172e+00,-5.818074226379394531e+00,-1.740051841735839844e+01,-1.519867897033691406e+01,-9.089815139770507812e+00,-1.486213874816894531e+01,-2.053188896179199219e+01,-1.480823802947998047e+01,-4.736354351043701172e+00,-3.733858346939086914e+00,-1.115766525268554688e+01,8.723909378051757812e+00,3.602550327777862549e-01
1.483651757240295410e+00,-1.509787654876708984e+01,-1.772550344467163086e+00,-1.361918807029724121e+00,-3.240898847579956055e+00,4.540832936763763428e-01,-5.840453505516052246e-01,-2.940967798233032227e+00,-4.605980873107910156e+00,-5.441378116607666016e+00,-1.747265815734863281e+01,-1.533574104309082031e+01,-8.484470367431640625e+00,-1.419679164886474609e+01,-2.028478240966796875e+01,-1.377625370025634766e+01,-5.032758712768554688e+00,-3.741738319396972656e+00,-1.022735023498535156e+01,6.228721618652343750e+00,2.337538301944732666e-01
1.829676926136016846e-01,-1.548351669311523438e+01,-1.369168043136596680e+00,-1.593782782554626465e+00,-2.991410493850708008e+00,8.833775669336318970e-02,1.035471037030220032e-01,-3.031918525695800781e+00,-3.837707757949829102e+00,-4.890510559082031250e+00,-1.697773170471191406e+01,-1.516712474822998047e+01,-7.349450111389160156e+00,-1.310584735870361328e+01,-1.942691612243652344e+01,-1.206342220306396484e+01,-4.965648174285888672e+00,-3.418658971786499023e+00,-8.800505638122558594e+00,3.541649103164672852e+00,1.098903417587280273e-01
-6.724371314048767090e-01,-1.549899387359619141e+01,-4.835467040538787842e-01,-1.345357060432434082e+00,-2.357248306274414062e+00,6.069955602288246155e-02,1.216753602027893066e+00,-2.873743295669555664e+00,-2.561783075332641602e+00,-4.104714393615722656e+00,-1.587739086151123047e+01,-1.465042972564697266e+01,-5.663733959197998047e+00,-1.153942489624023438e+01,-1.792268753051757812e+01,-9.704364776611328125e+00,-4.400802135467529297e+00,-2.623906373977661133e+00,-6.869384765625000000e+00,8.289460539817810059e-01,-2.284172456711530685e-03
-8.532271385192871094e-01,-1.513656997680664062e+01,8.888630867004394531e-01,-5.338330864906311035e-01,-1.397762060165405273e+00,4.448705613613128662e-01,2.733003854751586914e+00,-2.438761949539184570e+00,-7.901983261108398438e-01,-3.058065891265869141e+00,-1.423464107513427734e+01,-1.380932140350341797e+01,-3.481971979141235352e+00,-9.524073600769042969e+00,-1.579690933227539062e+01,-6.839206695556640625e+00,-3.303866147994995117e+00,-1.303446054458618164e+00,-4.484338283538818359e+00,-1.727894425392150879e+00,-9.543472528457641602e-02
-2.907692193984985352e-01,-1.445170497894287109e+01,2.637358665466308594e+00,8.150265216827392578e-01,-2.602268457412719727e-01,1.257433652877807617e+00,4.518486976623535156e+00,-1.753336906433105469e+00,1.361925363540649414e+00,-1.770007967948913574e+00,-1.222206592559814453e+01,-1.273550319671630859e+01,-9.412069916725158691e-01,-7.165992259979248047e+00,-1.316288757324218750e+01,-3.698742151260375977e+00,-1.749940156936645508e+00,4.853104054927825928e-01,-1.762333273887634277e+00,-3.943915128707885742e+00,-1.648459732532501221e-01
9.161717891693115234e-01,-1.355660820007324219e+01,4.550391674041748047e+00,2.570568084716796875e+00,8.421381711959838867e-01,2.434821128845214844e+00,6.337019920349121094e+00,-8.794198036193847656e-01,3.676337718963623047e+00,-3.102090060710906982e-01,-1.009991455078125000e+01,-1.157491111755371094e+01,1.739123344421386719e+00,-4.640568256378173828e+00,-1.022025012969970703e+01,-5.813573598861694336e-01,7.802018523216247559e-02,2.578009128570556641e+00,1.113045930862426758e+00,-5.652863025665283203e+00,-2.090726196765899658e-01
2.538260459899902344e+00,-1.259831333160400391e+01,6.362578868865966797e+00,4.528530597686767578e+00,1.674132466316223145e+00,3.840684175491333008e+00,7.907278060913085938e+00,8.808412402868270874e-02,5.882024765014648438e+00,1.211157560348510742e+00,-8.163130760192871094e+00,-1.050010681152343750e+01,4.298385143280029297e+00,-2.162611961364746094e+00,-7.237687587738037109e+00,2.204671382904052734e+00,1.933144211769104004e+00,4.737124919891357422e+00,3.913287162780761719e+00,-6.732818126678466797e+00,-2.297044843435287476e-01
4.277527809143066406e+00,-1.173674964904785156e+01,7.816120147705078125e+00,6.455210208892822266e+00,2.039023160934448242e+00,5.283398151397705078e+00,8.967283248901367188e+00,1.047020316123962402e+00,7.711169719696044922e+00,2.661235332489013672e+00,-6.669223785400390625e+00,-9.680691719055175781e+00,6.482669353485107422e+00,5.548093467950820923e-02,-4.496837615966796875e+00,4.390632629394531250e+00,3.571757316589355469e+00,6.715001106262207031e+00,6.401357650756835938e+00,-7.133211612701416016e+00,-2.307523488998413086e-01
5.847722530364990234e+00,-1.110734462738037109e+01,8.729796409606933594e+00,8.137144088745117188e+00,1.823605775833129883e+00,6.556598186492919922e+00,9.350980758666992188e+00,1.897870182991027832e+00,8.967907905578613281e+00,3.916889429092407227e+00,-5.775253772735595703e+00,-9.242881774902343750e+00,8.101124763488769531e+00,1.841540455818176270e+00,-2.236175537109375000e+00,5.816617488861083984e+00,4.813300132751464844e+00,8.314638137817382812e+00,8.378955841064453125e+00,-6.890758514404296875e+00,-2.175819128751754761e-01
7.026206016540527344e+00,-1.080424976348876953e+01,9.040673255920410156e+00,9.419756889343261719e+00,1.021286249160766602e+00,7.478792667388916016e+00,9.030158042907714844e+00,2.558909893035888672e+00,9.577090263366699219e+00,4.884958267211914062e+00,-5.499483585357666016e+00,-9.240909576416015625e+00,9.070516586303710938e+00,3.099827527999877930e+00,-5.970609188079833984e-01,6.467790126800537109e+00,5.581874370574951172e+00,9.438097953796386719e+00,9.725239753723144531e+00,-6.130841732025146484e+00,-1.958660483360290527e-01
7.694124698638916016e+00,-1.085970973968505859e+01,8.813202857971191406e+00,1.022760009765625000e+01,-2.624249756336212158e-01,7.938508033752441406e+00,8.121697425842285156e+00,2.973460435867309570e+00,9.591480255126953125e+00,5.524936676025390625e+00,-5.725030899047851562e+00,-9.642235755920410156e+00,9.426997184753417969e+00,3.823101043701171875e+00,3.978460729122161865e-01,6.461195945739746094e+00,5.916627883911132812e+00,1.010114288330078125e+01,1.042549419403076172e+01,-5.040495872497558594e+00,-1.706633716821670532e-01
7.838087558746337891e+00,-1.124792957305908203e+01,8.218744277954101562e+00,1.056711578369140625e+01,-1.846181750297546387e+00,7.913633823394775391e+00,6.843242645263671875e+00,3.115158796310424805e+00,9.174166679382324219e+00,5.854647159576416016e+00,-6.240958213806152344e+00,-1.033050537109375000e+01,9.308450698852539062e+00,4.091010093688964844e+00,8.510575294494628906e-01,6.040818691253662109e+00,5.948585033416748047e+00,1.042084503173828125e+01,1.056182670593261719e+01,-3.837928533554077148e+00,-1.459484845399856567e-01
7.538444519042968750e+00,-1.188249397277832031e+01,7.484012126922607422e+00,1.051835060119628906e+01,-3.509071350097656250e+00,7.471422672271728516e+00,5.460803031921386719e+00,2.998504638671875000e+00,8.548195838928222656e+00,5.942947864532470703e+00,-6.811674594879150391e+00,-1.112329673767089844e+01,8.916658401489257812e+00,4.044347286224365234e+00,9.460160732269287109e-01,5.501746654510498047e+00,5.851913928985595703e+00,1.056268501281738281e+01,1.029690742492675781e+01,-2.722644567489624023e+00,-1.243771612644195557e-01
6.939158916473388672e+00,-1.264603424072265625e+01,6.831169605255126953e+00,1.020735836029052734e+01,-5.040072917938232422e+00,6.742695331573486328e+00,4.219428539276123047e+00,2.676882266998291016e+00,7.933417320251464844e+00,5.891911506652832031e+00,-7.238113880157470703e+00,-1.180762195587158203e+01,8.462649345397949219e+00,3.856086969375610352e+00,9.071694016456604004e-01,5.137420177459716797e+00,5.795189857482910156e+00,1.068988990783691406e+01,9.831362724304199219e+00,-1.844271898269653320e+00,-1.073043718934059143e-01
6.222694873809814453e+00,-1.340312576293945312e+01,6.429304122924804688e+00,9.777673721313476562e+00,-6.262236118316650391e+00,5.888674736022949219e+00,3.295652627944946289e+00,2.240582704544067383e+00,7.495317935943603516e+00,5.813332080841064453e+00,-7.406133174896240234e+00,-1.218429565429687500e+01,8.119621276855468750e+00,3.691962480545043945e+00,9.319881200790405273e-01,5.170390605926513672e+00,5.899051189422607422e+00,1.091840934753417969e+01,9.352649688720703125e+00,-1.275546312332153320e+00,-9.501919895410537720e-02
5.571515560150146484e+00,-1.402608203887939453e+01,6.364853858947753906e+00,9.357190132141113281e+00,-7.061258792877197266e+00,5.065977573394775391e+00,2.770889997482299805e+00,1.801646947860717773e+00,7.319438457489013672e+00,5.799560070037841797e+00,-7.299294948577880859e+00,-1.209949493408203125e+01,7.994348526000976562e+00,3.679090023040771484e+00,1.153198480606079102e+00,5.701220035552978516e+00,6.209037303924560547e+00,1.128651809692382812e+01,9.005620956420898438e+00,-1.015775203704833984e+00,-8.699770271778106689e-02
5.144650459289550781e+00,-1.441559123992919922e+01,6.631753444671630859e+00,9.033316612243652344e+00,-7.385483741760253906e+00,4.397133350372314453e+00,2.636273384094238281e+00,1.476070046424865723e+00,7.403380870819091797e+00,5.909733772277832031e+00,-6.980607032775878906e+00,-1.147433376312255859e+01,8.111213684082031250e+00,3.886659145355224609e+00,1.613963484764099121e+00,6.710124969482421875e+00,6.700381755828857422e+00,1.175481414794921875e+01,8.862317085266113281e+00,-1.001920819282531738e+00,-8.217395842075347900e-02
5.049233436584472656e+00,-1.452264213562011719e+01,7.147354602813720703e+00,8.841016769409179688e+00,-7.251397132873535156e+00,3.961370944976806641e+00,2.806357860565185547e+00,1.356779694557189941e+00,7.676793575286865234e+00,6.156003952026367188e+00,-6.560559749603271484e+00,-1.031571388244628906e+01,8.432382583618164062e+00,4.324324131011962891e+00,2.268961906433105469e+00,8.065222740173339844e+00,7.287597656250000000e+00,1.222648715972900391e+01,8.923511505126953125e+00,-1.135616302490234375e+00,-7.931946218013763428e-02
5.305352687835693359e+00,-1.435368251800537109e+01,7.777450084686279297e+00,8.748087882995605469e+00,-6.731538295745849609e+00,3.795541763305664062e+00,3.148138761520385742e+00,1.491887569427490234e+00,8.026953697204589844e+00,6.505156517028808594e+00,-6.156949043273925781e+00,-8.701535224914550781e+00,8.866212844848632812e+00,4.946226596832275391e+00,3.014602661132812500e+00,9.547258377075195312e+00,7.851644992828369141e+00,1.258221244812011719e+01,9.128010749816894531e+00,-1.306718826293945312e+00,-7.725989073514938354e-02
5.836004734039306641e+00,-1.397578144073486328e+01,8.371150016784667969e+00,8.680000305175781250e+00,-5.949001789093017578e+00,3.903330802917480469e+00,3.508459806442260742e+00,1.878757357597351074e+00,8.333942413330078125e+00,6.892384052276611328e+00,-5.868394851684570312e+00,-6.770832061767578125e+00,9.307609558105468750e+00,5.671109676361083984e+00,3.723554849624633789e+00,1.092049026489257812e+01,8.268688201904296875e+00,1.271504592895507812e+01,9.378986358642578125e+00,-1.415476322174072266e+00,-7.512804865837097168e-02
6.475466251373291016e+00,-1.350372791290283203e+01,8.787422180175781250e+00,8.541066169738769531e+00,-5.065351486206054688e+00,4.261705875396728516e+00,3.739000797271728516e+00,2.462686777114868164e+00,8.498629570007324219e+00,7.237486362457275391e+00,-5.753338336944580078e+00,-4.695177555084228516e+00,9.655682563781738281e+00,6.404841899871826172e+00,4.284673690795898438e+00,1.196236610412597656e+01,8.431671142578125000e+00,1.255181789398193359e+01,9.570316314697265625e+00,-1.386381983757019043e+00,-7.254455238580703735e-02
6.996074199676513672e+00,-1.306907749176025391e+01,8.918597221374511719e+00,8.241114616394042969e+00,-4.258635520935058594e+00,4.822761535644531250e+00,3.720460653305053711e+00,3.150089025497436523e+00,8.460255622863769531e+00,7.465124607086181641e+00,-5.833694934844970703e+00,-2.652063131332397461e+00,9.834763526916503906e+00,7.058926105499267578e+00,4.622424125671386719e+00,1.251957225799560547e+01,8.269487380981445312e+00,1.207564163208007812e+01,9.609047889709472656e+00,-1.175101518630981445e+00,-6.956358999013900757e-02
7.166820526123046875e+00,-1.279693698883056641e+01,8.709323883056640625e+00,7.720341205596923828e+00,-3.691516637802124023e+00,5.530299663543701172e+00,3.387546777725219727e+00,3.832878112792968750e+00,8.195637702941894531e+00,7.518590927124023438e+00,-6.093028545379638672e+00,-8.101049065589904785e-01,9.802815437316894531e+00,7.560953617095947266e+00,4.700117588043212891e+00,1.251627445220947266e+01,7.761365413665771484e+00,1.131803798675537109e+01,9.434759140014648438e+00,-7.767857909202575684e-01,-6.660068780183792114e-02
6.811936378479003906e+00,-1.276985168457031250e+01,8.148986816406250000e+00,6.967703342437744141e+00,-3.489288091659545898e+00,6.314303398132324219e+00,2.737840414047241211e+00,4.407580852508544922e+00,7.721562862396240234e+00,7.371152877807617188e+00,-6.489334106445312500e+00,6.926491260528564453e-01,9.550588607788085938e+00,7.862652778625488281e+00,4.513437747955322266e+00,1.196566295623779297e+01,6.934469223022460938e+00,1.035105133056640625e+01,9.022662162780761719e+00,-2.184510827064514160e-01,-6.417978554964065552e-02
5.864462375640869141e+00,-1.300716876983642578e+01,7.273980617523193359e+00,6.012644290924072266e+00,-3.712399005889892578e+00,7.112125873565673828e+00,1.835828661918640137e+00,4.796427726745605469e+00,7.074007034301757812e+00,7.022000312805175781e+00,-6.957777976989746094e+00,1.762523174285888672e+00,9.094898223876953125e+00,7.936669826507568359e+00,4.066700458526611328e+00,1.094686698913574219e+01,5.855109691619873047e+00,9.262487411499023438e+00,8.380504608154296875e+00,4.424066245555877686e-01,-6.266220659017562866e-02
4.381314754486083984e+00,-1.346761417388916016e+01,6.144964694976806641e+00,4.915890693664550781e+00,-4.355353355407714844e+00,7.870333671569824219e+00,7.959761023521423340e-01,4.951966285705566406e+00,6.293742179870605469e+00,6.490574836730957031e+00,-7.424396038055419922e+00,2.357116699218750000e+00,8.464331626892089844e+00,7.767718315124511719e+00,3.360985517501831055e+00,9.570338249206542969e+00,4.611169815063476562e+00,8.130021095275878906e+00,7.542368888854980469e+00,1.134436845779418945e+00,-6.217441335320472717e-02
2.531564474105834961e+00,-1.406864452362060547e+01,4.837005138397216797e+00,3.746449947357177734e+00,-5.347811698913574219e+00,8.561288833618164062e+00,-2.511312961578369141e-01,4.864970207214355469e+00,5.412746429443359375e+00,5.804420948028564453e+00,-7.822527885437011719e+00,2.486290454864501953e+00,7.687472820281982422e+00,7.350166320800781250e+00,2.391976356506347656e+00,7.943231105804443359e+00,3.290532588958740234e+00,7.003183364868164062e+00,6.539239406585693359e+00,1.786981940269470215e+00,-6.246347725391387939e-02
5.411998629570007324e-01,-1.472126579284667969e+01,3.416826725006103516e+00,2.560447216033935547e+00,-6.583164215087890625e+00,9.179463386535644531e+00,-1.193447351455688477e+00,4.551256179809570312e+00,4.441412925720214844e+00,4.986220359802246094e+00,-8.108342170715332031e+00,2.211179971694946289e+00,6.779456138610839844e+00,6.684014320373535156e+00,1.148882150650024414e+00,6.138082504272460938e+00,1.955514430999755859e+00,5.886476993560791016e+00,5.395129680633544922e+00,2.350165605545043945e+00,-6.305967271327972412e-02
-1.360443711280822754e+00,-1.535453987121582031e+01,1.939021944999694824e+00,1.391006112098693848e+00,-7.938314914703369141e+00,9.741439819335937500e+00,-1.974545955657958984e+00,4.049050807952880859e+00,3.371746778488159180e+00,4.050555706024169922e+00,-8.275447845458984375e+00,1.624474883079528809e+00,5.742804050445556641e+00,5.768457889556884766e+00,-3.682970702648162842e-01,4.176322460174560547e+00,6.388716697692871094e-01,4.745004653930664062e+00,4.113138198852539062e+00,2.805284738540649414e+00,-6.340292841196060181e-02
-2.999272108078002930e+00,-1.594009304046630859e+01,4.430194497108459473e-01,2.546885311603546143e-01,-9.289069175720214844e+00,1.025919532775878906e+01,-2.600069522857666016e+00,3.405805349349975586e+00,2.187758922576904297e+00,3.005527496337890625e+00,-8.357631683349609375e+00,8.356276750564575195e-01,4.561541557312011719e+00,4.614759922027587891e+00,-2.143375158309936523e+00,2.034872055053710938e+00,-6.546019911766052246e-01,3.522481441497802734e+00,2.675448894500732422e+00,3.167578697204589844e+00,-6.307773292064666748e-02
-4.273172378540039062e+00,-1.647276687622070312e+01,-1.032510638236999512e+00,-8.383846282958984375e-01,-1.052222347259521484e+01,1.073733615875244141e+01,-3.132893323898315430e+00,2.677541255950927734e+00,8.822544217109680176e-01,1.861667275428771973e+00,-8.418811798095703125e+00,-4.689516872167587280e-02,3.212128162384033203e+00,3.243838548660278320e+00,-4.145059108734130859e+00,-3.324281573295593262e-01,-1.933694839477539062e+00,2.168249845504760742e+00,1.058822631835937500e+00,3.479996919631958008e+00,-6.195761635899543762e-02
-5.148664951324462891e+00,-1.696674537658691406e+01,-2.447381734848022461e+00,-1.871651530265808105e+00,-1.153556346893310547e+01,1.116572856903076172e+01,-3.662492752075195312e+00,1.926209807395935059e+00,-5.303765535354614258e-01,6.440880298614501953e-01,-8.533868789672851562e+00,-9.323762059211730957e-01,1.680270433425903320e+00,1.699138402938842773e+00,-6.331264495849609375e+00,-2.961845874786376953e+00,-3.196809053421020508e+00,6.620472073554992676e-01,-7.491339445114135742e-01,3.793107748031616211e+00,-6.016903743147850037e-02
-5.652533531188964844e+00,-1.741558456420898438e+01,-3.742451190948486328e+00,-2.809228658676147461e+00,-1.224226474761962891e+01,1.151673412322998047e+01,-4.264639854431152344e+00,1.216399312019348145e+00,-2.002966403961181641e+00,-5.994144678115844727e-01,-8.759415626525878906e+00,-1.751791238784790039e+00,-3.150891885161399841e-02,5.065374448895454407e-02,-8.643721580505371094e+00,-5.841841220855712891e+00,-4.422373294830322266e+00,-9.646067619323730469e-01,-2.729055643081665039e+00,4.145703792572021484e+00,-5.803719907999038696e-02
-5.819931507110595703e+00,-1.779477500915527344e+01,-4.860093116760253906e+00,-3.601430416107177734e+00,-1.257748031616210938e+01,1.175902843475341797e+01,-4.970772266387939453e+00,6.107208132743835449e-01,-3.465962886810302734e+00,-1.804032206535339355e+00,-9.115542411804199219e+00,-2.461753845214843750e+00,-1.890420675277709961e+00,-1.613921523094177246e+00,-1.102416133880615234e+01,-8.896581649780273438e+00,-5.558456897735595703e+00,-2.634037733078002930e+00,-4.823620319366455078e+00,4.554409980773925781e+00,-5.595955997705459595e-02
-5.692708969116210938e+00,-1.805530738830566406e+01,-5.744197845458984375e+00,-4.201332569122314453e+00,-1.251593208312988281e+01,1.186681747436523438e+01,-5.761543750762939453e+00,1.579447686672210693e-01,-4.833824634552001953e+00,-2.900906562805175781e+00,-9.577594757080078125e+00,-3.034654140472412109e+00,-3.831726312637329102e+00,-3.194020986557006836e+00,-1.339704704284667969e+01,-1.198099613189697266e+01,-6.545140266418457031e+00,-4.237051486968994141e+00,-6.933677673339843750e+00,5.007451057434082031e+00,-5.418904870748519897e-02
-5.307693481445312500e+00,-1.815590858459472656e+01,-6.360644817352294922e+00,-4.585932254791259766e+00,-1.208399868011474609e+01,1.182259654998779297e+01,-6.562794685363769531e+00,-1.228159219026565552e-01,-6.032202243804931641e+00,-3.829280614852905273e+00,-1.008439064025878906e+01,-3.456687450408935547e+00,-5.762102603912353516e+00,-4.592296600341796875e+00,-1.566634082794189453e+01,-1.489890766143798828e+01,-7.324899673461914062e+00,-5.664454460144042969e+00,-8.931415557861328125e+00,5.466726303100585938e+00,-5.270760133862495422e-02
-4.710081577301025391e+00,-1.806691551208496094e+01,-6.708675861358642578e+00,-4.770871639251708984e+00,-1.136960411071777344e+01,1.162268066406250000e+01,-7.281824588775634766e+00,-2.500150203704833984e-01,-7.005135059356689453e+00,-4.559179782867431641e+00,-1.055648803710937500e+01,-3.718979120254516602e+00,-7.571409702301025391e+00,-5.732317447662353516e+00,-1.771658325195312500e+01,-1.744095230102539062e+01,-7.871370315551757812e+00,-6.834069252014160156e+00,-1.068824768066406250e+01,5.887209415435791016e+00,-5.128035321831703186e-02
-3.961811780929565430e+00,-1.780896186828613281e+01,-6.826202869415283203e+00,-4.813195705413818359e+00,-1.050793552398681641e+01,1.126983261108398438e+01,-7.829963684082031250e+00,-2.809909582138061523e-01,-7.729438304901123047e+00,-5.094655513763427734e+00,-1.092448520660400391e+01,-3.818571090698242188e+00,-9.145304679870605469e+00,-6.567420959472656250e+00,-1.941828346252441406e+01,-1.942249488830566406e+01,-8.195736885070800781e+00,-7.710999011993408203e+00,-1.208952999114990234e+01,6.223179817199707031e+00,-4.956404119729995728e-02
-3.148256540298461914e+00,-1.741558456420898438e+01,-6.773884296417236328e+00,-4.803995132446289062e+00,-9.658355712890625000e+00,1.077971553802490234e+01,-8.146756172180175781e+00,-2.968084514141082764e-01,-8.216303825378417969e+00,-5.460820674896240234e+00,-1.113907527923583984e+01,-3.753491163253784180e+00,-1.038878345489501953e+01,-7.082321166992187500e+00,-2.065166664123535156e+01,-2.071494865417480469e+01,-8.349132537841796875e+00,-8.305375099182128906e+00,-1.306089973449707031e+01,6.444158554077148438e+00,-4.716120287775993347e-02
-2.353115081787109375e+00,-1.694353103637695312e+01,-6.626028060913085938e+00,-4.836198329925537109e+00,-8.968141555786132812e+00,1.016983222961425781e+01,-8.212049484252929688e+00,-3.798503577709197998e-01,-8.496912002563476562e+00,-5.701420307159423828e+00,-1.118655872344970703e+01,-3.528669595718383789e+00,-1.123878765106201172e+01,-7.290694713592529297e+00,-2.133148384094238281e+01,-2.128204536437988281e+01,-8.401862144470214844e+00,-8.667854309082031250e+00,-1.357059860229492188e+01,6.538368701934814453e+00,-4.389118030667304993e-02
-1.656738519668579102e+00,-1.643407249450683594e+01,-6.445567607879638672e+00,-4.983413696289062500e+00,-8.541703224182128906e+00,9.476113319396972656e+00,-8.046801567077636719e+00,-5.815235376358032227e-01,-8.614431381225585938e+00,-5.850478172302246094e+00,-1.108428573608398438e+01,-3.158897638320922852e+00,-1.167514038085937500e+01,-7.224722862243652344e+00,-2.143507575988769531e+01,-2.116664886474609375e+01,-8.425030708312988281e+00,-8.864853858947753906e+00,-1.363101863861083984e+01,6.512738227844238281e+00,-3.988042846322059631e-02
-1.107672452926635742e+00,-1.590398025512695312e+01,-6.275722503662109375e+00,-5.274163722991943359e+00,-8.421904563903808594e+00,8.747385978698730469e+00,-7.702601909637451172e+00,-9.064413905143737793e-01,-8.614431381225585938e+00,-5.925817489624023438e+00,-1.087061023712158203e+01,-2.671784400939941406e+00,-1.172474479675292969e+01,-6.926241874694824219e+00,-2.100776100158691406e+01,-2.049404525756835938e+01,-8.475363731384277344e+00,-8.961665153503417969e+00,-1.329560947418212891e+01,6.390126228332519531e+00,-3.547221794724464417e-02
-7.176346182823181152e-01,-1.535067081451416016e+01,-6.136964797973632812e+00,-5.691886901855468750e+00,-8.581269264221191406e+00,8.043533325195312500e+00,-7.247968673706054688e+00,-1.309128642082214355e+00,-8.537683486938476562e+00,-5.928247928619384766e+00,-1.059392642974853516e+01,-2.107758522033691406e+00,-1.145486164093017578e+01,-6.439500331878662109e+00,-2.015529251098632812e+01,-1.944557380676269531e+01,-8.583220481872558594e+00,-9.008945465087890625e+00,-1.264957809448242188e+01,6.203783512115478516e+00,-3.124467283487319946e-02
-4.732332527637481689e-01,-1.476511764526367188e+01,-6.033086299896240234e+00,-6.182297706604003906e+00,-8.964843750000000000e+00,7.429043769836425781e+00,-6.761092185974121094e+00,-1.709179639816284180e+00,-8.422562599182128906e+00,-5.848858356475830078e+00,-1.029989337921142578e+01,-1.514151096343994141e+00,-1.095545291900634766e+01,-5.813575267791748047e+00,-1.901470947265625000e+01,-1.823390007019042969e+01,-8.750996589660644531e+00,-9.039339065551757812e+00,-1.179749965667724609e+01,5.993196010589599609e+00,-2.768558450043201447e-02
-3.443366289138793945e-01,-1.415247917175292969e+01,-5.959537506103515625e+00,-6.677309036254882812e+00,-9.504486083984375000e+00,6.950902938842773438e+00,-6.314519882202148438e+00,-2.018939018249511719e+00,-8.291452407836914062e+00,-5.690078735351562500e+00,-1.002686309814453125e+01,-9.382925629615783691e-01,-1.031731891632080078e+01,-5.101564884185791016e+00,-1.772197914123535156e+01,-1.706343841552734375e+01,-8.957120895385742188e+00,-9.074236869812011719e+00,-1.085169219970703125e+01,5.799926280975341797e+00,-2.512015029788017273e-02
-3.058350384235382080e-01,-1.353726196289062500e+01,-5.912526607513427734e+00,-7.117114543914794922e+00,-1.014304447174072266e+01,6.637670040130615234e+00,-5.972738742828369141e+00,-2.175137042999267578e+00,-8.162740707397460938e+00,-5.462440967559814453e+00,-9.792183876037597656e+00,-4.156812429428100586e-01,-9.617810249328613281e+00,-4.355764389038085938e+00,-1.637529373168945312e+01,-1.609244918823242188e+01,-9.168039321899414062e+00,-9.120390892028808594e+00,-9.919827461242675781e+00,5.659303188323974609e+00,-2.358450181782245636e-02
-3.527065515518188477e-01,-1.296460628509521484e+01,-5.892054080963134766e+00,-7.469511032104492188e+00,-1.085084438323974609e+01,6.485660076141357422e+00,-5.780084133148193359e+00,-2.153388023376464844e+00,-8.040424346923828125e+00,-5.202398777008056641e+00,-9.595857620239257812e+00,3.494773060083389282e-02,-8.898122787475585938e+00,-3.623640775680541992e+00,-1.502968692779541016e+01,-1.542479133605957031e+01,-9.339810371398925781e+00,-9.174425125122070312e+00,-9.077817916870117188e+00,5.598343849182128906e+00,-2.278957888484001160e-02
-4.933210313320159912e-01,-1.247707462310791016e+01,-5.899636745452880859e+00,-7.730817794799804688e+00,-1.161689472198486328e+01,6.470919609069824219e+00,-5.758319377899169922e+00,-1.977418184280395508e+00,-7.921306610107421875e+00,-4.952078342437744141e+00,-9.415967941284179688e+00,4.214828908443450928e-01,-8.166665077209472656e+00,-2.941398143768310547e+00,-1.368623924255371094e+01,-1.506376171112060547e+01,-9.438078880310058594e+00,-9.231836318969726562e+00,-8.371367454528808594e+00,5.628130912780761719e+00,-2.224758639931678772e-02
-7.527882456779479980e-01,-1.210562324523925781e+01,-5.945888996124267578e+00,-7.926798343658447266e+00,-1.243130397796630859e+01,6.546463966369628906e+00,-5.906639575958251953e+00,-1.704566240310668945e+00,-7.786998748779296875e+00,-4.762515068054199219e+00,-9.216901779174804688e+00,7.666035294532775879e-01,-7.404098987579345703e+00,-2.325127124786376953e+00,-1.231797218322753906e+01,-1.493352699279785156e+01,-9.441274642944335938e+00,-9.281367301940917969e+00,-7.795052051544189453e+00,5.741737365722656250e+00,-2.138039655983448029e-02
-1.156217932701110840e+00,-1.185798835754394531e+01,-6.042943477630615234e+00,-8.103456497192382812e+00,-1.326989269256591797e+01,6.660701751708984375e+00,-6.199249267578125000e+00,-1.413919687271118164e+00,-7.627907752990722656e+00,-4.675834178924560547e+00,-8.959394454956054688e+00,1.100877523422241211e+00,-6.580158233642578125e+00,-1.774023294448852539e+00,-1.089683055877685547e+01,-1.489231300354003906e+01,-9.357386589050292969e+00,-9.325270652770996094e+00,-7.304719448089599609e+00,5.914917945861816406e+00,-1.977248489856719971e-02
-1.727045774459838867e+00,-1.172772216796875000e+01,-6.215063571929931641e+00,-8.311397552490234375e+00,-1.407770729064941406e+01,6.757435798645019531e+00,-6.596650600433349609e+00,-1.190497398376464844e+00,-7.444833278656005859e+00,-4.726060390472412109e+00,-8.611486434936523438e+00,1.449942469596862793e+00,-5.672982215881347656e+00,-1.278432011604309082e+00,-9.410943984985351562e+00,-1.476867294311523438e+01,-9.226361274719238281e+00,-9.381555557250976562e+00,-6.841498374938964844e+00,6.110266208648681641e+00,-1.720705069601535797e-02
-2.473641633987426758e+00,-1.170450592041015625e+01,-6.486512660980224609e+00,-8.604907989501953125e+00,-1.478221035003662109e+01,6.781388759613037109e+00,-7.054507732391357422e+00,-1.112727999687194824e+00,-7.262558460235595703e+00,-4.939116477966308594e+00,-8.164044380187988281e+00,1.818728566169738770e+00,-4.687616348266601562e+00,-8.311125636100769043e-01,-7.877578735351562500e+00,-1.441423702239990234e+01,-9.120902061462402344e+00,-9.495252609252929688e+00,-6.346518039703369141e+00,6.284139633178710938e+00,-1.373829413205385208e-02
-3.380939960479736328e+00,-1.179865837097167969e+01,-6.886861801147460938e+00,-9.034592628479003906e+00,-1.529987144470214844e+01,6.680048465728759766e+00,-7.526875019073486328e+00,-1.247835874557495117e+00,-7.124253273010253906e+00,-5.336065292358398438e+00,-7.630766868591308594e+00,2.190472841262817383e+00,-3.656008481979370117e+00,-4.376967549324035645e-01,-6.335580825805664062e+00,-1.374822807312011719e+01,-9.131288528442382812e+00,-9.726023674011230469e+00,-5.788793563842773438e+00,6.393589496612548828e+00,-9.673345834016799927e-03
-4.420482635498046875e+00,-1.203597545623779297e+01,-7.431276321411132812e+00,-9.637254714965820312e+00,-1.556474590301513672e+01,6.410115718841552734e+00,-7.970222949981689453e+00,-1.639319062232971191e+00,-7.080283641815185547e+00,-5.929868221282958984e+00,-7.050919055938720703e+00,2.531649351119995117e+00,-2.631967544555664062e+00,-1.166887655854225159e-01,-4.836746215820312500e+00,-1.277394199371337891e+01,-9.348598480224609375e+00,-1.013916015625000000e+01,-5.172198295593261719e+00,6.407444000244140625e+00,-5.373533349484205246e-03
-5.532006740570068359e+00,-1.245514869689941406e+01,-8.109140396118164062e+00,-1.043037700653076172e+01,-1.553946781158447266e+01,5.947636127471923828e+00,-8.340217590332031250e+00,-2.305631399154663086e+00,-7.168222904205322266e+00,-6.720525264739990234e+00,-6.470158100128173828e+00,2.804787635803222656e+00,-1.671824097633361816e+00,1.109935939311981201e-01,-3.412367105484008789e+00,-1.158040142059326172e+01,-9.825561523437500000e+00,-1.077406120300292969e+01,-4.524618148803710938e+00,6.302150249481201172e+00,-1.218252582475543022e-03
-6.643530845642089844e+00,-1.308971309661865234e+01,-8.873443603515625000e+00,-1.139923763275146484e+01,-1.522733211517333984e+01,5.295374870300292969e+00,-8.584461212158203125e+00,-3.221728563308715820e+00,-7.387272834777832031e+00,-7.680492877960205078e+00,-5.924096584320068359e+00,2.982278347015380859e+00,-8.150935769081115723e-01,2.381095439195632935e-01,-2.067839860916137695e+00,-1.030278396606445312e+01,-1.056697273254394531e+01,-1.162622547149658203e+01,-3.885559082031250000e+00,6.069395542144775391e+00,2.557632979005575180e-03
-7.674703598022460938e+00,-1.395514583587646484e+01,-9.640022277832031250e+00,-1.248770999908447266e+01,-1.465911483764648438e+01,4.489260673522949219e+00,-8.650560379028320312e+00,-4.323021888732910156e+00,-7.695861339569091797e+00,-8.756304740905761719e+00,-5.428258419036865234e+00,3.054260492324829102e+00,-7.270596921443939209e-02,2.775315642356872559e-01,-7.761873602867126465e-01,-9.079569816589355469e+00,-1.151211071014404297e+01,-1.263261222839355469e+01,-3.282906770706176758e+00,5.709872245788574219e+00,5.899923853576183319e-03
-8.558566093444824219e+00,-1.503338909149169922e+01,-1.031637001037597656e+01,-1.359826469421386719e+01,-1.389306449890136719e+01,3.595625400543212891e+00,-8.493373870849609375e+00,-5.507357597351074219e+00,-8.016441345214843750e+00,-9.865330696105957031e+00,-4.969858646392822266e+00,3.028623104095458984e+00,5.696316957473754883e-01,2.630500197410583496e-01,5.133070945739746094e-01,-8.026153564453125000e+00,-1.256031227111816406e+01,-1.368515300750732422e+01,-2.725957155227661133e+00,5.237434864044189453e+00,8.898952975869178772e-03
-9.259964942932128906e+00,-1.629090881347656250e+01,-1.081756496429443359e+01,-1.460668945312500000e+01,-1.299512577056884766e+01,2.695541381835937500e+00,-8.097584724426269531e+00,-6.657422065734863281e+00,-8.273065567016601562e+00,-1.091602993011474609e+01,-4.526982784271240234e+00,2.922128677368164062e+00,1.133779048919677734e+00,2.348914146423339844e-01,1.838410973548889160e+00,-7.198587894439697266e+00,-1.359413242340087891e+01,-1.466001987457275391e+01,-2.212385892868041992e+00,4.679100513458251953e+00,1.173538342118263245e-02
-9.800661087036132812e+00,-1.768643379211425781e+01,-1.111100292205810547e+01,-1.539337062835693359e+01,-1.204553127288818359e+01,1.863631486892700195e+00,-7.496243953704833984e+00,-7.667765140533447266e+00,-8.416966438293457031e+00,-1.183630275726318359e+01,-4.076801776885986328e+00,2.749568223953247070e+00,1.619736075401306152e+00,2.131690680980682373e-01,3.201282501220703125e+00,-6.624896526336669922e+00,-1.452249336242675781e+01,-1.545927524566650391e+01,-1.741418600082397461e+00,4.081973075866699219e+00,1.464407984167337418e-02
-1.024259185791015625e+01,-1.919545936584472656e+01,-1.122701263427734375e+01,-1.587550067901611328e+01,-1.113550281524658203e+01,1.154251098632812500e+00,-6.778826236724853516e+00,-8.475775718688964844e+00,-8.462534904479980469e+00,-1.259617519378662109e+01,-3.628446817398071289e+00,2.518830537796020508e+00,2.002279996871948242e+00,1.834014207124710083e-01,4.544730663299560547e+00,-6.310026168823242188e+00,-1.530784511566162109e+01,-1.604351997375488281e+01,-1.343265295028686523e+00,3.505627632141113281e+00,1.775150746107101440e-02
-1.070126342773437500e+01,-2.080250549316406250e+01,-1.126416683197021484e+01,-1.603651809692382812e+01,-1.037165069580078125e+01,5.821402668952941895e-01,-6.081560611724853516e+00,-9.070909500122070312e+00,-8.490515708923339844e+00,-1.322238254547119141e+01,-3.215704917907714844e+00,2.231887340545654297e+00,2.214991331100463867e+00,9.570749849081039429e-02,5.746819972991943359e+00,-6.258921146392822266e+00,-1.597575378417968750e+01,-1.645440483093261719e+01,-1.082993984222412109e+00,3.022106885910034180e+00,2.116606384515762329e-02
-1.129385280609130859e+01,-2.250757598876953125e+01,-1.135439682006835938e+01,-1.593898773193359375e+01,-9.860584259033203125e+00,1.362439692020416260e-01,-5.557603836059570312e+00,-9.490073204040527344e+00,-8.627222061157226562e+00,-1.378864192962646484e+01,-2.891537904739379883e+00,1.897613286972045898e+00,2.177157402038574219e+00,-1.231250166893005371e-01,6.645689487457275391e+00,-6.481473922729492188e+00,-1.660371589660644531e+01,-1.679324340820312500e+01,-1.049685359001159668e+00,2.702761650085449219e+00,2.483355067670345306e-02
-1.211912631988525391e+01,-2.428616142272949219e+01,-1.162887859344482422e+01,-1.570620346069335938e+01,-9.686931610107421875e+00,-2.166037261486053467e-01,-5.328675270080566406e+00,-9.796537399291992188e+00,-8.986176490783691406e+00,-1.439135551452636719e+01,-2.705255985260009766e+00,1.546576261520385742e+00,1.824039816856384277e+00,-5.326314568519592285e-01,7.076240062713623047e+00,-6.964495658874511719e+00,-1.728280830383300781e+01,-1.719737434387207031e+01,-1.336293816566467285e+00,2.594696998596191406e+00,2.873590029776096344e-02
-1.321056270599365234e+01,-2.608280372619628906e+01,-1.216646862030029297e+01,-1.548630046844482422e+01,-9.886961936950683594e+00,-4.994346499443054199e-01,-5.447976112365722656e+00,-1.004368591308593750e+01,-9.639328002929687500e+00,-1.510910320281982422e+01,-2.666903972625732422e+00,1.236953735351562500e+00,1.143868088722229004e+00,-1.149706959724426270e+00,6.915458202362060547e+00,-7.660178184509277344e+00,-1.808014488220214844e+01,-1.776811027526855469e+01,-1.999366164207458496e+00,2.711767196655273438e+00,3.280084952712059021e-02
-1.452128982543945312e+01,-2.778142356872558594e+01,-1.297020053863525391e+01,-1.539797115325927734e+01,-1.042440605163574219e+01,-7.168551683425903320e-01,-5.876814365386962891e+00,-1.025590419769287109e+01,-1.056589221954345703e+01,-1.596780872344970703e+01,-2.732650518417358398e+00,1.039741873741149902e+00,1.879284232854843140e-01,-1.930102348327636719e+00,6.114784717559814453e+00,-8.469610214233398438e+00,-1.900610923767089844e+01,-1.854822921752929688e+01,-3.028832435607910156e+00,3.020721435546875000e+00,3.699226304888725281e-02
-1.592073917388916016e+01,-2.921951103210449219e+01,-1.395590972900390625e+01,-1.549182128906250000e+01,-1.118935775756835938e+01,-8.439908623695373535e-01,-6.498307704925537109e+00,-1.041276073455810547e+01,-1.165634441375732422e+01,-1.691805458068847656e+01,-2.811181068420410156e+00,1.025937080383300781e+00,-9.269141554832458496e-01,-2.773251295089721680e+00,4.723856925964355469e+00,-9.254314422607421875e+00,-2.000238037109375000e+01,-1.949495315551757812e+01,-4.340259552001953125e+00,3.452980756759643555e+00,4.132820665836334229e-02
-1.721138000488281250e+01,-3.020231056213378906e+01,-1.497877120971679688e+01,-1.572736549377441406e+01,-1.202684688568115234e+01,-8.283292651176452637e-01,-7.133504390716552734e+00,-1.046153163909912109e+01,-1.274040031433105469e+01,-1.784480857849121094e+01,-2.789265394210815430e+00,1.233995556831359863e+00,-2.051845788955688477e+00,-3.548014879226684570e+00,2.872164726257324219e+00,-9.870867729187011719e+00,-2.095071411132812500e+01,-2.048670578002929688e+01,-5.790342807769775391e+00,3.919183254241943359e+00,4.588095098733901978e-02
-1.818396186828613281e+01,-3.054538917541503906e+01,-1.586666774749755859e+01,-1.598131179809570312e+01,-1.277860927581787109e+01,-6.136725544929504395e-01,-7.611514091491699219e+00,-1.034092330932617188e+01,-1.363338851928710938e+01,-1.858847999572753906e+01,-2.578328609466552734e+00,1.661945223808288574e+00,-3.048141717910766602e+00,-4.124059200286865234e+00,7.485454082489013672e-01,-1.021046638488769531e+01,-2.171289634704589844e+01,-2.136025810241699219e+01,-7.207117557525634766e+00,4.339665889739990234e+00,5.066855624318122864e-02
-1.863928604125976562e+01,-3.010815811157226562e+01,-1.646491622924804688e+01,-1.608988380432128906e+01,-1.333253955841064453e+01,-1.557996869087219238e-01,-7.805781364440917969e+00,-9.994256019592285156e+00,-1.418980598449707031e+01,-1.899839019775390625e+01,-2.146410465240478516e+00,2.268371582031250000e+00,-3.814070463180541992e+00,-4.406449794769287109e+00,-1.439818382263183594e+00,-1.023189735412597656e+01,-2.214831542968750000e+01,-2.195913696289062500e+01,-8.425590515136718750e+00,4.664553165435791016e+00,5.574522539973258972e-02
-1.844677734375000000e+01,-2.883000183105468750e+01,-1.667267417907714844e+01,-1.589482307434082031e+01,-1.365676498413085938e+01,5.572658777236938477e-01,-7.667940616607666016e+00,-9.396486282348632812e+00,-1.433530616760253906e+01,-1.895788574218750000e+01,-1.537341952323913574e+00,2.992138862609863281e+00,-4.310957431793212891e+00,-4.346914291381835938e+00,-3.508404970169067383e+00,-9.971427917480468750e+00,-2.216589164733886719e+01,-2.217077064514160156e+01,-9.326470375061035156e+00,4.889688014984130859e+00,6.112902238965034485e-02
-1.757295989990234375e+01,-2.674574279785156250e+01,-1.645202636718750000e+01,-1.529308032989501953e+01,-1.380403995513916016e+01,1.500649809837341309e+00,-7.230235099792480469e+00,-8.554203987121582031e+00,-1.408028125762939453e+01,-1.842808151245117188e+01,-8.561348915100097656e-01,3.783944129943847656e+00,-4.558139801025390625e+00,-3.947866916656494141e+00,-5.321250438690185547e+00,-9.516431808471679688e+00,-2.172807693481445312e+01,-2.195125579833984375e+01,-9.849337577819824219e+00,5.054556369781494141e+00,6.681995093822479248e-02
-1.606135368347167969e+01,-2.398177528381347656e+01,-1.583406352996826172e+01,-1.426257419586181641e+01,-1.387877655029296875e+01,2.619075775146484375e+00,-6.591007709503173828e+00,-7.506294727325439453e+00,-1.349908065795898438e+01,-1.744462013244628906e+01,-2.397611439228057861e-01,4.619136333465576172e+00,-4.614470481872558594e+00,-3.250338315963745117e+00,-6.802820205688476562e+00,-8.975711822509765625e+00,-2.086123275756835938e+01,-2.132986450195312500e+01,-9.995739936828613281e+00,5.224966049194335938e+00,7.281801104545593262e-02
-1.405927085876464844e+01,-2.073672866821289062e+01,-1.489233303070068359e+01,-1.286310863494873047e+01,-1.399857425689697266e+01,3.838841676712036133e+00,-5.881650924682617188e+00,-6.311414241790771484e+00,-1.270442581176757812e+01,-1.611200714111328125e+01,1.857650130987167358e-01,5.501658916473388672e+00,-4.563184261322021484e+00,-2.319495439529418945e+00,-7.942323207855224609e+00,-8.453125000000000000e+00,-1.963726615905761719e+01,-2.038651657104492188e+01,-9.822225570678710938e+00,5.471575260162353516e+00,7.908706367015838623e-02
-1.174750232696533203e+01,-1.725436401367187500e+01,-1.373147106170654297e+01,-1.121153831481933594e+01,-1.424476623535156250e+01,5.084403038024902344e+00,-5.239199161529541016e+00,-5.043377399444580078e+00,-1.181463527679443359e+01,-1.456957721710205078e+01,3.428261578083038330e-01,6.443345546722412109e+00,-4.479949474334716797e+00,-1.235791802406311035e+00,-8.778606414794921875e+00,-8.026153564453125000e+00,-1.816163635253906250e+01,-1.922590827941894531e+01,-9.422523498535156250e+00,5.847723960876464844e+00,8.562711626291275024e-02
-9.331946372985839844e+00,-1.378489685058593750e+01,-1.246066474914550781e+01,-9.444035530090332031e+00,-1.464152908325195312e+01,6.294956207275390625e+00,-4.774893283843994141e+00,-3.783249855041503906e+00,-1.093284034729003906e+01,-1.296720123291015625e+01,2.104199528694152832e-01,7.439265251159667969e+00,-4.432026386260986328e+00,-8.692111074924468994e-02,-9.386125564575195312e+00,-7.745902538299560547e+00,-1.654699134826660156e+01,-1.795610427856445312e+01,-8.905853271484375000e+00,6.379042625427246094e+00,9.238395839929580688e-02
-7.008459091186523438e+00,-1.054758739471435547e+01,-1.118076038360595703e+01,-7.686653137207031250e+00,-1.515149688720703125e+01,7.429965019226074219e+00,-4.560473918914794922e+00,-2.607481956481933594e+00,-1.013578701019287109e+01,-1.143611335754394531e+01,-1.685357391834259033e-01,8.454905509948730469e+00,-4.469860076904296875e+00,1.035400032997131348e+00,-9.840415954589843750e+00,-7.660178184509277344e+00,-1.490198707580566406e+01,-1.667166709899902344e+01,-8.385310173034667969e+00,7.056525707244873047e+00,9.930340945720672607e-02
-4.914307594299316406e+00,-7.707525253295898438e+00,-9.966822624206542969e+00,-6.023121356964111328e+00,-1.569333744049072266e+01,8.469161987304687500e+00,-4.618512153625488281e+00,-1.576708078384399414e+00,-9.465047836303710938e+00,-1.006137466430664062e+01,-7.036394476890563965e-01,9.426174163818359375e+00,-4.612788677215576172e+00,2.049109458923339844e+00,-1.020945930480957031e+01,-7.813492298126220703e+00,-1.331290721893310547e+01,-1.543225860595703125e+01,-7.951524734497070312e+00,7.838609695434570312e+00,1.062951162457466125e-01
-3.134864568710327148e+00,-5.358863830566406250e+00,-8.865103721618652344e+00,-4.497603416442871094e+00,-1.616703605651855469e+01,9.418072700500488281e+00,-4.908703804016113281e+00,-7.278354167938232422e-01,-8.927816390991210938e+00,-8.885110855102539062e+00,-1.267963886260986328e+00,1.028897571563720703e+01,-4.859130382537841797e+00,2.894671916961669922e+00,-1.053210258483886719e+01,-8.242112159729003906e+00,-1.183567905426025391e+01,-1.427052307128906250e+01,-7.652522563934326172e+00,8.661564826965332031e+00,1.133048981428146362e-01
-1.683522224426269531e+00,-3.524818181991577148e+00,-7.881669521331787109e+00,-3.114700078964233398e+00,-1.648356628417968750e+01,1.029051876068115234e+01,-5.334317684173583984e+00,-6.086403504014015198e-02,-8.501708030700683594e+00,-7.903270244598388672e+00,-1.709013462066650391e+00,1.100091075897216797e+01,-5.168528556823730469e+00,3.547951459884643555e+00,-1.081913661956787109e+01,-8.965820312500000000e+00,-1.048548126220703125e+01,-1.318646240234375000e+01,-7.485980033874511719e+00,9.443649291992187500e+00,1.202966049313545227e-01
-5.217787027359008789e-01,-2.167985677719116211e+00,-6.986190795898437500e+00,-1.860610365867614746e+00,-1.654401588439941406e+01,1.111598014831542969e+01,-5.750258922576904297e+00,4.571591913700103760e-01,-8.123567581176757812e+00,-7.072918415069580078e+00,-1.868814110755920410e+00,1.156592273712158203e+01,-5.472882270812988281e+00,4.028256416320800781e+00,-1.105869197845458984e+01,-9.963185310363769531e+00,-9.244737625122070312e+00,-1.215418434143066406e+01,-7.400772094726562500e+00,1.009203720092773438e+01,1.273244470357894897e-01
4.323910176753997803e-01,-1.217429161071777344e+00,-6.121041774749755859e+00,-7.123315334320068359e-01,-1.629013061523437500e+01,1.192209434509277344e+01,-5.985636234283447266e+00,8.822546005249023438e-01,-7.712649822235107422e+00,-6.330057144165039062e+00,-1.595783352851867676e+00,1.202838420867919922e+01,-5.682230472564697266e+00,4.389491081237792969e+00,-1.123026466369628906e+01,-1.116496944427490234e+01,-8.062314987182617188e+00,-1.112640953063964844e+01,-7.306268692016601562e+00,1.051598453521728516e+01,1.344787627458572388e-01
1.272729992866516113e+00,-5.893137454986572266e-01,-5.217223167419433594e+00,3.485382199287414551e-01,-1.566256332397460938e+01,1.272912979125976562e+01,-5.879232883453369141e+00,1.273737788200378418e+00,-7.183412551879882812e+00,-5.609879016876220703e+00,-7.839963436126708984e-01,1.244450092315673828e+01,-5.709975719451904297e+00,4.701649188995361328e+00,-1.132630252838134766e+01,-1.245082855224609375e+01,-6.883888244628906250e+00,-1.005473136901855469e+01,-7.102544307708740234e+00,1.064067459106445312e+01,1.419040709733963013e-01
2.077915430068969727e+00,-2.075434178113937378e-01,-4.221657276153564453e+00,1.332120060920715332e+00,-1.465032196044921875e+01,1.354077148437500000e+01,-5.331093311309814453e+00,1.674447894096374512e+00,-6.467903614044189453e+00,-4.859726905822753906e+00,6.030728220939636230e-01,1.285272979736328125e+01,-5.498105049133300781e+00,5.027484416961669922e+00,-1.135867404937744141e+01,-1.368063831329345703e+01,-5.664715290069580078e+00,-8.898625373840332031e+00,-6.709813594818115234e+00,1.042593002319335938e+01,1.496907025575637817e-01
2.899840354919433594e+00,-1.407870557159185410e-02,-3.114630460739135742e+00,2.247614860534667969e+00,-1.328747749328613281e+01,1.433398818969726562e+01,-4.321065902709960938e+00,2.095588922500610352e+00,-5.542938232421875000e+00,-4.052867889404296875e+00,2.500590801239013672e+00,1.324715328216552734e+01,-5.032326221466064453e+00,5.404005050659179688e+00,-1.135651588439941406e+01,-1.470932579040527344e+01,-4.394410610198974609e+00,-7.644582271575927734e+00,-6.093992710113525391e+00,9.878679275512695312e+00,1.577844619750976562e-01
3.751897335052490234e+00,3.106305934488773346e-02,-1.921164870262145996e+00,3.099622964859008789e+00,-1.166965007781982422e+01,1.506179332733154297e+01,-2.943462848663330078e+00,2.519366264343261719e+00,-4.440494060516357422e+00,-3.194972753524780273e+00,4.740538597106933594e+00,1.357649707794189453e+01,-4.352154254913330078e+00,5.831211090087890625e+00,-1.136191177368164062e+01,-1.541489982604980469e+01,-3.111323118209838867e+00,-6.310613155364990234e+00,-5.271349430084228516e+00,9.068193435668945312e+00,1.660769581794738770e-01
4.608975887298583984e+00,-3.987399861216545105e-02,-7.079849839210510254e-01,3.891824960708618164e+00,-9.950707435607910156e+00,1.566614913940429688e+01,-1.371592640876770020e+00,2.908872127532958984e+00,-3.240517377853393555e+00,-2.319255352020263672e+00,7.076366901397705078e+00,1.376187610626220703e+01,-3.539983987808227539e+00,6.282553195953369141e+00,-1.140615367889404297e+01,-1.571163654327392578e+01,-1.883362054824829102e+00,-4.942873001098632812e+00,-4.303077697753906250e+00,8.105308532714843750e+00,1.742971837520599365e-01
5.424205303192138672e+00,-1.856174170970916748e-01,4.384700357913970947e-01,4.630661487579345703e+00,-8.316393852233886719e+00,1.609546279907226562e+01,1.720645278692245483e-01,3.231153726577758789e+00,-2.050933361053466797e+00,-1.473511695861816406e+00,9.234130859375000000e+00,1.373229408264160156e+01,-2.697546482086181641e+00,6.721827507019042969e+00,-1.150434970855712891e+01,-1.555337715148925781e+01,-7.936164736747741699e-01,-3.598773002624511719e+00,-3.271287679672241211e+00,7.134110450744628906e+00,1.821741610765457153e-01
6.150713443756103516e+00,-3.507072925567626953e-01,1.441618204116821289e+00,5.313372135162353516e+00,-6.949153423309326172e+00,1.632301712036132812e+01,1.475507616996765137e+00,3.470393657684326172e+00,-9.772700071334838867e-01,-7.055374979972839355e-01,1.096819591522216797e+01,1.345521163940429688e+01,-1.915643334388732910e+00,7.118461608886718750e+00,-1.163707542419433594e+01,-1.493847274780273438e+01,9.080312401056289673e-02,-2.334598302841186523e+00,-2.258862972259521484e+00,6.291759490966796875e+00,1.894730031490325928e-01
6.758368968963623047e+00,-4.577577710151672363e-01,2.255965232849121094e+00,5.934436321258544922e+00,-5.970983505249023438e+00,1.636263084411621094e+01,2.389610528945922852e+00,3.635159254074096680e+00,-8.987871557474136353e-02,-5.340750515460968018e-02,1.212241268157958984e+01,1.294837665557861328e+01,-1.253968238830566406e+00,7.461996078491210938e+00,-1.176224803924560547e+01,-1.389824485778808594e+01,7.459287643432617188e-01,-1.176240563392639160e+00,-1.326223731040954590e+00,5.680777549743652344e+00,1.961214542388916016e-01
7.247171878814697266e+00,-4.268034100532531738e-01,2.886818647384643555e+00,6.482812881469726562e+00,-5.430242061614990234e+00,1.626958274841308594e+01,2.860365629196166992e+00,3.752472400665283203e+00,5.944518446922302246e-01,4.682964682579040527e-01,1.266208267211914062e+01,1.227489852905273438e+01,-7.268142104148864746e-01,7.760477542877197266e+00,-1.181188583374023438e+01,-1.250523090362548828e+01,1.205315589904785156e+00,-1.236998289823532104e-01,-5.082279443740844727e-01,5.345499992370605469e+00,2.021917700767517090e-01
7.657297134399414062e+00,-1.817481219768524170e-01,3.382705926895141602e+00,6.952981472015380859e+00,-5.280768871307373047e+00,1.612494277954101562e+01,2.935331821441650391e+00,3.853968143463134766e+00,1.107699751853942871e+00,8.668653368949890137e-01,1.267395305633544922e+01,1.151563358306884766e+01,-3.081176578998565674e-01,8.034017562866210938e+00,-1.171045303344726562e+01,-1.086493587493896484e+01,1.552851796150207520e+00,8.567953705787658691e-01,1.920260041952133179e-01,5.265836715698242188e+00,2.078465670347213745e-01
8.052356719970703125e+00,3.302884697914123535e-01,3.816417694091796875e+00,7.345862388610839844e+00,-5.413755893707275391e+00,1.600978469848632812e+01,2.737840414047241211e+00,3.956122636795043945e+00,1.522615194320678711e+00,1.166602134704589844e+00,1.234156799316406250e+01,1.073763275146484375e+01,6.097425147891044617e-02,8.302731513977050781e+00,-1.138349342346191406e+01,-9.104297637939453125e+00,1.895594358444213867e+00,1.810273528099060059e+00,7.908051013946533203e-01,5.367667198181152344e+00,2.133207023143768311e-01
8.499310493469238281e+00,1.109306335449218750e+00,4.263019561767578125e+00,7.682617187500000000e+00,-5.683027267456054688e+00,1.598122501373291016e+01,2.429108858108520508e+00,4.049050807952880859e+00,1.919143080711364746e+00,1.393429875373840332e+00,1.190417098999023438e+01,9.974423408508300781e+00,4.485628008842468262e-01,8.577880859375000000e+00,-1.077165794372558594e+01,-7.358496189117431641e+00,2.334208965301513672e+00,2.773883104324340820e+00,1.319094061851501465e+00,5.543618679046630859e+00,2.187767624855041504e-01
9.038331985473632812e+00,2.117902278900146484e+00,4.771796703338623047e+00,7.991769313812255859e+00,-5.954497337341308594e+00,1.603465843200683594e+01,2.167130470275878906e+00,4.092548847198486328e+00,2.364437580108642578e+00,1.562740683555603027e+00,1.159096145629882812e+01,9.221074104309082031e+00,9.143416881561279297e-01,8.857857704162597656e+00,-9.843653678894042969e+00,-5.742928981781005859e+00,2.926218748092651367e+00,3.763383865356445312e+00,1.810201406478881836e+00,5.680777549743652344e+00,2.242328226566314697e-01
9.657706260681152344e+00,3.254184961318969727e+00,5.350332260131835938e+00,8.302761077880859375e+00,-6.138041496276855469e+00,1.610375404357910156e+01,2.067175626754760742e+00,4.025324344635009766e+00,2.887279033660888672e+00,1.672914147377014160e+00,1.158548259735107422e+01,8.446031570434570312e+00,1.490259647369384766e+00,9.125766754150390625e+00,-8.609191894531250000e+00,-4.344968795776367188e+00,3.670026063919067383e+00,4.749507904052734375e+00,2.289689540863037109e+00,5.686319351196289062e+00,2.295804917812347412e-01
1.028210067749023438e+01,4.381439208984375000e+00,5.962987899780273438e+00,8.628475189208984375e+00,-6.197391033172607422e+00,1.607151031494140625e+01,2.188088893890380859e+00,3.782789230346679688e+00,3.473277091979980469e+00,1.698837399482727051e+00,1.197996234893798828e+01,7.610839366912841797e+00,2.172953605651855469e+00,9.354253768920898438e+00,-7.129779815673828125e+00,-3.202532291412353516e+00,4.500118255615234375e+00,5.673717498779296875e+00,2.769177436828613281e+00,5.504133224487304688e+00,2.345668226480484009e-01
1.078094768524169922e+01,5.341024398803710938e+00,6.541522979736328125e+00,8.947748184204101562e+00,-6.154527664184570312e+00,1.579881286621093750e+01,2.528257608413696289e+00,3.314854860305786133e+00,4.072066307067871094e+00,1.604865789413452148e+00,1.276526832580566406e+01,6.698734760284423828e+00,2.917863368988037109e+00,9.507114410400390625e+00,-5.514404773712158203e+00,-2.305727720260620117e+00,5.311036109924316406e+00,6.449332714080810547e+00,3.238595485687255859e+00,5.122443199157714844e+00,2.389027774333953857e-01
1.101363086700439453e+01,5.987196445465087891e+00,7.007839202880859375e+00,9.212735176086425781e+00,-6.067701339721679688e+00,1.516313362121582031e+01,3.043347358703613281e+00,2.608339548110961914e+00,4.614893913269042969e+00,1.354545116424560547e+00,1.384095382690429688e+01,5.725494384765625000e+00,3.657728672027587891e+00,9.552972793579101562e+00,-3.904425382614135742e+00,-1.611693501472473145e+00,5.989330768585205078e+00,6.996428966522216797e+00,3.670057296752929688e+00,4.568264484405517578e+00,2.423173338174819946e-01
1.086297321319580078e+01,6.218064308166503906e+00,7.301277160644531250e+00,9.362710952758789062e+00,-6.008351802825927734e+00,1.410643291473388672e+01,3.667258977890014648e+00,1.697515130043029785e+00,5.043399810791015625e+00,9.341036081314086914e-01,1.504722023010253906e+01,4.742393493652343750e+00,4.318562984466552734e+00,9.472519874572753906e+00,-2.439041614532470703e+00,-1.052839159965515137e+00,6.447918415069580078e+00,7.264348506927490234e+00,4.027930736541748047e+00,3.902557849884033203e+00,2.446840256452560425e-01
1.029549312591552734e+01,6.009122371673583984e+00,7.396056652069091797e+00,9.355350494384765625e+00,-6.040224552154541016e+00,1.266464042663574219e+01,4.333086967468261719e+00,6.746498942375183105e-01,5.332801342010498047e+00,3.686542510986328125e-01,1.621604728698730469e+01,3.833247184753417969e+00,4.851602554321289062e+00,9.269778251647949219e+00,-1.220766186714172363e+00,-5.599263906478881836e-01,6.657239437103271484e+00,7.260971069335937500e+00,4.291300296783447266e+00,3.194595098495483398e+00,2.459306120872497559e-01
9.373128890991210938e+00,5.420989990234375000e+00,7.318716526031494141e+00,9.193413734436035156e+00,-6.194094181060791016e+00,1.096028518676757812e+01,4.996496677398681641e+00,-3.264662921428680420e-01,5.503084659576416016e+00,-2.672737240791320801e-01,1.721411705017089844e+01,3.090744733810424805e+00,5.246757984161376953e+00,8.986582756042480469e+00,-2.808920145034790039e-01,-7.031067460775375366e-02,6.654043674468994141e+00,7.053840160369873047e+00,4.464039802551269531e+00,2.514341115951538086e+00,2.461474090814590454e-01
8.241517066955566406e+00,4.591670989990234375e+00,7.135981082916259766e+00,8.939467430114746094e+00,-6.472158432006835938e+00,9.186833381652832031e+00,5.636530399322509766e+00,-1.150294542312622070e+00,5.622202873229980469e+00,-8.626967668533325195e-01,1.798389816284179688e+01,2.600673437118530273e+00,5.538500308990478516e+00,8.697756767272949219e+00,4.280601739883422852e-01,4.456816315650939941e-01,6.530208587646484375e+00,6.764532089233398438e+00,4.589528083801269531e+00,1.915135622024536133e+00,2.455331534147262573e-01
7.093165397644042969e+00,3.701733350753784180e+00,6.937323093414306641e+00,8.701162338256835938e+00,-6.843643188476562500e+00,7.552494525909423828e+00,6.244319915771484375e+00,-1.654477477073669434e+00,5.777296543121337891e+00,-1.287188768386840820e+00,1.853909111022949219e+01,2.425154924392700195e+00,5.789885997772216797e+00,8.495819091796875000e+00,1.019393205642700195e+00,9.896990656852722168e-01,6.399183750152587891e+00,6.532635688781738281e+00,4.735930442810058594e+00,1.431614995002746582e+00,2.442504316568374634e-01
6.097146034240722656e+00,2.930454015731811523e+00,6.799324035644531250e+00,8.585230827331542969e+00,-7.270081520080566406e+00,6.235073566436767578e+00,6.812611579895019531e+00,-1.751359701156616211e+00,6.039516448974609375e+00,-1.437867283821105957e+00,1.894726753234863281e+01,2.585882425308227539e+00,6.054724216461181641e+00,8.465247154235839844e+00,1.619358777999877930e+00,1.515582561492919922e+00,6.353644371032714844e+00,6.471847057342529297e+00,4.971414089202880859e+00,1.083868145942687988e+00,2.424257248640060425e-01
5.353898048400878906e+00,2.406809568405151367e+00,6.753071308135986328e+00,8.660678863525390625e+00,-7.723996639251708984e+00,5.330383300781250000e+00,7.305936813354492188e+00,-1.436986804008483887e+00,6.431247711181640625e+00,-1.263695955276489258e+00,1.928147888183593750e+01,3.051302433013916016e+00,6.349829673767089844e+00,8.646265983581542969e+00,2.316441059112548828e+00,1.934311151504516602e+00,6.434336662292480469e+00,6.631698131561279297e+00,5.323864936828613281e+00,8.822857141494750977e-01,2.400770932435989380e-01
4.855051517486572266e+00,2.178521394729614258e+00,6.766719818115234375e+00,8.915544509887695312e+00,-8.206487655639648438e+00,4.842108249664306641e+00,7.659809112548828125e+00,-7.996732592582702637e-01,6.901325225830078125e+00,-8.051797151565551758e-01,1.957825279235839844e+01,3.736613512039184570e+00,6.623916149139404297e+00,9.011523246765136719e+00,3.110640287399291992e+00,2.127190113067626953e+00,6.606906414031982422e+00,6.973914623260498047e+00,5.754552364349365234e+00,8.351805806159973145e-01,2.371141910552978516e-01
4.501841068267822266e+00,2.215924501419067383e+00,6.744730949401855469e+00,9.255980491638183594e+00,-8.752723693847656250e+00,4.691019535064697266e+00,7.783140659332275391e+00,-2.866522409021854401e-03,7.328232765197753906e+00,-1.822133064270019531e-01,1.981658363342285156e+01,4.502781391143798828e+00,6.762640953063964844e+00,9.454820632934570312e+00,3.897285699844360352e+00,1.970579028129577637e+00,6.772285461425781250e+00,7.382548332214355469e+00,6.154254913330078125e+00,9.536361694335937500e-01,2.333563715219497681e-01
4.135239124298095703e+00,2.423576593399047852e+00,6.558204174041748047e+00,9.534769058227539062e+00,-9.426452636718750000e+00,4.752744674682617188e+00,7.579200744628906250e+00,7.557145953178405762e-01,7.551279544830322266e+00,4.334622025489807129e-01,1.992524719238281250e+01,5.172315597534179688e+00,6.620553016662597656e+00,9.823295593261718750e+00,4.490777015686035156e+00,1.372159838676452637e+00,6.797052383422851562e+00,7.698873519897460938e+00,6.363401412963867188e+00,1.244579792022705078e+00,2.285145670175552368e-01
3.596216917037963867e+00,2.694427251815795898e+00,6.086580753326416016e+00,9.602855682373046875e+00,-1.029031944274902344e+01,4.897384643554687500e+00,6.974635124206542969e+00,1.296145915985107422e+00,7.420969009399414062e+00,8.620047569274902344e-01,1.981658363342285156e+01,5.560822486877441406e+00,6.068176269531250000e+00,9.955238342285156250e+00,4.683931350708007812e+00,3.121500909328460693e-01,6.561367034912109375e+00,7.772044658660888672e+00,6.225519657135009766e+00,1.703855156898498535e+00,2.223900407552719116e-01
2.779313802719116211e+00,2.951090335845947266e+00,5.260101795196533203e+00,9.368231773376464844e+00,-1.137619876861572266e+01,5.032812118530273438e+00,5.950904369354248047e+00,1.509682178497314453e+00,6.846962928771972656e+00,9.705580472946166992e-01,1.943123626708984375e+01,5.512505531311035156e+00,5.039931774139404297e+00,9.743646621704101562e+00,4.317045688629150391e+00,-1.127023339271545410e+00,5.997320175170898438e+00,7.508627891540527344e+00,5.636810302734375000e+00,2.307216882705688477e+00,2.147840708494186401e-01
1.664441704750061035e+00,3.166481018066406250e+00,4.088624954223632812e+00,8.829055786132812500e+00,-1.266100883483886719e+01,5.117568969726562500e+00,4.562016010284423828e+00,1.381165027618408203e+00,5.828461170196533203e+00,7.121363878250122070e-01,1.877011680603027344e+01,4.948480129241943359e+00,3.569449424743652344e+00,9.164384841918945312e+00,3.334008693695068359e+00,-2.775561094284057617e+00,5.110503673553466797e+00,6.900743484497070312e+00,4.588753223419189453e+00,3.005481719970703125e+00,2.055882662534713745e-01
3.101903200149536133e-01,3.371553659439086914e+00,2.660863876342773438e+00,8.075497627258300781e+00,-1.406341934204101562e+01,5.159026145935058594e+00,2.929689168930053711e+00,9.877046346664428711e-01,4.460599899291992188e+00,1.321052461862564087e-01,1.790445518493652344e+01,3.889452457427978516e+00,1.778638958930969238e+00,8.301926612854003906e+00,1.807117819786071777e+00,-4.397722244262695312e+00,3.979213476181030273e+00,6.022687911987304688e+00,3.176626205444335938e+00,3.730762481689453125e+00,1.948206573724746704e-01
-1.159565806388854980e+00,3.625637292861938477e+00,1.123916625976562500e+00,7.255692958831787109e+00,-1.545483970642089844e+01,5.193113327026367188e+00,1.219171881675720215e+00,4.696813821792602539e-01,2.902468681335449219e+00,-6.520709395408630371e-01,1.694656372070312500e+01,2.470513582229614258e+00,-1.433294862508773804e-01,7.318789482116699219e+00,-8.450037986040115356e-02,-5.761063098907470703e+00,2.725686550140380859e+00,5.002792835235595703e+00,1.575492382049560547e+00,4.410323619842529297e+00,1.825354844331741333e-01
-2.605886220932006836e+00,3.982902050018310547e+00,-3.599539995193481445e-01,6.532498359680175781e+00,-1.668689537048339844e+01,5.262208938598632812e+00,-3.857478797435760498e-01,-1.275246217846870422e-02,1.340340137481689453e+00,-1.490523695945739746e+00,1.602611351013183594e+01,9.154984354972839355e-01,-1.991311311721801758e+00,6.414496421813964844e+00,-2.104528427124023438e+00,-6.699080944061279297e+00,1.482545614242553711e+00,3.977269172668457031e+00,-7.050627842545509338e-03,4.979049205780029297e+00,1.688772588968276978e-01
-3.898200511932373047e+00,4.454956054687500000e+00,-1.646682858467102051e+00,6.030126094818115234e+00,-1.762659835815429688e+01,5.387502193450927734e+00,-1.721434473991394043e+00,-3.271253407001495361e-01,-5.870010703802108765e-02,-2.247156620025634766e+00,1.524811267852783203e+01,-5.063986778259277344e-01,-3.587907075881958008e+00,5.768457889556884766e+00,-4.024202823638916016e+00,-7.159022808074951172e+00,3.560491204261779785e-01,3.056436777114868164e+00,-1.386643886566162109e+00,5.389141559600830078e+00,1.539905071258544922e-01
-4.939417362213134766e+00,4.990208148956298828e+00,-2.641490459442138672e+00,5.813903808593750000e+00,-1.816624069213867188e+01,5.562543869018554688e+00,-2.666168689727783203e+00,-3.930315971374511719e-01,-1.176333427429199219e+00,-2.831238031387329102e+00,1.468926715850830078e+01,-1.546690940856933594e+00,-4.812888622283935547e+00,5.499744415283203125e+00,-5.662238121032714844e+00,-7.213424682617187500e+00,-5.882905125617980957e-01,2.302209615707397461e+00,-2.435475587844848633e+00,5.615661621093750000e+00,1.381462514400482178e-01
-5.662577629089355469e+00,5.481608867645263672e+00,-3.298124074935913086e+00,5.877390384674072266e+00,-1.824097633361816406e+01,5.748641490936279297e+00,-3.153045415878295898e+00,-1.920174956321716309e-01,-1.950202584266662598e+00,-3.207934379577636719e+00,1.439523410797119141e+01,-2.027887821197509766e+00,-5.609925746917724609e+00,5.645364761352539062e+00,-6.918281555175781250e+00,-7.033733844757080078e+00,-1.328103184700012207e+00,1.725845098495483398e+00,-3.101646423339843750e+00,5.647527217864990234e+00,1.216696575284004211e-01
-6.025831699371337891e+00,5.798890590667724609e+00,-3.618858575820922852e+00,6.160779476165771484e+00,-1.782113265991210938e+01,5.881304740905761719e+00,-3.164330720901489258e+00,2.383504062891006470e-01,-2.365118026733398438e+00,-3.386156082153320312e+00,1.439888668060302734e+01,-1.882937073707580566e+00,-5.979858398437500000e+00,6.169919013977050781e+00,-7.754564285278320312e+00,-6.837558269500732422e+00,-1.873774886131286621e+00,1.309331655502319336e+00,-3.396001100540161133e+00,5.479887962341308594e+00,1.049040034413337708e-01
-5.992352008819580078e+00,5.827265739440917969e+00,-3.633265018463134766e+00,6.571142196655273438e+00,-1.690780639648437500e+01,5.881304740905761719e+00,-2.729849576950073242e+00,8.262342810630798340e-01,-2.438667535781860352e+00,-3.400738000869750977e+00,1.472853183746337891e+01,-1.167058229446411133e+00,-5.953794956207275391e+00,6.988127231597900391e+00,-8.180798530578613281e+00,-6.821072578430175781e+00,-2.248474836349487305e+00,1.024526476860046387e+00,-3.368114709854125977e+00,5.107895851135253906e+00,8.822868019342422485e-02
-5.538702964782714844e+00,5.508693695068359375e+00,-3.388354301452636719e+00,7.004507064819335938e+00,-1.553836917877197266e+01,5.672175407409667969e+00,-1.911671042442321777e+00,1.484637856483459473e+00,-2.206826448440551758e+00,-3.289754390716552734e+00,1.539786815643310547e+01,-2.816004864871501923e-02,-5.591428756713867188e+00,7.986550807952880859e+00,-8.229357719421386719e+00,-7.101324081420898438e+00,-2.478567600250244141e+00,8.511668443679809570e-01,-3.083830356597900391e+00,4.531550407409667969e+00,7.198695093393325806e-02
-4.656514167785644531e+00,4.874129295349121094e+00,-2.940994262695312500e+00,7.363344192504882812e+00,-1.379524707794189453e+01,5.201405048370361328e+00,-8.049132823944091797e-01,2.130519151687622070e+00,-1.719161033630371094e+00,-3.088039636611938477e+00,1.638406562805175781e+01,1.324712991714477539e+00,-4.972632408142089844e+00,9.049336433410644531e+00,-7.948797702789306641e+00,-7.703040122985839844e+00,-2.588021516799926758e+00,7.824983596801757812e-01,-2.612088441848754883e+00,3.764013290405273438e+00,5.641368404030799866e-02
-3.370896100997924805e+00,4.033203125000000000e+00,-2.353360176086425781e+00,7.571285724639892578e+00,-1.182022190093994141e+01,4.452409744262695312e+00,4.775716066360473633e-01,2.699949264526367188e+00,-1.038827776908874512e+00,-2.815036058425903320e+00,1.761133575439453125e+01,2.675613880157470703e+00,-4.193251609802246094e+00,1.006948184967041016e+01,-7.400627613067626953e+00,-8.558631896972656250e+00,-2.595211982727050781e+00,8.241497278213500977e-01,-2.019506216049194336e+00,2.839920759201049805e+00,4.165340587496757507e-02
-1.770569324493408203e+00,3.170350313186645508e+00,-1.685353040695190430e+00,7.587847232818603516e+00,-9.805630683898925781e+00,3.467568397521972656e+00,1.810033917427062988e+00,3.157997846603393555e+00,-2.369778156280517578e-01,-2.483705520629882812e+00,1.894087600708007812e+01,3.843107700347900391e+00,-3.368469715118408203e+00,1.095285797119140625e+01,-6.675489425659179688e+00,-9.536213874816894531e+00,-2.511323928833007812e+00,9.930065274238586426e-01,-1.371926188468933105e+00,1.827159881591796875e+00,2.776031382381916046e-02
8.873569779098033905e-03,2.484195470809936523e+00,-9.877746105194091797e-01,7.422230243682861328e+00,-7.966890335083007812e+00,2.354670286178588867e+00,3.071560382843017578e+00,3.505323886871337891e+00,6.136386990547180176e-01,-2.104578971862792969e+00,2.019279861450195312e+01,4.712811946868896484e+00,-2.616833925247192383e+00,1.163188171386718750e+01,-5.892081260681152344e+00,-1.047752952575683594e+01,-2.332362890243530273e+00,1.308205962181091309e+00,-7.351908087730407715e-01,8.143988847732543945e-01,1.477054506540298462e-02
