Fp1,Fp2,F7,F3,Fz,F4,F8,T3,C3,Cz,C4,T4,T5,P3,Pz,P4,T6,O1,Oz,O2,A1
1.401262092590332031e+01,2.027266120910644531e+01,1.129325580596923828e+01,1.989390945434570312e+01,1.157019519805908203e+01,1.855454444885253906e+01,1.495227336883544922e+01,1.639495277404785156e+01,4.352901077270507812e+01,2.695734024047851562e+01,1.755908203125000000e+01,1.582798004150390625e+01,3.967341613769531250e+01,3.780962753295898438e+01,3.728635787963867188e+01,4.696612167358398438e+01,2.184166145324707031e+01,2.562501144409179688e+01,5.087094497680664062e+01,2.318464815616607666e-01,-9.333696216344833374e-02
1.762594795227050781e+01,2.475627708435058594e+01,1.516312408447265625e+01,2.440921783447265625e+01,1.509102821350097656e+01,2.266545486450195312e+01,1.637947463989257812e+01,1.868535041809082031e+01,4.607924652099609375e+01,3.018248558044433594e+01,1.611294555664062500e+01,1.572590351104736328e+01,3.763313293457031250e+01,3.692998504638671875e+01,3.134767341613769531e+01,4.046149063110351562e+01,2.585275840759277344e+01,2.901403236389160156e+01,4.942026138305664062e+01,1.848665356636047363e+00,-8.578922599554061890e-02
2.099165344238281250e+01,2.813759040832519531e+01,1.846744728088378906e+01,2.799541473388671875e+01,1.824277877807617188e+01,2.585544967651367188e+01,1.725351715087890625e+01,2.031207656860351562e+01,4.799784088134765625e+01,3.238866806030273438e+01,1.415979385375976562e+01,1.502102279663085938e+01,3.447813034057617188e+01,3.475286865234375000e+01,2.424687194824218750e+01,3.264868927001953125e+01,2.913751602172851562e+01,3.151644706726074219e+01,4.634210968017578125e+01,3.509552955627441406e+00,-7.709465920925140381e-02
2.381758499145507812e+01,3.003906250000000000e+01,2.091946983337402344e+01,3.037711715698242188e+01,2.069465065002441406e+01,2.790699768066406250e+01,1.733134269714355469e+01,2.107478332519531250e+01,4.910136413574218750e+01,3.346424102783203125e+01,1.180194377899169922e+01,1.365954017639160156e+01,3.042788696289062500e+01,3.137823677062988281e+01,1.653115463256835938e+01,2.405823135375976562e+01,3.143135452270507812e+01,3.296681976318359375e+01,4.189472961425781250e+01,4.827281951904296875e+00,-7.038704305887222290e-02
2.581919670104980469e+01,3.033806228637695312e+01,2.234129905700683594e+01,3.147369194030761719e+01,2.215260314941406250e+01,2.881358528137207031e+01,1.651597023010253906e+01,2.090516662597656250e+01,4.928627014160156250e+01,3.346266937255859375e+01,9.212966918945312500e+00,1.177388095855712891e+01,2.582461547851562500e+01,2.711796379089355469e+01,8.835568428039550781e+00,1.534206962585449219e+01,3.259699249267578125e+01,3.331857299804687500e+01,3.652702713012695312e+01,5.535994529724121094e+00,-6.798670440912246704e-02
2.676407051086425781e+01,2.914757537841796875e+01,2.267850112915039062e+01,3.136453056335449219e+01,2.244817543029785156e+01,2.873412895202636719e+01,1.487804031372070312e+01,1.986583709716796875e+01,4.855699920654296875e+01,3.253490829467773438e+01,6.614855289459228516e+00,9.642685890197753906e+00,2.106395530700683594e+01,2.242986297607421875e+01,1.773198843002319336e+00,7.192638397216796875e+00,3.261696243286132812e+01,3.262952423095703125e+01,3.076242065429687500e+01,5.600291728973388672e+00,-7.061374187469482422e-02
2.657183837890625000e+01,2.681344985961914062e+01,2.202666473388671875e+01,3.025306892395019531e+01,2.163190650939941406e+01,2.790960121154785156e+01,1.264025497436523438e+01,1.815031623840332031e+01,4.700821685791015625e+01,3.088223838806152344e+01,4.246042251586914062e+00,7.630120277404785156e+00,1.650977706909179688e+01,1.781173515319824219e+01,-4.165487289428710938e+00,2.448495924472808838e-01,3.158735466003417969e+01,3.103780937194824219e+01,2.512087249755859375e+01,5.258578300476074219e+00,-7.726801931858062744e-02
2.536739540100097656e+01,2.387994766235351562e+01,2.060881805419921875e+01,2.842461776733398438e+01,1.995801734924316406e+01,2.659921646118164062e+01,1.012110042572021484e+01,1.604433631896972656e+01,4.483075714111328125e+01,2.869964218139648438e+01,2.309334278106689453e+00,6.053449630737304688e+00,1.244220733642578125e+01,1.369940280914306641e+01,-8.685843467712402344e+00,-5.024050235748291016e+00,2.972283172607421875e+01,2.875061988830566406e+01,2.001834678649902344e+01,4.898803234100341797e+00,-8.574922382831573486e-02
2.345375442504882812e+01,2.097124481201171875e+01,1.872366905212402344e+01,2.618309020996093750e+01,1.779712295532226562e+01,2.502050209045410156e+01,7.653430938720703125e+00,1.386322307586669922e+01,4.223614501953125000e+01,2.616638565063476562e+01,9.371950030326843262e-01,5.114068508148193359e+00,9.025852203369140625e+00,1.038274669647216797e+01,-1.170917415618896484e+01,-8.392481803894042969e+00,2.731667137145996094e+01,2.602013015747070312e+01,1.572868919372558594e+01,4.857624530792236328e+00,-9.363033622503280640e-02
2.122189903259277344e+01,1.862609672546386719e+01,1.665000343322753906e+01,2.378650283813476562e+01,1.551524353027343750e+01,2.332715988159179688e+01,5.516221046447753906e+00,1.185514259338378906e+01,3.944182968139648438e+01,2.343656921386718750e+01,1.643389165401458740e-01,4.825770854949951172e+00,6.315582275390625000e+00,7.957729816436767578e+00,-1.335626792907714844e+01,-9.941406250000000000e+00,2.466465568542480469e+01,2.309850311279296875e+01,1.234895992279052734e+01,5.251353740692138672e+00,-9.915111958980560303e-02
1.901828002929687500e+01,1.712283134460449219e+01,1.457235527038574219e+01,2.137379074096679688e+01,1.335741233825683594e+01,2.157129669189453125e+01,3.857937097549438477e+00,1.015555858612060547e+01,3.663420486450195312e+01,2.062970161437988281e+01,-6.952770054340362549e-02,5.025786399841308594e+00,4.269523620605468750e+00,6.322392940521240234e+00,-1.389065837860107422e+01,-1.003088951110839844e+01,2.198892593383789062e+01,2.018812179565429688e+01,9.816761970520019531e+00,5.935503482818603516e+00,-1.018848419189453125e-01
1.703295898437500000e+01,1.636637687683105469e+01,1.253453445434570312e+01,1.893502807617187500e+01,1.134507083892822266e+01,1.969168663024902344e+01,2.673790931701660156e+00,8.737153053283691406e+00,3.393900299072265625e+01,1.781811523437500000e+01,1.204889267683029175e-01,5.423057556152343750e+00,2.776493072509765625e+00,5.222838401794433594e+00,-1.364908409118652344e+01,-9.227664947509765625e+00,1.936810874938964844e+01,1.742229461669921875e+01,7.944911479949951172e+00,6.570527553558349609e+00,-1.028049737215042114e-01
1.527462482452392578e+01,1.593372249603271484e+01,1.046750640869140625e+01,1.634120559692382812e+01,9.341917037963867188e+00,1.754505157470703125e+01,1.822498798370361328e+00,7.441689968109130859e+00,3.141983413696289062e+01,1.505055904388427734e+01,6.055794358253479004e-01,5.704458236694335938e+00,1.679100871086120605e+00,4.339196681976318359e+00,-1.296462535858154297e+01,-8.158119201660156250e+00,1.675103569030761719e+01,1.483475208282470703e+01,6.473429203033447266e+00,6.771365642547607422e+00,-1.037917807698249817e-01
1.364118862152099609e+01,1.526820659637451172e+01,8.311532020568847656e+00,1.346455764770507812e+01,7.217778205871582031e+00,1.503630161285400391e+01,1.108898043632507324e+00,6.088170528411865234e+00,2.914030265808105469e+01,1.240093898773193359e+01,1.293476223945617676e+00,5.656178474426269531e+00,8.329538106918334961e-01,3.423568010330200195e+00,-1.208617591857910156e+01,-7.318674087524414062e+00,1.405658721923828125e+01,1.245761871337890625e+01,5.180466175079345703e+00,6.268548011779785156e+00,-1.067255288362503052e-01
1.200557899475097656e+01,1.394957733154296875e+01,6.063954830169677734e+00,1.027406978607177734e+01,4.888422966003417969e+00,1.218367290496826172e+01,3.533912301063537598e-01,4.557065486907958984e+00,2.715218353271484375e+01,9.977754592895507812e+00,2.139415502548217773e+00,5.225801467895507812e+00,1.268686056137084961e-01,2.367995738983154297e+00,-1.116014289855957031e+01,-6.982044219970703125e+00,1.123608970642089844e+01,1.033586597442626953e+01,3.927366256713867188e+00,5.005724430084228516e+00,-1.124996840953826904e-01
1.030046272277832031e+01,1.191307258605957031e+01,3.813722848892211914e+00,6.921081542968750000e+00,2.376823902130126953e+00,9.186459541320800781e+00,-5.445963144302368164e-01,2.866589307785034180e+00,2.550725364685058594e+01,7.941399574279785156e+00,3.131521701812744141e+00,4.527817726135253906e+00,-4.896924793720245361e-01,1.220461010932922363e+00,-1.021947002410888672e+01,-7.146098136901855469e+00,8.374406814575195312e+00,8.570683479309082031e+00,2.689865112304687500e+00,3.172173738479614258e+00,-1.201541051268577576e-01
8.587743759155273438e+00,9.468716621398925781e+00,1.744040131568908691e+00,3.723151445388793945e+00,-9.955164790153503418e-02,6.385933876037597656e+00,-1.557526230812072754e+00,1.195465326309204102e+00,2.427503395080566406e+01,6.486860275268554688e+00,4.267053604125976562e+00,3.816039800643920898e+00,-9.878507256507873535e-01,1.528937667608261108e-01,-9.205593109130859375e+00,-7.589256763458251953e+00,5.701174259185791016e+00,7.321082592010498047e+00,1.551156044006347656e+00,1.164515376091003418e+00,-1.266750246286392212e-01
7.045536041259765625e+00,7.170415401458740234e+00,5.537035688757896423e-02,1.072268486022949219e+00,-2.258914232254028320e+00,4.154631614685058594e+00,-2.554891109466552734e+00,-1.785447448492050171e-01,2.351321792602539062e+01,5.793398857116699219e+00,5.510383605957031250e+00,3.367730140686035156e+00,-1.286745667457580566e+00,-6.547788381576538086e-01,-8.054457664489746094e+00,-8.034545898437500000e+00,3.522152423858642578e+00,6.750891685485839844e+00,6.256300806999206543e-01,-5.642814636230468750e-01,-1.273417919874191284e-01
5.894310474395751953e+00,5.555541992187500000e+00,-1.139443159103393555e+00,-7.164883613586425781e-01,-3.905236959457397461e+00,2.755671262741088867e+00,-3.387026071548461914e+00,-9.981696009635925293e-01,2.322476387023925781e+01,5.938066482543945312e+00,6.769243717193603516e+00,3.353935956954956055e+00,-1.338727474212646484e+00,-1.128586769104003906e+00,-6.773385047912597656e+00,-8.326434135437011719e+00,2.080703258514404297e+00,6.943632125854492188e+00,-4.511629790067672729e-02,-1.639270901679992676e+00,-1.169136464595794678e-01
5.271996974945068359e+00,4.892782688140869141e+00,-1.878900051116943359e+00,-1.532717227935791016e+00,-5.004827022552490234e+00,2.219012260437011719e+00,-3.962935447692871094e+00,-1.133635401725769043e+00,2.330760192871093750e+01,6.850101947784423828e+00,7.893813133239746094e+00,3.763622045516967773e+00,-1.190001964569091797e+00,-1.368489503860473633e+00,-5.503293037414550781e+00,-8.535229682922363281e+00,1.442971110343933105e+00,7.825420379638671875e+00,-5.546755790710449219e-01,-1.854557752609252930e+00,-9.096329659223556519e-02
5.166649341583251953e+00,5.103598117828369141e+00,-2.328946352005004883e+00,-1.483098506927490234e+00,-5.681734085083007812e+00,2.375320672988891602e+00,-4.298184394836425781e+00,-6.099861860275268555e-01,2.357830429077148438e+01,8.332945823669433594e+00,8.718741416931152344e+00,4.432638168334960938e+00,-9.806310534477233887e-01,-1.578404426574707031e+00,-4.463794231414794922e+00,-8.893165588378906250e+00,1.481659412384033203e+00,9.187453269958496094e+00,-1.100631952285766602e+00,-1.187023997306823730e+00,-4.703706130385398865e-02
5.444681167602539062e+00,5.887610912322998047e+00,-2.678097486495971680e+00,-7.822332382202148438e-01,-6.118200778961181641e+00,3.031816005706787109e+00,-4.494544029235839844e+00,4.418657422065734863e-01,2.385048866271972656e+01,1.013657474517822266e+01,9.132575035095214844e+00,5.143036365509033203e+00,-8.680039644241333008e-01,-1.946255326271057129e+00,-3.841558933258056641e+00,-9.619689941406250000e+00,1.964638471603393555e+00,1.077274513244628906e+01,-1.866703987121582031e+00,2.527972161769866943e-01,1.455834414809942245e-02
5.902998924255371094e+00,6.908618927001953125e+00,-3.056455135345458984e+00,3.354296386241912842e-01,-6.450528144836425781e+00,4.033492565155029297e+00,-4.629840850830078125e+00,1.855718731880187988e+00,2.399397659301757812e+01,1.203455257415771484e+01,9.127094268798828125e+00,5.752737522125244141e+00,-9.272053837776184082e-01,-2.516024351119995117e+00,-3.671359300613403320e+00,-1.074463081359863281e+01,2.652290821075439453e+00,1.235161113739013672e+01,-2.906620979309082031e+00,2.269124984741210938e+00,9.079582989215850830e-02
6.341767787933349609e+00,7.897935390472412109e+00,-3.468002080917358398e+00,1.676377058029174805e+00,-6.664933204650878906e+00,5.280052185058593750e+00,-4.666957855224609375e+00,3.493829965591430664e+00,2.400137138366699219e+01,1.387906551361083984e+01,8.806441307067871094e+00,6.246567726135253906e+00,-1.062935471534729004e+00,-3.147768259048461914e+00,-3.766524791717529297e+00,-1.202084255218505859e+01,3.387367486953735352e+00,1.379074096679687500e+01,-4.071327686309814453e+00,4.634390830993652344e+00,1.765546649694442749e-01
6.618713378906250000e+00,8.681948661804199219e+00,-3.830428838729858398e+00,3.083069324493408203e+00,-6.629709243774414062e+00,6.650355815887451172e+00,-4.413126468658447266e+00,5.266268730163574219e+00,2.395403671264648438e+01,1.559149074554443359e+01,8.368854522705078125e+00,6.726603984832763672e+00,-1.023949146270751953e+00,-3.555603027343750000e+00,-3.750053882598876953e+00,-1.299451255798339844e+01,4.087500095367431641e+00,1.503070545196533203e+01,-5.033250808715820312e+00,7.118136405944824219e+00,2.654072642326354980e-01
6.641520977020263672e+00,9.124247550964355469e+00,-4.045495033264160156e+00,4.388042926788330078e+00,-6.233060359954833984e+00,7.946413040161132812e+00,-3.615713596343994141e+00,7.093349456787109375e+00,2.395403671264648438e+01,1.711207389831542969e+01,8.025362968444824219e+00,7.319752216339111328e+00,-5.012440085411071777e-01,-3.447646617889404297e+00,-3.193702459335327148e+00,-1.316282749176025391e+01,4.697775840759277344e+00,1.603616905212402344e+01,-5.416286945343017578e+00,9.478344917297363281e+00,3.496458828449249268e-01
6.331993103027343750e+00,9.080155372619628906e+00,-4.113201141357421875e+00,5.384140014648437500e+00,-5.534713268280029297e+00,8.872540473937988281e+00,-2.126251697540283203e+00,8.849850654602050781e+00,2.401024818420410156e+01,1.833388710021972656e+01,7.937663078308105469e+00,8.049462318420410156e+00,7.188827395439147949e-01,-2.679957866668701172e+00,-1.780862331390380859e+00,-1.219341850280761719e+01,5.124594688415527344e+00,1.670594215393066406e+01,-4.962189674377441406e+00,1.145927333831787109e+01,4.200958907604217529e-01
5.618450641632080078e+00,8.413262367248535156e+00,-4.151700973510742188e+00,5.849316120147705078e+00,-4.833303451538085938e+00,9.126541137695312500e+00,-4.890719056129455566e-02,1.033428287506103516e+01,2.401320648193359375e+01,1.908395767211914062e+01,8.154172897338867188e+00,8.779172897338867188e+00,2.624879598617553711e+00,-1.328505754470825195e+00,5.543498396873474121e-01,-1.004367351531982422e+01,5.223186969757080078e+00,1.687619590759277344e+01,-3.638029098510742188e+00,1.279072856903076172e+01,4.662891030311584473e-01
4.467225551605224609e+00,7.053296089172363281e+00,-4.356146812438964844e+00,5.629753112792968750e+00,-4.546919822692871094e+00,8.527359008789062500e+00,2.255927562713623047e+00,1.130644893646240234e+01,2.375729560852050781e+01,1.917673301696777344e+01,8.612770080566406250e+00,9.270244598388671875e+00,4.991492271423339844e+00,3.648078739643096924e-01,3.647224903106689453e+00,-6.920257568359375000e+00,4.852528572082519531e+00,1.633330917358398438e+01,-1.601525187492370605e+00,1.323069381713867188e+01,4.779974222183227539e-01
2.965202331542968750e+00,5.099464416503906250e+00,-4.859295845031738281e+00,4.720489025115966797e+00,-4.983386993408203125e+00,7.123188495635986328e+00,4.310523033142089844e+00,1.158990287780761719e+01,2.308571243286132812e+01,1.851786613464355469e+01,9.185561180114746094e+00,9.314385414123535156e+00,7.489503383636474609e+00,2.144086599349975586e+00,7.212266921997070312e+00,-3.108667612075805664e+00,3.956459045410156250e+00,1.495842742919921875e+01,8.994748592376708984e-01,1.262673473358154297e+01,4.481665492057800293e-01
1.369777679443359375e+00,2.828720808029174805e+00,-5.642562866210937500e+00,3.296430110931396484e+00,-6.125858306884765625e+00,5.221436500549316406e+00,5.730540752410888672e+00,1.115618419647216797e+01,2.199994087219238281e+01,1.717811775207519531e+01,9.737339973449707031e+00,8.871593475341796875e+00,9.838788986206054688e+00,3.871386528015136719e+00,1.098960018157958984e+01,1.218520164489746094e+00,2.626082658767700195e+00,1.280937004089355469e+01,3.686452150344848633e+00,1.102508735656738281e+01,3.764497041702270508e-01
7.193399965763092041e-02,6.392720937728881836e-01,-6.497518062591552734e+00,1.676377058029174805e+00,-7.550118446350097656e+00,3.300145387649536133e+00,6.396248817443847656e+00,1.018515682220458984e+01,2.072038459777832031e+01,1.543109798431396484e+01,1.018406200408935547e+01,8.166712760925292969e+00,1.194116115570068359e+01,5.612680435180664062e+00,1.484928894042968750e+01,6.091134071350097656e+00,1.101016998291015625e+00,1.017685508728027344e+01,6.724742412567138672e+00,8.724841117858886719e+00,2.713681161403656006e-01
-5.308302044868469238e-01,-1.061029911041259766e+00,-7.090942382812500000e+00,2.275087982416152954e-01,-8.560884475708007812e+00,1.813912987709045410e+00,6.496823310852050781e+00,9.026298522949218750e+00,1.961242294311523438e+01,1.368407821655273438e+01,1.050288772583007812e+01,7.598393917083740234e+00,1.388614368438720703e+01,7.575884819030761719e+00,1.877669143676757812e+01,1.168388080596923828e+01,-2.979999482631683350e-01,7.526672363281250000e+00,1.009927272796630859e+01,6.266380786895751953e+00,1.496175080537796021e-01
-2.234747707843780518e-01,-1.982830524444580078e+00,-7.133424282073974609e+00,-7.561833858489990234e-01,-8.544037818908691406e+00,1.075355768203735352e+00,6.413011074066162109e+00,8.078037261962890625e+00,1.902811813354492188e+01,1.233646774291992188e+01,1.070478057861328125e+01,7.590117454528808594e+00,1.583690261840820312e+01,9.966915130615234375e+00,2.276265716552734375e+01,1.812033271789550781e+01,-1.287670254707336426e+00,5.339066982269287109e+00,1.388976955413818359e+01,4.262334346771240234e+00,3.212083503603935242e-02
9.060293436050415039e-01,-2.057235956192016602e+00,-6.516104221343994141e+00,-1.137007474899291992e+00,-7.265266418457031250e+00,1.179561376571655273e+00,6.514782905578613281e+00,7.655703067779541016e+00,1.915089607238769531e+01,1.164457798004150391e+01,1.080527019500732422e+01,8.406730651855468750e+00,1.789306831359863281e+01,1.283575248718261719e+01,2.668090820312500000e+01,2.530461502075195312e+01,-1.724472999572753906e+00,3.960972070693969727e+00,1.804077148437500000e+01,3.183010339736938477e+00,-6.198585033416748047e-02
2.440634489059448242e+00,-1.456480979919433594e+00,-5.386341571807861328e+00,-9.782274365425109863e-01,-5.017078876495361328e+00,1.984549641609191895e+00,6.984131336212158203e+00,7.870854854583740234e+00,1.990087890625000000e+01,1.162413597106933594e+01,1.077329635620117188e+01,1.002340412139892578e+01,1.997233772277832031e+01,1.598647499084472656e+01,3.022582054138183594e+01,3.282765960693359375e+01,-1.660824656486511230e+00,3.469483613967895508e+00,2.228709793090820312e+01,3.232136249542236328e+00,-1.209408789873123169e-01
3.796039342880249023e+00,-4.836988151073455811e-01,-4.072046756744384766e+00,-4.634326398372650146e-01,-2.465661764144897461e+00,3.244134902954101562e+00,7.763584136962890625e+00,8.619900703430175781e+00,2.099552726745605469e+01,1.206757450103759766e+01,1.052755355834960938e+01,1.213804626464843750e+01,2.180902671813964844e+01,1.902924156188964844e+01,3.296182632446289062e+01,4.003324508666992188e+01,-1.281430244445800781e+00,3.691135168075561523e+00,2.620065307617187500e+01,4.310015678405761719e+00,-1.432373821735382080e-01
4.509582042694091797e+00,5.717560052871704102e-01,-2.870595216751098633e+00,2.113827019929885864e-01,-2.848586440086364746e-01,4.718644142150878906e+00,8.662769317626953125e+00,9.669475555419921875e+00,2.209461212158203125e+01,1.267612171173095703e+01,1.000226688385009766e+01,1.429683017730712891e+01,2.308835411071777344e+01,2.152423095703125000e+01,3.448447036743164062e+01,4.621829223632812500e+01,-7.759869694709777832e-01,4.317542076110839844e+00,2.935333442687988281e+01,6.027976036071777344e+00,-1.364497542381286621e-01
4.454192638397216797e+00,1.521114230155944824e+00,-1.925364971160888672e+00,9.110074043273925781e-01,1.153185009956359863e+00,6.210086822509765625e+00,9.509271621704101562e+00,1.073384952545166016e+01,2.295257949829101562e+01,1.318088626861572266e+01,9.191041946411132812e+00,1.606385993957519531e+01,2.357929229736328125e+01,2.314357376098632812e+01,3.456499481201171875e+01,5.081393051147460938e+01,-2.455836236476898193e-01,5.046743869781494141e+00,3.144529914855957031e+01,7.864416122436523438e+00,-1.132197827100753784e-01
3.887268543243408203e+00,2.285836696624755859e+00,-1.156701564788818359e+00,1.587063193321228027e+00,1.888287186622619629e+00,7.553036689758300781e+00,1.022526741027832031e+01,1.158193397521972656e+01,2.348067474365234375e+01,1.343248271942138672e+01,8.170616149902343750e+00,1.713980293273925781e+01,2.320242500305175781e+01,2.375132751464843750e+01,3.319973754882812500e+01,5.347927474975585938e+01,3.160199522972106934e-01,5.684393882751464844e+00,3.238642501831054688e+01,9.305682182312011719e+00,-8.610927313566207886e-02
3.330118894577026367e+00,2.887969493865966797e+00,-3.468835353851318359e-01,2.260637998580932617e+00,2.254306793212890625e+00,8.626354217529296875e+00,1.083111000061035156e+01,1.208509254455566406e+01,2.371587562561035156e+01,1.340889549255371094e+01,7.067058086395263672e+00,1.741844558715820312e+01,2.201406478881835938e+01,2.340946578979492188e+01,3.056255912780761719e+01,5.410353088378906250e+01,9.899442195892333984e-01,6.172669887542724609e+00,3.224776840209960938e+01,9.973216056823730469e+00,-6.379944086074829102e-02
3.305139541625976562e+00,3.401918172836303711e+00,7.271210551261901855e-01,2.993755578994750977e+00,2.649424314498901367e+00,9.405291557312011719e+00,1.134356117248535156e+01,1.222055816650390625e+01,2.374250221252441406e+01,1.317302417755126953e+01,5.987252235412597656e+00,1.695220184326171875e+01,2.013261604309082031e+01,2.227592658996582031e+01,2.687490081787109375e+01,5.273996734619140625e+01,1.857309699058532715e+00,6.556544780731201172e+00,3.117492103576660156e+01,9.734810829162597656e+00,-4.982412233948707581e-02
4.092534065246582031e+00,3.904843807220458984e+00,2.147621631622314453e+00,3.838515043258666992e+00,3.283449888229370117e+00,9.926319122314453125e+00,1.168719100952148438e+01,1.205094146728515625e+01,2.360789108276367188e+01,1.280191993713378906e+01,4.954950332641601562e+00,1.590384769439697266e+01,1.764038085937500000e+01,2.051663970947265625e+01,2.231245231628417969e+01,4.952493667602539062e+01,2.936836719512939453e+00,6.901871681213378906e+00,2.928400611877441406e+01,8.746514320373535156e+00,-4.382327198982238770e-02
5.644516468048095703e+00,4.478041172027587891e+00,3.820360660552978516e+00,4.822207450866699219e+00,4.093593597412109375e+00,1.032099819183349609e+01,1.169437503814697266e+01,1.167983341217041016e+01,2.331351852416992188e+01,1.233489513397216797e+01,3.900723457336425781e+00,1.446373939514160156e+01,1.457345771789550781e+01,1.824555969238281250e+01,1.697037887573242188e+01,4.464167022705078125e+01,4.166124343872070312e+00,7.245592594146728516e+00,2.663221740722656250e+01,7.368823051452636719e+00,-4.362324252724647522e-02
7.668935298919677734e+00,5.186270713806152344e+00,5.532926559448242188e+00,5.934908390045166016e+00,4.886891365051269531e+00,1.074172782897949219e+01,1.119868564605712891e+01,1.120058059692382812e+01,2.285346984863281250e+01,1.177509403228759766e+01,2.715860128402709961e+00,1.279188919067382812e+01,1.096794700622558594e+01,1.551866531372070312e+01,1.093835735321044922e+01,3.831813812255859375e+01,5.439092636108398438e+00,7.563614368438720703e+00,2.324208831787109375e+01,6.005580425262451172e+00,-4.694371670484542847e-02
9.784583091735839844e+00,6.032288074493408203e+00,7.054322719573974609e+00,7.117075443267822266e+00,5.502539634704589844e+00,1.126405906677246094e+01,1.017976951599121094e+01,1.067010116577148438e+01,2.225289344787597656e+01,1.109578418731689453e+01,1.333672046661376953e+00,1.100140953063964844e+01,6.946582794189453125e+00,1.238793373107910156e+01,4.412208080291748047e+00,3.088883972167968750e+01,6.632188320159912109e+00,7.801327705383300781e+00,1.918294715881347656e+01,4.955875873565673828e+00,-5.195776000618934631e-02
1.166890048980712891e+01,6.965111732482910156e+00,8.235860824584960938e+00,8.279395103454589844e+00,5.916034698486328125e+00,1.186584663391113281e+01,8.816025733947753906e+00,1.011230087280273438e+01,2.160202026367187500e+01,1.030640220642089844e+01,-1.773255914449691772e-01,9.172306060791015625e+00,2.776493072509765625e+00,8.951327323913574219e+00,-2.223747491836547852e+00,2.282036972045898438e+01,7.653058528900146484e+00,7.915365695953369141e+00,1.463331031799316406e+01,4.312905311584472656e+00,-5.705181509256362915e-02
1.313182544708251953e+01,7.877267360687255859e+00,9.025765419006347656e+00,9.307744979858398438e+00,6.190166473388671875e+00,1.242595100402832031e+01,7.394810676574707031e+00,9.511242866516113281e+00,2.098369216918945312e+01,9.424243927001953125e+00,-1.618893980979919434e+00,7.376308441162109375e+00,-1.171230792999267578e+00,5.372777938842773438e+00,-8.449759483337402344e+00,1.466880893707275391e+01,8.428071975708007812e+00,7.886455059051513672e+00,9.863557815551757812e+00,3.949518442153930664e+00,-6.067899614572525024e-02
1.407235431671142578e+01,8.595141410827636719e+00,9.402794837951660156e+00,1.004582405090332031e+01,6.364753246307373047e+00,1.272033214569091797e+01,6.191507339477539062e+00,8.815699577331542969e+00,2.041713714599609375e+01,8.488620758056640625e+00,-2.747117757797241211e+00,5.665834426879882812e+00,-4.526940345764160156e+00,1.832213044166564941e+00,-1.374058914184570312e+01,6.966798305511474609e+00,8.882346153259277344e+00,7.701745033264160156e+00,5.175266265869140625e+00,3.614306688308715820e+00,-6.125241145491600037e-02
1.442532444000244141e+01,8.938233375549316406e+00,9.344382286071777344e+00,1.034849834442138672e+01,6.367815971374511719e+00,1.257444477081298828e+01,5.342609882354736328e+00,7.967616081237792969e+00,1.981064414978027344e+01,7.508969306945800781e+00,-3.363758325576782227e+00,4.086404800415039062e+00,-7.036502838134765625e+00,-1.500436067581176758e+00,-1.771557426452636719e+01,1.361905187368392944e-01,8.952235221862792969e+00,7.343568801879882812e+00,8.214811086654663086e-01,3.079701662063598633e+00,-5.771857872605323792e-02
1.414186286926269531e+01,8.810091018676757812e+00,8.785474777221679688e+00,1.012893486022949219e+01,5.989544868469238281e+00,1.193618488311767578e+01,4.764306068420410156e+00,6.921455860137939453e+00,1.898078155517578125e+01,6.464845657348632812e+00,-3.422224998474121094e+00,2.689058303833007812e+00,-8.640716552734375000e+00,-4.515213966369628906e+00,-2.025392913818359375e+01,-5.571606636047363281e+00,8.609032630920410156e+00,6.779802799224853516e+00,-3.047009706497192383e+00,2.289353132247924805e+00,-5.014416947960853577e-02
1.320024681091308594e+01,8.201068878173828125e+00,7.676953315734863281e+00,9.377210617065429688e+00,5.014002799987792969e+00,1.087459087371826172e+01,4.239881038665771484e+00,5.670389652252197266e+00,1.775004196166992188e+01,5.316938877105712891e+00,-3.023920774459838867e+00,1.522073745727539062e+00,-9.452209472656250000e+00,-7.160141944885253906e+00,-2.145996665954589844e+01,-1.006284809112548828e+01,7.882691860198974609e+00,5.970292568206787109e+00,-6.369544029235839844e+00,1.385581851005554199e+00,-3.996939212083816528e-02
1.163197422027587891e+01,7.164904117584228516e+00,6.030765533447265625e+00,8.157829284667968750e+00,3.317142009735107422e+00,9.512102127075195312e+00,3.600514173507690430e+00,4.239460945129394531e+00,1.605037879943847656e+01,4.019647121429443359e+00,-2.336937665939331055e+00,6.061425805091857910e-01,-9.686126708984375000e+00,-9.437218666076660156e+00,-2.158807373046875000e+01,-1.338227653503417969e+01,6.863069534301757812e+00,4.892551422119140625e+00,-9.139189720153808594e+00,5.901762843132019043e-01,-2.964792773127555847e-02
9.555424690246582031e+00,5.778758525848388672e+00,3.965065717697143555e+00,6.574990749359130859e+00,9.648150801658630371e-01,7.926874160766601562e+00,2.862967014312744141e+00,2.673066854476928711e+00,1.395427513122558594e+01,2.549382925033569336e+00,-1.494652390480041504e+00,-8.494403213262557983e-02,-9.561948776245117188e+00,-1.137443351745605469e+01,-2.089995384216308594e+01,-1.564920330047607422e+01,5.674965858459472656e+00,3.556216955184936523e+00,-1.136461162567138672e+01,8.302401006221771240e-02,-2.190016210079193115e-02
7.180207252502441406e+00,4.119792938232421875e+00,1.705540657043457031e+00,4.745298385620117188e+00,-1.781097888946533203e+00,6.107183933258056641e+00,2.254730224609375000e+00,1.049754261970520020e+00,1.167030525207519531e+01,9.077190756797790527e-01,-5.180765390396118164e-01,-6.146391630172729492e-01,-9.238506317138671875e+00,-1.298977851867675781e+01,-1.958594131469726562e+01,-1.701702880859375000e+01,4.441934108734130859e+00,2.014292240142822266e+00,-1.304234409332275391e+01,-1.134794428944587708e-01,-1.881972514092922211e-02
4.777839183807373047e+00,2.283081054687500000e+00,-4.623821973800659180e-01,2.784116268157958984e+00,-4.514759063720703125e+00,4.024374485015869141e+00,2.073935270309448242e+00,-5.325771570205688477e-01,9.469174385070800781e+00,-8.471630811691284180e-01,6.594783663749694824e-01,-1.051913499832153320e+00,-8.800993919372558594e+00,-1.429125118255615234e+01,-1.776132774353027344e+01,-1.763276481628417969e+01,3.250086545944213867e+00,3.792099058628082275e-01,-1.416372108459472656e+01,-1.293731033802032471e-01,-2.120673097670078278e-02
2.655674695968627930e+00,4.257009327411651611e-01,-2.243981838226318359e+00,8.229340910911560059e-01,-6.778261184692382812e+00,1.737061381340026855e+00,2.490601539611816406e+00,-1.955537080764770508e+00,7.636378288269042969e+00,-2.602045297622680664e+00,2.106528043746948242e+00,-1.427114248275756836e+00,-8.275401115417480469e+00,-1.525885868072509766e+01,-1.551578998565673828e+01,-1.760293579101562500e+01,2.161823749542236328e+00,-1.173957824707031250e+00,-1.472354316711425781e+01,-1.553809046745300293e-01,-2.826106362044811249e-02
1.084143400192260742e+00,-1.236020445823669434e+00,-3.418881893157958984e+00,-9.881511926651000977e-01,-8.174955368041992188e+00,-5.411337018013000488e-01,3.407746076583862305e+00,-3.101873397827148438e+00,6.405638694763183594e+00,-4.196534633636474609e+00,3.793839216232299805e+00,-1.719550013542175293e+00,-7.660283565521240234e+00,-1.586861133575439453e+01,-1.297926616668701172e+01,-1.702981185913085938e+01,1.207097649574279785e+00,-2.428377628326416016e+00,-1.474954128265380859e+01,-3.135950863361358643e-01,-3.784909099340438843e-02
1.935729086399078369e-01,-2.500912666320800781e+00,-3.904772758483886719e+00,-2.506485700607299805e+00,-8.501156806945800781e+00,-2.481963157653808594e+00,4.473358154296875000e+00,-3.899869441986083984e+00,5.936714649200439453e+00,-5.462377071380615234e+00,5.557887554168701172e+00,-1.868526816368103027e+00,-6.941203117370605469e+00,-1.610451507568359375e+01,-1.034025669097900391e+01,-1.600926971435546875e+01,3.958924710750579834e-01,-3.173641204833984375e+00,-1.430757617950439453e+01,-5.830649137496948242e-01,-4.711707308888435364e-02
-6.599583476781845093e-02,-3.258745908737182617e+00,-3.749447107315063477e+00,-3.621667623519897461e+00,-7.766054630279541016e+00,-3.778020381927490234e+00,5.275560379028320312e+00,-4.343832969665527344e+00,6.318362236022949219e+00,-6.245469570159912109e+00,7.171202182769775391e+00,-1.789900183677673340e+00,-6.090723991394042969e+00,-1.595257759094238281e+01,-7.803733348846435547e+00,-1.463505172729492188e+01,-2.742877900600433350e-01,-3.263586759567260742e+00,-1.348950862884521484e+01,-8.734854459762573242e-01,-5.334462225437164307e-02
8.388067781925201416e-02,-3.592192411422729492e+00,-3.112213134765625000e+00,-4.313849449157714844e+00,-6.233060359954833984e+00,-4.318586826324462891e+00,5.541364669799804688e+00,-4.508896350860595703e+00,7.516558647155761719e+00,-6.479768753051757812e+00,8.441024780273437500e+00,-1.446426033973693848e+00,-5.077080249786376953e+00,-1.544278430938720703e+01,-5.532574653625488281e+00,-1.300090503692626953e+01,-8.296513557434082031e-01,-2.696608304977416992e+00,-1.242532634735107422e+01,-1.082270383834838867e+00,-5.483816936612129211e-02
3.195560574531555176e-01,-3.734113931655883789e+00,-2.212120294570922852e+00,-4.688471317291259766e+00,-4.308011531829833984e+00,-4.267786502838134766e+00,5.256402969360351562e+00,-4.551015853881835938e+00,9.356751441955566406e+00,-6.237607479095458984e+00,9.283309936523437500e+00,-8.974190950393676758e-01,-3.919042825698852539e+00,-1.468109321594238281e+01,-3.634757280349731445e+00,-1.124957561492919922e+01,-1.332598567008972168e+00,-1.663840055465698242e+00,-1.129874992370605469e+01,-1.168240547180175781e+00,-5.145101994276046753e-02
3.782033920288085938e-01,-3.900837182998657227e+00,-1.237683415412902832e+00,-4.896870136260986328e+00,-2.407466173171997070e+00,-3.939538955688476562e+00,4.667323112487792969e+00,-4.615902900695800781e+00,1.152533912658691406e+01,-5.685668468475341797e+00,9.762005805969238281e+00,-2.559913992881774902e-01,-2.688808441162109375e+00,-1.381144523620605469e+01,-2.141392707824707031e+00,-9.517422676086425781e+00,-1.833049654960632324e+00,-4.881226420402526855e-01,-1.030042934417724609e+01,-1.204362511634826660e+00,-4.457004368305206299e-02
1.848844140768051147e-01,-4.192947387695312500e+00,-3.176769912242889404e-01,-5.100306987762451172e+00,-8.315908908843994141e-01,-3.654276132583618164e+00,4.097400665283203125e+00,-4.801456928253173828e+00,1.360221195220947266e+01,-5.051961421966552734e+00,1.000683498382568359e+01,3.247420191764831543e-01,-1.539434671401977539e+00,-1.301976680755615234e+01,-1.045160770416259766e+00,-7.940800666809082031e+00,-2.364701032638549805e+00,4.595184624195098877e-01,-9.631416320800781250e+00,-1.308393836021423340e+00,-3.659557923674583435e-02
-1.485365182161331177e-01,-4.570486068725585938e+00,4.549691081047058105e-01,-5.411664962768554688e+00,2.679994404315948486e-01,-3.636040210723876953e+00,3.750178813934326172e+00,-5.136137008666992188e+00,1.514951229095458984e+01,-4.542479515075683594e+00,1.011006450653076172e+01,6.971839070320129395e-01,-6.961754560470581055e-01,-1.250597476959228516e+01,-3.625320792198181152e-01,-6.677372455596923828e+00,-2.953760862350463867e+00,8.658798336982727051e-01,-9.458097457885742188e+00,-1.573529005050659180e+00,-2.998130768537521362e-02
-4.081052541732788086e-01,-4.888775825500488281e+00,1.011221170425415039e+00,-5.853271961212158203e+00,8.530182838439941406e-01,-3.913487672805786133e+00,3.588541030883789062e+00,-5.566440105438232422e+00,1.582849025726318359e+01,-4.253143787384033203e+00,1.007809066772460938e+01,7.827075719833374023e-01,-3.813972175121307373e-01,-1.241601085662841797e+01,-1.246185973286628723e-01,-5.852841854095458984e+00,-3.607717037200927734e+00,6.153171062469482422e-01,-9.858465194702148438e+00,-2.019273996353149414e+00,-2.624744549393653870e-02
-4.428592324256896973e-01,-4.999006271362304688e+00,1.290011048316955566e+00,-6.338295459747314453e+00,9.234655499458312988e-01,-4.326402187347412109e+00,3.357458829879760742e+00,-5.943239688873291016e+00,1.549861621856689453e+01,-4.106903553009033203e+00,9.829607963562011719e+00,6.213161349296569824e-01,-7.250542044639587402e-01,-1.277186679840087891e+01,-3.295902013778686523e-01,-5.503428459167480469e+00,-4.311593532562255859e+00,-1.717068701982498169e-01,-1.076492595672607422e+01,-2.540874958038330078e+00,-2.562068961560726166e-02
-2.951548397541046143e-01,-4.862596511840820312e+00,1.250183939933776855e+00,-6.726562500000000000e+00,4.977188706398010254e-01,-4.668978214263916016e+00,2.745630025863647461e+00,-6.076428890228271484e+00,1.423681259155273438e+01,-3.882039785385131836e+00,9.268692970275878906e+00,3.702627122402191162e-01,-1.701155662536621094e+00,-1.343559837341308594e+01,-8.950921893119812012e-01,-5.546040058135986328e+00,-5.045422077178955078e+00,-1.178776264190673828e+00,-1.197296237945556641e+01,-2.964946746826171875e+00,-2.700755372643470764e-02
-1.995814144611358643e-01,-4.603555202484130859e+00,9.023603796958923340e-01,-6.895266532897949219e+00,-3.889981210231781006e-01,-4.820076465606689453e+00,1.567470312118530273e+00,-5.780453205108642578e+00,1.230046844482421875e+01,-3.297079086303710938e+00,8.391693115234375000e+00,2.668066322803497314e-01,-3.124877452850341797e+00,-1.414131164550781250e+01,-1.634454131126403809e+00,-5.767619132995605469e+00,-5.773010730743408203e+00,-2.010773181915283203e+00,-1.316540050506591797e+01,-3.110879421234130859e+00,-2.864778600633144379e-02
-4.504616558551788330e-01,-4.410652160644531250e+00,3.235396146774291992e-01,-6.773700237274169922e+00,-1.621825695037841797e+00,-4.774486541748046875e+00,-1.279300898313522339e-01,-4.935784339904785156e+00,1.003277111053466797e+01,-2.139737606048583984e+00,7.325590610504150391e+00,5.399307012557983398e-01,-4.698768615722656250e+00,-1.455914211273193359e+01,-2.282310724258422852e+00,-5.891192436218261719e+00,-6.445686817169189453e+00,-2.335219621658325195e+00,-1.401813220977783203e+01,-2.862360477447509766e+00,-2.875446714460849762e-02
-1.218307256698608398e+00,-4.435453891754150391e+00,-3.415732681751251221e-01,-6.369307518005371094e+00,-2.926632165908813477e+00,-4.620783329010009766e+00,-2.093924045562744141e+00,-3.537868499755859375e+00,7.763594150543212891e+00,-3.738480806350708008e-01,6.295115470886230469e+00,1.319299817085266113e+00,-6.096499919891357422e+00,-1.441720008850097656e+01,-2.564146757125854492e+00,-5.633393287658691406e+00,-6.997306346893310547e+00,-1.996317505836486816e+00,-1.427291202545166016e+01,-2.210720300674438477e+00,-2.648747898638248444e-02
-2.444470882415771484e+00,-4.671071052551269531e+00,-9.376524686813354492e-01,-5.739149093627929688e+00,-3.972621202468872070e+00,-4.430607795715332031e+00,-4.008433341979980469e+00,-1.710787892341613770e+00,5.763641834259033203e+00,1.837051749229431152e+00,5.547838687896728516e+00,2.592499256134033203e+00,-7.030726909637451172e+00,-1.358153915405273438e+01,-2.249368906021118164e+00,-4.761990070343017578e+00,-7.359228610992431641e+00,-1.022977709770202637e+00,-1.379108428955078125e+01,-1.268659591674804688e+00,-2.208685502409934998e-02
-3.854178905487060547e+00,-4.927356719970703125e+00,-1.369112968444824219e+00,-4.955172061920166016e+00,-4.507102012634277344e+00,-4.185724735260009766e+00,-5.620021820068359375e+00,3.155069351196289062e-01,4.205986976623535156e+00,4.169032096862792969e+00,5.258245944976806641e+00,4.189861297607421875e+00,-7.306519031524658203e+00,-1.209214210510253906e+01,-1.206209778785705566e+00,-3.157670736312866211e+00,-7.480285644531250000e+00,3.904531002044677734e-01,-1.256571578979492188e+01,-2.630243301391601562e-01,-1.677943579852581024e-02
-5.108580112457275391e+00,-4.957669734954833984e+00,-1.666488766670227051e+00,-4.121576786041259766e+00,-4.491786956787109375e+00,-3.847056627273559570e+00,-6.844876766204833984e+00,2.235933542251586914e+00,3.145361423492431641e+00,6.249416828155517578e+00,5.443695068359375000e+00,5.845158100128173828e+00,-6.860342502593994141e+00,-1.014893054962158203e+01,5.653304457664489746e-01,-8.460022807121276855e-01,-7.372956752777099609e+00,1.948439359664916992e+00,-1.070079803466796875e+01,5.482748150825500488e-01,-1.220545265823602676e-02
-5.999150753021240234e+00,-4.596665859222412109e+00,-1.986433267593383789e+00,-3.374814271926879883e+00,-4.177837371826171875e+00,-3.387249231338500977e+00,-7.722509860992431641e+00,3.761346578598022461e+00,2.525553703308105469e+00,7.765282630920410156e+00,5.968067646026611328e+00,7.282507896423339844e+00,-5.752842903137207031e+00,-8.013795852661132812e+00,2.949955463409423828e+00,2.036659002304077148e+00,-7.128347396850585938e+00,3.340989828109741211e+00,-8.355785369873046875e+00,9.658446311950683594e-01,-9.738435968756675720e-03
-6.510685443878173828e+00,-3.825053930282592773e+00,-2.512151241302490234e+00,-2.827767133712768555e+00,-3.978747129440307617e+00,-2.827144145965576172e+00,-8.378639221191406250e+00,4.722128868103027344e+00,2.223785638809204102e+00,8.587686538696289062e+00,6.611200809478759766e+00,8.335000991821289062e+00,-4.134189605712890625e+00,-5.898653030395507812e+00,5.740863323211669922e+00,5.290039539337158203e+00,-6.862521648406982422e+00,4.323966979980468750e+00,-5.676266193389892578e+00,9.774037003517150879e-01,-9.951800107955932617e-03
-6.789803504943847656e+00,-2.817824840545654297e+00,-3.351175785064697266e+00,-2.585875749588012695e+00,-4.280445098876953125e+00,-2.281367301940917969e+00,-8.962929725646972656e+00,5.110312461853027344e+00,2.092132091522216797e+00,8.776384353637695312e+00,7.122784137725830078e+00,8.990222930908203125e+00,-2.220973014831542969e+00,-3.893465995788574219e+00,8.674519538879394531e+00,8.743693351745605469e+00,-6.679064750671386719e+00,4.773694515228271484e+00,-2.767965316772460938e+00,8.170222043991088867e-01,-1.255216915160417557e-02
-7.010273933410644531e+00,-1.865710854530334473e+00,-4.421197891235351562e+00,-2.678910970687866211e+00,-5.223826408386230469e+00,-1.898411750793457031e+00,-9.530458450317382812e+00,5.085268497467041016e+00,2.059588432312011719e+00,8.575107574462890625e+00,7.329244613647460938e+00,9.381977081298828125e+00,-2.139005213975906372e-01,-1.934260129928588867e+00,1.148189830780029297e+01,1.226339530944824219e+01,-6.606679916381835938e+00,4.728722095489501953e+00,3.379197418689727783e-01,8.603685498237609863e-01,-1.645939052104949951e-02
-7.219883918762207031e+00,-1.223619461059570312e+00,-5.444754600524902344e+00,-3.017559051513671875e+00,-6.618988990783691406e+00,-1.735590457916259766e+00,-1.002375221252441406e+01,4.907682895660400391e+00,2.194200754165649414e+00,8.326656341552734375e+00,7.187645912170410156e+00,9.697862625122070312e+00,1.733970403671264648e+00,1.349010616540908813e-01,1.393789768218994141e+01,1.577031326293945312e+01,-6.555511951446533203e+00,4.401062965393066406e+00,3.658720970153808594e+00,1.419536471366882324e+00,-2.025992982089519501e-02
-7.327404022216796875e+00,-9.907580614089965820e-01,-6.047471523284912109e+00,-3.408306837081909180e+00,-8.041718482971191406e+00,-1.738195657730102539e+00,-1.027997875213623047e+01,4.831412315368652344e+00,2.635018587112426758e+00,8.340808868408203125e+00,6.768330097198486328e+00,1.006202793121337891e+01,3.537447690963745117e+00,2.465956211090087891e+00,1.586865711212158203e+01,1.918774795532226562e+01,-6.355830669403076172e+00,4.100708961486816406e+00,7.208303928375244141e+00,2.589887857437133789e+00,-2.264693379402160645e-02
-7.134085178375244141e+00,-1.050006866455078125e+00,-5.881525516510009766e+00,-3.585694074630737305e+00,-8.991225242614746094e+00,-1.723867297172546387e+00,-1.007284259796142578e+01,5.028349876403808594e+00,3.558073282241821289e+00,8.840855598449707031e+00,6.222945690155029297e+00,1.051171684265136719e+01,5.174872398376464844e+00,5.112883090972900391e+00,1.717535018920898438e+01,2.244112777709960938e+01,-5.802962779998779297e+00,4.174592971801757812e+00,1.095373821258544922e+01,4.211041450500488281e+00,-2.266027033329010010e-02
-6.437919616699218750e+00,-1.098232626914978027e+00,-4.753090381622314453e+00,-3.292943239212036133e+00,-9.103021621704101562e+00,-1.449025034904479980e+00,-9.189223289489746094e+00,5.559967994689941406e+00,5.065433979034423828e+00,9.913283348083496094e+00,5.714103221893310547e+00,1.099451255798339844e+01,6.647687911987304688e+00,7.991716384887695312e+00,1.782869720458984375e+01,2.543884086608886719e+01,-4.720940113067626953e+00,4.894157409667968750e+00,1.479796409606933594e+01,5.939116001129150391e+00,-1.995321922004222870e-02
-5.129215240478515625e+00,-7.758090496063232422e-01,-2.662166595458984375e+00,-2.351427078247070312e+00,-8.230088233947753906e+00,-6.961395144462585449e-01,-7.530939102172851562e+00,6.388699531555175781e+00,7.115680694580078125e+00,1.150934600830078125e+01,5.346859455108642578e+00,1.142902755737304688e+01,7.948675155639648438e+00,1.089853763580322266e+01,1.784882926940917969e+01,2.808926963806152344e+01,-3.022401332855224609e+00,6.379866123199462891e+00,1.856939506530761719e+01,7.402055263519287109e+00,-1.483249198645353317e-02
-3.245984315872192383e+00,1.969731152057647705e-01,2.014031261205673218e-01,-7.140074372291564941e-01,-6.478094577789306641e+00,6.546256542205810547e-01,-5.173422813415527344e+00,7.422337532043457031e+00,9.525386810302734375e+00,1.348909187316894531e+01,5.154102325439453125e+00,1.174077510833740234e+01,9.044623374938964844e+00,1.357345390319824219e+01,1.728698730468750000e+01,3.030506324768066406e+01,-7.323067188262939453e-01,8.570683479309082031e+00,2.204965019226074219e+01,8.336891174316406250e+00,-8.258226327598094940e-03
-9.413615465164184570e-01,1.890385627746582031e+00,3.554846525192260742e+00,1.525039792060852051e+00,-4.093606948852539062e+00,2.566798448562622070e+00,-2.382477521896362305e+00,8.533384323120117188e+00,1.205195331573486328e+01,1.566067981719970703e+01,5.111166000366210938e+00,1.190216636657714844e+01,9.896546363830566406e+00,1.577256202697753906e+01,1.623284721374511719e+01,3.200312805175781250e+01,2.018302679061889648e+00,1.125620269775390625e+01,2.500994682312011719e+01,8.638871192932128906e+00,-1.550607848912477493e-03
1.596764564514160156e+00,4.134949684143066406e+00,7.118045806884765625e+00,4.161036968231201172e+00,-1.364539980888366699e+00,4.843690872192382812e+00,4.479792416095733643e-01,9.564745903015136719e+00,1.448236846923828125e+01,1.780553627014160156e+01,5.160497188568115234e+00,1.187733745574951172e+01,1.046256923675537109e+01,1.728994750976562500e+01,1.475412368774414062e+01,3.306415176391601562e+01,5.039730072021484375e+00,1.413124942779541016e+01,2.720937156677246094e+01,8.349895477294921875e+00,4.023516550660133362e-03
4.192451953887939453e+00,6.604107379913330078e+00,1.063345336914062500e+01,6.917360305786132812e+00,1.428848266601562500e+00,7.188317298889160156e+00,2.874940156936645508e+00,1.029899311065673828e+01,1.666870689392089844e+01,1.966577339172363281e+01,5.239975452423095703e+00,1.157110691070556641e+01,1.068637943267822266e+01,1.792568969726562500e+01,1.288192749023437500e+01,3.328786087036132812e+01,8.089860916137695312e+00,1.684889030456542969e+01,2.839141082763671875e+01,7.605782985687255859e+00,7.557351142168045044e-03
6.704512596130371094e+00,8.968546867370605469e+00,1.388069057464599609e+01,9.519865036010742188e+00,4.052244186401367188e+00,9.294572830200195312e+00,4.553578376770019531e+00,1.050162315368652344e+01,1.852665138244628906e+01,2.096935462951660156e+01,5.297528266906738281e+00,1.084415626525878906e+01,1.050011157989501953e+01,1.750386047363281250e+01,1.062174987792968750e+01,3.242071914672851562e+01,1.093781566619873047e+01,1.909431838989257812e+01,2.831168365478515625e+01,6.543075084686279297e+00,8.890873752534389496e-03
9.055835723876953125e+00,1.104638767242431641e+01,1.668584823608398438e+01,1.176263332366943359e+01,6.340249538421630859e+00,1.094623184204101562e+01,5.334228515625000000e+00,9.988219261169433594e+00,1.999111366271972656e+01,2.148198127746582031e+01,5.298441886901855469e+00,9.598545074462890625e+00,9.840232849121093750e+00,1.589851093292236328e+01,7.980910301208496094e+00,3.026671218872070312e+01,1.340263080596923828e+01,2.062018203735351562e+01,2.681073760986328125e+01,5.286030769348144531e+00,8.570828475058078766e-03
1.117039775848388672e+01,1.280318260192871094e+01,1.889757919311523438e+01,1.350673294067382812e+01,8.161159515380859375e+00,1.200782680511474609e+01,5.283941268920898438e+00,8.674542427062988281e+00,2.094966888427734375e+01,2.104326248168945312e+01,5.216223239898681641e+00,7.816341400146484375e+00,8.654760360717773438e+00,1.305766296386718750e+01,5.001501560211181641e+00,2.674061965942382812e+01,1.535201930999755859e+01,2.125943756103515625e+01,2.386950492858886719e+01,3.948796033859252930e+00,7.770714815706014633e-03
1.291135501861572266e+01,1.426373386383056641e+01,2.034064865112304688e+01,1.464920520782470703e+01,9.383266448974609375e+00,1.240771579742431641e+01,4.617035865783691406e+00,6.636863708496093750e+00,2.123368644714355469e+01,1.960444641113281250e+01,5.034428596496582031e+00,5.613416671752929688e+00,6.955246448516845703e+00,9.067279815673828125e+00,1.796990156173706055e+00,2.198944854736328125e+01,1.666991615295410156e+01,2.093017196655273438e+01,1.967170715332031250e+01,2.635401487350463867e+00,7.930737920105457306e-03
1.404954719543457031e+01,1.541701793670654297e+01,2.087433242797851562e+01,1.512182426452636719e+01,9.867208480834960938e+00,1.215631961822509766e+01,3.594527482986450195e+00,4.101718425750732422e+00,2.070115470886230469e+01,1.725674247741699219e+01,4.786858558654785156e+00,3.225650548934936523e+00,4.861537933349609375e+00,4.185259342193603516e+00,-1.420331954956054688e+00,1.637965583801269531e+01,1.725772857666015625e+01,1.966290283203125000e+01,1.461424541473388672e+01,1.473719358444213867e+00,9.997697547078132629e-03
1.430911636352539062e+01,1.615142631530761719e+01,2.042428588867187500e+01,1.488613510131835938e+01,9.495063781738281250e+00,1.135133075714111328e+01,2.431932926177978516e+00,1.399233102798461914e+00,1.931065559387207031e+01,1.424230670928955078e+01,4.555732727050781250e+00,9.206490516662597656e-01,2.608996391296386719e+00,-1.168570518493652344e+00,-4.364968776702880859e+00,1.045241069793701172e+01,1.703807830810546875e+01,1.760861015319824219e+01,9.241341590881347656e+00,5.901762843132019043e-01,1.413161773234605789e-02
1.345004177093505859e+01,1.624787902832031250e+01,1.900245857238769531e+01,1.392725276947021484e+01,8.181068420410156250e+00,1.013082313537597656e+01,1.247786760330200195e+00,-1.158679485321044922e+00,1.717609214782714844e+01,1.089293575286865234e+01,4.457983970642089844e+00,-1.094675302505493164e+00,4.950725436210632324e-01,-6.496410846710205078e+00,-6.740443229675292969e+00,4.755266666412353516e+00,1.596479129791259766e+01,1.500982475280761719e+01,4.126683712005615234e+00,5.123668909072875977e-02,1.949237845838069916e-02
1.140064334869384766e+01,1.548315620422363281e+01,1.673231315612792969e+01,1.227370643615722656e+01,5.958915710449218750e+00,8.648498535156250000e+00,7.800837606191635132e-02,-3.367113113403320312e+00,1.457260322570800781e+01,7.554571151733398438e+00,4.608717918395996094e+00,-2.714107751846313477e+00,-1.201553463935852051e+00,-1.131245899200439453e+01,-8.321652412414550781e+00,-2.430509626865386963e-01,1.404909896850585938e+01,1.216208267211914062e+01,-2.652320265769958496e-01,-1.756092011928558350e-01,2.479979768395423889e-02
8.328174591064453125e+00,1.374013996124267578e+01,1.383157062530517578e+01,1.000116729736328125e+01,3.027695655822753906e+00,7.032008647918701172e+00,-1.069020986557006836e+00,-5.163457870483398438e+00,1.181675148010253906e+01,4.488244533538818359e+00,5.060007572174072266e+00,-3.926613092422485352e+00,-2.309053182601928711e+00,-1.524486446380615234e+01,-9.009771347045898438e+00,-4.242131233215332031e+00,1.139833068847656250e+01,9.325584411621093750e+00,-3.676159381866455078e+00,-2.095638513565063477e-01,2.878702990710735321e-02
4.646425724029541016e+00,1.107945632934570312e+01,1.056972980499267578e+01,7.228717803955078125e+00,-2.435091584920883179e-01,5.321734428405761719e+00,-2.166960477828979492e+00,-6.604631423950195312e+00,9.202908515930175781e+00,1.818182110786437988e+00,5.783532619476318359e+00,-4.759779453277587891e+00,-2.797103881835937500e+00,-1.809171104431152344e+01,-8.845062255859375000e+00,-7.094964504241943359e+00,8.199686050415039062e+00,6.659339904785156250e+00,-6.066235065460205078e+00,-2.059516459703445435e-01,3.084065392613410950e-02
8.929966092109680176e-01,7.789083003997802734e+00,7.209648609161376953e+00,4.126304149627685547e+00,-3.459581136703491211e+00,3.520279884338378906e+00,-3.148760080337524414e+00,-7.773735523223876953e+00,6.911543369293212891e+00,-4.713415503501892090e-01,6.666926860809326172e+00,-5.214985847473144531e+00,-2.763893127441406250e+00,-1.982300949096679688e+01,-7.961122035980224609e+00,-8.739764213562011719e+00,4.709007740020751953e+00,4.185835838317871094e+00,-7.551582813262939453e+00,-2.955341041088104248e-01,3.126738220453262329e-02
-2.389081716537475586e+00,4.330608367919921875e+00,3.995599985122680664e+00,9.333359003067016602e-01,-6.260626792907714844e+00,1.644578933715820312e+00,-3.917437553405761719e+00,-8.687845230102539062e+00,5.028452396392822266e+00,-2.458950042724609375e+00,7.574073791503906250e+00,-5.228780269622802734e+00,-2.350927352905273438e+00,-2.052872276306152344e+01,-6.526320934295654297e+00,-9.165878295898437500e+00,1.222073674201965332e+00,1.848856687545776367e+00,-8.303789138793945312e+00,-5.476653575897216797e-01,3.113402985036373138e-02
-4.748007774353027344e+00,1.244160652160644531e+00,1.181150197982788086e+00,-2.054954767227172852e+00,-8.326570510864257812e+00,-1.985577791929244995e-01,-4.341287612915039062e+00,-9.268412590026855469e+00,3.596534013748168945e+00,-4.207541942596435547e+00,8.401741981506347656e+00,-4.733570575714111328e+00,-1.675164699554443359e+00,-2.036678886413574219e+01,-4.698047637939453125e+00,-8.405264854431152344e+00,-1.949114441871643066e+00,-4.062078893184661865e-01,-8.468442916870117188e+00,-9.710147380828857422e-01,3.164076805114746094e-02
-5.922040462493896484e+00,-9.811128973960876465e-01,-1.010668873786926270e+00,-4.516046047210693359e+00,-9.485887527465820312e+00,-1.770759820938110352e+00,-4.343682289123535156e+00,-9.390217781066894531e+00,2.645373344421386719e+00,-5.710828304290771484e+00,9.106082916259765625e+00,-3.722459793090820312e+00,-8.261297941207885742e-01,-1.954911994934082031e+01,-2.637350797653198242e+00,-6.607063770294189453e+00,-4.538731098175048828e+00,-2.576145410537719727e+00,-8.172066688537597656e+00,-1.491170883178710938e+00,3.342768922448158264e-02
-5.895974636077880859e+00,-2.064125299453735352e+00,-2.431169509887695312e+00,-6.215488910675048828e+00,-9.718669891357421875e+00,-2.802395343780517578e+00,-3.958146333694458008e+00,-8.962191581726074219e+00,2.182366609573364258e+00,-6.923206329345703125e+00,9.661516189575195312e+00,-2.296145200729370117e+00,1.023216769099235535e-01,-1.832161712646484375e+01,-5.510327219963073730e-01,-4.075946331024169922e+00,-6.399510860443115234e+00,-4.598315238952636719e+00,-7.553316116333007812e+00,-1.928246617317199707e+00,3.624141961336135864e-02
-4.916347026824951172e+00,-2.039323568344116211e+00,-3.073713541030883789e+00,-7.083817481994628906e+00,-9.197972297668457031e+00,-3.131945610046386719e+00,-3.363079786300659180e+00,-8.019622802734375000e+00,2.118758678436279297e+00,-7.789640426635742188e+00,1.001779747009277344e+01,-6.656774878501892090e-01,9.614641666412353516e-01,-1.695816993713378906e+01,1.286391258239746094e+00,-1.280638575553894043e+00,-7.550174236297607422e+00,-6.394014835357666016e+00,-6.811508655548095703e+00,-2.040224552154541016e+00,3.906849026679992676e-02
-3.456680297851562500e+00,-1.215352177619934082e+00,-3.116195917129516602e+00,-7.241357326507568359e+00,-8.257654190063476562e+00,-2.764620780944824219e+00,-2.844641685485839844e+00,-6.723021984100341797e+00,2.271121978759765625e+00,-8.313274383544921875e+00,1.007535076141357422e+01,9.137519598007202148e-01,1.569361686706542969e+00,-1.571267509460449219e+01,2.576614379882812500e+00,1.250478625297546387e+00,-8.171682357788085938e+00,-7.903815746307373047e+00,-6.187558650970458984e+00,-1.636381149291992188e+00,4.072205722332000732e-02
-2.118652343750000000e+00,-7.998044788837432861e-02,-2.881215810775756836e+00,-6.956049442291259766e+00,-7.354091167449951172e+00,-1.898411750793457031e+00,-2.710542201995849609e+00,-5.315999031066894531e+00,2.353960037231445312e+00,-8.566442489624023438e+00,9.703538894653320312e+00,2.232472181320190430e+00,1.754185557365417480e+00,-1.476106071472167969e+01,3.081722974777221680e+00,3.061463117599487305e+00,-8.536100387573242188e+00,-9.127717971801757812e+00,-5.896381855010986328e+00,-6.762595176696777344e-01,4.049535840749740601e-02
-1.464843273162841797e+00,8.859122991561889648e-01,-2.741820812225341797e+00,-6.542973041534423828e+00,-6.896183967590332031e+00,-8.433299660682678223e-01,-3.163127899169921875e+00,-4.031919956207275391e+00,2.099528312683105469e+00,-8.665509223937988281e+00,8.809182167053222656e+00,3.192544460296630859e+00,1.443739175796508789e+00,-1.416930007934570312e+01,2.721192598342895508e+00,3.930735826492309570e+00,-8.919239044189453125e+00,-1.011230182647705078e+01,-6.040236949920654297e+00,7.187704443931579590e-01,3.864176198840141296e-02
-1.827587842941284180e+00,1.392971515655517578e+00,-2.971490621566772461e+00,-6.226653099060058594e+00,-7.086085319519042969e+00,1.296898871660232544e-01,-4.168873786926269531e+00,-2.997143745422363281e+00,1.349546313285827637e+00,-8.706393241882324219e+00,7.426993370056152344e+00,3.828454494476318359e+00,7.347660660743713379e-01,-1.386542320251464844e+01,1.645091533660888672e+00,3.947780370712280273e+00,-9.457130432128906250e+00,-1.089129447937011719e+01,-6.537663936614990234e+00,2.276349306106567383e+00,3.632143139839172363e-02
-3.201455831527709961e+00,1.409506082534790039e+00,-3.647224187850952148e+00,-6.093923091888427734e+00,-7.836502075195312500e+00,8.786676526069641113e-01,-5.452397346496582031e+00,-2.220776796340942383e+00,1.262027323246002197e-01,-8.728407859802246094e+00,5.743336677551269531e+00,4.243658065795898438e+00,-1.359279304742813110e-01,-1.370348930358886719e+01,1.864990144968032837e-01,3.451357603073120117e+00,-1.015102291107177734e+01,-1.147915363311767578e+01,-7.156414508819580078e+00,3.679326057434082031e+00,3.514793142676353455e-02
-5.269317150115966797e+00,1.128418922424316406e+00,-4.652194976806640625e+00,-6.088961124420166016e+00,-8.835016250610351562e+00,1.423141956329345703e+00,-6.557520866394042969e+00,-1.618580102920532227e+00,-1.388553977012634277e+00,-8.706393241882324219e+00,4.048717021942138672e+00,4.556785106658935547e+00,-8.781115412712097168e-01,-1.350956821441650391e+01,-1.222680807113647461e+00,2.910192728042602539e+00,-1.087861156463623047e+01,-1.185820960998535156e+01,-7.600112438201904297e+00,4.695797920227050781e+00,3.641477972269058228e-02
-7.539186000823974609e+00,8.514653444290161133e-01,-5.744785785675048828e+00,-6.083999156951904297e+00,-9.694166183471679688e+00,1.893369793891906738e+00,-7.043631553649902344e+00,-1.076717019081115723e+00,-2.934375047683715820e+00,-8.558580398559570312e+00,2.647344589233398438e+00,4.861635684967041016e+00,-1.241983652114868164e+00,-1.313571929931640625e+01,-2.181655168533325195e+00,2.752530574798583984e+00,-1.147016716003417969e+01,-1.199152183532714844e+01,-7.605311870574951172e+00,5.260745525360107422e+00,4.064204543828964233e-02
-9.574465751647949219e+00,8.018617033958435059e-01,-6.704619407653808594e+00,-5.999647617340087891e+00,-1.015054225921630859e+01,2.392254114151000977e+00,-6.691620349884033203e+00,-5.246086120605468750e-01,-4.287892818450927734e+00,-8.206346511840820312e+00,1.731062531471252441e+00,5.202351093292236328e+00,-1.122136831283569336e+00,-1.249797821044921875e+01,-2.434209346771240234e+00,3.261736869812011719e+00,-1.183333683013916016e+01,-1.187748336791992188e+01,-7.036824226379394531e+00,5.485424041748046875e+00,4.732299223542213440e-02
-1.114599704742431641e+01,1.019566535949707031e+00,-7.445403575897216797e+00,-5.875600337982177734e+00,-1.018270301818847656e+01,2.911979675292968750e+00,-5.616429805755615234e+00,3.319168090820312500e-02,-5.336684703826904297e+00,-7.637110233306884766e+00,1.332758426666259766e+00,5.581690311431884766e+00,-5.777726173400878906e-01,-1.159434413909912109e+01,-1.927270650863647461e+00,4.510251045227050781e+00,-1.202428245544433594e+01,-1.158194828033447266e+01,-5.927579402923583984e+00,5.585843086242675781e+00,5.525745078921318054e-02
-1.226355457305908203e+01,1.362658262252807617e+00,-8.037500381469726562e+00,-5.861955165863037109e+00,-9.991270065307617188e+00,3.336617469787597656e+00,-4.221555709838867188e+00,5.465956330299377441e-01,-6.092583656311035156e+00,-6.896474361419677734e+00,1.340066790580749512e+00,6.006549835205078125e+00,2.062851339578628540e-01,-1.047879695892333984e+01,-7.761355042457580566e-01,6.400066375732421875e+00,-1.221647548675537109e+01,-1.122537803649902344e+01,-4.433565616607666016e+00,5.764285564422607422e+00,6.301855295896530151e-02
-1.304877662658691406e+01,1.625833034515380859e+00,-8.616320610046386719e+00,-6.124934673309326172e+00,-9.821277618408203125e+00,3.522884845733642578e+00,-3.003884792327880859e+00,9.757602810859680176e-01,-6.635469913482666016e+00,-6.077215194702148438e+00,1.562057375907897949e+00,6.503139019012451172e+00,9.975625872611999512e-01,-9.241297721862792969e+00,7.940934300422668457e-01,8.718127250671386719e+00,-1.261209392547607422e+01,-1.093305492401123047e+01,-2.781830787658691406e+00,6.141398906707763672e+00,6.959281861782073975e-02
-1.358963584899902344e+01,1.653390526771545410e+00,-9.289399147033691406e+00,-6.758814811706542969e+00,-9.779928207397460938e+00,3.386115074157714844e+00,-2.326203584671020508e+00,1.328654289245605469e+00,-7.071850299835205078e+00,-5.283114910125732422e+00,1.825157284736633301e+00,7.122496128082275391e+00,1.583801031112670898e+00,-7.987806320190429688e+00,2.514390707015991211e+00,1.120237159729003906e+01,-1.333469104766845703e+01,-1.079010581970214844e+01,-1.194224476814270020e+00,6.712125778198242188e+00,7.455352693796157837e-02
-1.389481830596923828e+01,1.370925545692443848e+00,-1.009523487091064453e+01,-7.771037578582763672e+00,-9.807495117187500000e+00,2.888533353805541992e+00,-2.313033103942871094e+00,1.638290405273437500e+00,-7.528939723968505859e+00,-4.622675418853759766e+00,2.006038427352905273e+00,7.885312080383300781e+00,1.793171882629394531e+00,-6.858263969421386719e+00,4.123051643371582031e+00,1.356091213226318359e+01,-1.441421794891357422e+01,-1.083347225189208984e+01,1.212704032659530640e-01,7.379659652709960938e+00,7.807402312755584717e-02
-1.394586372375488281e+01,7.467465996742248535e-01,-1.103249931335449219e+01,-9.103302001953125000e+00,-9.737047195434570312e+00,2.049678087234497070e+00,-2.847036361694335938e+00,1.918328881263732910e+00,-8.167977333068847656e+00,-4.210687160491943359e+00,2.050801992416381836e+00,8.740549087524414062e+00,1.495720863342285156e+00,-6.024601936340332031e+00,5.380332946777343750e+00,1.549120903015136719e+01,-1.580449867248535156e+01,-1.106797313690185547e+01,9.722690582275390625e-01,8.017573356628417969e+00,8.052770793437957764e-02
-1.380902004241943359e+01,-2.577267587184906006e-01,-1.211579704284667969e+01,-1.067745780944824219e+01,-9.439943313598632812e+00,9.229550361633300781e-01,-3.686355352401733398e+00,2.136895656585693359e+00,-9.164995193481445312e+00,-4.146215438842773438e+00,1.966756224632263184e+00,9.564059257507324219e+00,6.062557101249694824e-01,-5.644755840301513672e+00,6.112374305725097656e+00,1.672267913818359375e+01,-1.744063758850097656e+01,-1.147594070434570312e+01,1.194118022918701172e+00,8.533394813537597656e+00,8.220794051885604858e-02
-1.372213459014892578e+01,-1.751346945762634277e+00,-1.345000553131103516e+01,-1.247241687774658203e+01,-9.015728950500488281e+00,-5.111746191978454590e-01,-4.646603107452392578e+00,2.168769836425781250e+00,-1.071229553222656250e+01,-4.537761688232421875e+00,1.773085474967956543e+00,1.018341636657714844e+01,-9.156538844108581543e-01,-5.832679748535156250e+00,6.218520641326904297e+00,1.707635307312011719e+01,-1.930765724182128906e+01,-1.206861782073974609e+01,6.689599752426147461e-01,8.899671554565429688e+00,8.327475935220718384e-02
-1.403057670593261719e+01,-3.859500885009765625e+00,-1.519974327087402344e+01,-1.451298904418945312e+01,-8.807449340820312500e+00,-2.281367301940917969e+00,-5.684677124023437500e+00,1.851165175437927246e+00,-1.293413639068603516e+01,-5.443507671356201172e+00,1.486233472824096680e+00,1.043860816955566406e+01,-3.033909559249877930e+00,-6.588373661041259766e+00,5.700601100921630859e+00,1.648618507385253906e+01,-2.143051910400390625e+01,-1.286688518524169922e+01,-6.309361457824707031e-01,9.118570327758789062e+00,8.396819233894348145e-02
-1.500260162353515625e+01,-6.572543621063232422e+00,-1.743670082092285156e+01,-1.677064323425292969e+01,-9.191846847534179688e+00,-4.338125705718994141e+00,-6.836495399475097656e+00,1.059999465942382812e+00,-1.576986694335937500e+01,-6.817850589752197266e+00,1.142741799354553223e+00,1.025100803375244141e+01,-5.585346221923828125e+00,-7.757899284362792969e+00,4.681233406066894531e+00,1.506935596466064453e+01,-2.376678848266601562e+01,-1.384825611114501953e+01,-2.579046964645385742e+00,9.165529251098632812e+00,8.460828661918640137e-02
-1.664689826965332031e+01,-9.631433486938476562e+00,-2.004006576538085938e+01,-1.910148429870605469e+01,-1.035882186889648438e+01,-6.525140762329101562e+00,-8.114032745361328125e+00,-2.297713011503219604e-01,-1.896209907531738281e+01,-8.492536544799804688e+00,7.846335768699645996e-01,9.631650924682617188e+00,-8.317275047302246094e+00,-9.075365066528320312e+00,3.363558769226074219e+00,1.308792591094970703e+01,-2.613925170898437500e+01,-1.494045257568359375e+01,-4.915393829345703125e+00,8.991421699523925781e+00,8.570177108049392700e-02
-1.864633941650390625e+01,-1.248226356506347656e+01,-2.263812255859375000e+01,-2.121152305603027344e+01,-1.218892002105712891e+01,-8.554544448852539062e+00,-9.408331871032714844e+00,-1.907725572586059570e+00,-2.212622451782226562e+01,-1.020967960357666016e+01,4.429690539836883545e-01,8.664681434631347656e+00,-1.094235229492187500e+01,-1.023489570617675781e+01,1.959869384765625000e+00,1.085295772552490234e+01,-2.820096206665039062e+01,-1.601980018615722656e+01,-7.296803474426269531e+00,8.554345130920410156e+00,8.790208399295806885e-02
-2.044377136230468750e+01,-1.440991592407226562e+01,-2.470913124084472656e+01,-2.270752906799316406e+01,-1.425180053710937500e+01,-1.007073593139648438e+01,-1.047394371032714844e+01,-3.766680240631103516e+00,-2.487024116516113281e+01,-1.169095039367675781e+01,1.076993420720100403e-01,7.454935073852539062e+00,-1.323243618011474609e+01,-1.100458335876464844e+01,6.019325256347656250e-01,8.615859031677246094e+00,-2.950013732910156250e+01,-1.695137977600097656e+01,-9.400901794433593750e+00,7.859359264373779297e+00,9.176930040121078491e-02
-2.144186210632324219e+01,-1.479158782958984375e+01,-2.571675872802734375e+01,-2.322976684570312500e+01,-1.594559764862060547e+01,-1.077542686462402344e+01,-1.103069591522216797e+01,-5.566440105438232422e+00,-2.690865516662597656e+01,-1.273035717010498047e+01,-2.787286937236785889e-01,6.042414665222167969e+00,-1.508356380462646484e+01,-1.129046726226806641e+01,-7.102517485618591309e-01,6.478897571563720703e+00,-2.960996246337890625e+01,-1.762757682800292969e+01,-1.101970577239990234e+01,6.985207557678222656e+00,9.758345782756805420e-02
-2.125723075866699219e+01,-1.338064002990722656e+01,-2.531981468200683594e+01,-2.260208892822265625e+01,-1.676186752319335938e+01,-1.055008220672607422e+01,-1.090976715087890625e+01,-7.130557537078857422e+00,-2.812903976440429688e+01,-1.325241851806640625e+01,-8.241129517555236816e-01,4.388496875762939453e+00,-1.652750015258789062e+01,-1.116651725769042969e+01,-2.104790687561035156e+00,4.361111164093017578e+00,-2.829830551147460938e+01,-1.798896598815917969e+01,-1.209775257110595703e+01,6.114668369293212891e+00,1.051311939954757690e-01
-1.989748191833496094e+01,-1.044300365447998047e+01,-2.349838829040527344e+01,-2.090884780883789062e+01,-1.652908515930175781e+01,-9.491092681884765625e+00,-1.016503620147705078e+01,-8.378209114074707031e+00,-2.855506515502929688e+01,-1.330745506286621094e+01,-1.639905452728271484e+00,2.417313575744628906e+00,-1.767109870910644531e+01,-1.080266475677490234e+01,-3.757374286651611328e+00,2.115490198135375977e+00,-2.563380813598632812e+01,-1.805321311950683594e+01,-1.269223880767822266e+01,5.486868858337402344e+00,1.137590855360031128e-01
-1.769169044494628906e+01,-6.685529232025146484e+00,-2.052330207824707031e+01,-1.847380828857421875e+01,-1.538661384582519531e+01,-7.903259754180908203e+00,-9.027585029602050781e+00,-9.331022262573242188e+00,-2.826808929443359375e+01,-1.301811981201171875e+01,-2.761734485626220703e+00,7.230920344591140747e-02,-1.860532569885253906e+01,-1.037683773040771484e+01,-5.777808666229248047e+00,-3.708851635456085205e-01,-2.196466636657714844e+01,-1.781871223449707031e+01,-1.290022182464599609e+01,5.245573997497558594e+00,1.225603371858596802e-01
-1.515030574798583984e+01,-2.987303733825683594e+00,-1.683663749694824219e+01,-1.573361015319824219e+01,-1.366984462738037109e+01,-6.179959774017333984e+00,-7.763218879699707031e+00,-1.006413173675537109e+01,-2.731692886352539062e+01,-1.248976802825927734e+01,-4.104640483856201172e+00,-2.628584146499633789e+00,-1.932729339599609375e+01,-9.982997894287109375e+00,-8.147792816162109375e+00,-3.104406595230102539e+00,-1.778633499145507812e+01,-1.727743148803710938e+01,-1.278063201904296875e+01,5.379225254058837891e+00,1.306281536817550659e-01
-1.274793720245361328e+01,-4.691136255860328674e-02,-1.286852931976318359e+01,-1.305667781829833984e+01,-1.171110343933105469e+01,-4.620783329010009766e+00,-6.508430957794189453e+00,-1.062534713745117188e+01,-2.568826866149902344e+01,-1.174598693847656250e+01,-5.470385074615478516e+00,-5.552942752838134766e+00,-1.972870826721191406e+01,-9.589157104492187500e+00,-1.069895744323730469e+01,-5.944456577301025391e+00,-1.356058025360107422e+01,-1.632497215270996094e+01,-1.232480144500732422e+01,5.696376323699951172e+00,1.372557580471038818e-01
-1.073112106323242188e+01,1.882118344306945801e+00,-8.893783569335937500e+00,-1.060426998138427734e+01,-9.666600227355957031e+00,-3.333843946456909180e+00,-5.196171760559082031e+00,-1.098279476165771484e+01,-2.333181571960449219e+01,-1.071758842468261719e+01,-6.616879463195800781e+00,-8.469024658203125000e+00,-1.964929199218750000e+01,-9.061370849609375000e+00,-1.318423748016357422e+01,-8.656672477722167969e+00,-9.546986579895019531e+00,-1.481356525421142578e+01,-1.148940181732177734e+01,5.897214412689208984e+00,1.421097815036773682e-01
-9.058586120605468750e+00,3.036780357360839844e+00,-4.990725517272949219e+00,-8.288313865661621094e+00,-7.476608276367187500e+00,-2.183674573898315430e+00,-3.614516258239746094e+00,-1.102491378784179688e+01,-2.022538185119628906e+01,-9.272483825683593750e+00,-7.348626136779785156e+00,-1.112991523742675781e+01,-1.896342277526855469e+01,-8.263694763183593750e+00,-1.536938190460205078e+01,-1.101521301269531250e+01,-5.754290580749511719e+00,-1.258259296417236328e+01,-1.024670124053955078e+01,5.733220577239990234e+00,1.452568918466567993e-01
-7.467505931854248047e+00,3.948935985565185547e+00,-1.085012793540954590e+00,-5.886764526367187500e+00,-4.960414886474609375e+00,-9.266944527626037598e-01,-1.540763854980468750e+00,-1.061965465545654297e+01,-1.645032501220703125e+01,-7.333622455596923828e+00,-7.600763320922851562e+00,-1.334249496459960938e+01,-1.767543029785156250e+01,-7.146147251129150391e+00,-1.712262153625488281e+01,-1.288585376739501953e+01,-2.038970947265625000e+00,-9.579052925109863281e+00,-8.672960281372070312e+00,5.091694831848144531e+00,1.471371501684188843e-01
-5.594049453735351562e+00,5.149067878723144531e+00,2.913629770278930664e+00,-3.165174961090087891e+00,-1.975593686103820801e+00,6.520205140113830566e-01,1.114884614944458008e+00,-9.705545425415039062e+00,-1.221817684173583984e+01,-4.934025764465332031e+00,-7.441807270050048828e+00,-1.502262210845947266e+01,-1.593115425109863281e+01,-5.784699440002441406e+00,-1.843480491638183594e+01,-1.427498531341552734e+01,1.768701195716857910e+00,-5.921800136566162109e+00,-6.962296485900878906e+00,4.075945377349853516e+00,1.484840065240859985e-01
-3.148238897323608398e+00,6.945821285247802734e+00,7.042374610900878906e+00,-2.802788838744163513e-02,1.454883217811584473e+00,2.620203971862792969e+00,4.237486362457275391e+00,-8.350888252258300781e+00,-7.829228401184082031e+00,-2.241948366165161133e+00,-7.032540798187255859e+00,-1.618132972717285156e+01,-1.395729255676269531e+01,-4.351280212402343750e+00,-1.936449813842773438e+01,-1.527635383605957031e+01,5.723638534545898438e+00,-1.899947285652160645e+00,-5.360824584960937500e+00,2.935936212539672852e+00,1.501242518424987793e-01
-3.884429112076759338e-02,9.339196205139160156e+00,1.120563602447509766e+01,3.424198389053344727e+00,5.081387519836425781e+00,4.865834712982177734e+00,7.545672416687011719e+00,-6.754896163940429688e+00,-3.602998018264770508e+00,4.894407093524932861e-01,-6.527352333068847656e+00,-1.688759040832519531e+01,-1.197332286834716797e+01,-3.017820835113525391e+00,-1.996294212341308594e+01,-1.597731113433837891e+01,9.717264175415039062e+00,2.076933145523071289e+00,-4.076527595520019531e+00,1.949084401130676270e+00,1.528046280145645142e-01
3.588601589202880859e+00,1.212940025329589844e+01,1.520826148986816406e+01,6.945890903472900391e+00,8.527178764343261719e+00,7.168778419494628906e+00,1.073412704467773438e+01,-5.181671619415283203e+00,1.927691847085952759e-01,3.005400657653808594e+00,-6.009374141693115234e+00,-1.720761489868164062e+01,-1.011642074584960938e+01,-1.888278841972351074e+00,-2.021000480651855469e+01,-1.640129470825195312e+01,1.350621604919433594e+01,5.597660541534423828e+00,-3.201263904571533203e+00,1.318395018577575684e+00,1.568185240030288696e-01
7.395247459411621094e+00,1.506565856933593750e+01,1.881128883361816406e+01,1.023933696746826172e+01,1.144002151489257812e+01,9.344070434570312500e+00,1.359691143035888672e+01,-3.844089269638061523e+00,3.377604246139526367e+00,5.128242015838623047e+00,-5.476779460906982422e+00,-1.717450904846191406e+01,-8.425570487976074219e+00,-9.426621198654174805e-01,-2.002516555786132812e+01,-1.648864746093750000e+01,1.681842803955078125e+01,8.344213485717773438e+00,-2.672639608383178711e+00,1.102385640144348145e+00,1.620859503746032715e-01
1.094123935699462891e+01,1.793026733398437500e+01,2.176380538940429688e+01,1.302791213989257812e+01,1.358713245391845703e+01,1.128489971160888672e+01,1.604781913757324219e+01,-2.828665256500244141e+00,5.818374633789062500e+00,6.773050785064697266e+00,-4.914951801300048828e+00,-1.678965187072753906e+01,-6.893552780151367188e+00,-7.301465421915054321e-02,-1.932789611816406250e+01,-1.614136505126953125e+01,1.942426872253417969e+01,1.013509464263916016e+01,-2.343332529067993164e+00,1.218698382377624512e+00,1.680867969989776611e-01
1.377368736267089844e+01,2.051103401184082031e+01,2.381490135192871094e+01,1.506476306915283203e+01,1.487968635559082031e+01,1.290399456024169922e+01,1.801500892639160156e+01,-2.095556259155273438e+00,7.378987789154052734e+00,7.902087688446044922e+00,-4.377789020538330078e+00,-1.606546020507812500e+01,-5.559355258941650391e+00,8.266206383705139160e-01,-1.815113830566406250e+01,-1.534666252136230469e+01,2.114402389526367188e+01,1.089160156250000000e+01,-2.088552951812744141e+00,1.528624773025512695e+00,1.741409897804260254e-01
1.553093528747558594e+01,2.251860237121582031e+01,2.473756408691406250e+01,1.613776969909667969e+01,1.533912563323974609e+01,1.407500553131103516e+01,1.935600471496582031e+01,-1.537755966186523438e+00,7.907082080841064453e+00,8.488620758056640625e+00,-3.993188381195068359e+00,-1.506952190399169922e+01,-4.522608280181884766e+00,1.786231637001037598e+00,-1.665594482421875000e+01,-1.420254611968994141e+01,2.185788536071777344e+01,1.061373424530029297e+01,-1.870170354843139648e+00,1.894901394844055176e+00,1.796084344387054443e-01
1.600662994384765625e+01,2.356441307067871094e+01,2.437248039245605469e+01,1.606334114074707031e+01,1.502670764923095703e+01,1.456867885589599609e+01,1.982295799255371094e+01,-1.080132126808166504e+00,7.299108505249023438e+00,8.493338584899902344e+00,-3.912796735763549805e+00,-1.391909027099609375e+01,-3.914710998535156250e+00,2.751840353012084961e+00,-1.508937549591064453e+01,-1.290289878845214844e+01,2.148098564147949219e+01,9.375375747680664062e+00,-1.747113585472106934e+00,2.238059997558593750e+00,1.840757280588150024e-01
1.516167449951171875e+01,2.325025558471679688e+01,2.268779373168945312e+01,1.473107624053955078e+01,1.403431892395019531e+01,1.407630729675292969e+01,1.916323661804199219e+01,-7.420368790626525879e-01,5.577255725860595703e+00,7.884790897369384766e+00,-4.214265346527099609e+00,-1.274382972717285156e+01,-3.802083969116210938e+00,3.625486135482788086e+00,-1.366189479827880859e+01,-1.163520908355712891e+01,1.997963333129882812e+01,7.293777465820312500e+00,-1.804309010505676270e+00,2.540761947631835938e+00,1.873961985111236572e-01
1.312639522552490234e+01,2.131709289550781250e+01,1.981360435485839844e+01,1.215462207794189453e+01,1.249673080444335938e+01,1.231393051147460938e+01,1.728584480285644531e+01,-6.441372036933898926e-01,2.947141170501708984e+00,6.684992313385009766e+00,-4.808980941772460938e+00,-1.163753890991210938e+01,-4.108198642730712891e+00,4.351191997528076172e+00,-1.243938541412353516e+01,-1.046765708923339844e+01,1.739875221252441406e+01,4.582560539245605469e+00,-2.064288139343261719e+00,2.834794759750366211e+00,1.895431727170944214e-01
1.015167236328125000e+01,1.780901527404785156e+01,1.604330253601074219e+01,8.516324996948242188e+00,1.060843658447265625e+01,9.187762260437011719e+00,1.438354873657226562e+01,-9.298675656318664551e-01,-2.110673189163208008e-01,4.983574390411376953e+00,-5.441151618957519531e+00,-1.063470458984375000e+01,-4.597692966461181641e+00,4.960944652557373047e+00,-1.131753253936767578e+01,-9.327801704406738281e+00,1.389060211181640625e+01,1.517985343933105469e+00,-2.447324275970458984e+00,3.135329484939575195e+00,1.907433420419692993e-01
6.583959579467773438e+00,1.313938522338867188e+01,1.183224964141845703e+01,4.199491500854492188e+00,8.663478851318359375e+00,4.962224960327148438e+00,1.097239303588867188e+01,-1.649316072463989258e+00,-3.384068489074707031e+00,2.970806360244750977e+00,-5.742619991302490234e+00,-9.711876869201660156e+00,-4.929798603057861328e+00,5.578694343566894531e+00,-1.006757164001464844e+01,-8.030284881591796875e+00,9.743472099304199219e+00,-1.581925272941589355e+00,-2.766232013702392578e+00,3.405521631240844727e+00,1.910900622606277466e-01
2.828358411788940430e+00,7.983364105224609375e+00,7.698194503784179688e+00,-2.872859835624694824e-01,7.017156600952148438e+00,2.065415233373641968e-01,7.739637851715087891e+00,-2.697752952575683594e+00,-6.065957069396972656e+00,8.951392769813537598e-01,-5.374463081359863281e+00,-8.835948944091796875e+00,-4.779629230499267578e+00,6.356379032135009766e+00,-8.473550796508789062e+00,-6.385484695434570312e+00,5.350483894348144531e+00,-4.420030117034912109e+00,-2.807828664779663086e+00,3.563013315200805664e+00,1.906766742467880249e-01
-6.893951892852783203e-01,3.073983192443847656e+00,4.119063854217529297e+00,-4.426732063293457031e+00,5.965041160583496094e+00,-4.355058670043945312e+00,5.304296016693115234e+00,-3.833843946456909180e+00,-7.903191089630126953e+00,-1.002838134765625000e+00,-4.174983024597167969e+00,-8.008299827575683594e+00,-3.962360858917236328e+00,7.395957469940185547e+00,-6.432985782623291016e+00,-4.318831443786621094e+00,1.127225160598754883e+00,-6.800375938415527344e+00,-2.433458805084228516e+00,3.510997772216796875e+00,1.896231770515441895e-01
-3.522930145263671875e+00,-9.756013751029968262e-01,1.470560669898986816e+00,-7.788404464721679688e+00,5.712349891662597656e+00,-8.058265686035156250e+00,4.019575119018554688e+00,-4.754783630371093750e+00,-8.749324798583984375e+00,-2.513986587524414062e+00,-2.197165727615356445e+00,-7.270313262939453125e+00,-2.469330072402954102e+00,8.701428413391113281e+00,-3.995287656784057617e+00,-1.915548443794250488e+00,-2.536926269531250000e+00,-8.615349769592285156e+00,-1.611924409866333008e+00,3.163504600524902344e+00,1.881563067436218262e-01
-5.283435821533203125e+00,-3.825053930282592773e+00,-2.428388036787509918e-02,-1.011428451538085938e+01,6.320340633392333984e+00,-1.052012348175048828e+01,3.887870073318481445e+00,-5.228344917297363281e+00,-8.663528442382812500e+00,-3.496783494949340820e+00,3.050242960453033447e-01,-6.686820983886718750e+00,-4.579258859157562256e-01,1.018282794952392578e+01,-1.336147189140319824e+00,6.134381890296936035e-01,-5.353680133819580078e+00,-9.832827568054199219e+00,-4.212195575237274170e-01,2.467073202133178711e+00,1.865960806608200073e-01
-5.737409591674804688e+00,-5.408236026763916016e+00,-3.336078226566314697e-01,-1.133986759185791016e+01,7.684874057769775391e+00,-1.168983078002929688e+01,4.601470947265625000e+00,-5.165734291076660156e+00,-7.851417541503906250e+00,-3.885184764862060547e+00,2.973479032516479492e+00,-6.282652854919433594e+00,1.827826380729675293e+00,1.171620655059814453e+01,1.344954609870910645e+00,3.046549320220947266e+00,-7.169531822204589844e+00,-1.044959735870361328e+01,1.015598893165588379e+00,1.453491091728210449e+00,1.853292435407638550e-01
-4.889195442199707031e+00,-5.862936019897460938e+00,4.005387127399444580e-01,-1.153586196899414062e+01,9.554790496826171875e+00,-1.177840614318847656e+01,5.716172695159912109e+00,-4.631839752197265625e+00,-6.554111003875732422e+00,-3.671328306198120117e+00,5.461052417755126953e+00,-6.001252174377441406e+00,4.152565002441406250e+00,1.321160030364990234e+01,3.912590026855468750e+00,5.266603469848632812e+00,-7.968256950378417969e+00,-1.045280933380126953e+01,2.610138177871704102e+00,2.376259863376617432e-01,1.846091449260711670e-01
-3.037460565567016602e+00,-5.467484951019287109e+00,1.871486902236938477e+00,-1.089329910278320312e+01,1.158551025390625000e+01,-1.114926433563232422e+01,6.818901538848876953e+00,-3.782617568969726562e+00,-5.005331516265869141e+00,-2.910250186920166016e+00,7.514693737030029297e+00,-5.717092990875244141e+00,6.353125095367431641e+00,1.464501953125000000e+01,6.328326702117919922e+00,7.290644645690917969e+00,-7.870912075042724609e+00,-9.837646484375000000e+00,4.331200599670410156e+00,-1.017250776290893555e+00,1.843824386596679688e-01
-7.274073958396911621e-01,-4.595287799835205078e+00,3.645121335983276367e+00,-9.678879737854003906e+00,1.340335655212402344e+01,-1.020359897613525391e+01,7.642655372619628906e+00,-2.783130407333374023e+00,-3.404778003692626953e+00,-1.730893969535827637e+00,9.014728546142578125e+00,-5.297750949859619141e+00,8.350090026855468750e+00,1.604245185852050781e+01,8.625106811523437500e+00,9.223072052001953125e+00,-7.119611263275146484e+00,-8.658716201782226562e+00,6.190918445587158203e+00,-2.137753963470458984e+00,1.841824054718017578e-01
1.364347338676452637e+00,-3.676243066787719727e+00,5.244843959808349609e+00,-8.218847274780273438e+00,1.469744300842285156e+01,-9.330876350402832031e+00,8.085662841796875000e+00,-1.743800640106201172e+00,-1.918127179145812988e+00,-3.156664967536926270e-01,9.970293045043945312e+00,-4.649425983428955078e+00,1.013912773132324219e+01,1.746187782287597656e+01,1.086149311065673828e+01,1.119598007202148438e+01,-6.021364212036132812e+00,-7.046120166778564453e+00,8.204891204833984375e+00,-2.970726251602172852e+00,1.831689327955245972e-01
2.643728017807006836e+00,-3.119580268859863281e+00,6.267073154449462891e+00,-6.839445114135742188e+00,1.528399276733398438e+01,-8.860649108886718750e+00,8.171869277954101562e+00,-7.113009095191955566e-01,-6.814702749252319336e-01,1.129438042640686035e+00,1.050562858581542969e+01,-3.756945133209228516e+00,1.175489330291748047e+01,1.892928314208984375e+01,1.309422016143798828e+01,1.329032993316650391e+01,-4.886925220489501953e+00,-5.195810794830322266e+00,1.034711933135986328e+01,-3.469209194183349609e+00,1.805018931627273560e-01
2.812067508697509766e+00,-3.151271343231201172e+00,6.506035804748535156e+00,-5.790008068084716797e+00,1.515994453430175781e+01,-8.993511199951171875e+00,7.967128276824951172e+00,2.870477139949798584e-01,2.134787589311599731e-01,2.415722608566284180e+00,1.083176231384277344e+01,-2.681001901626586914e+00,1.323348426818847656e+01,2.042667579650878906e+01,1.534524726867675781e+01,1.550612258911132812e+01,-3.923463106155395508e+00,-3.313378095626831055e+00,1.252574539184570312e+01,-3.684496164321899414e+00,1.756345331668853760e-01
1.998607397079467773e+00,-3.688643932342529297e+00,6.028110504150390625e+00,-5.171013832092285156e+00,1.453051280975341797e+01,-9.752909660339355469e+00,7.540883541107177734e+00,1.188635110855102539e+00,7.415726184844970703e-01,3.406381845474243164e+00,1.116794586181640625e+01,-1.529190897941589355e+00,1.457490158081054688e+01,2.186809158325195312e+01,1.758346366882324219e+01,1.774748229980468750e+01,-3.197122335433959961e+00,-1.569075942039489746e+00,1.457958126068115234e+01,-3.727842569351196289e+00,1.683668345212936401e-01
6.562351584434509277e-01,-4.383094787597656250e+00,5.096156120300292969e+00,-4.957653045654296875e+00,1.368974018096923828e+01,-1.100988960266113281e+01,6.936238288879394531e+00,1.836366415023803711e+00,8.806225657463073730e-01,3.991342544555664062e+00,1.165303611755371094e+01,-4.532476663589477539e-01,1.568384552001953125e+01,2.308559799194335938e+01,1.968076324462890625e+01,1.979282951354980469e+01,-2.687935113906860352e+00,-1.106723621487617493e-01,1.627811241149902344e+01,-3.753127813339233398e+00,1.589654982089996338e-01
-6.948255300521850586e-01,-4.818504333496093750e+00,4.000910282135009766e+00,-5.087902545928955078e+00,1.285662460327148438e+01,-1.256385517120361328e+01,6.120865821838378906e+00,1.984354257583618164e+00,5.773754119873046875e-01,4.040089130401611328e+00,1.227607154846191406e+01,3.757803738117218018e-01,1.635960769653320312e+01,2.382529830932617188e+01,2.140654945373535156e+01,2.130340385437011719e+01,-2.392157316207885742e+00,8.851538896560668945e-01,1.733536148071289062e+01,-3.871608018875122070e+00,1.478439271450042725e-01
-1.707034945487976074e+00,-4.737209320068359375e+00,2.918940067291259766e+00,-5.534471511840820312e+00,1.208170413970947266e+01,-1.421942234039306641e+01,5.030110359191894531e+00,1.399233102798461914e+00,-2.687582373619079590e-01,3.411099195480346680e+00,1.288083648681640625e+01,7.882252335548400879e-01,1.635094451904296875e+01,2.380130767822265625e+01,2.246800994873046875e+01,2.189570236206054688e+01,-2.394653320312500000e+00,1.204782009124755859e+00,1.746361732482910156e+01,-4.117959499359130859e+00,1.353621482849121094e-01
-2.335864782333374023e+00,-4.216371536254882812e+00,1.846263051033020020e+00,-6.345738410949707031e+00,1.128534317016601562e+01,-1.582809638977050781e+01,3.643617630004882812e+00,-3.397202491760253906e-02,-1.756888389587402344e+00,1.983291983604431152e+00,1.326178264617919922e+01,6.502838134765625000e-01,1.544992828369140625e+01,2.276572799682617188e+01,2.259428787231445312e+01,2.122457313537597656e+01,-2.855168104171752930e+00,6.329849958419799805e-01,1.646876335144042969e+01,-4.448114395141601562e+00,1.218402311205863953e-01
-2.810473680496215820e+00,-3.673487186431884766e+00,6.248981356620788574e-01,-7.624662399291992188e+00,1.032971096038818359e+01,-1.732735443115234375e+01,2.040410518646240234e+00,-2.227607011795043945e+00,-3.935830354690551758e+00,-2.936518490314483643e-01,1.325264739990234375e+01,-9.873817116022109985e-02,1.357569789886474609e+01,2.060460281372070312e+01,2.164080429077148438e+01,1.910891723632812500e+01,-3.959655284881591797e+00,-9.731863737106323242e-01,1.430746936798095703e+01,-4.754428386688232422e+00,1.075315326452255249e-01
-3.427356719970703125e+00,-3.656952619552612305e+00,-9.124286174774169922e-01,-9.429545402526855469e+00,9.155078887939453125e+00,-1.868593406677246094e+01,4.144543707370758057e-01,-4.882280826568603516e+00,-6.734580039978027344e+00,-3.317521333694458008e+00,1.282236957550048828e+01,-1.392628788948059082e+00,1.083799266815185547e+01,1.741989517211914062e+01,1.967710304260253906e+01,1.565313243865966797e+01,-5.785490989685058594e+00,-3.570365428924560547e+00,1.114785575866699219e+01,-4.940817832946777344e+00,9.284945577383041382e-02
-4.349422931671142578e+00,-4.577375411987304688e+00,-2.828113079071044922e+00,-1.170208549499511719e+01,7.856398105621337891e+00,-1.988299751281738281e+01,-1.006760597229003906e+00,-7.577936172485351562e+00,-9.962313652038574219e+00,-6.830430507659912109e+00,1.205773544311523438e+01,-3.032752513885498047e+00,7.489503383636474609e+00,1.351747608184814453e+01,1.694841766357421875e+01,1.124072170257568359e+01,-8.221602439880371094e+00,-6.901565074920654297e+00,7.333094120025634766e+00,-4.956711769104003906e+00,7.847408205270767212e-02
-5.532144069671630859e+00,-6.489870548248291016e+00,-5.018604755401611328e+00,-1.421403598785400391e+01,6.655731201171875000e+00,-2.085210800170898438e+01,-2.078358888626098633e+00,-9.917282104492187500e+00,-1.333945178985595703e+01,-1.044712257385253906e+01,1.111313343048095703e+01,-4.747364521026611328e+00,3.837786674499511719e+00,9.327175140380859375e+00,1.377867889404296875e+01,6.440547466278076172e+00,-1.097221183776855469e+01,-1.052026939392089844e+01,3.296483278274536133e+00,-4.854125022888183594e+00,6.521886587142944336e-02
-6.778943061828613281e+00,-9.054101943969726562e+00,-7.250250816345214844e+00,-1.660566139221191406e+01,5.793517589569091797e+00,-2.147213172912597656e+01,-2.824287414550781250e+00,-1.163507938385009766e+01,-1.654647636413574219e+01,-1.374303054809570312e+01,1.013107585906982422e+01,-6.257823467254638672e+00,1.557473391294479370e-01,5.300806999206542969e+00,1.045338058471679688e+01,1.829993724822998047e+00,-1.363046836853027344e+01,-1.389644145965576172e+01,-5.390768051147460938e-01,-4.755873680114746094e+00,5.384391918778419495e-02
-7.866090774536132812e+00,-1.168722820281982422e+01,-9.253554344177246094e+00,-1.849365425109863281e+01,5.386148452758789062e+00,-2.162453269958496094e+01,-3.457667827606201172e+00,-1.264936542510986328e+01,-1.930972290039062500e+01,-1.635333824157714844e+01,9.154500961303710938e+00,-7.382046222686767578e+00,-3.387674093246459961e+00,1.790230035781860352e+00,7.095139980316162109e+00,-2.184000253677368164e+00,-1.580699443817138672e+01,-1.657232284545898438e+01,-3.866810798645019531e+00,-4.803554534912109375e+00,4.472262412309646606e-02
-8.648055076599121094e+00,-1.378298091888427734e+01,-1.080548477172851562e+01,-1.955673789978027344e+01,5.392274379730224609e+00,-2.123766899108886719e+01,-4.281421661376953125e+00,-1.303185653686523438e+01,-2.141322326660156250e+01,-1.803746032714843750e+01,8.121285438537597656e+00,-8.075891494750976562e+00,-6.720280647277832031e+00,-1.012633800506591797e+00,3.665525913238525391e+00,-5.460816860198974609e+00,-1.721849060058593750e+01,-1.824595260620117188e+01,-6.534197330474853516e+00,-5.055685520172119141e+00,3.772163018584251404e-02
-9.078135490417480469e+00,-1.491146373748779297e+01,-1.176399040222167969e+01,-1.962000083923339844e+01,5.677126407623291016e+00,-2.035582923889160156e+01,-5.515855312347412109e+00,-1.291460514068603516e+01,-2.272680091857910156e+01,-1.869318199157714844e+01,6.922718524932861328e+00,-8.430400848388671875e+00,-9.808861732482910156e+00,-3.055805444717407227e+00,4.192083328962326050e-02,-8.094202041625976562e+00,-1.771270179748535156e+01,-1.880329513549804688e+01,-8.522171974182128906e+00,-5.422684669494628906e+00,3.216084092855453491e-02
-9.161762237548828125e+00,-1.489492893218994141e+01,-1.205605602264404297e+01,-1.866359901428222656e+01,6.104404449462890625e+00,-1.912099266052246094e+01,-7.146600723266601562e+00,-1.242738342285156250e+01,-2.319720458984375000e+01,-1.834723663330078125e+01,5.483891010284423828e+00,-8.637312889099121094e+00,-1.261731910705566406e+01,-4.385266780853271484e+00,-3.872670888900756836e+00,-1.029934215545654297e+01,-1.725842857360839844e+01,-1.827486419677734375e+01,-9.903528213500976562e+00,-5.702268600463867188e+00,2.702677994966506958e-02
-8.879385948181152344e+00,-1.375266742706298828e+01,-1.163521671295166016e+01,-1.677684593200683594e+01,6.637353420257568359e+00,-1.767774581909179688e+01,-8.904261589050292969e+00,-1.165670776367187500e+01,-2.281703567504882812e+01,-1.710498237609863281e+01,3.831294298171997070e+00,-8.914575576782226562e+00,-1.508211994171142578e+01,-5.084982872009277344e+00,-8.063608169555664062e+00,-1.228503322601318359e+01,-1.588187503814697266e+01,-1.677309417724609375e+01,-1.078225803375244141e+01,-5.679150581359863281e+00,2.135930955410003662e-02
-8.154982566833496094e+00,-1.160593318939208984e+01,-1.046828174591064453e+01,-1.411231708526611328e+01,7.358672618865966797e+00,-1.611856842041015625e+01,-1.035900115966796875e+01,-1.067657375335693359e+01,-2.165730094909667969e+01,-1.513152599334716797e+01,2.093738555908203125e+00,-9.456685066223144531e+00,-1.713539886474609375e+01,-5.254914283752441406e+00,-1.238997268676757812e+01,-1.417910957336425781e+01,-1.365917301177978516e+01,-1.445699501037597656e+01,-1.127621841430664062e+01,-5.258691310882568359e+00,1.447833329439163208e-02
-6.899495601654052734e+00,-8.624204635620117188e+00,-8.571183204650878906e+00,-1.085112285614013672e+01,8.400067329406738281e+00,-1.442522811889648438e+01,-1.110971927642822266e+01,-9.584878921508789062e+00,-1.985408973693847656e+01,-1.261399364471435547e+01,4.584992825984954834e-01,-1.041123962402343750e+01,-1.873961257934570312e+01,-5.017010688781738281e+00,-1.663398361206054688e+01,-1.603696632385253906e+01,-1.073009872436523438e+01,-1.152252006530761719e+01,-1.149980068206787109e+01,-4.568761825561523438e+00,6.223828531801700592e-03
-5.089030742645263672e+00,-5.030697345733642578e+00,-6.024902820587158203e+00,-7.216547966003417969e+00,9.867208480834960938e+00,-1.253259372711181641e+01,-1.095765972137451172e+01,-8.538718223571777344e+00,-1.760266304016113281e+01,-9.777248382568359375e+00,-9.072452187538146973e-01,-1.187617778778076172e+01,-1.992075157165527344e+01,-4.539204120635986328e+00,-2.060530853271484375e+01,-1.791399955749511719e+01,-7.315548419952392578e+00,-8.228261947631835938e+00,-1.157259464263916016e+01,-3.957578182220458984e+00,-3.097493899986147881e-03
-2.860432386398315430e+00,-1.118900775909423828e+00,-3.031231403350830078e+00,-3.476532697677612305e+00,1.173712539672851562e+01,-1.040419387817382812e+01,-9.985438346862792969e+00,-7.742999553680419922e+00,-1.513674640655517578e+01,-6.882322311401367188e+00,-1.934979319572448730e+00,-1.389977836608886719e+01,-2.077123069763183594e+01,-4.049402713775634766e+00,-2.419414138793945312e+01,-1.994017219543457031e+01,-3.725029706954956055e+00,-4.897062778472900391e+00,-1.163672256469726562e+01,-3.826094150543212891e+00,-1.291222032159566879e-02
-4.732689559459686279e-01,2.761204719543457031e+00,1.310418844223022461e-01,8.113341778516769409e-02,1.383063507080078125e+01,-8.105157852172851562e+00,-8.516330718994140625e+00,-7.377583503723144531e+00,-1.267822551727294922e+01,-4.176092624664306641e+00,-2.661244869232177734e+00,-1.643514251708984375e+01,-2.141234016418457031e+01,-3.789508104324340820e+00,-2.738401222229003906e+01,-2.226675415039062500e+01,-2.942559421062469482e-01,-1.863005280494689941e+00,-1.181870841979980469e+01,-4.411270141601562500e+00,-2.263359911739826202e-02
1.764018058776855469e+00,6.229324817657470703e+00,3.164540767669677734e+00,3.189749717712402344e+00,1.587207508087158203e+01,-5.806121826171875000e+00,-6.956227302551269531e+00,-7.533539772033691406e+00,-1.039277648925781250e+01,-1.864554405212402344e+00,-3.192925930023193359e+00,-1.931811904907226562e+01,-2.194804000854492188e+01,-3.937448024749755859e+00,-3.018773078918457031e+01,-2.498110008239746094e+01,2.669762849807739258e+00,5.944368839263916016e-01,-1.219307899475097656e+01,-5.674816131591796875e+00,-3.174155950546264648e-02
3.596204042434692383e+00,8.967168807983398438e+00,5.847560882568359375e+00,5.660764694213867188e+00,1.759190750122070312e+01,-3.746758699417114258e+00,-5.620021820068359375e+00,-8.155088424682617188e+00,-8.369156837463378906e+00,-6.721545755863189697e-02,-3.641474723815917969e+00,-2.223971748352050781e+01,-2.240721130371093750e+01,-4.521211624145507812e+00,-3.257784652709960938e+01,-2.799372673034667969e+01,4.972337722778320312e+00,2.330708026885986328e+00,-1.274076843261718750e+01,-7.282243251800537109e+00,-3.987604752182960510e-02
4.901649951934814453e+00,1.080525875091552734e+01,8.092482566833496094e+00,7.420990467071533203e+00,1.885689544677734375e+01,-2.160228252410888672e+00,-4.609486579895019531e+00,-9.061229705810546875e+00,-6.628073692321777344e+00,1.204916834831237793e+00,-4.058963298797607422e+00,-2.479301452636718750e+01,-2.273642921447753906e+01,-5.396856307983398438e+00,-3.444272232055664062e+01,-3.098717689514160156e+01,6.564795494079589844e+00,3.358657836914062500e+00,-1.334565258026123047e+01,-8.758186340332031250e+00,-4.697038605809211731e-02
5.658635139465332031e+00,1.174083805084228516e+01,9.925857543945312500e+00,8.498958587646484375e+00,1.968541717529296875e+01,-1.224982976913452148e+00,-3.819257497787475586e+00,-1.003794860839843750e+01,-5.165091037750244141e+00,1.999016761779785156e+00,-4.402454853057861328e+00,-2.660142707824707031e+01,-2.282162094116210938e+01,-6.300490379333496094e+00,-3.560117721557617188e+01,-3.348846817016601562e+01,7.509537696838378906e+00,3.808385848999023438e+00,-1.383788013458251953e+01,-9.738535881042480469e+00,-5.309125408530235291e-02
5.916031837463378906e+00,1.193649673461914062e+01,1.143928813934326172e+01,8.996386528015136719e+00,2.023368072509765625e+01,-9.709818363189697266e-01,-3.052974700927734375e+00,-1.090310859680175781e+01,-3.969853162765502930e+00,2.406287670135498047e+00,-4.537659168243408203e+00,-2.743873023986816406e+01,-2.253283500671386719e+01,-6.952226161956787109e+00,-3.586654281616210938e+01,-3.503313064575195312e+01,7.927620410919189453e+00,3.862995624542236328e+00,-1.404759693145751953e+01,-1.010120105743408203e+01,-5.839867517352104187e-02
5.779188156127929688e+00,1.167745590209960938e+01,1.273765277862548828e+01,9.068333625793457031e+00,2.076356697082519531e+01,-1.270572900772094727e+00,-2.146605968475341797e+00,-1.155084037780761719e+01,-2.999462127685546875e+00,2.538375616073608398e+00,-4.310187339782714844e+00,-2.730078887939453125e+01,-2.176321601867675781e+01,-7.134152412414550781e+00,-3.512168884277343750e+01,-3.531862640380859375e+01,7.961316585540771484e+00,3.702378511428833008e+00,-1.384654617309570312e+01,-9.980553627014160156e+00,-6.302599608898162842e-02
5.373001098632812500e+00,1.130267333984375000e+01,1.387007045745849609e+01,8.863656997680664062e+00,2.150173187255859375e+01,-1.869755148887634277e+00,-1.053455948829650879e+00,-1.195609855651855469e+01,-2.181434392929077148e+00,2.499063730239868164e+00,-3.632339477539062500e+00,-2.639175605773925781e+01,-2.047233581542968750e+01,-6.748308658599853516e+00,-3.337211227416992188e+01,-3.430234527587890625e+01,7.735426902770996094e+00,3.463058948516845703e+00,-1.318619918823242188e+01,-9.678573608398437500e+00,-6.709323823451995850e-02
4.831056118011474609e+00,1.108772373199462891e+01,1.479804229736328125e+01,8.505161285400390625e+00,2.252474975585937500e+01,-2.488476037979125977e+00,1.103359311819076538e-01,-1.213368415832519531e+01,-1.444765686988830566e+00,2.379555702209472656e+00,-2.535176038742065430e+00,-2.501371955871582031e+01,-1.869051742553710938e+01,-5.814687252044677734e+00,-3.075140190124511719e+01,-3.216751480102539062e+01,7.336064815521240234e+00,3.226951837539672852e+00,-1.208388710021972656e+01,-9.468343734741210938e+00,-7.074709236621856689e-02
4.290197372436523438e+00,1.117590808868408203e+01,1.544191360473632812e+01,8.075958251953125000e+00,2.374685668945312500e+01,-2.928744554519653320e+00,1.140028238296508789e+00,-1.207335090637207031e+01,-7.007005810737609863e-01,2.288352012634277344e+00,-1.172172307968139648e+00,-2.341911697387695312e+01,-1.650584220886230469e+01,-4.401259899139404297e+00,-2.747002601623535156e+01,-2.919749832153320312e+01,6.839357376098632812e+00,3.045454263687133789e+00,-1.060027217864990234e+01,-9.435833930969238281e+00,-7.408089935779571533e-02
3.890526771545410156e+00,1.154655742645263672e+01,1.573530673980712891e+01,7.633111000061035156e+00,2.495977592468261719e+01,-3.129340410232543945e+00,1.889548540115356445e+00,-1.171476459503173828e+01,9.661763906478881836e-02,2.327663898468017578e+00,2.365086972713470459e-01,-2.170864295959472656e+01,-1.401649379730224609e+01,-2.579998493194580078e+00,-2.374210548400878906e+01,-2.562240219116210938e+01,6.326426029205322266e+00,2.963539600372314453e+00,-8.797749519348144531e+00,-9.473401069641113281e+00,-7.717467099428176880e-02
3.686347246170043945e+00,1.199987983703613281e+01,1.562777328491210938e+01,7.196465492248535156e+00,2.587712097167968750e+01,-3.190561294555664062e+00,2.363685846328735352e+00,-1.096799564361572266e+01,9.161247014999389648e-01,2.576115131378173828e+00,1.484406352043151855e+00,-1.983953666687011719e+01,-1.133221530914306641e+01,-4.168752729892730713e-01,-1.974881935119628906e+01,-2.158283996582031250e+01,5.858423233032226562e+00,3.005300045013427734e+00,-6.754313468933105469e+00,-9.373704910278320312e+00,-7.996173202991485596e-02
3.613580942153930664e+00,1.221896171569824219e+01,1.510072803497314453e+01,6.751137256622314453e+00,2.622016906738281250e+01,-3.326028585433959961e+00,2.730064868927001953e+00,-9.762464523315429688e+00,1.642438650131225586e+00,3.030560255050659180e+00,2.458241462707519531e+00,-1.770282363891601562e+01,-8.551192283630371094e+00,2.014139175415039062e+00,-1.562193584442138672e+01,-1.714912414550781250e+01,5.449076652526855469e+00,3.138612270355224609e+00,-4.560088634490966797e+00,-8.995868682861328125e+00,-8.213537186384201050e-02
3.549503326416015625e+00,1.192822933197021484e+01,1.418072128295898438e+01,6.283480167388916016e+00,2.584189796447753906e+01,-3.716799497604370117e+00,3.246108293533325195e+00,-8.094755172729492188e+00,2.137989044189453125e+00,3.634390830993652344e+00,3.188161134719848633e+00,-1.523643112182617188e+01,-5.754286766052246094e+00,4.611086368560791016e+00,-1.145845031738281250e+01,-1.240647506713867188e+01,5.083410263061523438e+00,3.302441835403442383e+00,-2.327733755111694336e+00,-8.379628181457519531e+00,-8.329553902149200439e-02
3.350754022598266602e+00,1.100229549407958984e+01,1.291554641723632812e+01,5.783571243286132812e+00,2.475762176513671875e+01,-4.430607795715332031e+00,4.090216636657714844e+00,-6.066183567047119141e+00,2.311061859130859375e+00,4.268098354339599609e+00,3.811196565628051758e+00,-1.250656986236572266e+01,-3.020914077758789062e+00,7.230024814605712891e+00,-7.351697921752929688e+00,-7.533861637115478516e+00,4.715248107910156250e+00,3.403630495071411133e+00,-1.924378573894500732e-01,-7.697645664215087891e+00,-8.314885199069976807e-02
2.926104068756103516e+00,9.561034202575683594e+00,1.140477180480957031e+01,5.273738384246826172e+00,2.312661361694335938e+01,-5.389299392700195312e+00,5.259994983673095703e+00,-3.849781274795532227e+00,2.188283681869506836e+00,4.823181629180908203e+00,4.531066894531250000e+00,-9.684288978576660156e+00,-3.915047645568847656e-01,9.723013877868652344e+00,-3.367562294006347656e+00,-2.769906997680664062e+00,4.310893535614013672e+00,3.376325607299804688e+00,1.753939867019653320e+00,-7.145702362060546875e+00,-8.177532255649566650e-02
2.314651250839233398e+00,7.939271926879882812e+00,9.807703971862792969e+00,4.811043262481689453e+00,2.122147369384765625e+01,-6.390975952148437500e+00,6.585424423217773438e+00,-1.631102204322814941e+00,1.964916229248046875e+00,5.250895023345947266e+00,5.538703441619873047e+00,-6.944771766662597656e+00,2.149824380874633789e+00,1.200408935546875000e+01,4.866360127925872803e-01,1.685114979743957520e+00,3.879082679748535156e+00,3.234982490539550781e+00,3.504466533660888672e+00,-6.820604324340820312e+00,-7.978837192058563232e-02
1.644551277160644531e+00,6.582061767578125000e+00,8.336755752563476562e+00,4.466192722320556641e+00,1.934696388244628906e+01,-7.211595058441162109e+00,7.827042102813720703e+00,4.293437004089355469e-01,1.932372570037841797e+00,5.584259510040283203e+00,6.951038360595703125e+00,-4.395613670349121094e+00,4.679601669311523438e+00,1.407125186920166016e+01,4.271290302276611328e+00,5.733198165893554688e+00,3.479720115661621094e+00,3.061516046524047852e+00,5.149268627166748047e+00,-6.692732810974121094e+00,-7.814814150333404541e-02
1.042873144149780273e+00,5.850408077239990234e+00,7.185751914978027344e+00,4.275160312652587891e+00,1.772974014282226562e+01,-7.705269336700439453e+00,8.823209762573242188e+00,2.221134662628173828e+00,2.351001739501953125e+00,5.889319896697998047e+00,8.777208328247070312e+00,-2.046471357345581055e+00,7.283020496368408203e+00,1.597448062896728516e+01,8.096206665039062500e+00,9.410562515258789062e+00,3.175206184387207031e+00,2.955508708953857422e+00,6.830467224121093750e+00,-6.637827396392822266e+00,-7.770808041095733643e-02
5.541453957557678223e-01,5.862809181213378906e+00,6.470191478729248047e+00,4.187087059020996094e+00,1.650456809997558594e+01,-7.894141674041748047e+00,9.577519416809082031e+00,3.661170244216918945e+00,3.312517166137695312e+00,6.202242374420166016e+00,1.092037582397460938e+01,1.454181671142578125e-01,9.997621536254882812e+00,1.775375938415527344e+01,1.205472087860107422e+01,1.281734371185302734e+01,2.979268789291381836e+00,2.955508708953857422e+00,8.638189315795898438e+00,-6.524404525756835938e+00,-7.896158844232559204e-02
5.781519412994384766e-02,6.427739143371582031e+00,6.117057800292968750e+00,4.034509181976318359e+00,1.562244606018066406e+01,-7.963178157806396484e+00,1.022047805786132812e+01,4.639028072357177734e+00,4.640887737274169922e+00,6.434968948364257812e+00,1.318321800231933594e+01,2.156604290008544922e+00,1.272955036163330078e+01,1.934111595153808594e+01,1.612487220764160156e+01,1.599189281463623047e+01,2.792067766189575195e+00,2.976388931274414062e+00,1.050830650329589844e+01,-6.288166999816894531e+00,-8.176198601722717285e-02
-6.752763986587524414e-01,7.118056297302246094e+00,5.883405208587646484e+00,3.581737995147705078e+00,1.490112686157226562e+01,-8.168984413146972656e+00,1.091013240814208984e+01,5.036318778991699219e+00,5.952986717224121094e+00,6.409809112548828125e+00,1.532638645172119141e+01,3.878113508224487305e+00,1.527665519714355469e+01,2.057061767578125000e+01,2.015658950805664062e+01,1.885537910461425781e+01,2.418913364410400391e+00,2.836652040481567383e+00,1.222936916351318359e+01,-5.925502300262451172e+00,-8.546917885541915894e-02
-1.854739308357238770e+00,7.437724113464355469e+00,5.450617313385009766e+00,2.601767063140869141e+00,1.412620735168457031e+01,-8.748627662658691406e+00,1.173508358001708984e+01,4.775632381439208984e+00,6.806516647338867188e+00,5.927059173583984375e+00,1.714798736572265625e+01,5.141656875610351562e+00,1.740646171569824219e+01,2.126233673095703125e+01,2.393575286865234375e+01,2.126505470275878906e+01,1.643900394439697266e+00,2.346769809722900391e+00,1.353966426849365234e+01,-5.460974216461181641e+00,-8.930972963571548462e-02
-3.550081491470336914e+00,6.978890419006347656e+00,4.531938552856445312e+00,9.569047689437866211e-01,1.311390972137451172e+01,-9.842786788940429688e+00,1.265701770782470703e+01,3.837617158889770508e+00,6.871603488922119141e+00,4.848341464996337891e+00,1.852469444274902344e+01,5.791361331939697266e+00,1.895869445800781250e+01,2.129832267761230469e+01,2.725739097595214844e+01,2.308029937744140625e+01,3.147719502449035645e-01,1.399128675460815430e+00,1.423640823364257812e+01,-4.935038566589355469e+00,-9.260352700948715210e-02
-5.609254360198974609e+00,5.623058319091796875e+00,3.038421630859375000e+00,-1.303230404853820801e+00,1.181369781494140625e+01,-1.142540931701660156e+01,1.357535934448242188e+01,2.324726343154907227e+00,6.072806358337402344e+00,3.220829725265502930e+00,1.945376777648925781e+01,5.783084869384765625e+00,1.994346046447753906e+01,2.071855735778808594e+01,3.003182792663574219e+01,2.430324745178222656e+01,-1.534775853157043457e+00,4.191391915082931519e-02,1.431093597412109375e+01,-4.401878356933593750e+00,-9.495052695274353027e-02
-7.732504844665527344e+00,3.554862737655639648e+00,1.086892724037170410e+00,-3.964037179946899414e+00,1.028070354461669922e+01,-1.332455635070800781e+01,1.438594341278076172e+01,4.498343467712402344e-01,4.571362972259521484e+00,1.208061814308166504e+00,2.001742172241210938e+01,5.225801467895507812e+00,2.051092720031738281e+01,1.970696640014648438e+01,3.229383850097656250e+01,2.509155845642089844e+01,-3.700069665908813477e+00,-1.540164828300476074e+00,1.395216464996337891e+01,-3.922178745269775391e+00,-9.628404676914215088e-02
-9.603789329528808594e+00,1.107750773429870605e+00,-1.045185685157775879e+00,-6.726562500000000000e+00,8.645101547241210938e+00,-1.532530403137207031e+01,1.503967761993408203e+01,-1.518403768539428711e+00,2.676437616348266602e+00,-9.367941617965698242e-01,2.031523704528808594e+01,4.337458610534667969e+00,2.085747146606445312e+01,1.850145530700683594e+01,3.412028121948242188e+01,2.568172645568847656e+01,-5.884083271026611328e+00,-3.119031429290771484e+00,1.344260501861572266e+01,-3.575407981872558594e+00,-9.669744223356246948e-02
-1.101892757415771484e+01,-1.369674563407897949e+00,-3.031231403350830078e+00,-9.289372444152832031e+00,7.083009243011474609e+00,-1.719449234008789062e+01,1.555452442169189453e+01,-3.318163394927978516e+00,7.016327977180480957e-01,-2.976294279098510742e+00,2.040750503540039062e+01,3.373247861862182617e+00,2.110871696472167969e+01,1.730793952941894531e+01,3.554776000976562500e+01,2.628254699707031250e+01,-7.802271842956542969e+00,-4.500338554382324219e+00,1.304570388793945312e+01,-3.441034078598022461e+00,-9.619070589542388916e-02
-1.196923160552978516e+01,-3.654196977615356445e+00,-4.625643730163574219e+00,-1.145771217346191406e+01,5.741447925567626953e+00,-1.879144287109375000e+01,1.596400642395019531e+01,-4.762752056121826172e+00,-1.150393962860107422e+00,-4.784640312194824219e+00,2.027047348022460938e+01,2.519390344619750977e+00,2.123000717163085938e+01,1.620638656616210938e+01,3.650490570068359375e+01,2.693237113952636719e+01,-9.303625106811523438e+00,-5.597353935241699219e+00,1.286891841888427734e+01,-3.552289724349975586e+00,-9.476383030414581299e-02
-1.261000823974609375e+01,-5.683811664581298828e+00,-5.740802764892578125e+00,-1.316459846496582031e+01,4.654109001159667969e+00,-2.004321289062500000e+01,1.624896812438964844e+01,-5.788421630859375000e+00,-2.829347848892211914e+00,-6.350825786590576172e+00,1.981096076965332031e+01,1.821406602859497070e+00,2.103363227844238281e+01,1.514081859588623047e+01,3.681053161621093750e+01,2.747566604614257812e+01,-1.040187263488769531e+01,-6.430956840515136719e+00,1.283252048492431641e+01,-3.872330427169799805e+00,-9.239016473293304443e-02
-1.313240337371826172e+01,-7.447495937347412109e+00,-6.413881301879882812e+00,-1.441995334625244141e+01,3.785769701004028320e+00,-2.094328880310058594e+01,1.631841278076171875e+01,-6.432737827301025391e+00,-4.378127574920654297e+00,-7.742465972900390625e+00,1.894218444824218750e+01,1.193773031234741211e+00,2.029433631896972656e+01,1.399728202819824219e+01,3.628346252441406250e+01,2.763119697570800781e+01,-1.120933341979980469e+01,-7.067000389099121094e+00,1.274932765960693359e+01,-4.263892173767089844e+00,-8.933639526367187500e-02
-1.362547588348388672e+01,-8.873600006103515625e+00,-6.712584495544433594e+00,-1.523494148254394531e+01,3.116520404815673828e+00,-2.148906517028808594e+01,1.606817245483398438e+01,-6.789047241210937500e+00,-5.835193157196044922e+00,-9.013026237487792969e+00,1.764495468139648438e+01,4.847540855407714844e-01,1.886772727966308594e+01,1.268581295013427734e+01,3.486147308349609375e+01,2.713051414489746094e+01,-1.182085704803466797e+01,-7.553670406341552734e+00,1.244081878662109375e+01,-4.508076667785644531e+00,-8.610927313566207886e-02
-1.407076072692871094e+01,-9.811935424804687500e+00,-6.711256980895996094e+00,-1.559715938568115234e+01,2.635641098022460938e+00,-2.169356918334960938e+01,1.544796276092529297e+01,-6.979154586791992188e+00,-7.199066162109375000e+00,-1.016722202301025391e+01,1.599144458770751953e+01,-4.656623899936676025e-01,1.676246643066406250e+01,1.117042732238769531e+01,3.263240432739257812e+01,2.579890632629394531e+01,-1.226265239715576172e+01,-7.902209758758544922e+00,1.181340217590332031e+01,-4.414882183074951172e+00,-8.349556475877761841e-02
-1.438897705078125000e+01,-1.006133174896240234e+01,-6.457691192626953125e+00,-1.545698547363281250e+01,2.376823902130126953e+00,-2.153856277465820312e+01,1.452483177185058594e+01,-7.102098464965820312e+00,-8.415013313293457031e+00,-1.115159225463867188e+01,1.413969612121582031e+01,-1.752655982971191406e+00,1.411861801147460938e+01,9.487110137939453125e+00,2.980306625366210938e+01,2.359163665771484375e+01,-1.246233367919921875e+01,-8.102980613708496094e+00,1.087401103973388672e+01,-3.930847883224487305e+00,-8.226872980594635010e-02
-1.451930427551269531e+01,-9.467466354370117188e+00,-6.001006603240966797e+00,-1.477100658416748047e+01,2.375292301177978516e+00,-2.100190353393554688e+01,1.343287849426269531e+01,-7.211381435394287109e+00,-9.443095207214355469e+00,-1.188751029968261719e+01,1.226054191589355469e+01,-3.372088432312011719e+00,1.112389278411865234e+01,7.685840129852294922e+00,2.657293319702148438e+01,2.056409645080566406e+01,-1.229759597778320312e+01,-8.157590866088867188e+00,9.664240837097167969e+00,-3.125328302383422852e+00,-8.268211781978607178e-02
-1.450735759735107422e+01,-8.088209152221679688e+00,-5.438117027282714844e+00,-1.358139610290527344e+01,2.606543302536010742e+00,-2.009922409057617188e+01,1.229542827606201172e+01,-7.329771995544433594e+00,-1.030698013305664062e+01,-1.233566570281982422e+01,1.044716167449951172e+01,-5.231538772583007812e+00,7.895249366760253906e+00,5.782611846923828125e+00,2.300240135192871094e+01,1.680150985717773438e+01,-1.170978450775146484e+01,-8.102980613708496094e+00,8.173693656921386719e+00,-2.170263767242431641e+00,-8.440236002206802368e-02
-1.444219398498535156e+01,-6.208783626556396484e+00,-4.891157627105712891e+00,-1.204569530487060547e+01,2.989408969879150391e+00,-1.890606880187988281e+01,1.119150161743164062e+01,-7.450438976287841797e+00,-1.109394359588623047e+01,-1.252593517303466797e+01,8.697730064392089844e+00,-7.175133705139160156e+00,4.445683956146240234e+00,3.757432699203491211e+00,1.899081420898437500e+01,1.239122962951660156e+01,-1.074632263183593750e+01,-8.009822845458984375e+00,6.315708637237548828e+00,-1.252043604850769043e+00,-8.648265898227691650e-02
-1.437811660766601562e+01,-4.267353057861328125e+00,-4.458369731903076172e+00,-1.040207290649414062e+01,3.389120817184448242e+00,-1.759959220886230469e+01,1.011511421203613281e+01,-7.544923305511474609e+00,-1.192232608795166016e+01,-1.251492786407470703e+01,6.927286624908447266e+00,-9.018031120300292969e+00,7.217706441879272461e-01,1.586312651634216309e+00,1.434235000610351562e+01,7.412087440490722656e+00,-9.551979064941406250e+00,-7.934332847595214844e+00,3.970695972442626953e+00,-5.043190121650695801e-01,-8.781617879867553711e-02
-1.423258399963378906e+01,-2.634567022323608398e+00,-4.146390438079833984e+00,-8.866372108459472656e+00,3.686224699020385742e+00,-1.638950347900390625e+01,9.041121482849121094e+00,-7.580212593078613281e+00,-1.284538078308105469e+01,-1.234981822967529297e+01,5.048131465911865234e+00,-1.058918476104736328e+01,-3.309701442718505859e+00,-7.007601857185363770e-01,8.901452064514160156e+00,1.987655878067016602e+00,-8.280259132385253906e+00,-7.876511096954345703e+00,1.057195544242858887e+00,7.167899515479803085e-03,-8.753614127635955811e-02
-1.375363063812255859e+01,-1.390342831611633301e+00,-3.819808244705200195e+00,-7.517982006072998047e+00,3.847028255462646484e+00,-1.542169380187988281e+01,8.003047943115234375e+00,-7.501665592193603516e+00,-1.380393791198730469e+01,-1.201802539825439453e+01,3.052043437957763672e+00,-1.175616931915283203e+01,-7.567871570587158203e+00,-2.995829820632934570e+00,2.686420440673828125e+00,-3.679660558700561523e+00,-6.991066455841064453e+00,-7.754441738128662109e+00,-2.362397670745849609e+00,2.961435616016387939e-01,-8.533582836389541626e-02
-1.264476203918457031e+01,-3.073303699493408203e-01,-3.256918430328369141e+00,-6.268829345703125000e+00,3.923601388931274414e+00,-1.472612190246582031e+01,7.129006385803222656e+00,-7.256916522979736328e+00,-1.464267539978027344e+01,-1.145979690551757812e+01,1.021240830421447754e+00,-1.245553207397460938e+01,-1.186213970184326172e+01,-5.134962558746337891e+00,-4.086792945861816406e+00,-9.329932212829589844e+00,-5.631985664367675781e+00,-7.457300186157226562e+00,-6.087033271789550781e+00,4.514679908752441406e-01,-8.169531077146530151e-02
-1.071483039855957031e+01,1.027833819389343262e+00,-2.229378700256347656e+00,-4.927881717681884766e+00,4.041523933410644531e+00,-1.421681690216064453e+01,6.640501022338867188e+00,-6.795877456665039062e+00,-1.517520713806152344e+01,-1.061223316192626953e+01,-8.889743685722351074e-01,-1.269830894470214844e+01,-1.593548679351806641e+01,-6.952226161956787109e+00,-1.103752613067626953e+01,-1.468405532836914062e+01,-4.074471950531005859e+00,-6.904777050018310547e+00,-9.820334434509277344e+00,6.002904176712036133e-01,-7.772141695022583008e-02
-8.026827812194824219e+00,2.941706895828247070e+00,-6.150528192520141602e-01,-3.326436042785644531e+00,4.350879669189453125e+00,-1.374658870697021484e+01,6.733891963958740234e+00,-6.093504428863525391e+00,-1.526248264312744141e+01,-9.470616340637207031e+00,-2.528781414031982422e+00,-1.255622959136962891e+01,-1.954965972900390625e+01,-8.337664604187011719e+00,-1.774485588073730469e+01,-1.950979614257812500e+01,-2.223676204681396484e+00,-6.104903697967529297e+00,-1.326072692871093750e+01,8.777070641517639160e-01,-7.461430877447128296e-02
-4.922863483428955078e+00,5.442555904388427734e+00,1.532956480979919434e+00,-1.435960650444030762e+00,4.942024230957031250e+00,-1.320862770080566406e+01,7.457071304321289062e+00,-5.165734291076660156e+00,-1.486012554168701172e+01,-8.121432304382324219e+00,-3.823269605636596680e+00,-1.214516353607177734e+01,-2.255882453918457031e+01,-9.281281471252441406e+00,-2.386838340759277344e+01,-2.366440773010253906e+01,-9.707067161798477173e-02,-5.168506145477294922e+00,-1.619155883789062500e+01,1.386304259300231934e+00,-7.306741923093795776e-02
-1.917730927467346191e+00,8.125285148620605469e+00,3.978341579437255859e+00,5.711188316345214844e-01,5.799643516540527344e+00,-1.261465549468994141e+01,8.634033203125000000e+00,-4.096807003021240234e+00,-1.404653549194335938e+01,-6.748661994934082031e+00,-4.803499698638916016e+00,-1.161133003234863281e+01,-2.495576095581054688e+01,-9.883037567138671875e+00,-2.919947433471679688e+01,-2.712445449829101562e+01,2.128127574920654297e+00,-4.286717891693115234e+00,-1.854697036743164062e+01,2.139808177947998047e+00,-7.285405695438385010e-02
4.998422861099243164e-01,1.035331439971923828e+01,6.379916667938232422e+00,2.399570703506469727e+00,6.773653984069824219e+00,-1.204413032531738281e+01,9.869664192199707031e+00,-3.023326158523559570e+00,-1.297407627105712891e+01,-5.556725502014160156e+00,-5.574528694152832031e+00,-1.109267044067382812e+01,-2.681988334655761719e+01,-1.031286334991455078e+01,-3.366675567626953125e+01,-2.994106674194335938e+01,4.188588619232177734e+00,-3.645855426788330078e+00,-2.038762283325195312e+01,3.058750867843627930e+00,-7.304075360298156738e-02
2.036619424819946289e+00,1.155757999420166016e+01,8.421720504760742188e+00,3.781453609466552734e+00,7.645056247711181641e+00,-1.156999492645263672e+01,1.072095680236816406e+01,-2.084172487258911133e+00,-1.180546474456787109e+01,-4.695009231567382812e+00,-6.245068073272705078e+00,-1.068160533905029297e+01,-2.824793624877929688e+01,-1.073269367218017578e+01,-3.726840209960937500e+01,-3.218242645263671875e+01,5.859671115875244141e+00,-3.345501422882080078e+00,-2.183310699462890625e+01,3.961077451705932617e+00,-7.242733240127563477e-02
2.730612993240356445e+00,1.151762199401855469e+01,9.957719802856445312e+00,4.615048885345458984e+00,8.312773704528808594e+00,-1.121830081939697266e+01,1.089815902709960938e+01,-1.368139147758483887e+00,-1.066052150726318359e+01,-4.179237842559814453e+00,-6.836129188537597656e+00,-1.040158367156982422e+01,-2.927168846130371094e+01,-1.122849273681640625e+01,-3.999891662597656250e+01,-3.387836074829101562e+01,7.066494941711425781e+00,-3.329439878463745117e+00,-2.298741531372070312e+01,4.628611087799072266e+00,-7.030703127384185791e-02
