Fp1,Fp2,F7,F3,Fz,F4,F8,T3,C3,Cz,C4,T4,T5,P3,Pz,P4,T6,O1,Oz,O2,A1
4.723658561706542969e-01,2.294798135757446289e+00,1.295543789863586426e+00,6.780781269073486328e+00,2.382684051990509033e-01,5.893212795257568359e+00,-2.300834655761718750e+00,1.471598505973815918e+00,4.715637564659118652e-01,3.457734584808349609e+00,-3.751548767089843750e+00,1.757569909095764160e+00,-3.918632507324218750e+00,-2.335643768310546875e+00,-7.016812801361083984e+00,-3.392301321029663086e+00,4.828916549682617188e+00,3.662063598632812500e+00,-5.191146373748779297e+00,3.950719356536865234e+00,8.898480981588363647e-02
9.297478199005126953e-01,2.936168432235717773e+00,1.034878611564636230e+00,6.652265071868896484e+00,-3.431438207626342773e-01,5.935215950012207031e+00,-2.786364793777465820e+00,1.835760474205017090e+00,-2.883745431900024414e-01,3.394421100616455078e+00,-4.255115032196044922e+00,1.031825900077819824e+00,-4.560449123382568359e+00,-2.510441064834594727e+00,-7.757353782653808594e+00,-4.646580219268798828e+00,4.539794445037841797e+00,3.162523269653320312e+00,-5.831922054290771484e+00,4.182528495788574219e+00,1.099155396223068237e-01
1.254646778106689453e+00,3.787041187286376953e+00,5.695790052413940430e-01,6.322154998779296875e+00,-1.266765236854553223e+00,5.915054321289062500e+00,-3.542533159255981445e+00,2.298344612121582031e+00,-1.302355647087097168e+00,3.223277091979980469e+00,-4.909750461578369141e+00,2.211683839559555054e-01,-5.314557552337646484e+00,-2.661500453948974609e+00,-8.572848320007324219e+00,-6.063429355621337891e+00,3.998900890350341797e+00,2.378078699111938477e+00,-6.523823261260986328e+00,4.398111343383789062e+00,1.332949101924896240e-01
1.279881596565246582e+00,4.829038619995117188e+00,-1.222801208496093750e-01,5.755172252655029297e+00,-2.526873111724853516e+00,5.805846691131591797e+00,-4.553154945373535156e+00,2.827636957168579102e+00,-2.486063480377197266e+00,2.931442022323608398e+00,-5.661369800567626953e+00,-5.417253375053405762e-01,-6.069696426391601562e+00,-2.732714176177978516e+00,-9.305893898010253906e+00,-7.391280174255371094e+00,3.173035144805908203e+00,1.318951010704040527e+00,-7.115177154541015625e+00,4.510152816772460938e+00,1.549368053674697876e-01
8.792780637741088867e-01,6.014379501342773438e+00,-1.030954241752624512e+00,4.966436386108398438e+00,-4.045640945434570312e+00,5.607592582702636719e+00,-5.743603229522705078e+00,3.386456012725830078e+00,-3.710287094116210938e+00,2.534744024276733398e+00,-6.442829608917236328e+00,-1.150713562965393066e+00,-6.709452629089355469e+00,-2.683080434799194336e+00,-9.806584358215332031e+00,-8.371445655822753906e+00,2.064964294433593750e+00,5.413012951612472534e-02,-7.457719326019287109e+00,4.443700790405273438e+00,1.704287678003311157e-01
2.129258960485458374e-02,7.276905536651611328e+00,-2.095540285110473633e+00,4.037844657897949219e+00,-5.686871528625488281e+00,5.353894233703613281e+00,-6.982604026794433594e+00,3.946368455886840820e+00,-4.819534301757812500e+00,2.095507383346557617e+00,-7.179527759552001953e+00,-1.565993070602416992e+00,-7.140077590942382812e+00,-2.493177175521850586e+00,-9.975978851318359375e+00,-8.834235191345214844e+00,7.397057414054870605e-01,-1.288624167442321777e+00,-7.445789813995361328e+00,4.175574302673339844e+00,1.761827021837234497e-01
-1.204175710678100586e+00,8.519216537475585938e+00,-3.214939117431640625e+00,3.110512733459472656e+00,-7.262865066528320312e+00,5.110276699066162109e+00,-8.091231346130371094e+00,4.506280899047851562e+00,-5.655028343200683594e+00,1.710680842399597168e+00,-7.789402008056640625e+00,-1.840634822845458984e+00,-7.310060977935791016e+00,-2.166241407394409180e+00,-9.790094375610351562e+00,-8.735743522644042969e+00,-6.754711270332336426e-01,-2.534281015396118164e+00,-7.047009468078613281e+00,3.761408329010009766e+00,1.701540052890777588e-01
-2.581053018569946289e+00,9.647586822509765625e+00,-4.244201183319091797e+00,2.354535818099975586e+00,-8.557308197021484375e+00,4.965786457061767578e+00,-8.864482879638671875e+00,5.089159011840820312e+00,-6.070037841796875000e+00,1.502933740615844727e+00,-8.166144371032714844e+00,-2.091394662857055664e+00,-7.197769165039062500e+00,-1.716300368309020996e+00,-9.299898147583007812e+00,-8.179209709167480469e+00,-2.007646322250366211e+00,-3.477147579193115234e+00,-6.300574302673339844e+00,3.317879676818847656e+00,1.519386172294616699e-01
-3.819138765335083008e+00,1.059034633636474609e+01,-5.006708145141601562e+00,1.938748478889465332e+00,-9.358467102050781250e+00,4.999388694763183594e+00,-9.104550361633300781e+00,5.746399879455566406e+00,-5.943016529083251953e+00,1.594936013221740723e+00,-8.171739578247070312e+00,-2.446969509124755859e+00,-6.802171230316162109e+00,-1.150906562805175781e+00,-8.578845024108886719e+00,-7.356867313385009766e+00,-3.058999776840209961e+00,-3.940915346145629883e+00,-5.293397903442382812e+00,2.980210781097412109e+00,1.225143820047378540e-01
-4.615614414215087891e+00,1.134381961822509766e+01,-5.341674804687500000e+00,1.982847094535827637e+00,-9.492374420166015625e+00,5.253087043762207031e+00,-8.664875984191894531e+00,6.538151264190673828e+00,-5.199503421783447266e+00,2.075721979141235352e+00,-7.658848285675048828e+00,-2.989619016647338867e+00,-6.116055965423583984e+00,-4.603494107723236084e-01,-7.697391033172607422e+00,-6.479939937591552734e+00,-3.645544052124023438e+00,-3.786325931549072266e+00,-4.117506504058837891e+00,2.838034152984619141e+00,8.382081985473632812e-02
-4.721285343170166016e+00,1.196864986419677734e+01,-5.121205806732177734e+00,2.529670476913452148e+00,-8.856025695800781250e+00,5.711759567260742188e+00,-7.481621265411376953e+00,7.509249687194824219e+00,-3.828548192977905273e+00,2.975959300994873047e+00,-6.502511501312255859e+00,-3.710056066513061523e+00,-5.133242130279541016e+00,3.693982660770416260e-01,-6.691514492034912109e+00,-5.706250667572021484e+00,-3.641394138336181641e+00,-2.963553667068481445e+00,-2.854701519012451172e+00,2.892895936965942383e+00,3.849246725440025330e-02
-4.006823062896728516e+00,1.258613014221191406e+01,-4.302668094635009766e+00,3.528820037841796875e+00,-7.458576679229736328e+00,6.293081283569335938e+00,-5.616825580596923828e+00,8.670631408691406250e+00,-1.908992290496826172e+00,4.251130580902099609e+00,-4.665428161621093750e+00,-4.516733169555664062e+00,-3.854759931564331055e+00,1.343731284141540527e+00,-5.568710327148437500e+00,-5.110557079315185547e+00,-3.009198665618896484e+00,-1.526257157325744629e+00,-1.540770769119262695e+00,3.049753427505493164e+00,-1.023005787283182144e-02
-2.494308233261108398e+00,1.330836105346679688e+01,-2.943311214447021484e+00,4.841700077056884766e+00,-5.436223506927490234e+00,6.867682456970214844e+00,-3.259307146072387695e+00,9.978551864624023438e+00,3.894378542900085449e-01,5.786479949951171875e+00,-2.253906250000000000e+00,-5.272993087768554688e+00,-2.317696809768676758e+00,2.429200887680053711e+00,-4.325980186462402344e+00,-4.683366298675537109e+00,-1.822276234626770020e+00,3.645861744880676270e-01,-1.995729655027389526e-01,3.164112806320190430e+00,-5.849194526672363281e-02
-3.588075935840606689e-01,1.418128681182861328e+01,-1.211227416992187500e+00,6.270496845245361328e+00,-3.044192790985107422e+00,7.292752742767333984e+00,-6.967868208885192871e-01,1.132802867889404297e+01,2.820364475250244141e+00,7.410864353179931641e+00,4.858658015727996826e-01,-5.856772422790527344e+00,-6.054993867874145508e-01,3.541645526885986328e+00,-2.967822074890136719e+00,-4.361786842346191406e+00,-2.535464465618133545e-01,2.473898649215698242e+00,1.146737337112426758e+00,3.113114833831787109e+00,-1.021474599838256836e-01
2.106323480606079102e+00,1.513139724731445312e+01,6.475349664688110352e-01,7.594716548919677734e+00,-6.098151803016662598e-01,7.447323799133300781e+00,1.740754365921020508e+00,1.256924152374267578e+01,5.108939647674560547e+00,8.926428794860839844e+00,3.206987380981445312e+00,-6.213674068450927734e+00,1.158208370208740234e+00,4.560217380523681641e+00,-1.522717595100402832e+00,-4.071059703826904297e+00,1.460436105728149414e+00,4.529551982879638672e+00,2.462372303009033203e+00,2.866624116897583008e+00,-1.373337060213088989e-01
4.541488170623779297e+00,1.597675609588623047e+01,2.355257511138916016e+00,8.617805480957031250e+00,1.530422687530517578e+00,7.259150028228759766e+00,3.762897729873657227e+00,1.353159141540527344e+01,7.003310203552246094e+00,1.014620018005371094e+01,5.560692310333251953e+00,-6.372886657714843750e+00,2.838469505310058594e+00,5.351120948791503906e+00,-1.914932578802108765e-02,-3.747106790542602539e+00,3.066516637802124023e+00,6.277304649353027344e+00,3.703022718429565430e+00,2.507319450378417969e+00,-1.613919138908386230e-01
6.598129749298095703e+00,1.648580932617187500e+01,3.658583641052246094e+00,9.197387695312500000e+00,3.108705043792724609e+00,6.719831943511962891e+00,5.175430774688720703e+00,1.405978965759277344e+01,8.326085090637207031e+00,1.091783237457275391e+01,7.302657604217529297e+00,-6.432591438293457031e+00,4.316811084747314453e+00,5.812931537628173828e+00,1.515899419784545898e+00,-3.356702089309692383e+00,4.341974258422851562e+00,7.514018058776855469e+00,4.795408725738525391e+00,2.192058801651000977e+00,-1.734493076801300049e-01
7.989202022552490234e+00,1.646008110046386719e+01,4.374804019927978516e+00,9.261646270751953125e+00,3.977389812469482422e+00,5.874731540679931641e+00,5.920809268951416016e+00,1.404229259490966797e+01,8.997326850891113281e+00,1.113547229766845703e+01,8.345225334167480469e+00,-6.518831729888916016e+00,5.514937400817871094e+00,5.891697883605957031e+00,3.079430580139160156e+00,-2.897472143173217773e+00,5.129105567932128906e+00,8.115766525268554688e+00,5.681587696075439453e+00,2.073836088180541992e+00,-1.747100055217742920e-01
8.552254676818847656e+00,1.580033397674560547e+01,4.416218280792236328e+00,8.818139076232910156e+00,4.134188175201416016e+00,4.797774314880371094e+00,6.065569400787353516e+00,1.343207550048828125e+01,9.024702072143554688e+00,1.075460243225097656e+01,8.777919769287109375e+00,-6.739075660705566406e+00,6.396790981292724609e+00,5.602527141571044922e+00,4.677440166473388672e+00,-2.400269746780395508e+00,5.350443363189697266e+00,8.030167579650878906e+00,6.308729648590087891e+00,2.212148904800415039e+00,-1.680509597063064575e-01
8.252591133117675781e+00,1.453964519500732422e+01,3.795006513595581055e+00,7.937426090240478516e+00,3.702707052230834961e+00,3.572967052459716797e+00,5.758965969085693359e+00,1.225210380554199219e+01,8.480481147766113281e+00,9.783137321472167969e+00,8.807760238647460938e+00,-7.143741130828857422e+00,6.950010299682617188e+00,5.005842685699462891e+00,6.303932189941406250e+00,-1.920867085456848145e+00,5.005986690521240234e+00,7.278940200805664062e+00,6.642751216888427734e+00,2.532045841217041016e+00,-1.571249514818191528e-01
7.184840679168701172e+00,1.281033420562744141e+01,2.611050605773925781e+00,6.744242191314697266e+00,2.884380817413330078e+00,2.280954837799072266e+00,5.171833992004394531e+00,1.060298538208007812e+01,7.467595100402832031e+00,8.297251701354980469e+00,8.658555984497070312e+00,-7.722213268280029297e+00,7.175624847412109375e+00,4.196595668792724609e+00,7.916932582855224609e+00,-1.524529099464416504e+00,4.160754203796386719e+00,5.945129394531250000e+00,6.681947231292724609e+00,2.846534013748168945e+00,-1.453585028648376465e-01
5.550882816314697266e+00,1.079249763488769531e+01,1.027570247650146484e+00,5.404902935028076172e+00,1.900100231170654297e+00,9.973432421684265137e-01,4.452530384063720703e+00,8.645479202270507812e+00,6.104305267333984375e+00,6.435442447662353516e+00,8.507485389709472656e+00,-8.398866653442382812e+00,7.078785419464111328e+00,3.290239572525024414e+00,9.433992385864257812e+00,-1.272961258888244629e+00,2.942014217376708984e+00,4.179490566253662109e+00,6.453586101531982422e+00,2.939257621765136719e+00,-1.352002322673797607e-01
3.614106893539428711e+00,8.664397239685058594e+00,-7.410554885864257812e-01,4.107142448425292969e+00,9.490104913711547852e-01,-1.905015558004379272e-01,3.703555107116699219e+00,6.593924045562744141e+00,4.520917892456054688e+00,4.403478145599365234e+00,8.431017875671386719e+00,-9.063579559326171875e+00,6.682157516479492188e+00,2.407621145248413086e+00,1.076516723632812500e+01,-1.183963179588317871e+00,1.522687196731567383e+00,2.190272092819213867e+00,6.030946731567382812e+00,2.667268037796020508e+00,-1.278057843446731567e-01
1.667867660522460938e+00,6.573051929473876953e+00,-2.457304477691650391e+00,3.034915208816528320e+00,1.787537634372711182e-01,-1.193533182144165039e+00,2.985150337219238281e+00,4.694376945495605469e+00,2.863070011138916016e+00,2.454613208770751953e+00,8.423558235168457031e+00,-9.588981628417968750e+00,6.052703380584716797e+00,1.684693932533264160e+00,1.183700370788574219e+01,-1.211255908012390137e+00,1.075104027986526489e-01,2.355488836765289307e-01,5.533323287963867188e+00,2.036746501922607422e+00,-1.232398077845573425e-01
-8.673815056681632996e-03,4.650777816772460938e+00,-3.884872913360595703e+00,2.339416265487670898e+00,-3.168200254440307617e-01,-1.924385309219360352e+00,2.335079193115234375e+00,3.178675889968872070e+00,1.303772926330566406e+00,8.470466136932373047e-01,8.432883262634277344e+00,-9.856988906860351562e+00,5.310956954956054688e+00,1.262806653976440430e+00,1.264500236511230469e+01,-1.240921974182128906e+00,-1.087712287902832031e+00,-1.416383862495422363e+00,5.110683917999267578e+00,1.206096172332763672e+00,-1.210012733936309814e-01
-1.180518031120300293e+00,3.017029047012329102e+00,-4.817908287048339844e+00,2.098763465881347656e+00,-4.873523712158203125e-01,-2.327614068984985352e+00,1.792903900146484375e+00,2.225074768066406250e+00,1.932381838560104370e-02,-2.134526520967483521e-01,8.425423622131347656e+00,-9.785343170166015625e+00,4.625872135162353516e+00,1.266043663024902344e+00,1.325212669372558594e+01,-1.108018279075622559e+00,-1.891444206237792969e+00,-2.535558700561523438e+00,4.907885074615478516e+00,4.148535132408142090e-01,-1.204679012298583984e-01
-1.691524028778076172e+00,1.787582397460937500e+00,-5.115115642547607422e+00,2.289017677307128906e+00,-3.225426077842712402e-01,-2.404899597167968750e+00,1.406278133392333984e+00,1.909030318260192871e+00,-8.358805179595947266e-01,-6.240003705024719238e-01,8.403042793273925781e+00,-9.343528747558593750e+00,4.173612594604492188e+00,1.769934654235839844e+00,1.377530193328857422e+01,-6.511616110801696777e-01,-2.209616899490356445e+00,-2.992938280105590820e+00,5.040812015533447266e+00,-1.221715658903121948e-01,-1.212033107876777649e-01
-1.475450515747070312e+00,1.048811793327331543e+00,-4.733861923217773438e+00,2.781662702560424805e+00,1.592970490455627441e-01,-2.233527421951293945e+00,1.230947732925415039e+00,2.159459829330444336e+00,-1.168764233589172363e+00,-4.251568019390106201e-01,8.408638000488281250e+00,-8.568694114685058594e+00,4.090166568756103516e+00,2.766926527023315430e+00,1.432546138763427734e+01,2.293256968259811401e-01,-2.058830738067626953e+00,-2.794910907745361328e+00,5.541843891143798828e+00,-3.246184289455413818e-01,-1.229488849639892578e-01
-5.717267990112304688e-01,8.172568082809448242e-01,-3.735051393508911133e+00,3.368804931640625000e+00,9.123861193656921387e-01,-1.954627513885498047e+00,1.312768578529357910e+00,2.777332305908203125e+00,-9.771370887756347656e-01,2.109449058771133423e-01,8.513080596923828125e+00,-7.569634914398193359e+00,4.422922134399414062e+00,4.146962165832519531e+00,1.497006225585937500e+01,1.533443689346313477e+00,-1.570504784584045410e+00,-2.085844516754150391e+00,6.349630355834960938e+00,-2.844381332397460938e-01,-1.254379451274871826e-01
8.887411355972290039e-01,1.030434370040893555e+00,-2.272159099578857422e+00,3.811051607131958008e+00,1.869198322296142578e+00,-1.737892031669616699e+00,1.677815318107604980e+00,3.471755027770996094e+00,-3.529802560806274414e-01,1.021158456802368164e+00,8.776054382324218750e+00,-6.516178131103515625e+00,5.103886127471923828e+00,5.713663578033447266e+00,1.569261455535888672e+01,3.143714904785156250e+00,-9.507596492767333984e-01,-1.108482956886291504e+00,7.322722911834716797e+00,-2.318946719169616699e-01,-1.282502561807632446e-01
2.702497243881225586e+00,1.550514221191406250e+00,-5.607823729515075684e-01,3.908068656921386719e+00,2.941606283187866211e+00,-1.731171488761901855e+00,2.321592330932617188e+00,3.935432672500610352e+00,5.416445136070251465e-01,1.727498412132263184e+00,9.229263305664062500e+00,-5.608666419982910156e+00,5.983679771423339844e+00,7.222099781036376953e+00,1.641066932678222656e+01,4.865530490875244141e+00,-4.264664053916931152e-01,-1.375094056129455566e-01,8.270253181457519531e+00,-4.358869194984436035e-01,-1.307473927736282349e-01
4.626656055450439453e+00,2.217612981796264648e+00,1.160338997840881348e+00,3.542679786682128906e+00,4.038049221038818359e+00,-2.026872634887695312e+00,3.207235336303710938e+00,3.933245658874511719e+00,1.512920141220092773e+00,2.103421688079833984e+00,9.863384246826171875e+00,-5.035501003265380859e+00,6.866563796997070312e+00,8.437048912048339844e+00,1.701329612731933594e+01,6.471055030822753906e+00,-1.802283823490142822e-01,5.881656408309936523e-01,9.003054618835449219e+00,-1.084180474281311035e+00,-1.322828531265258789e-01
6.405714035034179688e+00,2.904927015304565430e+00,2.662209272384643555e+00,2.698505401611328125e+00,5.061243057250976562e+00,-2.636756181716918945e+00,4.261914730072021484e+00,3.352555036544799805e+00,2.368124485015869141e+00,2.019333600997924805e+00,1.063365364074707031e+01,-4.941299915313720703e+00,7.561950683593750000e+00,9.183713912963867188e+00,1.737457275390625000e+01,7.758560180664062500e+00,-3.130308985710144043e-01,9.190632104873657227e-01,9.374567985534667969e+00,-2.203819751739501953e+00,-1.323555856943130493e-01
7.812557697296142578e+00,3.549973011016845703e+00,3.756028652191162109e+00,1.448623299598693848e+00,5.921916007995605469e+00,-3.508738517761230469e+00,5.383129596710205078e+00,2.227261781692504883e+00,2.950670957565307617e+00,1.450502276420593262e+00,1.145054912567138672e+01,-5.388422012329101562e+00,7.922522068023681641e+00,9.370380401611328125e+00,1.741054916381835938e+01,8.584462165832519531e+00,-8.456243276596069336e-01,7.951363325119018555e-01,9.297879219055175781e+00,-3.648765087127685547e+00,-1.309090256690979004e-01
8.653194427490234375e+00,4.147237777709960938e+00,4.296848297119140625e+00,-1.023895293474197388e-01,6.529652118682861328e+00,-4.577294826507568359e+00,6.434212684631347656e+00,7.028123140335083008e-01,3.146677970886230469e+00,4.503486454486846924e-01,1.218911266326904297e+01,-6.351658344268798828e+00,7.858649253845214844e+00,8.985178947448730469e+00,1.707775497436523438e+01,8.876375198364257812e+00,-1.743424654006958008e+00,2.355488836765289307e-01,8.754242897033691406e+00,-5.166343688964843750e+00,-1.282825767993927002e-01
8.799872398376464844e+00,4.704072475433349609e+00,4.194530963897705078e+00,-1.852476358413696289e+00,6.802046298980712891e+00,-5.778580665588378906e+00,7.264109611511230469e+00,-1.017387986183166504e+00,2.889350175857543945e+00,-8.841788768768310547e-01,1.269454383850097656e+01,-7.722213268280029297e+00,7.338396549224853516e+00,8.083138465881347656e+00,1.634770774841308594e+01,8.614128112792968750e+00,-2.949714183807373047e+00,-7.009296417236328125e-01,7.789670944213867188e+00,-6.501565933227539062e+00,-1.251227706670761108e-01
8.198966979980468750e+00,5.185559749603271484e+00,3.418625593185424805e+00,-3.726039409637451172e+00,6.672716140747070312e+00,-7.078993320465087891e+00,7.713674545288085938e+00,-2.729933261871337891e+00,2.162262201309204102e+00,-2.443270921707153320e+00,1.280644702911376953e+01,-9.330260276794433594e+00,6.376186847686767578e+00,6.762447357177734375e+00,1.521141242980957031e+01,7.833318710327148438e+00,-4.417459011077880859e+00,-1.941476106643676758e+00,6.482557296752929688e+00,-7.486755847930908203e+00,-1.221084222197532654e-01
6.888330936431884766e+00,5.496137142181396484e+00,2.020290613174438477e+00,-5.668900489807128906e+00,6.106182575225830078e+00,-8.458372116088867188e+00,7.665121555328369141e+00,-4.269692897796630859e+00,1.014689683914184570e+00,-4.111183166503906250e+00,1.239986419677734375e+01,-1.097280406951904297e+01,5.040013790130615234e+00,5.154744148254394531e+00,1.369735050201416016e+01,6.611078739166259766e+00,-6.102390766143798828e+00,-3.394103765487670898e+00,4.970940113067626953e+00,-8.077869415283203125e+00,-1.197244226932525635e-01
5.009910583496093750e+00,5.492461681365966797e+00,1.396031677722930908e-01,-7.616801261901855469e+00,5.127624511718750000e+00,-9.884793281555175781e+00,7.072595119476318359e+00,-5.506531238555908203e+00,-4.340111315250396729e-01,-5.756341934204101562e+00,1.143562889099121094e+01,-1.244684696197509766e+01,3.458651781082153320e+00,3.433745861053466797e+00,1.188497352600097656e+01,5.085058689117431641e+00,-7.936725616455078125e+00,-4.941273689270019531e+00,3.445690155029296875e+00,-8.323587417602539062e+00,-1.181243062019348145e-01
2.808168172836303711e+00,5.060593605041503906e+00,-1.989568829536437988e+00,-9.455084800720214844e+00,3.840048551559448242e+00,-1.127593326568603516e+01,6.004428386688232422e+00,-6.337651252746582031e+00,-1.977977991104125977e+00,-7.215517520904541016e+00,1.001072311401367188e+01,-1.357592964172363281e+01,1.831961154937744141e+00,1.812015414237976074e+00,9.930185317993164062e+00,3.461734533309936523e+00,-9.795960426330566406e+00,-6.410510063171386719e+00,2.135167598724365234e+00,-8.287270545959472656e+00,-1.171464622020721436e-01
6.064260601997375488e-01,4.185830116271972656e+00,-4.055401802062988281e+00,-1.101869773864746094e+01,2.425431251525878906e+00,-1.248561954498291016e+01,4.647641658782958984e+00,-6.670099258422851562e+00,-3.344552993774414062e+00,-8.297780990600585938e+00,8.373201370239257812e+00,-1.422737503051757812e+01,4.195527136325836182e-01,5.312476158142089844e-01,8.065340995788574219e+00,1.995046854019165039e+00,-1.149057674407958984e+01,-7.580788612365722656e+00,1.298410296440124512e+00,-7.980509757995605469e+00,-1.164595484733581543e-01
-1.234142065048217773e+00,2.993138313293457031e+00,-5.722928047180175781e+00,-1.209848499298095703e+01,1.124120831489562988e+00,-1.332399940490722656e+01,3.291753530502319336e+00,-6.416388988494873047e+00,-4.239177703857421875e+00,-8.810223579406738281e+00,6.879289150238037109e+00,-1.433218955993652344e+01,-5.014488697052001953e-01,-1.754945516586303711e-01,6.564770698547363281e+00,9.389367699623107910e-01,-1.277848434448242188e+01,-8.213198661804199219e+00,1.158666729927062988e+00,-7.339942932128906250e+00,-1.157645508646965027e-01
-2.394945859909057617e+00,1.736125707626342773e+00,-6.692505359649658203e+00,-1.251049232482910156e+01,1.924879103899002075e-01,-1.360457897186279297e+01,2.265846252441406250e+00,-5.531683444976806641e+00,-4.405619621276855469e+00,-8.605443954467773438e+00,5.922513484954833984e+00,-1.388374137878417969e+01,-7.033686637878417969e-01,-1.452826708555221558e-01,5.672823429107666016e+00,4.856400489807128906e-01,-1.342313003540039062e+01,-8.099493026733398438e+00,1.847159504890441895e+00,-6.272847175598144531e+00,-1.148836836218833923e-01
-2.661489248275756836e+00,7.088302969932556152e-01,-6.770461559295654297e+00,-1.214636325836181641e+01,-1.611663699150085449e-01,-1.320639038085937500e+01,1.863935232162475586e+00,-4.037854194641113281e+00,-3.703716993331909180e+00,-7.634968757629394531e+00,5.816205024719238281e+00,-1.294173336029052734e+01,-8.318639546632766724e-02,6.596480607986450195e-01,5.518419265747070312e+00,6.909288763999938965e-01,-1.326266002655029297e+01,-7.132352352142333984e+00,3.345142841339111328e+00,-4.742132663726806641e+00,-1.138007789850234985e-01
-1.984879374504089355e+00,1.556711792945861816e-01,-5.923908233642578125e+00,-1.102247714996337891e+01,1.661641299724578857e-01,-1.212607383728027344e+01,2.255056619644165039e+00,-2.062849760055541992e+00,-2.157560110092163086e+00,-5.976949691772460938e+00,6.700243473052978516e+00,-1.161894226074218750e+01,1.290074348449707031e+00,2.119529247283935547e+00,6.068578243255615234e+00,1.445632338523864746e+00,-1.226387405395507812e+01,-5.353937149047851562e+00,5.463451385498046875e+00,-2.851340770721435547e+00,-1.126451492309570312e-01
-5.117939710617065430e-01,1.630221307277679443e-01,-4.295359611511230469e+00,-9.283730506896972656e+00,1.135565996170043945e+00,-1.049971771240234375e+01,3.427522182464599609e+00,1.658648550510406494e-01,2.698890306055545807e-02,-3.845068931579589844e+00,8.472049713134765625e+00,-1.006396579742431641e+01,3.162983655929565430e+00,3.966769695281982422e+00,7.101438045501708984e+00,2.488689422607421875e+00,-1.054989147186279297e+01,-2.958443164825439453e+00,7.878288745880126953e+00,-8.631889224052429199e-01,-1.115380004048347473e-01
1.439176678657531738e+00,6.261320710182189941e-01,-2.184458732604980469e+00,-7.184634208679199219e+00,2.549038648605346680e+00,-8.587740898132324219e+00,5.168237686157226562e+00,2.356304168701171875e+00,2.488575935363769531e+00,-1.541055202484130859e+00,1.079591369628906250e+01,-8.447957992553710938e+00,5.155396461486816406e+00,5.834511280059814453e+00,8.266216278076171875e+00,3.471227645874023438e+00,-8.390467643737792969e+00,-2.716570794582366943e-01,1.018235397338867188e+01,8.529732227325439453e-01,-1.105924844741821289e-01
3.431154012680053711e+00,1.280366778373718262e+00,3.180247265845537186e-03,-5.030099868774414062e+00,4.080396175384521484e+00,-6.719447612762451172e+00,7.100468158721923828e+00,4.209921360015869141e+00,4.782626152038574219e+00,5.957716107368469238e-01,1.317013359069824219e+01,-6.946052074432373047e+00,6.840808391571044922e+00,7.347263336181640625e+00,9.168657302856445312e+00,4.049121856689453125e+00,-6.132824420928955078e+00,2.330807685852050781e+00,1.199731731414794922e+01,1.944022774696350098e+00,-1.098651587963104248e-01
5.003601551055908203e+00,1.780231475830078125e+00,1.835145235061645508e+00,-3.122517824172973633e+00,5.338214874267578125e+00,-5.222460746765136719e+00,8.771950721740722656e+00,5.498157501220703125e+00,6.476609230041503906e+00,2.266651391983032227e+00,1.503892326354980469e+01,-5.712154388427734375e+00,7.855558872222900391e+00,8.203985214233398438e+00,9.477465629577636719e+00,3.973176717758178711e+00,-4.139403343200683594e+00,4.488668918609619141e+00,1.305391502380371094e+01,2.199012994766235352e+00,-1.094045192003250122e-01
5.762225151062011719e+00,1.818823933601379395e+00,2.936273097991943359e+00,-1.706320762634277344e+00,5.953962326049804688e+00,-4.353838920593261719e+00,9.762791633605957031e+00,6.099626064300537109e+00,7.238737583160400391e+00,3.260869503021240234e+00,1.593042182922363281e+01,-4.867001056671142578e+00,7.985364437103271484e+00,8.242829322814941406e+00,9.012753486633300781e+00,3.148461580276489258e+00,-2.720076560974121094e+00,5.937463760375976562e+00,1.324137592315673828e+01,1.635716319084167480e+00,-1.092832982540130615e-01
5.468869686126708984e+00,1.223396897315979004e+00,3.062951564788818359e+00,-9.364841580390930176e-01,5.666689872741699219e+00,-4.247991085052490234e+00,9.789765357971191406e+00,6.030730724334716797e+00,6.915709495544433594e+00,3.490380525588989258e+00,1.557046508789062500e+01,-4.467642784118652344e+00,7.215802669525146484e+00,7.478900432586669922e+00,7.785014629364013672e+00,1.658041000366210938e+00,-2.074047565460205078e+00,6.550710201263427734e+00,1.262275505065917969e+01,5.006229877471923828e-01,-1.096146330237388611e-01
4.099877834320068359e+00,8.652156218886375427e-03,2.145750999450683594e+00,-8.684462308883666992e-01,4.395136833190917969e+00,-4.891477108001708984e+00,8.785437583923339844e+00,5.428168296813964844e+00,5.560084342956542969e+00,2.993766069412231445e+00,1.395159339904785156e+01,-4.494178295135498047e+00,5.729219436645507812e+00,6.083759307861328125e+00,6.002618789672851562e+00,-2.678767144680023193e-01,-2.264951229095458984e+00,6.345016956329345703e+00,1.140596294403076172e+01,-8.230085968971252441e-01,-1.105035841464996338e-01
1.839780211448669434e+00,-1.626934528350830078e+00,3.150040805339813232e-01,-1.453068494796752930e+00,2.270922183990478516e+00,-6.134766101837158203e+00,6.910751342773437500e+00,4.509562015533447266e+00,3.418241024017333984e+00,1.915459990501403809e+00,1.133864593505859375e+01,-4.835158348083496094e+00,3.859400749206542969e+00,4.350892066955566406e+00,4.004357337951660156e+00,-2.298218727111816406e+00,-3.222236156463623047e+00,5.468585491180419922e+00,9.890937805175781250e+00,-1.941102504730224609e+00,-1.120148003101348877e-01
-9.407867193222045898e-01,-3.369110107421875000e+00,-2.128427982330322266e+00,-2.553014993667602539e+00,-3.889243006706237793e-01,-7.730879783630371094e+00,4.516368389129638672e+00,3.516591787338256836e+00,8.767182230949401855e-01,4.750804603099822998e-01,8.218401908874511719e+00,-5.302182197570800781e+00,2.020488262176513672e+00,2.637447118759155273e+00,2.203973054885864258e+00,-4.072246551513671875e+00,-4.754998683929443359e+00,4.153938293457031250e+00,8.404883384704589844e+00,-2.580123662948608398e+00,-1.140836253762245178e-01
-3.774977684020996094e+00,-4.874217510223388672e+00,-4.775276184082031250e+00,-3.954092502593994141e+00,-3.150632381439208984e+00,-9.389158248901367188e+00,2.054550647735595703e+00,2.667974233627319336e+00,-1.619909167289733887e+00,-1.076097607612609863e+00,5.191410541534423828e+00,-5.663064002990722656e+00,6.225027441978454590e-01,1.282228589057922363e+00,9.852282404899597168e-01,-5.263633728027343750e+00,-6.600399971008300781e+00,2.677036523818969727e+00,7.247738361358642578e+00,-2.648893833160400391e+00,-1.164514645934104919e-01
-6.191216468811035156e+00,-5.844542980194091797e+00,-7.169985771179199219e+00,-5.416907787322998047e+00,-5.559830665588378906e+00,-1.083742141723632812e+01,-2.873328886926174164e-02,2.126652479171752930e+00,-3.661011457443237305e+00,-2.490756034851074219e+00,2.841435670852661133e+00,-5.684292316436767578e+00,-1.519299484789371490e-02,5.506695508956909180e-01,6.419410109519958496e-01,-5.635052204132080078e+00,-8.444418907165527344e+00,1.304897427558898926e+00,6.639342784881591797e+00,-2.248636245727539062e+00,-1.187142506241798401e-01
-7.798361778259277344e+00,-6.079773426055908203e+00,-8.931303024291992188e+00,-6.691989421844482422e+00,-7.238830089569091797e+00,-1.185893440246582031e+01,-1.387318611145019531e+00,1.975738644599914551e+00,-4.941080570220947266e+00,-3.562137365341186523e+00,1.603036284446716309e+00,-5.197367191314697266e+00,2.897471189498901367e-01,5.895133614540100098e-01,1.315023899078369141e+00,-5.083264350891113281e+00,-9.988247871398925781e+00,2.598232328891754150e-01,6.687059879302978516e+00,-1.597251892089843750e+00,-1.203547641634941101e-01
-8.375609397888183594e+00,-5.493535041809082031e+00,-9.792472839355468750e+00,-7.575222492218017578e+00,-7.969028949737548828e+00,-1.233272838592529297e+01,-1.836883544921875000e+00,2.227261781692504883e+00,-5.307909488677978516e+00,-4.148775577545166016e+00,1.683233857154846191e+00,-4.129315853118896484e+00,1.545564651489257812e+00,1.393365144729614258e+00,2.975994586944580078e+00,-3.649802446365356445e+00,-1.099256706237792969e+01,-3.010418117046356201e-01,7.373848438262939453e+00,-9.450948834419250488e-01,-1.208477318286895752e-01
-7.888261318206787109e+00,-4.087665557861328125e+00,-9.660922050476074219e+00,-7.936831474304199219e+00,-7.713802814483642578e+00,-1.222856044769287109e+01,-1.365739464759826660e+00,2.828730583190917969e+00,-4.763688564300537109e+00,-4.189335346221923828e+00,3.024211406707763672e+00,-2.529229164123535156e+00,3.595668792724609375e+00,2.818718433380126953e+00,5.428474903106689453e+00,-1.517409205436706543e+00,-1.129828929901123047e+01,-2.997641861438751221e-01,8.571894645690917969e+00,-4.899757802486419678e-01,-1.197809875011444092e-01
-6.478262901306152344e+00,-1.948538661003112793e+00,-8.615824699401855469e+00,-7.737757205963134766e+00,-6.612782001495361328e+00,-1.161027717590332031e+01,-1.159488931298255920e-01,3.683909416198730469e+00,-3.445294141769409180e+00,-3.701624631881713867e+00,5.325694561004638672e+00,-5.523394942283630371e-01,6.150572776794433594e+00,4.612009048461914062e+00,8.347166061401367188e+00,1.024374842643737793e+00,-1.085976409912109375e+01,2.623784244060516357e-01,1.006817340850830078e+01,-3.300273120403289795e-01,-1.169767528772354126e-01
-4.435815811157226562e+00,7.455850243568420410e-01,-6.888613224029541016e+00,-7.043518543243408203e+00,-4.937215805053710938e+00,-1.061228561401367188e+01,1.666126608848571777e+00,4.665943622589111328e+00,-1.581583738327026367e+00,-2.777644872665405273e+00,8.132608413696289062e+00,1.577129006385803223e+00,8.839402198791503906e+00,6.464644908905029297e+00,1.133631420135498047e+01,3.629050970077514648e+00,-9.755843162536621094e+00,1.311285376548767090e+00,1.160535335540771484e+01,-4.637040495872497559e-01,-1.125724166631698608e-01
-2.126825571060180664e+00,3.717207193374633789e+00,-4.811818122863769531e+00,-5.997750282287597656e+00,-3.023591518402099609e+00,-9.412679672241210938e+00,3.681076765060424805e+00,5.626106262207031250e+00,5.514996647834777832e-01,-1.568754911422729492e+00,1.093392753601074219e+01,3.607089519500732422e+00,1.127789306640625000e+01,8.073427200317382812e+00,1.398817062377929688e+01,5.957239627838134766e+00,-8.173279762268066406e+00,2.705143690109252930e+00,1.293803024291992188e+01,-8.222358822822570801e-01,-1.069962754845619202e-01
6.860796362161636353e-02,6.565701007843017578e+00,-2.755729675292968750e+00,-4.798266887664794922e+00,-1.217551231384277344e+00,-8.208033561706542969e+00,5.619600772857666016e+00,6.408015727996826172e+00,2.664872646331787109e+00,-2.639054954051971436e-01,1.325779151916503906e+01,5.309337615966796875e+00,1.313019847869873047e+01,9.192345619201660156e+00,1.595944881439208984e+01,7.733640670776367188e+00,-6.381829261779785156e+00,4.252313613891601562e+00,1.385658836364746094e+01,-1.312126398086547852e+00,-1.009190902113914490e-01
1.816122531890869141e+00,8.804065704345703125e+00,-1.072368264198303223e+00,-3.665561199188232422e+00,1.833318173885345459e-01,-7.189881324768066406e+00,7.202069759368896484e+00,6.853102207183837891e+00,4.495732784271240234e+00,9.301454424858093262e-01,1.475170421600341797e+01,6.504758834838867188e+00,1.415422058105468750e+01,9.678973197937011719e+00,1.702378845214843750e+01,8.794497489929199219e+00,-4.676146984100341797e+00,5.730493068695068359e+00,1.422639751434326172e+01,-1.849924206733703613e+00,-9.512475878000259399e-02
2.879141330718994141e+00,9.941625595092773438e+00,-3.214354440569877625e-02,-2.792407751083374023e+00,9.719007611274719238e-01,-6.506072521209716797e+00,8.203700065612792969e+00,6.826856613159179688e+00,5.821792125701904297e+00,1.825436353683471680e+00,1.522729396820068359e+01,7.091191768646240234e+00,1.424384784698486328e+01,9.504175186157226562e+00,1.709574508666992188e+01,9.117263793945312500e+00,-3.339821577072143555e+00,6.919935703277587891e+00,1.399292373657226562e+01,-2.371495246887207031e+00,-9.033250808715820312e-02
3.147261857986450195e+00,9.621858596801757812e+00,2.090326845645904541e-01,-2.323702096939086914e+00,1.063461780548095703e+00,-6.240613460540771484e+00,8.486926078796386719e+00,6.243978500366210938e+00,6.494129657745361328e+00,2.276544094085693359e+00,1.466591167449951172e+01,7.055369377136230469e+00,1.342895698547363281e+01,8.741325378417968750e+00,1.624577140808105469e+01,8.805176734924316406e+00,-2.580357313156127930e+00,7.643055438995361328e+00,1.317661666870117188e+01,-2.818114757537841797e+00,-8.706764131784439087e-02
2.637832880020141602e+00,7.740015506744384766e+00,-3.658924698829650879e-01,-2.323702096939086914e+00,4.946391284465789795e-01,-6.381743431091308594e+00,8.012186050415039062e+00,5.101188182830810547e+00,6.454709053039550781e+00,2.209273815155029297e+00,1.320370483398437500e+01,6.472916603088378906e+00,1.186819934844970703e+01,7.558746337890625000e+00,1.467474460601806641e+01,8.064713478088378906e+00,-2.491822242736816406e+00,7.801477432250976562e+00,1.187291145324707031e+01,-3.114058017730712891e+00,-8.556450903415679932e-02
1.483337759971618652e+00,4.516623020172119141e+00,-1.644857406616210938e+00,-2.776028156280517578e+00,-5.869249105453491211e-01,-6.837056159973144531e+00,6.852308273315429688e+00,3.485971689224243164e+00,5.749521732330322266e+00,1.634506821632385254e+00,1.108872795104980469e+01,5.497739315032958984e+00,9.816035270690917969e+00,6.150657176971435547e+00,1.266748905181884766e+01,7.168799877166748047e+00,-3.046549320220947266e+00,7.390091419219970703e+00,1.020621299743652344e+01,-3.154238224029541016e+00,-8.575037866830825806e-02
-1.143448203802108765e-01,4.588979184627532959e-01,-3.415919303894042969e+00,-3.597523212432861328e+00,-1.963773131370544434e+00,-7.443579196929931641e+00,5.172733306884765625e+00,1.563459157943725586e+00,4.518728256225585938e+00,6.373209953308105469e-01,8.628714561462402344e+00,4.338140964508056641e+00,7.568131923675537109e+00,4.718829631805419922e+00,1.053431034088134766e+01,6.366630554199218750e+00,-4.110352993011474609e+00,6.495773315429687500e+00,8.341828346252441406e+00,-2.834341287612915039e+00,-8.723735064268112183e-02
-1.940718412399291992e+00,-3.773412227630615234e+00,-5.422067165374755859e+00,-4.659670829772949219e+00,-3.403569459915161133e+00,-8.028261184692382812e+00,3.201840639114379883e+00,-4.607560932636260986e-01,2.961621046066284180e+00,-6.517000198364257812e-01,6.116479873657226562e+00,3.217018842697143555e+00,5.404705524444580078e+00,3.422955989837646484e+00,8.543544769287109375e+00,5.851628780364990234e+00,-5.488179206848144531e+00,5.256504535675048828e+00,6.426318645477294922e+00,-2.104141712188720703e+00,-8.948396891355514526e-02
-3.804944276809692383e+00,-7.555476665496826172e+00,-7.418470382690429688e+00,-5.836475372314453125e+00,-4.715180397033691406e+00,-8.451651573181152344e+00,1.173403382301330566e+00,-2.398578643798828125e+00,1.291727781295776367e+00,-2.095047473907470703e+00,3.788885831832885742e+00,2.324101448059082031e+00,3.540037870407104492e+00,2.355829238891601562e+00,6.872080326080322266e+00,5.704485416412353516e+00,-6.975290775299072266e+00,3.819208145141601562e+00,4.575568199157714844e+00,-1.030091643333435059e+00,-9.183564037084579468e-02
-5.569807529449462891e+00,-1.045358943939208984e+01,-9.217547416687011719e+00,-7.019579410552978516e+00,-5.778432369232177734e+00,-8.665026664733886719e+00,-7.075763940811157227e-01,-4.123153209686279297e+00,-3.190348744392395020e-01,-3.577965736389160156e+00,1.787677168846130371e+00,1.772164463996887207e+00,2.086421251296997070e+00,1.537950515747070312e+00,5.578382015228271484e+00,5.887228012084960938e+00,-8.409834861755371094e+00,2.296312570571899414e+00,2.866265296936035156e+00,1.644993722438812256e-01,-9.365394711494445801e-02
-7.146986961364746094e+00,-1.228581428527832031e+01,-1.070723724365234375e+01,-8.147245407104492188e+00,-6.557845115661621094e+00,-8.713749885559082031e+00,-2.295439958572387695e+00,-5.583081722259521484e+00,-1.764450669288635254e+00,-5.033184528350830078e+00,1.594804376363754272e-01,1.571821928024291992e+00,1.055188059806823730e+00,9.261600375175476074e-01,4.620475292205810547e+00,6.259832859039306641e+00,-9.690825462341308594e+00,7.478652000427246094e-01,1.322268962860107422e+00,1.131917238235473633e+00,-9.441359341144561768e-02
-8.478126525878906250e+00,-1.311279582977294922e+01,-1.183759880065917969e+01,-9.184193611145019531e+00,-7.068297863006591797e+00,-8.703669548034667969e+00,-3.503870487213134766e+00,-6.791486740112304688e+00,-3.011669397354125977e+00,-6.424100399017333984e+00,-1.103164672851562500e+00,1.634180188179016113e+00,3.834955990314483643e-01,4.503229260444641113e-01,3.890427827835083008e+00,6.638371467590332031e+00,-1.076569557189941406e+01,-8.082477450370788574e-01,-5.301260203123092651e-02,1.496630668640136719e+00,-9.372667968273162842e-02
-9.503293037414550781e+00,-1.310176944732666016e+01,-1.259888744354248047e+01,-1.010900497436523438e+01,-7.344125270843505859e+00,-8.755752563476562500e+00,-4.290609359741210938e+00,-7.783363342285156250e+00,-4.066165924072265625e+00,-7.728949546813964844e+00,-2.020773887634277344e+00,1.806660532951354980e+00,-2.343461848795413971e-02,4.138358309864997864e-02,3.269812583923339844e+00,6.851966857910156250e+00,-1.160816192626953125e+01,-2.354140043258666992e+00,-1.249354124069213867e+00,9.851046204566955566e-01,-9.139924496412277222e-02
-1.015309047698974609e+01,-1.242548179626464844e+01,-1.297770404815673828e+01,-1.088892173767089844e+01,-7.392194747924804688e+00,-8.935525894165039062e+00,-4.634975910186767578e+00,-8.571833610534667969e+00,-4.934510231018066406e+00,-8.904204368591308594e+00,-2.582156658172607422e+00,1.915455818176269531e+00,-2.449282854795455933e-01,-3.416598737239837646e-01,2.676180362701416016e+00,6.791448116302490234e+00,-1.218778991699218750e+01,-3.847650766372680664e+00,-2.232671976089477539e+00,-4.567497670650482178e-01,-8.749595284461975098e-02
-1.034866046905517578e+01,-1.119235992431640625e+01,-1.295212459564208984e+01,-1.146094417572021484e+01,-7.190760612487792969e+00,-9.216105461120605469e+00,-4.522584915161132812e+00,-9.132840156555175781e+00,-5.601372718811035156e+00,-9.880615234375000000e+00,-2.738821744918823242e+00,1.813294410705566406e+00,-3.160122931003570557e-01,-6.988074183464050293e-01,2.094540834426879883e+00,6.434269428253173828e+00,-1.245616149902343750e+01,-5.194237709045410156e+00,-2.941615104675292969e+00,-2.620304107666015625e+00,-8.231579512357711792e-02
-1.004268836975097656e+01,-9.464886665344238281e+00,-1.249047946929931641e+01,-1.175451564788818359e+01,-6.692897796630859375e+00,-9.483244895935058594e+00,-3.963325977325439453e+00,-9.412796020507812500e+00,-6.019667148590087891e+00,-1.056420230865478516e+01,-2.434817075729370117e+00,1.416589617729187012e+00,-2.387470602989196777e-01,-1.007400155067443848e+00,1.554875254631042480e+00,5.829082489013671875e+00,-1.235932636260986328e+01,-6.271251678466796875e+00,-3.318241119384765625e+00,-5.089074134826660156e+00,-7.642448693513870239e-02
-9.241480827331542969e+00,-7.318408489227294922e+00,-1.158180522918701172e+01,-1.170411682128906250e+01,-5.872282505035400391e+00,-9.585732460021972656e+00,-3.001256942749023438e+00,-9.367959976196289062e+00,-6.139023780822753906e+00,-1.087285518646240234e+01,-1.651492118835449219e+00,7.027865052223205566e-01,2.320458181202411652e-03,-1.249095201492309570e+00,1.100656747817993164e+00,5.055392742156982422e+00,-1.187100028991699219e+01,-6.963709354400634766e+00,-3.343804121017456055e+00,-7.373168945312500000e+00,-7.054125517606735229e-02
-8.031784057617187500e+00,-4.920160770416259766e+00,-1.026629924774169922e+01,-1.129588890075683594e+01,-4.759816646575927734e+00,-9.400918960571289062e+00,-1.748768806457519531e+00,-9.008172035217285156e+00,-5.947396278381347656e+00,-1.076997089385986328e+01,-4.597192406654357910e-01,-2.989261150360107422e-01,3.927674293518066406e-01,-1.431445479393005371e+00,7.423787713050842285e-01,4.183212280273437500e+00,-1.101885032653808594e+01,-7.211563110351562500e+00,-3.086471319198608398e+00,-9.062286376953125000e+00,-6.544999778270721436e-02
-6.577625274658203125e+00,-2.536614656448364258e+00,-8.657238960266113281e+00,-1.058023071289062500e+01,-3.457361698150634766e+00,-8.895202636718750000e+00,-3.829904794692993164e-01,-8.414358139038085938e+00,-5.498441696166992188e+00,-1.029116344451904297e+01,9.595908522605895996e-01,-1.531497001647949219e+00,8.687212467193603516e-01,-1.610558748245239258e+00,4.305719733238220215e-01,3.239832878112792969e+00,-9.899712562561035156e+00,-7.045475482940673828e+00,-2.706436872482299805e+00,-9.942389488220214844e+00,-6.177297979593276978e-02
-5.080882072448730469e+00,-4.783483743667602539e-01,-6.928809642791748047e+00,-9.676838874816894531e+00,-2.134305477142333984e+00,-8.149230003356933594e+00,8.757914304733276367e-01,-7.738526344299316406e+00,-4.918085098266601562e+00,-9.552177429199218750e+00,2.354655265808105469e+00,-2.939201593399047852e+00,1.312738776206970215e+00,-1.875991702079772949e+00,5.430515483021736145e-02,2.197962522506713867e+00,-8.685123443603515625e+00,-6.585540771484375000e+00,-2.423541307449340820e+00,-1.002893161773681641e+01,-5.986577644944190979e-02
-3.733971118927001953e+00,1.002868294715881348e+00,-5.283207893371582031e+00,-8.745726585388183594e+00,-9.863597154617309570e-01,-7.337731838226318359e+00,1.816281318664550781e+00,-7.151274204254150391e+00,-4.376054286956787109e+00,-8.720199584960937500e+00,3.473690748214721680e+00,-4.475603103637695312e+00,1.581621766090393066e+00,-2.329169750213623047e+00,-5.183399915695190430e-01,1.014881730079650879e+00,-7.546617984771728516e+00,-6.008067131042480469e+00,-2.449104070663452148e+00,-9.518178939819335938e+00,-5.967990681529045105e-02
-2.674106597900390625e+00,1.822499394416809082e+00,-3.911670446395874023e+00,-7.946910858154296875e+00,-1.806230843067169189e-01,-6.675764560699462891e+00,2.292820215225219727e+00,-6.798048019409179688e+00,-4.037695407867431641e+00,-7.974288940429687500e+00,4.135787010192871094e+00,-6.103551864624023438e+00,1.557927131652832031e+00,-3.040227890014648438e+00,-1.389300227165222168e+00,-3.367018699645996094e-01,-6.641901016235351562e+00,-5.495750427246093750e+00,-2.905827045440673828e+00,-8.691391944885253906e+00,-6.079513207077980042e-02
-1.956490159034729004e+00,2.096322298049926758e+00,-2.940875053405761719e+00,-7.393787860870361328e+00,1.936324238777160645e-01,-6.343100547790527344e+00,2.270341873168945312e+00,-6.745556354522705078e+00,-4.002655029296875000e+00,-7.458878517150878906e+00,4.299911975860595703e+00,-7.781918048858642578e+00,1.192205071449279785e+00,-4.012403011322021484e+00,-2.570568323135375977e+00,-1.835428953170776367e+00,-6.060889720916748047e+00,-5.184017181396484375e+00,-3.769851684570312500e+00,-7.816697597503662109e+00,-6.253262609243392944e-02
-1.557463765144348145e+00,2.088971376419067383e+00,-2.408582210540771484e+00,-7.122896194458007812e+00,1.455629020929336548e-01,-6.435507297515869141e+00,1.835163116455078125e+00,-6.964272022247314453e+00,-4.278598308563232422e+00,-7.241238594055175781e+00,4.072374820709228516e+00,-9.454977035522460938e+00,5.318448543548583984e-01,-5.168007373809814453e+00,-3.961706161499023438e+00,-3.386368036270141602e+00,-5.802201747894287109e+00,-5.130357742309570312e+00,-4.855420589447021484e+00,-7.098861217498779297e+00,-6.414889544248580933e-02
-1.391860008239746094e+00,2.087133646011352539e+00,-2.264850854873657227e+00,-7.091397285461425781e+00,-2.195364981889724731e-01,-6.944583892822265625e+00,1.170706033706665039e+00,-7.345931529998779297e+00,-4.772448539733886719e+00,-7.303562641143798828e+00,3.658331632614135742e+00,-1.104710292816162109e+01,-2.881968021392822266e-01,-6.353823661804199219e+00,-5.358840465545654297e+00,-4.835256099700927734e+00,-5.786984920501708984e+00,-5.300278186798095703e+00,-5.860893249511718750e+00,-6.667695999145507812e+00,-6.499744206666946411e-02
-1.347698926925659180e+00,2.259881019592285156e+00,-2.391529321670532227e+00,-7.193453788757324219e+00,-7.345669865608215332e-01,-7.766162395477294922e+00,4.981568455696105957e-01,-7.742900848388671875e+00,-5.325429439544677734e+00,-7.547913074493408203e+00,3.298375129699707031e+00,-1.247205638885498047e+01,-1.076302170753479004e+00,-7.379948616027832031e+00,-6.510127067565917969e+00,-6.007657051086425781e+00,-5.890736579895019531e+00,-5.597958564758300781e+00,-6.450542926788330078e+00,-6.589653491973876953e+00,-6.469035148620605469e-02
-1.316155433654785156e+00,2.577809572219848633e+00,-2.633923530578613281e+00,-7.294250965118408203e+00,-1.209539532661437988e+00,-8.733911514282226562e+00,1.532407756894826889e-02,-8.018483161926269531e+00,-5.760149478912353516e+00,-7.828866004943847656e+00,3.175281286239624023e+00,-1.364757537841796875e+01,-1.643944144248962402e+00,-8.067268371582031250e+00,-7.172716140747070312e+00,-6.752867221832275391e+00,-5.977888584136962891e+00,-5.889250278472900391e+00,-6.358516693115234375e+00,-6.886369228363037109e+00,-6.310640275478363037e-02
-1.205752849578857422e+00,2.813040018081665039e+00,-2.838557958602905273e+00,-7.269051551818847656e+00,-1.476210951805114746e+00,-9.663018226623535156e+00,-1.537123471498489380e-01,-8.086284637451171875e+00,-5.933161258697509766e+00,-7.997042179107666016e+00,3.376707792282104492e+00,-1.452457141876220703e+01,-1.856165885925292969e+00,-8.301410675048828125e+00,-7.193703174591064453e+00,-6.989008903503417969e+00,-5.937770843505859375e+00,-6.045117378234863281e+00,-5.451887607574462891e+00,-7.526163101196289062e+00,-6.034257635474205017e-02
-9.565585255622863770e-01,2.653156995773315430e+00,-2.884844303131103516e+00,-7.035958766937255859e+00,-1.426996946334838867e+00,-1.038714981079101562e+01,1.712233759462833405e-02,-7.932089805603027344e+00,-5.773289680480957031e+00,-7.939664363861083984e+00,3.878408670425415039e+00,-1.509773731231689453e+01,-1.664548158645629883e+00,-8.056478500366210938e+00,-6.543106555938720703e+00,-6.726761341094970703e+00,-5.708133220672607422e+00,-5.971016883850097656e+00,-3.783485174179077148e+00,-8.410129547119140625e+00,-5.667363852262496948e-02
-5.291429758071899414e-01,1.853740930557250977e+00,-2.703353166580200195e+00,-6.569772720336914062e+00,-1.017261505126953125e+00,-1.077525711059570312e+01,4.648890495300292969e-01,-7.607296943664550781e+00,-5.291484355926513672e+00,-7.613204956054687500e+00,4.568480491638183594e+00,-1.541483592987060547e+01,-1.115449905395507812e+00,-7.412318229675292969e+00,-5.316866397857666016e+00,-6.069362640380859375e+00,-5.280674934387207031e+00,-5.628620624542236328e+00,-1.545883297920227051e+00,-9.364411354064941406e+00,-5.239859968423843384e-02
7.964821904897689819e-02,3.651733100414276123e-01,-2.285557985305786133e+00,-5.909553050994873047e+00,-2.836291790008544922e-01,-1.074669551849365234e+01,1.066406965255737305e+00,-7.205953121185302734e+00,-4.575346469879150391e+00,-7.052288055419921875e+00,5.297718524932861328e+00,-1.556210708618164062e+01,-3.304351568222045898e-01,-6.529699802398681641e+00,-3.718856573104858398e+00,-5.187688350677490234e+00,-4.698280811309814453e+00,-5.038371086120605469e+00,9.626848101615905762e-01,-1.016183567047119141e+01,-4.787303879857063293e-02
8.414257764816284180e-01,-1.610394835472106934e+00,-1.688707590103149414e+00,-5.140976428985595703e+00,6.743275523185729980e-01,-1.027962207794189453e+01,1.676916241645812988e+00,-6.830855369567871094e+00,-3.760657548904418945e+00,-6.360786914825439453e+00,5.913188457489013672e+00,-1.564436721801757812e+01,5.287542343139648438e-01,-5.608237743377685547e+00,-1.988928675651550293e+00,-4.276348590850830078e+00,-4.045334815979003906e+00,-4.292254447937011719e+00,3.421831369400024414e+00,-1.057445716857910156e+01,-4.337171837687492371e-02
1.683639526367187500e+00,-3.677850008010864258e+00,-1.024863958358764648e+00,-4.395079135894775391e+00,1.703244090080261230e+00,-9.416040420532226562e+00,2.164244651794433594e+00,-6.568396568298339844e+00,-3.006194353103637695e+00,-5.688082218170166016e+00,6.291795253753662109e+00,-1.575183582305908203e+01,1.298316001892089844e+00,-4.837834835052490234e+00,-3.639356493949890137e-01,-3.514525413513183594e+00,-3.438040256500244141e+00,-3.519308328628540039e+00,5.550364971160888672e+00,-1.044927978515625000e+01,-3.912092372775077820e-02
2.497463941574096680e+00,-5.385108470916748047e+00,-4.401942491531372070e-01,-3.797857284545898438e+00,2.619998455047607422e+00,-8.253396987915039062e+00,2.431286096572875977e+00,-6.463412761688232422e+00,-2.463068246841430664e+00,-5.188499927520751953e+00,6.342152118682861328e+00,-1.592298889160156250e+01,1.850504755973815918e+00,-4.355523586273193359e+00,9.927236437797546387e-01,-3.018509626388549805e+00,-2.998131752014160156e+00,-2.885620355606079102e+00,7.160824775695800781e+00,-9.759260177612304688e+00,-3.522570803761482239e-02
3.153570413589477539e+00,-6.355433940887451172e+00,-9.061051160097122192e-02,-3.472787141799926758e+00,3.247191190719604492e+00,-6.946263790130615234e+00,2.431286096572875977e+00,-6.518091678619384766e+00,-2.251730918884277344e+00,-4.985699176788330078e+00,6.013901710510253906e+00,-1.614057922363281250e+01,2.111146211624145508e+00,-4.212017059326171875e+00,2.004596471786499023e+00,-2.826273679733276367e+00,-2.834895372390747070e+00,-2.550889968872070312e+00,8.176522254943847656e+00,-8.615667343139648438e+00,-3.162950277328491211e-02
3.546288251876831055e+00,-6.421592712402343750e+00,-1.015730649232864380e-01,-3.501766204833984375e+00,3.452058792114257812e+00,-5.669372558593750000e+00,2.168740272521972656e+00,-6.688690185546875000e+00,-2.448833227157592773e+00,-5.145961284637451172e+00,5.301448822021484375e+00,-1.632765388488769531e+01,2.073028802871704102e+00,-4.366313457489013672e+00,2.701664686203002930e+00,-2.880859136581420898e+00,-3.016115427017211914e+00,-2.641599178314208984e+00,8.628132820129394531e+00,-7.225584030151367188e+00,-2.814643457531929016e-02
3.626724243164062500e+00,-5.625852108001708984e+00,-5.278946757316589355e-01,-3.918813467025756836e+00,3.188821077346801758e+00,-4.599136352539062500e+00,1.702091813087463379e+00,-6.907406330108642578e+00,-3.070800065994262695e+00,-5.668296813964843750e+00,4.253285408020019531e+00,-1.637674522399902344e+01,1.793843626976013184e+00,-4.702960491180419922e+00,3.203853368759155273e+00,-3.051735401153564453e+00,-3.550092220306396484e+00,-3.225461006164550781e+00,8.641766548156738281e+00,-5.817728042602539062e+00,-2.447749674320220947e-02
3.434308528900146484e+00,-4.168526172637939453e+00,-1.335469722747802734e+00,-4.696209907531738281e+00,2.516992330551147461e+00,-3.890125751495361328e+00,1.129346013069152832e+00,-7.098782539367675781e+00,-4.070546150207519531e+00,-6.486424446105957031e+00,2.998100757598876953e+00,-1.619099617004394531e+01,1.379701972007751465e+00,-5.063344955444335938e+00,3.683556079864501953e+00,-3.159719705581665039e+00,-4.378724575042724609e+00,-4.288421630859375000e+00,8.406587600708007812e+00,-4.564412117004394531e+00,-2.032367698848247528e-02
3.090483427047729492e+00,-2.314248561859130859e+00,-2.387875080108642578e+00,-5.755837440490722656e+00,1.607105016708374023e+00,-3.617946147918701172e+00,5.781794190406799316e-01,-7.199391841888427734e+00,-5.333094596862792969e+00,-7.493503093719482422e+00,1.727995276451110840e+00,-1.571468544006347656e+01,9.665905833244323730e-01,-5.285617828369140625e+00,4.335651874542236328e+00,-3.022069454193115234e+00,-5.384427070617675781e+00,-5.739771842956542969e+00,8.125396728515625000e+00,-3.539041996002197266e+00,-1.548294257372617722e-02
2.773470401763916016e+00,-3.129519820213317871e-01,-3.481694459915161133e+00,-6.975480556488037109e+00,6.949287652969360352e-01,-3.796038866043090820e+00,1.735709458589553833e-01,-7.175333023071289062e+00,-6.690909385681152344e+00,-8.560927391052246094e+00,6.705066561698913574e-01,-1.495975303649902344e+01,6.894659399986267090e-01,-5.244616031646728516e+00,5.319042682647705078e+00,-2.498760938644409180e+00,-6.415030002593994141e+00,-7.423644065856933594e+00,7.982244491577148438e+00,-2.723072767257690430e+00,-9.931047447025775909e-03
2.647295951843261719e+00,1.646076560020446777e+00,-4.384278297424316406e+00,-8.214022636413574219e+00,2.882265858352184296e-02,-4.357199192047119141e+00,9.030167944729328156e-03,-7.029887199401855469e+00,-7.946888446807861328e+00,-9.559102058410644531e+00,3.825158253312110901e-02,-1.400182342529296875e+01,6.534088253974914551e-01,-4.875599384307861328e+00,6.723672389984130859e+00,-1.531648874282836914e+00,-7.322514057159423828e+00,-9.147122383117675781e+00,8.098129272460937500e+00,-2.055461883544921875e+00,-3.845782252028584480e-03
2.817631244659423828e+00,3.410305023193359375e+00,-4.893428325653076172e+00,-9.325308799743652344e+00,-2.035133242607116699e-01,-5.172057151794433594e+00,1.232196688652038574e-01,-6.801329135894775391e+00,-8.909403800964355469e+00,-1.037327289581298828e+01,-4.194596409797668457e-02,-1.295765399932861328e+01,9.047783613204956055e-01,-4.180726528167724609e+00,8.536048889160156250e+00,-1.539592146873474121e-01,-7.992059707641601562e+00,-1.071601104736328125e+01,8.502022743225097656e+00,-1.495255827903747559e+00,2.465760800987482071e-03
3.293939352035522461e+00,4.849253654479980469e+00,-4.882465839385986328e+00,-1.017956352233886719e+01,7.689217478036880493e-02,-6.069241046905517578e+00,4.855690300464630127e-01,-6.543244361877441406e+00,-9.424059867858886719e+00,-1.090649032592773438e+01,4.411043822765350342e-01,-1.194532775878906250e+01,1.426061153411865234e+00,-3.221499204635620117e+00,1.064374256134033203e+01,1.513270735740661621e+00,-8.358650207519531250e+00,-1.195783519744873047e+01,9.135981559753417969e+00,-1.061772227287292480e+00,8.680327795445919037e-03
4.003670215606689453e+00,5.828767776489257812e+00,-4.333119869232177734e+00,-1.067094802856445312e+01,8.242586851119995117e-01,-6.870658397674560547e+00,1.013358354568481445e+00,-6.303750514984130859e+00,-9.405444145202636719e+00,-1.108554840087890625e+01,1.368038892745971680e+00,-1.104843044281005859e+01,2.138961791992187500e+00,-2.084237813949584961e+00,1.285337352752685547e+01,3.297978162765502930e+00,-8.412601470947265625e+00,-1.274866771697998047e+01,9.875599861145019531e+00,-8.376898765563964844e-01,1.452315133064985275e-02
4.822226047515869141e+00,6.247772216796875000e+00,-3.327000617980957031e+00,-1.072512626647949219e+01,1.885221481323242188e+00,-7.403256416320800781e+00,1.594196200370788574e+00,-6.104718685150146484e+00,-8.851367950439453125e+00,-1.086593055725097656e+01,2.535565853118896484e+00,-1.029482364654541016e+01,2.931187868118286133e+00,-8.509458303451538086e-01,1.494607639312744141e+01,5.031660079956054688e+00,-8.182963371276855469e+00,-1.302207374572753906e+01,1.057261371612548828e+01,-9.304136037826538086e-01,1.987301185727119446e-02
5.631319046020507812e+00,6.076862335205078125e+00,-2.017584323883056641e+00,-1.030555915832519531e+01,3.050334930419921875e+00,-7.539346218109130859e+00,2.128279447555541992e+00,-5.928652763366699219e+00,-7.842862129211425781e+00,-1.023873233795166016e+01,3.719878673553466797e+00,-9.657973289489746094e+00,3.681175708770751953e+00,4.179530739784240723e-01,1.671947860717773438e+01,6.588532447814941406e+00,-7.725071430206298828e+00,-1.277677536010742188e+01,1.111795425415039062e+01,-1.410259008407592773e+00,2.475415542721748352e-02
6.356821537017822266e+00,5.417114734649658203e+00,-5.997603535652160645e-01,-9.421066284179687500e+00,4.110153198242187500e+00,-7.196601867675781250e+00,2.549971342086791992e+00,-5.729621410369873047e+00,-6.532132625579833984e+00,-9.239567756652832031e+00,4.741930961608886719e+00,-9.083480834960937500e+00,4.290025711059570312e+00,1.691167950630187988e+00,1.804015922546386719e+01,7.908076763153076172e+00,-7.101176261901855469e+00,-1.207792949676513672e+01,1.145879268646240234e+01,-2.271817207336425781e+00,2.926355414092540741e-02
6.970344066619873047e+00,4.483543872833251953e+00,7.327992916107177734e-01,-8.129605293273925781e+00,4.894144058227539062e+00,-6.359901905059814453e+00,2.834096431732177734e+00,-5.452945709228515625e+00,-5.115187168121337891e+00,-7.959449768066406250e+00,5.497280120849609375e+00,-8.518276214599609375e+00,4.689744472503662109e+00,2.947118759155273438e+00,1.885715293884277344e+01,8.992666244506835938e+00,-6.377679347991943359e+00,-1.105201911926269531e+01,1.161557865142822266e+01,-3.420046329498291016e+00,3.353051468729972839e-02
7.464001178741455078e+00,3.560999393463134766e+00,1.814438104629516602e+00,-6.552133560180664062e+00,5.298157215118408203e+00,-5.084691047668457031e+00,2.978856325149536133e+00,-5.072380065917968750e+00,-3.809933185577392578e+00,-6.539844989776611328e+00,5.957949638366699219e+00,-7.947764873504638672e+00,4.838093757629394531e+00,4.150198936462402344e+00,1.918395042419433594e+01,9.867220878601074219e+00,-5.630665302276611328e+00,-9.875352859497070312e+00,1.164625358581542969e+01,-4.694225311279296875e+00,3.764392435550689697e-02
7.810980796813964844e+00,2.901251554489135742e+00,2.517259836196899414e+00,-4.848665237426757812e+00,5.275266647338867188e+00,-3.480176448822021484e+00,2.978856325149536133e+00,-4.608702182769775391e+00,-2.824422359466552734e+00,-5.156843185424804688e+00,6.129535198211669922e+00,-7.407768726348876953e+00,4.710348606109619141e+00,5.220562934875488281e+00,1.907451820373535156e+01,1.054123210906982422e+01,-4.943135261535644531e+00,-8.756177902221679688e+00,1.160876178741455078e+01,-5.915088176727294922e+00,4.159571230411529541e-02
7.941886425018310547e+00,2.634779453277587891e+00,2.759654045104980469e+00,-3.223314762115478516e+00,4.827762603759765625e+00,-1.709329962730407715e+00,2.808021545410156250e+00,-4.137369632720947266e+00,-2.322906732559204102e+00,-3.994449138641357422e+00,6.015766620635986328e+00,-6.981874942779541016e+00,4.290025711059570312e+00,6.030888557434082031e+00,1.858432197570800781e+01,1.097554302215576172e+01,-4.413308620452880859e+00,-7.887412071228027344e+00,1.151332664489746094e+01,-6.926549911499023438e+00,4.533738270401954651e-02
7.749470710754394531e+00,2.730341911315917969e+00,2.513605594635009766e+00,-1.878935575485229492e+00,3.994557619094848633e+00,4.303511977195739746e-02,2.416900157928466797e+00,-3.774301290512084961e+00,-2.395177602767944336e+00,-3.208967208862304688e+00,5.590533256530761719e+00,-6.780205726623535156e+00,3.566823244094848633e+00,6.427958965301513672e+00,1.775683403015136719e+01,1.107759380340576172e+01,-4.133870124816894531e+00,-7.419811248779296875e+00,1.131393623352050781e+01,-7.616569042205810547e+00,4.878812283277511597e-02
7.140679359436035156e+00,3.039081811904907227e+00,1.812002062797546387e+00,-9.831027388572692871e-01,2.848900794982910156e+00,1.590425610542297363e+00,1.763232707977294922e+00,-3.637603998184204102e+00,-3.032474517822265625e+00,-2.899325370788574219e+00,4.814668178558349609e+00,-6.906249046325683594e+00,2.555163621902465820e+00,6.271504402160644531e+00,1.661004638671875000e+01,1.072872161865234375e+01,-4.172604084014892578e+00,-7.421089172363281250e+00,1.091174793243408203e+01,-7.910194396972656250e+00,5.187520384788513184e-02
6.079237937927246094e+00,3.375387907028198242e+00,7.547243833541870117e-01,-6.416531205177307129e-01,1.502954483032226562e+00,2.771549940109252930e+00,8.380279541015625000e-01,-3.808202266693115234e+00,-4.115441322326660156e+00,-3.088276147842407227e+00,3.675117254257202148e+00,-7.425016403198242188e+00,1.311708569526672363e+00,5.484916687011718750e+00,1.517543506622314453e+01,9.829247474670410156e+00,-4.551644802093505859e+00,-7.858026981353759766e+00,1.020621299743652344e+01,-7.757972717285156250e+00,5.459862202405929565e-02
4.640850543975830078e+00,3.628995656967163086e+00,-4.974431395530700684e-01,-8.671863079071044922e-01,1.100830286741256714e-01,3.463759422302246094e+00,-2.966740131378173828e-01,-4.302500247955322266e+00,-5.433835983276367188e+00,-3.726356506347656250e+00,2.220371007919311523e+00,-8.341815948486328125e+00,-5.125010386109352112e-02,4.093012332916259766e+00,1.349497604370117188e+01,8.348320960998535156e+00,-5.233641147613525391e+00,-8.600311279296875000e+00,9.141094207763671875e+00,-7.124360561370849609e+00,5.702302977442741394e-02
3.005315780639648438e+00,3.831146955490112305e+00,-1.742302298545837402e+00,-1.591664314270019531e+00,-1.151169419288635254e+00,3.606569528579711914e+00,-1.514095902442932129e+00,-5.062537670135498047e+00,-6.721570014953613281e+00,-4.704746246337890625e+00,5.903091430664062500e-01,-9.595615386962890625e+00,-1.377121448516845703e+00,2.233902692794799805e+00,1.164961910247802734e+01,6.354764461517333984e+00,-6.123141288757324219e+00,-9.460133552551269531e+00,7.724911689758300781e+00,-5.993903160095214844e+00,5.927772819995880127e-02
1.429713606834411621e+00,4.128860473632812500e+00,-2.769128322601318359e+00,-2.677751302719116211e+00,-2.106837272644042969e+00,3.203340768814086914e+00,-2.636210203170776367e+00,-5.971302032470703125e+00,-7.714745998382568359e+00,-5.880990028381347656e+00,-1.002451539039611816e+00,-1.105904388427734375e+01,-2.491801261901855469e+00,1.341772079467773438e-01,9.751795768737792969e+00,4.005216121673583984e+00,-7.088726043701171875e+00,-1.023691272735595703e+01,6.059917926788330078e+00,-4.401372909545898438e+00,6.152434647083282471e-02
1.632387191057205200e-01,4.720612049102783203e+00,-3.402520656585693359e+00,-3.950312614440917969e+00,-2.621867656707763672e+00,2.329678297042846680e+00,-3.481392145156860352e+00,-6.883347511291503906e+00,-8.207501411437988281e+00,-7.108676433563232422e+00,-2.309858083724975586e+00,-1.255962276458740234e+01,-3.242819309234619141e+00,-1.931020498275756836e+00,7.919930934906005859e+00,1.528697133064270020e+00,-7.994826793670654297e+00,-1.076455974578857422e+01,4.313122749328613281e+00,-2.455719470977783203e+00,6.391642987728118896e-02
-6.032703518867492676e-01,5.725854396820068359e+00,-3.540161609649658203e+00,-5.226653575897216797e+00,-2.635601758956909180e+00,1.131752848625183105e+00,-3.905781507492065430e+00,-7.659788608551025391e+00,-8.096904754638671875e+00,-8.249306678771972656e+00,-3.108103513717651367e+00,-1.389435482025146484e+01,-3.539517879486083984e+00,-3.702731370925903320e+00,6.260459423065185547e+00,-8.303443193435668945e-01,-8.719707489013671875e+00,-1.095364475250244141e+01,2.671987771987915039e+00,-3.555263578891754150e-01,6.656711548566818237e-02
-7.956862449645996094e-01,7.100482463836669922e+00,-3.160126209259033203e+00,-6.339200019836425781e+00,-2.170929908752441406e+00,-1.854611933231353760e-01,-3.833851099014282227e+00,-8.200016975402832031e+00,-7.391717433929443359e+00,-9.184167861938476562e+00,-3.255443096160888672e+00,-1.486157131195068359e+01,-3.368504047393798828e+00,-4.980262279510498047e+00,4.851332664489746094e+00,-2.858313083648681641e+00,-9.177598953247070312e+00,-1.079394435882568359e+01,1.303522825241088867e+00,1.630307435989379883e+00,6.946024298667907715e-02
-4.471296370029449463e-01,8.598238945007324219e+00,-2.325753927230834961e+00,-7.145575523376464844e+00,-1.327424407005310059e+00,-1.388427019119262695e+00,-3.263802766799926758e+00,-8.453727722167968750e+00,-6.199249267578125000e+00,-9.817301750183105469e+00,-2.727631330490112305e+00,-1.528746509552001953e+01,-2.801892280578613281e+00,-5.658950328826904297e+00,3.721032857894897461e+00,-4.411625385284423828e+00,-9.324234962463378906e+00,-1.033784294128417969e+01,3.082757294178009033e-01,3.210474729537963867e+00,7.246650755405426025e-02
3.241110146045684814e-01,9.836874008178710938e+00,-1.153978466987609863e+00,-7.541203498840332031e+00,-2.504383325576782227e-01,-2.250328540802001953e+00,-2.260373830795288086e+00,-8.427481651306152344e+00,-4.695797920227050781e+00,-1.008044815063476562e+01,-1.612325906753540039e+00,-1.506456756591796875e+01,-1.973609089851379395e+00,-5.740953922271728516e+00,2.860566139221191406e+00,-5.445189476013183594e+00,-9.151315689086914062e+00,-9.674770355224609375e+00,-3.052327632904052734e-01,4.136939525604248047e+00,7.535155862569808960e-02
1.369780778884887695e+00,1.041208648681640625e+01,2.151229977607727051e-01,-7.474425315856933594e+00,9.100970625877380371e-01,-2.601473569869995117e+00,-9.323588609695434570e-01,-8.177051544189453125e+00,-3.075180053710937500e+00,-9.943928718566894531e+00,-9.230256825685501099e-02,-1.417165088653564453e+01,-1.053637742996215820e+00,-5.326619625091552734e+00,2.214466571807861328e+00,-6.014777183532714844e+00,-8.667139053344726562e+00,-8.899269104003906250e+00,-6.119869947433471680e-01,4.266752719879150391e+00,7.780020684003829956e-02
2.549510955810546875e+00,1.003534984588623047e+01,1.640255331993103027e+00,-6.946501255035400391e+00,2.022562980651855469e+00,-2.371297121047973633e+00,5.808768272399902344e-01,-7.794299125671386719e+00,-1.519168019294738770e+00,-9.427529335021972656e+00,1.586250782012939453e+00,-1.269893360137939453e+01,-2.202034145593643188e-01,-4.593981742858886719e+00,1.701784253120422363e+00,-6.260411739349365234e+00,-7.914591789245605469e+00,-8.096938133239746094e+00,-7.807018756866455078e-01,3.597596406936645508e+00,7.948921620845794678e-02
3.746589899063110352e+00,8.644182205200195312e+00,3.000830411911010742e+00,-6.029249191284179688e+00,2.995398283004760742e+00,-1.608522772789001465e+00,2.129178524017333984e+00,-7.386394023895263672e+00,-1.733982861042022705e-01,-8.606433868408203125e+00,3.167821168899536133e+00,-1.083481979370117188e+01,3.670123517513275146e-01,-3.770708084106445312e+00,1.214586138725280762e+00,-6.382635593414306641e+00,-6.966990470886230469e+00,-7.335490226745605469e+00,-1.014175891876220703e+00,2.264692306518554688e+00,8.018421381711959839e-02
4.874272823333740234e+00,6.448085784912109375e+00,4.199403285980224609e+00,-4.849925041198730469e+00,3.778244733810424805e+00,-4.694014489650726318e-01,3.555198669433593750e+00,-7.057226657867431641e+00,8.679581284523010254e-01,-7.609247684478759766e+00,4.423006057739257812e+00,-8.832721710205078125e+00,5.895362496376037598e-01,-3.085545778274536133e+00,6.434400677680969238e-01,-6.593857765197753906e+00,-5.918404102325439453e+00,-6.669862270355224609e+00,-1.516912102699279785e+00,5.029410719871520996e-01,7.974781841039657593e-02
5.855278491973876953e+00,3.875252485275268555e+00,5.161672115325927734e+00,-3.576103925704956055e+00,4.351645469665527344e+00,8.259710073471069336e-01,4.715975284576416016e+00,-6.884440898895263672e+00,1.564385771751403809e+00,-6.595244407653808594e+00,5.187680244445800781e+00,-6.963300228118896484e+00,3.886466324329376221e-01,-2.735951185226440430e+00,-9.860008955001831055e-02,-7.076820373535156250e+00,-4.878117561340332031e+00,-6.146047592163085938e+00,-2.430357933044433594e+00,-1.414122581481933594e+00,7.819619774818420410e-02
6.620210647583007812e+00,1.465978264808654785e+00,5.851094722747802734e+00,-2.374100446701049805e+00,4.723611831665039062e+00,2.042377948760986328e+00,5.493722915649414062e+00,-6.891002655029296875e+00,1.926834702491760254e+00,-5.716771125793457031e+00,5.385376453399658203e+00,-5.442819595336914062e+00,-2.202034145593643188e-01,-2.835218906402587891e+00,-1.047512054443359375e+00,-7.934761524200439453e+00,-3.952650070190429688e+00,-5.792152881622314453e+00,-3.786893606185913086e+00,-3.240780591964721680e+00,7.566673308610916138e-02
7.110713005065917969e+00,-2.614953219890594482e-01,6.264018058776855469e+00,-1.367391109466552734e+00,4.922757148742675781e+00,2.998366117477416992e+00,5.824602603912353516e+00,-7.039729118347167969e+00,2.016625642776489258e+00,-5.079679965972900391e+00,5.036610603332519531e+00,-4.389363288879394531e+00,-1.136053919792175293e+00,-3.387664556503295898e+00,-2.167318105697631836e+00,-9.166494369506835938e+00,-3.209785938262939453e+00,-5.613289356231689453e+00,-5.484267234802246094e+00,-4.798539638519287109e+00,7.239377498626708984e-02
7.293665885925292969e+00,-9.488092660903930664e-01,6.438200950622558594e+00,-6.088941097259521484e-01,4.997150421142578125e+00,3.596488714218139648e+00,5.714009761810302734e+00,-7.225637912750244141e+00,1.933404803276062012e+00,-4.719585418701171875e+00,4.247690200805664062e+00,-3.789662361145019531e+00,-2.177589178085327148e+00,-4.275678157806396484e+00,-3.336593627929687500e+00,-1.064504814147949219e+01,-2.663358926773071289e+00,-5.578794479370117188e+00,-7.299229621887207031e+00,-5.994676113128662109e+00,6.864402443170547485e-02
7.187994956970214844e+00,-4.783483743667602539e-01,6.451599597930908203e+00,-7.089048624038696289e-02,5.012029170989990234e+00,3.833385705947875977e+00,5.238369941711425781e+00,-7.301094532012939453e+00,1.797623276710510254e+00,-4.586033344268798828e+00,3.190201759338378906e+00,-3.519001007080078125e+00,-3.109923124313354492e+00,-5.282381057739257812e+00,-4.370952606201171875e+00,-1.215089511871337891e+01,-2.264951229095458984e+00,-5.620954990386962891e+00,-8.921618461608886719e+00,-6.803690910339355469e+00,6.465991586446762085e-02
6.863096237182617188e+00,1.004706025123596191e+00,6.405313014984130859e+00,3.335572183132171631e-01,5.036063671112060547e+00,3.784662246704101562e+00,4.534350872039794922e+00,-7.112998962402343750e+00,1.725352525711059570e+00,-4.569215774536132812e+00,2.076761484146118164e+00,-3.378363132476806641e+00,-3.684776544570922852e+00,-6.144498348236083984e+00,-5.059026241302490234e+00,-1.340873432159423828e+01,-1.926028132438659668e+00,-5.650339603424072266e+00,-1.003786373138427734e+01,-7.236401557922363281e+00,6.063539907336235046e-02
6.432526111602783203e+00,3.134644269943237305e+00,6.400440692901611328e+00,7.115457057952880859e-01,5.126480102539062500e+00,3.566246509552001953e+00,3.765594959259033203e+00,-6.544337749481201172e+00,1.799813270568847656e+00,-4.532612800598144531e+00,1.119985938072204590e+00,-3.166079759597778320e+00,-3.698168992996215820e+00,-6.611703395843505859e+00,-5.223924160003662109e+00,-1.415394496917724609e+01,-1.548370957374572754e+00,-5.581349372863769531e+00,-1.039744758605957031e+01,-7.312898635864257812e+00,5.665936693549156189e-02
6.020882129669189453e+00,5.428141117095947266e+00,6.511284351348876953e+00,1.150012373924255371e+00,5.308457851409912109e+00,3.290706872940063477e+00,3.085852861404418945e+00,-5.563396930694580078e+00,2.047286033630371094e+00,-4.361468791961669922e+00,5.063814520835876465e-01,-2.730898618698120117e+00,-3.038839101791381836e+00,-6.523225784301757812e+00,-4.766707420349121094e+00,-1.420022392272949219e+01,-1.064195156097412109e+00,-5.369268417358398438e+00,-9.891303062438964844e+00,-7.052499294281005859e+00,5.271566286683082581e-02
5.724372863769531250e+00,7.398196220397949219e+00,6.762205123901367188e+00,1.681716203689575195e+00,5.563683986663818359e+00,3.055490255355834961e+00,2.608414888381958008e+00,-4.237978935241699219e+00,2.426160097122192383e+00,-4.002363204956054688e+00,3.683670759201049805e-01,-2.019748926162719727e+00,-1.716058254241943359e+00,-5.845616817474365234e+00,-3.702366828918457031e+00,-1.348349285125732422e+01,-4.652004539966583252e-01,-5.024317264556884766e+00,-8.567147254943847656e+00,-6.481475830078125000e+00,4.868306592106819153e-02
5.582426548004150391e+00,8.662559509277343750e+00,7.122751235961914062e+00,2.280198097229003906e+00,5.833788871765136719e+00,2.921080589294433594e+00,2.385430574417114258e+00,-2.728839635848999023e+00,2.844454765319824219e+00,-3.481017112731933594e+00,7.674897909164428711e-01,-1.069780468940734863e+00,1.372770667076110840e-01,-4.683538436889648438e+00,-2.155325651168823242e+00,-1.207376384735107422e+01,1.891286224126815796e-01,-4.624429702758789062e+00,-6.620962142944335938e+00,-5.658552169799804688e+00,4.434337466955184937e-02
5.565077304840087891e+00,9.046647071838378906e+00,7.522275924682617188e+00,2.874899864196777344e+00,6.039801120758056641e+00,2.916040182113647461e+00,2.406110525131225586e+00,-1.249226808547973633e+00,3.179528474807739258e+00,-2.882507562637329102e+00,1.673908591270446777e+00,1.021168474107980728e-02,2.298643112182617188e+00,-3.242000102996826172e+00,-3.339542448520660400e-01,-1.015140628814697266e+01,7.991902232170104980e-01,-4.284588813781738281e+00,-4.344163894653320312e+00,-4.684180259704589844e+00,3.943798691034317017e-02
5.590312480926513672e+00,8.605589866638183594e+00,7.873077392578125000e+00,3.383924484252929688e+00,6.114194393157958984e+00,3.058850288391113281e+00,2.620103597640991211e+00,7.343721808865666389e-04,3.322974920272827148e+00,-2.327526330947875977e+00,2.983180284500122070e+00,1.107451796531677246e+00,4.514609813690185547e+00,-1.762697100639343262e+00,1.545880794525146484e+00,-7.950187683105468750e+00,1.255698800086975098e+00,-4.121056556701660156e+00,-2.045211076736450195e+00,-3.697444915771484375e+00,3.373254835605621338e-02
5.576117992401123047e+00,7.622400283813476562e+00,8.106945037841796875e+00,3.745533466339111328e+00,6.029500484466552734e+00,3.354551553726196289e+00,2.959974527359008789e+00,8.941886425018310547e-01,3.213473796844482422e+00,-1.921924829483032227e+00,4.521853923797607422e+00,2.147640705108642578e+00,6.567804813385009766e+00,-4.430854618549346924e-01,3.310287475585937500e+00,-5.683704376220703125e+00,1.488103270530700684e+00,-4.213043212890625000e+00,1.856338977813720703e-02,-2.833568572998046875e+00,2.709774859249591827e-02
5.473601341247558594e+00,6.538134574890136719e+00,8.195863723754882812e+00,3.944607496261596680e+00,5.816621303558349609e+00,3.804823637008666992e+00,3.366381406784057617e+00,1.423481106758117676e+00,2.858689785003662109e+00,-1.719124197959899902e+00,6.090368747711181641e+00,3.142719507217407227e+00,8.320179939270019531e+00,6.175672411918640137e-01,4.879814624786376953e+00,-3.493165731430053711e+00,1.483953237533569336e+00,-4.572048187255859375e+00,1.704007625579833984e+00,-2.184502363204956055e+00,1.953359507024288177e-02
5.304842948913574219e+00,5.830605506896972656e+00,8.162976264953613281e+00,4.006345748901367188e+00,5.563683986663818359e+00,4.399586200714111328e+00,3.801560163497924805e+00,1.695782303810119629e+00,2.327609062194824219e+00,-1.709231495857238770e+00,7.498488903045654297e+00,4.182908535003662109e+00,9.737739562988281250e+00,1.441919922828674316e+00,6.270952701568603516e+00,-1.416544795036315918e+00,1.298583030700683594e+00,-5.140578746795654297e+00,2.982150316238403320e+00,-1.764154672622680664e+00,1.122595649212598801e-02
5.153433799743652344e+00,5.902277469635009766e+00,8.072839736938476562e+00,3.983666181564331055e+00,5.383995532989501953e+00,5.110276699066162109e+00,4.249326705932617188e+00,1.892626523971557617e+00,1.723162412643432617e+00,-1.826954722404479980e+00,8.593278884887695312e+00,5.406191825866699219e+00,1.086375141143798828e+01,2.148662090301513672e+00,7.573645591735839844e+00,5.971842408180236816e-01,1.024677753448486328e+00,-5.826648235321044922e+00,3.929680109024047852e+00,-1.509937047958374023e+00,2.473842119798064232e-03
5.128199100494384766e+00,6.953463554382324219e+00,7.998538017272949219e+00,3.920668125152587891e+00,5.378273010253906250e+00,5.883131980895996094e+00,4.699790954589843750e+00,2.203203201293945312e+00,1.132951021194458008e+00,-1.996120214462280273e+00,9.279620170593261719e+00,6.921365261077880859e+00,1.178063201904296875e+01,2.896406173706054688e+00,8.885333061218261719e+00,2.627526283264160156e+00,7.563060522079467773e-01,-6.545935153961181641e+00,4.662481784820556641e+00,-1.325262308120727539e+00,-6.342922803014516830e-03
5.307997226715087891e+00,8.916167259216308594e+00,7.992447376251220703e+00,3.828691005706787109e+00,5.598019123077392578e+00,6.634145736694335938e+00,5.131373405456542969e+00,2.740150451660156250e+00,5.963951349258422852e-01,-2.158360719680786133e+00,9.520213127136230469e+00,8.784152984619140625e+00,1.254813385009765625e+01,3.797367334365844727e+00,1.024948692321777344e+01,4.737373352050781250e+00,5.446520447731018066e-01,-7.263944625854492188e+00,5.294736385345458984e+00,-1.145223617553710938e+00,-1.487683970481157303e-02
5.688097476959228516e+00,1.145775890350341797e+01,8.060659408569335938e+00,3.669935703277587891e+00,6.022633075714111328e+00,7.262510299682617188e+00,5.499117374420166016e+00,3.504562377929687500e+00,8.173950016498565674e-02,-2.305762290954589844e+00,9.313191413879394531e+00,1.091760158538818359e+01,1.316728591918945312e+01,4.879600048065185547e+00,1.160914421081542969e+01,6.906552314758300781e+00,3.786488771438598633e-01,-8.013894081115722656e+00,5.874161243438720703e+00,-9.899113774299621582e-01,-2.288546971976757050e-02
6.169137001037597656e+00,1.404896926879882812e+01,8.162976264953613281e+00,3.378884553909301758e+00,6.568565845489501953e+00,7.672459602355957031e+00,5.745479106903076172e+00,4.375051498413085938e+00,-4.887617528438568115e-01,-2.477895498275756836e+00,8.684666633605957031e+00,1.314127063751220703e+01,1.357215595245361328e+01,6.061100482940673828e+00,1.280390453338623047e+01,9.024705886840820312e+00,1.918953359127044678e-01,-8.878827095031738281e+00,6.368376255035400391e+00,-9.798662662506103516e-01,-3.025566972792148590e-02
6.580780982971191406e+00,1.609437179565429688e+01,8.231187820434570312e+00,2.886239528656005859e+00,7.116786956787109375e+00,7.801828861236572266e+00,5.815611362457275391e+00,5.174458026885986328e+00,-1.191759467124938965e+00,-2.724224090576171875e+00,7.679399490356445312e+00,1.520174694061279297e+01,1.366075325012207031e+01,7.188650608062744141e+00,1.361040401458740234e+01,1.090790462493896484e+01,-1.027602478861808777e-01,-9.944342613220214844e+00,6.675130844116210938e+00,-1.294354319572448730e+00,-3.697936236858367920e-02
6.755847930908203125e+00,1.709593963623046875e+01,8.204390525817871094e+00,2.170581340789794922e+00,7.559713363647460938e+00,7.637176990509033203e+00,5.695127964019775391e+00,5.710311889648437500e+00,-2.049153804779052734e+00,-3.069479942321777344e+00,6.371993064880371094e+00,1.685225105285644531e+01,1.335272216796875000e+01,8.092848777770996094e+00,1.382177352905273438e+01,1.236509895324707031e+01,-5.606522560119628906e-01,-1.122194004058837891e+01,6.668313980102539062e+00,-2.089460611343383789e+00,-4.314544051885604858e-02
6.602861404418945312e+00,1.676698303222656250e+01,8.069185256958007812e+00,1.287348270416259766e+00,7.842407703399658203e+00,7.228908061981201172e+00,5.428086280822753906e+00,5.877629756927490234e+00,-2.983199119567871094e+00,-3.476070642471313477e+00,4.891135692596435547e+00,1.791764831542968750e+01,1.264291286468505859e+01,8.666874885559082031e+00,1.331958484649658203e+01,1.325982570648193359e+01,-1.177630662918090820e+00,-1.262729644775390625e+01,6.249083042144775391e+00,-3.413092136383056641e+00,-4.882663860917091370e-02
6.151788234710693359e+00,1.513139724731445312e+01,7.877949714660644531e+00,3.726160228252410889e-01,7.982038021087646484e+00,6.674468517303466797e+00,5.125079631805419922e+00,5.685159683227539062e+00,-3.811028003692626953e+00,-3.835176229476928711e+00,3.414008855819702148e+00,1.834088897705078125e+01,1.163022327423095703e+01,8.893464088439941406e+00,1.213681793212890625e+01,1.356123256683349609e+01,-1.856860160827636719e+00,-1.395599746704101562e+01,5.395283699035644531e+00,-5.145481109619140625e+00,-5.405527725815773010e-02
5.568232059478759766e+00,1.249791812896728516e+01,7.742744922637939453e+00,-3.808410763740539551e-01,8.059864997863769531e+00,6.091466903686523438e+00,4.939858913421630859e+00,5.252102375030517578e+00,-4.284073352813720703e+00,-3.991481304168701172e+00,2.164419174194335938e+00,1.819229125976562500e+01,1.051451301574707031e+01,8.866489410400390625e+00,1.046685218811035156e+01,1.336425018310546875e+01,-2.440637826919555664e+00,-1.493208122253417969e+01,4.190421104431152344e+00,-7.016182422637939453e+00,-5.882328003644943237e-02
5.090346813201904297e+00,9.406843185424804688e+00,7.806084156036376953e+00,-7.827688455581665039e-01,8.194917678833007812e+00,5.590791225433349609e+00,5.028872489929199219e+00,4.764365673065185547e+00,-4.163621902465820312e+00,-3.797584056854248047e+00,1.366173744201660156e+00,1.764300727844238281e+01,9.546121597290039062e+00,8.746720314025878906e+00,8.616998672485351562e+00,1.286467456817626953e+01,-2.743593692779541016e+00,-1.528469753265380859e+01,2.818547964096069336e+00,-8.662801742553710938e+00,-6.309024244546890259e-02
4.949977874755859375e+00,6.490353584289550781e+00,8.186119079589843750e+00,-6.945715546607971191e-01,8.493635177612304688e+00,5.239645957946777344e+00,5.495521068572998047e+00,4.407858848571777344e+00,-3.289802312850952148e+00,-3.163460731506347656e+00,1.187128067016601562e+00,1.688807296752929688e+01,8.959936141967773438e+00,8.711113929748535156e+00,6.947033882141113281e+00,1.230932712554931641e+01,-2.612174510955810547e+00,-1.482348537445068359e+01,1.509729862213134766e+00,-9.746124267578125000e+00,-6.686423718929290771e-02
5.289071083068847656e+00,4.332849502563476562e+00,8.935227394104003906e+00,-8.852995187044143677e-02,9.015532493591308594e+00,5.051472663879394531e+00,6.360484123229980469e+00,4.311624050140380859e+00,-1.649474382400512695e+00,-2.099004507064819336e+00,1.686964035034179688e+00,1.612252616882324219e+01,8.903275489807128906e+00,8.874041557312011719e+00,5.758270263671875000e+00,1.192604160308837891e+01,-1.974445700645446777e+00,-1.350756072998046875e+01,4.889199137687683105e-01,-1.003588581085205078e+01,-7.020992040634155273e-02
6.113935947418212891e+00,3.318418025970458984e+00,1.000833988189697266e+01,9.370788931846618652e-01,9.742298126220703125e+00,4.985948085784912109e+00,7.532949447631835938e+00,4.489877223968505859e+00,6.095352768898010254e-01,-7.219383120536804199e-01,2.789214134216308594e+00,1.546312141418457031e+01,9.395711898803710938e+00,9.264637947082519531e+00,5.241090774536132812e+00,1.186670970916748047e+01,-8.732915520668029785e-01,-1.146979331970214844e+01,-9.391316771507263184e-02,-9.482634544372558594e+00,-7.327275723218917847e-02
7.288934230804443359e+00,3.533433437347412109e+00,1.126416110992431641e+01,2.175621271133422852e+00,1.058923721313476562e+01,4.965786457061767578e+00,8.833990097045898438e+00,4.848571300506591797e+00,3.201428651809692383e+00,7.560335993766784668e-01,4.275666236877441406e+00,1.494833374023437500e+01,1.031980419158935547e+01,9.805214881896972656e+00,5.425476551055908203e+00,1.217404937744140625e+01,5.377352237701416016e-01,-8.987422943115234375e+00,-2.029813528060913086e-01,-8.217727661132812500e+00,-7.621437311172485352e-02
8.591684341430664062e+00,4.753691196441650391e+00,1.248831367492675781e+01,3.347385644912719727e+00,1.141328620910644531e+01,4.888501167297363281e+00,1.003972339630126953e+01,5.199610233306884766e+00,5.754996776580810547e+00,2.077700614929199219e+00,5.849776268005371094e+00,1.453570747375488281e+01,1.145714855194091797e+01,1.034255504608154297e+01,6.193000793457031250e+00,1.277211666107177734e+01,2.015163183212280273e+00,-6.432229042053222656e+00,7.309747487306594849e-02,-6.513156414031982422e+00,-7.917214930057525635e-02
9.772992134094238281e+00,6.488515853881835938e+00,1.344571018218994141e+01,4.160060882568359375e+00,1.205879116058349609e+01,4.648243904113769531e+00,1.092716503143310547e+01,5.315529823303222656e+00,7.896840095520019531e+00,2.986841201782226562e+00,7.183293819427490234e+00,1.412440872192382812e+01,1.254195213317871094e+01,1.069215011596679688e+01,7.314306259155273438e+00,1.350071430206298828e+01,3.271253824234008789e+00,-4.191324234008789062e+00,5.485665798187255859e-01,-4.703497886657714844e+00,-8.218649774789810181e-02
1.062309169769287109e+01,8.127778053283691406e+00,1.392440891265869141e+01,4.364174842834472656e+00,1.238383197784423828e+01,4.145887851715087891e+00,1.133177375793457031e+01,4.989643096923828125e+00,9.313785552978515625e+00,3.283622741699218750e+00,8.011380195617675781e+00,1.358573913574218750e+01,1.332799720764160156e+01,1.069430732727050781e+01,8.516561508178710938e+00,1.416167259216308594e+01,4.027951240539550781e+00,-2.600716114044189453e+00,1.006993770599365234e+00,-3.108649253845214844e+00,-8.516851812601089478e-02
1.100634574890136719e+01,9.112805366516113281e+00,1.377945899963378906e+01,3.798451900482177734e+00,1.229227161407470703e+01,3.295747280120849609e+00,1.117532444000244141e+01,4.097282409667968750e+00,9.810920715332031250e+00,2.855268239974975586e+00,8.171774864196777344e+00,1.279763698577880859e+01,1.364117908477783203e+01,1.025839328765869141e+01,9.541925430297851562e+00,1.457818317413330078e+01,4.072218894958496094e+00,-1.877596259117126465e+00,1.259213924407958984e+00,-1.968919634819030762e+00,-8.798891305923461914e-02
1.087070846557617188e+01,9.088914871215820312e+00,1.295483112335205078e+01,2.415014028549194336e+00,1.174862766265869141e+01,2.044057846069335938e+00,1.047490215301513672e+01,2.637354135513305664e+00,9.338971138000488281e+00,1.699798822402954102e+00,7.627177715301513672e+00,1.167386150360107422e+01,1.340732288360595703e+01,9.389801979064941406e+00,1.020601463317871094e+01,1.463988876342773438e+01,3.294770956039428711e+00,-2.108841419219970703e+00,1.206384062767028809e+00,-1.404850125312805176e+00,-9.044564515352249146e-02
1.023983669281005859e+01,7.999136447906494141e+00,1.149681091308593750e+01,2.856786847114562988e-01,1.078494834899902344e+01,3.891398310661315918e-01,9.324914932250976562e+00,7.290582060813903809e-01,7.997581005096435547e+00,-7.891169935464859009e-02,6.461515903472900391e+00,1.018655014038085938e+01,1.266145610809326172e+01,8.178090095520019531e+00,1.041288566589355469e+01,1.432661533355712891e+01,1.710824131965637207e+00,-3.229293823242187500e+00,8.553208112716674805e-01,-1.406395554542541504e+00,-9.244174510240554810e-02
9.195744514465332031e+00,6.056647300720214844e+00,9.538167953491210938e+00,-2.409379482269287109e+00,9.492794036865234375e+00,-1.605162501335144043e+00,7.871022224426269531e+00,-1.414357304573059082e+00,6.005754470825195312e+00,-2.291912555694580078e+00,4.840779304504394531e+00,8.368872642517089844e+00,1.152308177947998047e+01,6.776474475860595703e+00,1.018202877044677734e+01,1.370362949371337891e+01,-5.329850912094116211e-01,-5.062645435333251953e+00,3.099799156188964844e-01,-1.850696921348571777e+00,-9.396912157535552979e-02
7.869336605072021484e+00,3.651048660278320312e+00,7.283535480499267578e+00,-5.401788234710693359e+00,8.015229225158691406e+00,-3.796038866043090820e+00,6.265176296234130859e+00,-3.547930479049682617e+00,3.667903661727905273e+00,-4.700788974761962891e+00,2.964529514312744141e+00,6.305743217468261719e+00,1.016527366638183594e+01,5.354358196258544922e+00,9.604887008666992188e+00,1.288959407806396484e+01,-3.182118654251098633e+00,-7.336767673492431641e+00,-2.694447636604309082e-01,-2.543034315109252930e+00,-9.513283520936965942e-02
6.437257766723632812e+00,1.188479900360107422e+00,4.981398582458496094e+00,-8.386637687683105469e+00,6.527363300323486328e+00,-5.981874942779541016e+00,4.655733585357666016e+00,-5.459506988525390625e+00,1.322388052940368652e+00,-7.055255413055419922e+00,1.037923336029052734e+00,4.131164550781250000e+00,8.782741546630859375e+00,4.062800407409667969e+00,8.849354743957519531e+00,1.201859951019287109e+01,-5.907337188720703125e+00,-9.741205215454101562e+00,-7.210552096366882324e-01,-3.274779081344604492e+00,-9.612684696912765503e-02
5.115581512451171875e+00,-1.029669761657714844e+00,2.902167320251464844e+00,-1.105271625518798828e+01,5.211174011230468750e+00,-7.932494163513183594e+00,3.170371055603027344e+00,-7.025512695312500000e+00,-7.110491991043090820e-01,-9.129758834838867188e+00,-7.506684660911560059e-01,1.981794357299804688e+00,7.555769443511962891e+00,3.004305601119995117e+00,8.102817535400390625e+00,1.119863128662109375e+01,-8.360033988952636719e+00,-1.196422386169433594e+01,-9.238538146018981934e-01,-3.877483606338500977e+00,-9.716125577688217163e-02
4.132998943328857422e+00,-2.863732099533081055e+00,1.296761870384216309e+00,-1.313165378570556641e+01,4.226893424987792969e+00,-9.442921638488769531e+00,1.924176931381225586e+00,-8.221888542175292969e+00,-2.175080299377441406e+00,-1.075513172149658203e+01,-2.240850925445556641e+00,-1.765052042901515961e-02,6.632707595825195312e+00,2.218796730041503906e+00,7.555656433105468750e+00,1.049376678466796875e+01,-1.022341918945312500e+01,-1.373624992370605469e+01,-8.301233649253845215e-01,-4.266150474548339844e+00,-9.838154166936874390e-02
3.689811468124389648e+00,-4.308194160461425781e+00,3.685987889766693115e-01,-1.443697357177734375e+01,3.685539245605468750e+00,-1.038714981079101562e+01,1.025046944618225098e+00,-9.105500221252441406e+00,-2.913118362426757812e+00,-1.182453441619873047e+01,-3.302069664001464844e+00,-1.776949763298034668e+00,6.114515304565429688e+00,1.687930941581726074e+00,7.354781150817871094e+00,9.911126136779785156e+00,-1.126093864440917969e+01,-1.486053562164306641e+01,-4.620182812213897705e-01,-4.454689025878906250e+00,-9.984426945447921753e-02
3.916925191879272461e+00,-5.418187618255615234e+00,2.309578061103820801e-01,-1.489560031890869141e+01,3.622591018676757812e+00,-1.074333477020263672e+01,5.709863901138305664e-01,-9.769303321838378906e+00,-2.864937782287597656e+00,-1.230037403106689453e+01,-3.846666812896728516e+00,-3.262933969497680664e+00,6.040340900421142578e+00,1.344810366630554199e+00,7.584138870239257812e+00,9.418670654296875000e+00,-1.136054039001464844e+01,-1.523487186431884766e+01,9.866033494472503662e-02,-4.542003631591796875e+00,-1.015009507536888123e-01
4.819071769714355469e+00,-6.223116874694824219e+00,8.850569725036621094e-01,-1.455163002014160156e+01,3.996846675872802734e+00,-1.060388469696044922e+01,6.393202543258666992e-01,-1.030296993255615234e+01,-2.086384296417236328e+00,-1.221133995056152344e+01,-3.829881429672241211e+00,-4.492851257324218750e+00,6.391640186309814453e+00,1.097720265388488770e+00,8.242231369018554688e+00,8.944013595581054688e+00,-1.054712486267089844e+01,-1.485798072814941406e+01,7.462526559829711914e-01,-4.670271873474121094e+00,-1.032626852393150330e-01
6.266922473907470703e+00,-6.699090957641601562e+00,2.209090232849121094e+00,-1.356004047393798828e+01,4.691565513610839844e+00,-1.013513183593750000e+01,1.257022500038146973e+00,-1.076336669921875000e+01,-7.230942845344543457e-01,-1.164349746704101562e+01,-3.272228717803955078e+00,-5.530386924743652344e+00,7.084966659545898438e+00,8.366034030914306641e-01,9.242111206054687500e+00,8.407652854919433594e+00,-8.981162071228027344e+00,-1.383462524414062500e+01,1.373394608497619629e+00,-4.979351043701171875e+00,-1.049840152263641357e-01
8.016014099121093750e+00,-6.790977954864501953e+00,3.974061727523803711e+00,-1.215014362335205078e+01,5.551094055175781250e+00,-9.531968116760253906e+00,2.382733106613159180e+00,-1.116580390930175781e+01,1.015784740447998047e+00,-1.073237895965576172e+01,-2.253906250000000000e+00,-6.464434146881103516e+00,7.992575645446777344e+00,4.611128866672515869e-01,1.042937564849853516e+01,7.715841293334960938e+00,-6.924106121063232422e+00,-1.235261249542236328e+01,1.894876837730407715e+00,-5.562737941741943359e+00,-1.065356358885765076e-01
9.758796691894531250e+00,-6.463860511779785156e+00,5.891291141510009766e+00,-1.058275127410888672e+01,6.415201187133789062e+00,-8.950647354125976562e+00,3.900464534759521484e+00,-1.150153255462646484e+01,2.890445232391357422e+00,-9.644179344177246094e+00,-8.961431384086608887e-01,-7.383886814117431641e+00,8.966117858886718750e+00,-9.996484965085983276e-02,1.161813926696777344e+01,6.799754619598388672e+00,-4.698280811309814453e+00,-1.065596389770507812e+01,2.266390323638916016e+00,-6.442840576171875000e+00,-1.077963337302207947e-01
1.120507049560546875e+01,-5.763682365417480469e+00,7.664789199829101562e+00,-9.097255706787109375e+00,7.157989501953125000e+00,-8.486933708190917969e+00,5.629491329193115234e+00,-1.174430751800537109e+01,4.672029495239257812e+00,-8.551033973693847656e+00,6.593163013458251953e-01,-8.348449707031250000e+00,9.865485191345214844e+00,-8.649727702140808105e-01,1.264500236511230469e+01,5.628540515899658203e+00,-2.613557815551757812e+00,-9.001476287841796875e+00,2.494751930236816406e+00,-7.552434921264648438e+00,-1.086367890238761902e-01
1.215768623352050781e+01,-4.820922851562500000e+00,9.055815696716308594e+00,-7.861233711242675781e+00,7.705066204071044922e+00,-8.149230003356933594e+00,7.363013744354248047e+00,-1.185913276672363281e+01,6.173291206359863281e+00,-7.592430114746093750e+00,2.283782958984375000e+00,-9.366083145141601562e+00,1.060001945495605469e+01,-1.781040072441101074e+00,1.341552543640136719e+01,4.240170955657958984e+00,-9.120256304740905762e-01,-7.617838859558105469e+00,2.639608144760131836e+00,-8.757071495056152344e+00,-1.089438796043395996e-01
1.254882717132568359e+01,-3.819355726242065430e+00,9.930383682250976562e+00,-6.951541423797607422e+00,8.047275543212890625e+00,-7.888811111450195312e+00,8.913113594055175781e+00,-1.179461193084716797e+01,7.277063369750976562e+00,-6.847508430480957031e+00,3.876543521881103516e+00,-1.038106346130371094e+01,1.114396667480468750e+01,-2.713292360305786133e+00,1.392670822143554688e+01,2.756870031356811523e+00,2.707468271255493164e-01,-6.645587921142578125e+00,2.798097848892211914e+00,-9.867438316345214844e+00,-1.086044684052467346e-01
1.245104217529296875e+01,-2.920701980590820312e+00,1.027265930175781250e+01,-6.341720104217529297e+00,8.220096588134765625e+00,-7.626712322235107422e+00,1.014222431182861328e+01,-1.148622226715087891e+01,7.946115493774414062e+00,-6.315280437469482422e+00,5.374186038970947266e+00,-1.129388236999511719e+01,1.153853511810302734e+01,-3.473984241485595703e+00,1.427599239349365234e+01,1.372060537338256836e+00,9.319927096366882324e-01,-6.121773242950439453e+00,3.091218471527099609e+00,-1.067877101898193359e+01,-1.076023802161216736e-01
1.203939819335937500e+01,-2.220523834228515625e+00,1.017643260955810547e+01,-5.932232379913330078e+00,8.280755996704101562e+00,-7.278927326202392578e+00,1.098470878601074219e+01,-1.086288261413574219e+01,8.222058296203613281e+00,-5.917593002319335938e+00,6.730084419250488281e+00,-1.198513126373291016e+01,1.187129020690917969e+01,-3.858106613159179688e+00,1.461628150939941406e+01,3.195103704929351807e-01,1.178230762481689453e+00,-5.979959964752197266e+00,3.628038406372070312e+00,-1.101412200927734375e+01,-1.060265153646469116e-01
1.153154659271240234e+01,-1.704119563102722168e+00,9.801269531250000000e+00,-5.583222866058349609e+00,8.280755996704101562e+00,-6.790012836456298828e+00,1.142977809906005859e+01,-9.881941795349121094e+00,8.204538345336914062e+00,-5.531777381896972656e+00,7.903206348419189453e+00,-1.236591434478759766e+01,1.222774028778076172e+01,-3.711363315582275391e+00,1.509448528289794922e+01,-1.895584315061569214e-01,1.189297556877136230e+00,-6.075779438018798828e+00,4.461387634277343750e+00,-1.076994895935058594e+01,-1.040950641036033630e-01
1.112305736541748047e+01,-1.277764320373535156e+00,9.325007438659667969e+00,-5.158616065979003906e+00,8.252142906188964844e+00,-6.123004913330078125e+00,1.151070022583007812e+01,-8.567459106445312500e+00,8.010721206665039062e+00,-5.042087554931640625e+00,8.835736274719238281e+00,-1.241500473022460938e+01,1.265012359619140625e+01,-2.986278295516967773e+00,1.579305171966552734e+01,-4.004171863198280334e-02,1.161630392074584961e+00,-6.239312171936035156e+00,5.555477619171142578e+00,-9.949343681335449219e+00,-1.021151319146156311e-01
1.093852710723876953e+01,-8.201676011085510254e-01,8.895030975341796875e+00,-4.570213794708251953e+00,8.191484451293945312e+00,-5.271184444427490234e+00,1.126703643798828125e+01,-7.038635730743408203e+00,7.749013423919677734e+00,-4.389168262481689453e+00,9.456801414489746094e+00,-1.219874095916748047e+01,1.310444355010986328e+01,-1.770250082015991211e+00,1.668350028991699219e+01,7.372078299522399902e-01,1.258465528488159180e+00,-6.324911117553710938e+00,6.772269248962402344e+00,-8.676710128784179688e+00,-1.003938019275665283e-01
1.100003719329833984e+01,-2.229028195142745972e-01,8.600260734558105469e+00,-3.790297508239746094e+00,8.070165634155273438e+00,-4.247991085052490234e+00,1.073565006256103516e+01,-5.497782230377197266e+00,7.485115528106689453e+00,-3.589836835861206055e+00,9.695528984069824219e+00,-1.186306762695312500e+01,1.347840690612792969e+01,-2.769201397895812988e-01,1.761292457580566406e+01,1.963007569313049316e+00,1.571104884147644043e+00,-6.252088069915771484e+00,7.885105609893798828e+00,-7.172267436981201172e+00,-9.914119541645050049e-02
1.123976802825927734e+01,5.783509016036987305e-01,8.457747459411621094e+00,-2.862965583801269531e+00,7.842407703399658203e+00,-3.088708400726318359e+00,9.949810981750488281e+00,-4.186580657958984375e+00,7.239832878112792969e+00,-2.737084627151489258e+00,9.507157325744628906e+00,-1.157648468017578125e+01,1.361130332946777344e+01,1.208856821060180664e+00,1.835496520996093750e+01,3.347817182540893555e+00,2.107848405838012695e+00,-6.008067131042480469e+00,8.643470764160156250e+00,-5.697187423706054688e+00,-9.837346524000167847e-02
1.152366065979003906e+01,1.611159563064575195e+00,8.430950164794921875e+00,-1.881455421447753906e+00,7.463574409484863281e+00,-1.855500459671020508e+00,8.955372810363769531e+00,-3.301875114440917969e+00,7.002215385437011719e+00,-1.951603055000305176e+00,8.897283554077148438e+00,-1.147432327270507812e+01,1.335890388488769531e+01,2.414094924926757812e+00,1.866227340698242188e+01,4.570056915283203125e+00,2.807828187942504883e+00,-5.632453441619873047e+00,8.842860221862792969e+00,-4.482506275177001953e+00,-9.795323014259338379e-02
1.169715023040771484e+01,2.892062902450561523e+00,8.452875137329101562e+00,-9.528636932373046875e-01,6.911919116973876953e+00,-6.290128827095031738e-01,7.831460475921630859e+00,-2.908186674118041992e+00,6.753647327423095703e+00,-1.328361868858337402e+00,7.946103096008300781e+00,-1.158842563629150391e+01,1.264497280120849609e+01,3.162918090820312500e+00,1.836395835876464844e+01,5.384092330932617188e+00,3.571442842483520508e+00,-5.176351547241210938e+00,8.411700248718261719e+00,-3.671173334121704102e+00,-9.761381149291992188e-02
1.163090896606445312e+01,4.441276073455810547e+00,8.455310821533203125e+00,-1.779872328042984009e-01,6.197743892669677734e+00,5.000277161598205566e-01,6.695859432220458984e+00,-2.899437904357910156e+00,6.494129657745361328e+00,-8.950608372688293457e-01,6.787900924682617188e+00,-1.181928443908691406e+01,1.151277923583984375e+01,3.425113916397094727e+00,1.742104339599609375e+01,5.672445774078369141e+00,4.293556690216064453e+00,-4.675533294677734375e+00,7.445424556732177734e+00,-3.286369562149047852e+00,-9.712085127830505371e-02
1.124765396118164062e+01,6.266149520874023438e+00,8.381009101867675781e+00,3.801757991313934326e-01,5.369116783142089844e+00,1.444255113601684570e+00,5.689733028411865234e+00,-3.017544507980346680e+00,6.253227233886718750e+00,-5.943222641944885254e-01,5.605453491210937500e+00,-1.195859527587890625e+01,1.011273384094238281e+01,3.317214488983154297e+00,1.593846225738525391e+01,5.489703178405761719e+00,4.887017726898193359e+00,-4.141498088836669922e+00,6.214999198913574219e+00,-3.248507499694824219e+00,-9.632887691259384155e-02
1.054107761383056641e+01,8.315227508544921875e+00,8.193428039550781250e+00,6.888664364814758301e-01,4.506154537200927734e+00,2.144865274429321289e+00,4.945253372192382812e+00,-2.931151866912841797e+00,6.079120159149169922e+00,-3.143583536148071289e-01,4.572210788726806641e+00,-1.174233150482177734e+01,8.668389320373535156e+00,3.053939342498779297e+00,1.413358020782470703e+01,5.015047073364257812e+00,5.290958881378173828e+00,-3.571689844131469727e+00,5.083416938781738281e+00,-3.421591758728027344e+00,-9.523789584636688232e-02
9.569535255432128906e+00,1.042678833007812500e+01,7.869423389434814453e+00,7.480846047401428223e-01,3.700417995452880859e+00,2.573295831680297852e+00,4.538846969604492188e+00,-2.358116149902343750e+00,6.005754470825195312e+00,5.365070700645446777e-02,3.805671215057373047e+00,-1.094759559631347656e+01,7.400208950042724609e+00,2.867273092269897461e+00,1.226723670959472656e+01,4.484618663787841797e+00,5.472178936004638672e+00,-2.992938280105590820e+00,4.408557415008544922e+00,-3.668082475662231445e+00,-9.396912157535552979e-02
8.437120437622070312e+00,1.230863189697265625e+01,7.395597457885742188e+00,5.742099285125732422e-01,3.037745237350463867e+00,2.741307735443115234e+00,4.466916561126708984e+00,-1.165021181106567383e+00,6.026559352874755859e+00,5.660934448242187500e-01,3.343136548995971680e+00,-9.461610794067382812e+00,6.457572937011718750e+00,2.926617860794067383e+00,1.056579113006591797e+01,4.109640598297119141e+00,5.411311149597167969e+00,-2.479344367980957031e+00,4.435824394226074219e+00,-3.897573709487915039e+00,-9.265185892581939697e-02
7.270008087158203125e+00,1.357115745544433594e+01,6.778039932250976562e+00,1.924415081739425659e-01,2.574217796325683594e+00,2.687543869018554688e+00,4.642246723175048828e+00,5.847057104110717773e-01,6.084595203399658203e+00,1.195270180702209473e+00,3.121194601058959961e+00,-7.330815792083740234e+00,5.876538753509521484e+00,3.297792434692382812e+00,9.161161422729492188e+00,4.013522624969482422e+00,5.105588436126708984e+00,-2.140781164169311523e+00,5.236793994903564453e+00,-4.080703258514404297e+00,-9.139116853475570679e-02
6.194372177124023438e+00,1.383946704864501953e+01,6.048420906066894531e+00,-3.468221127986907959e-01,2.336159229278564453e+00,2.464087963104248047e+00,4.929069042205810547e+00,2.653757810592651367e+00,6.086785316467285156e+00,1.851157307624816895e+00,3.014886140823364258e+00,-4.738304138183593750e+00,5.592202663421630859e+00,3.940873861312866211e+00,8.083329200744628906e+00,4.221184730529785156e+00,4.574378490447998047e+00,-2.101175785064697266e+00,6.683651447296142578e+00,-4.239106178283691406e+00,-9.015472233295440674e-02
5.330077648162841797e+00,1.287649250030517578e+01,5.281042098999023438e+00,-9.654632806777954102e-01,2.325858831405639648e+00,2.133104324340820312e+00,5.193413257598876953e+00,4.731558322906494141e+00,5.954288959503173828e+00,2.428892135620117188e+00,2.882467031478881836e+00,-1.958717465400695801e+00,5.474759101867675781e+00,4.751199722290039062e+00,7.279827594757080078e+00,4.669734954833984375e+00,3.881315231323242188e+00,-2.424407720565795898e+00,8.519064903259277344e+00,-4.412963390350341797e+00,-8.884553611278533936e-02
4.784373760223388672e+00,1.071531295776367188e+01,4.598927497863769531e+00,-1.536225914955139160e+00,2.531870841979980469e+00,1.755077362060546875e+00,5.351660251617431641e+00,6.541432380676269531e+00,5.665205478668212891e+00,2.870107173919677734e+00,2.619493722915649414e+00,7.266683578491210938e-01,5.401614665985107422e+00,5.616554260253906250e+00,6.668206691741943359e+00,5.271361351013183594e+00,3.134301185607910156e+00,-3.068316698074340820e+00,1.044650363922119141e+01,-4.632409572601318359e+00,-8.735048770904541016e-02
4.639273166656494141e+00,7.684883117675781250e+00,4.156771183013916016e+00,-1.897834897041320801e+00,2.946184396743774414e+00,1.397211790084838867e+00,5.396616935729980469e+00,7.932465076446533203e+00,5.290711402893066406e+00,3.205470323562622070e+00,2.207315444946289062e+00,3.093628883361816406e+00,5.300654888153076172e+00,6.460328578948974609e+00,6.185505867004394531e+00,5.941813468933105469e+00,2.489655494689941406e+00,-3.862981796264648438e+00,1.219670677185058594e+01,-4.896672248840332031e+00,-8.559682965278625488e-02
4.942091941833496094e+00,4.349389076232910156e+00,4.108048439025878906e+00,-1.885235309600830078e+00,3.565365552902221680e+00,1.123352289199829102e+00,5.390322685241699219e+00,8.898096084594726562e+00,4.979728221893310547e+00,3.542811870574951172e+00,1.703749537467956543e+00,5.009487152099609375e+00,5.167758941650390625e+00,7.252311706542968750e+00,5.801743507385253906e+00,6.622945308685302734e+00,2.116148471832275391e+00,-4.547773838043212891e+00,1.360095977783203125e+01,-5.170207023620605469e+00,-8.360881358385086060e-02
5.699137687683105469e+00,1.357551693916320801e+00,4.559949398040771484e+00,-1.366131067276000977e+00,4.384836196899414062e+00,9.956631064414978027e-01,5.425388813018798828e+00,9.555336952209472656e+00,4.915122509002685547e+00,4.029533386230468750e+00,1.230024456977844238e+00,6.422499179840087891e+00,5.048255443572998047e+00,7.990344524383544922e+00,5.521417140960693359e+00,7.273224353790283203e+00,2.156265974044799805e+00,-4.841620922088623047e+00,1.458939075469970703e+01,-5.390426158905029297e+00,-8.148341625928878784e-02
6.850478649139404297e+00,-7.521713376045227051e-01,5.533180713653564453e+00,-3.014634847640991211e-01,5.389718055725097656e+00,1.054467320442199707e+00,5.580938339233398438e+00,1.003979206085205078e+01,5.249101161956787109e+00,4.779401779174804688e+00,9.166945219039916992e-01,7.348585605621337891e+00,4.993654251098632812e+00,8.659321784973144531e+00,5.340029716491699219e+00,7.841624736785888672e+00,2.681942701339721680e+00,-4.534997940063476562e+00,1.516199779510498047e+01,-5.480831623077392578e+00,-7.937418669462203979e-02
8.284134864807128906e+00,-1.693093061447143555e+00,6.946132659912109375e+00,1.239469647407531738e+00,6.535374641418457031e+00,1.314885854721069336e+00,5.888440608978271484e+00,1.044441699981689453e+01,6.035319805145263672e+00,5.815168857574462891e+00,8.626077771186828613e-01,7.820916175842285156e+00,5.022500038146972656e+00,9.211767196655273438e+00,5.232096672058105469e+00,8.248642921447753906e+00,3.661361217498779297e+00,-3.555080890655517578e+00,1.533923435211181641e+01,-5.373426914215087891e+00,-7.741041481494903564e-02
9.842387199401855469e+00,-1.503806114196777344e+00,8.619749069213867188e+00,3.072713851928710938e+00,7.751991271972656250e+00,1.748356819152832031e+00,6.325417995452880859e+00,1.076264858245849609e+01,7.201507568359375000e+00,7.038897991180419922e+00,1.114390730857849121e+00,7.868680000305175781e+00,5.099765300750732422e+00,9.547335624694824219e+00,5.131658554077148438e+00,8.387479782104492188e+00,4.965869426727294922e+00,-1.995135188102722168e+00,1.513302707672119141e+01,-5.028803348541259766e+00,-7.566484063863754272e-02
1.134859371185302734e+01,-5.077521800994873047e-01,1.031894588470458984e+01,4.938717365264892578e+00,8.950295448303222656e+00,2.291035652160644531e+00,6.832527160644531250e+00,1.089278411865234375e+01,8.559322357177734375e+00,8.258669853210449219e+00,1.662718176841735840e+00,7.507798194885253906e+00,5.152305603027343750e+00,9.546256065368652344e+00,4.956267356872558594e+00,8.160831451416015625e+00,6.385196208953857422e+00,-9.151591360569000244e-02,1.453315162658691406e+01,-4.460097789764404297e+00,-7.418595254421234131e-02
1.263872623443603516e+01,8.099058866500854492e-01,1.179767227172851562e+01,6.561547756195068359e+00,1.003185939788818359e+01,2.842114925384521484e+00,7.349526882171630859e+00,1.068172359466552734e+01,9.851436614990234375e+00,9.236070632934570312e+00,2.466558694839477539e+00,6.758172512054443359e+00,5.101825714111328125e+00,9.110342025756835938e+00,4.638464450836181641e+00,7.504619121551513672e+00,7.678637504577636719e+00,1.841488122940063477e+00,1.352427101135253906e+01,-3.749215841293334961e+00,-7.299798727035522461e-02
1.359291934967041016e+01,1.962167501449584961e+00,1.284398746490478516e+01,7.704333305358886719e+00,1.091313457489013672e+01,3.295747280120849609e+00,7.837754249572753906e+00,9.991675376892089844e+00,1.082380676269531250e+01,9.753459930419921875e+00,3.464365482330322266e+00,5.663585662841796875e+00,4.897845745086669922e+00,8.203985214233398438e+00,4.160260677337646484e+00,6.439015865325927734e+00,8.624855041503906250e+00,3.487032890319824219e+00,1.212172317504882812e+01,-3.040651798248291016e+00,-7.214136421680450439e-02
1.414651012420654297e+01,2.586998462677001953e+00,1.332390403747558594e+01,8.222177505493164062e+00,1.153803825378417969e+01,3.554485797882080078e+00,8.301705360412597656e+00,8.761398315429687500e+00,1.128809165954589844e+01,9.670360565185546875e+00,4.600186347961425781e+00,4.299664497375488281e+00,4.550667285919189453e+00,6.884374141693115234e+00,3.578621149063110352e+00,5.074378967285156250e+00,9.064764022827148438e+00,4.602375030517578125e+00,1.040219497680664062e+01,-2.513671636581420898e+00,-7.163223624229431152e-02
1.428845596313476562e+01,2.537379503250122070e+00,1.319113540649414062e+01,8.084841728210449219e+00,1.188368034362792969e+01,3.556165933609008789e+00,8.780042648315429688e+00,7.032449245452880859e+00,1.116764068603515625e+01,8.954128265380859375e+00,5.812475204467773438e+00,2.783164501190185547e+00,4.127253532409667969e+00,5.291776657104492188e+00,3.017968654632568359e+00,3.599385023117065430e+00,8.929194450378417969e+00,5.054644107818603516e+00,8.505431175231933594e+00,-2.331315040588378906e+00,-7.143020629882812500e-02
1.405818748474121094e+01,1.892333507537841797e+00,1.249440383911132812e+01,7.367923259735107422e+00,1.196265220642089844e+01,3.294067144393920898e+00,9.318621635437011719e+00,4.948087215423583984e+00,1.050406360626220703e+01,7.673021316528320312e+00,7.034089088439941406e+00,1.260030627250671387e+00,3.739897251129150391e+00,3.632281064987182617e+00,2.641701698303222656e+00,2.239494800567626953e+00,8.244431495666503906e+00,4.840007781982421875e+00,6.622300624847412109e+00,-2.580123662948608398e+00,-7.141404598951339722e-02
1.352194690704345703e+01,9.073059558868408203e-01,1.135429859161376953e+01,6.223878383636474609e+00,1.180814266204833984e+01,2.813552856445312500e+00,9.942617416381835938e+00,2.714998245239257812e+00,9.434236526489257812e+00,5.971474170684814453e+00,8.186696052551269531e+00,-1.304261088371276855e-01,3.506041288375854492e+00,2.128161191940307617e+00,2.598228693008422852e+00,1.202371001243591309e+00,7.123910427093505859e+00,4.060673713684082031e+00,4.957306861877441406e+00,-3.227644681930541992e+00,-7.133322954177856445e-02
1.274912929534912109e+01,-6.853283196687698364e-02,9.932820320129394531e+00,4.840440273284912109e+00,1.145906639099121094e+01,2.203669309616088867e+00,1.062595653533935547e+01,5.529919266700744629e-01,8.138837814331054688e+00,4.028544425964355469e+00,9.175176620483398438e+00,-1.284717440605163574e+00,3.515312910079956055e+00,9.650038480758666992e-01,2.990985393524169922e+00,6.268503069877624512e-01,5.721183776855468750e+00,2.894227981567382812e+00,3.677459955215454102e+00,-4.133246421813964844e+00,-7.088875025510787964e-02
1.179651260375976562e+01,-7.007146477699279785e-01,8.396843910217285156e+00,3.388964414596557617e+00,1.094632530212402344e+01,1.566903948783874512e+00,1.128142166137695312e+01,-1.356397509574890137e+00,6.806208133697509766e+00,2.019333600997924805e+00,9.906280517578125000e+00,-2.160386800765991211e+00,3.802739620208740234e+00,2.528667151927947998e-01,3.827466964721679688e+00,5.603983998298645020e-01,4.198104858398437500e+00,1.542530417442321777e+00,2.874786376953125000e+00,-5.089074134826660156e+00,-6.984625756740570068e-02
1.069564151763916016e+01,-7.742241621017456055e-01,6.875484943389892578e+00,1.991666793823242188e+00,1.027335166931152344e+01,9.889426231384277344e-01,1.176964950561523438e+01,-2.901625156402587891e+00,5.560084342956542969e+00,9.124302864074707031e-02,1.029421234130859375e+01,-2.773355245590209961e+00,4.339475631713867188e+00,3.618733724579215050e-03,5.032720088958740234e+00,9.413100481033325195e-01,2.690242767333984375e+00,1.908329874277114868e-01,2.539060831069946289e+00,-5.906588554382324219e+00,-6.812492758035659790e-02
9.455978393554687500e+00,-2.633330523967742920e-01,5.441826343536376953e+00,7.090258002281188965e-01,9.418400764465332031e+00,5.084283351898193359e-01,1.193419075012207031e+01,-4.047696113586425781e+00,4.468357563018798828e+00,-1.648885846138000488e+00,1.029421234130859375e+01,-3.185981273651123047e+00,5.041043758392333984e+00,1.417301744222640991e-01,6.450841426849365234e+00,1.633121490478515625e+00,1.270915865898132324e+00,-1.021606445312500000e+00,2.576553106307983398e+00,-6.490747928619384766e+00,-6.590255349874496460e-02
8.079101562500000000e+00,6.610490679740905762e-01,4.111702919006347656e+00,-4.564387798309326172e-01,8.358582496643066406e+00,1.068796738982200623e-01,1.165366172790527344e+01,-4.825231075286865234e+00,3.543072462081909180e+00,-3.124879121780395508e+00,9.906280517578125000e+00,-3.463276386260986328e+00,5.799273490905761719e+00,5.323265790939331055e-01,7.895945549011230469e+00,2.460210084915161133e+00,-3.635898977518081665e-02,-2.009188890457153320e+00,2.840702533721923828e+00,-6.867824554443359375e+00,-6.358320266008377075e-02
6.599707126617431641e+00,1.660778522491455078e+00,2.866843461990356445e+00,-1.523626327514648438e+00,7.091607570648193359e+00,-2.694671750068664551e-01,1.089209842681884766e+01,-5.287815093994140625e+00,2.762328863143920898e+00,-4.279359340667724609e+00,9.197557449340820312e+00,-3.633103370666503906e+00,6.509083271026611328e+00,1.018953680992126465e+00,9.195640563964843750e+00,3.255259037017822266e+00,-1.242648601531982422e+00,-2.733586311340332031e+00,3.179836273193359375e+00,-7.171494960784912109e+00,-6.169216334819793701e-02
5.098232269287109375e+00,2.346254587173461914e+00,1.695068120956420898e+00,-2.508916378021240234e+00,5.667834281921386719e+00,-6.844568252563476562e-01,9.729523658752441406e+00,-5.491220951080322266e+00,2.117366790771484375e+00,-5.062862396240234375e+00,8.289274215698242188e+00,-3.659638643264770508e+00,7.101449966430664062e+00,1.474289774894714355e+00,1.022250366210937500e+01,3.901978254318237305e+00,-2.350719451904296875e+00,-3.185855388641357422e+00,3.479773759841918945e+00,-7.561707496643066406e+00,-6.068199500441551208e-02
3.711891889572143555e+00,2.390360355377197266e+00,6.170833706855773926e-01,-3.403489112854003906e+00,4.202858924865722656e+00,-1.178412079811096191e+00,8.352955818176269531e+00,-5.467162132263183594e+00,1.619136333465576172e+00,-5.438785552978515625e+00,7.338093757629394531e+00,-3.455315828323364258e+00,7.549588203430175781e+00,1.818489432334899902e+00,1.090757942199707031e+01,4.349341869354248047e+00,-3.341205120086669922e+00,-3.377495050430297852e+00,3.680868387222290039e+00,-8.135822296142578125e+00,-6.074664741754531860e-02
2.615752458572387695e+00,1.635050177574157715e+00,-3.013352155685424805e-01,-4.172065734863281250e+00,2.858057022094726562e+00,-1.746292591094970703e+00,7.014151573181152344e+00,-5.234229564666748047e+00,1.302677869796752930e+00,-5.401193141937255859e+00,6.504412174224853516e+00,-2.916646480560302734e+00,7.857619285583496094e+00,2.024577617645263672e+00,1.123287773132324219e+01,4.594976425170898438e+00,-4.161537170410156250e+00,-3.332779169082641602e+00,3.774598836898803711e+00,-8.876066207885742188e+00,-6.171640753746032715e-02
1.969108939170837402e+00,1.409692764282226562e-01,-9.773594737052917480e-01,-4.773067474365234375e+00,1.801672101020812988e+00,-2.349455595016479492e+00,5.954077243804931641e+00,-4.817575931549072266e+00,1.189891576766967773e+00,-5.000538349151611328e+00,5.907593250274658203e+00,-1.977292299270629883e+00,8.033783912658691406e+00,2.096870183944702148e+00,1.119540119171142578e+01,4.673294544219970703e+00,-4.749464988708496094e+00,-3.106644392013549805e+00,3.767781972885131836e+00,-9.643355369567871094e+00,-6.309831887483596802e-02
1.857129216194152832e+00,-1.841949820518493652e+00,-1.346432209014892578e+00,-5.195154666900634766e+00,1.157311677932739258e+00,-2.934137344360351562e+00,5.319291591644287109e+00,-4.271880149841308594e+00,1.259972333908081055e+00,-4.361468791961669922e+00,5.594263076782226562e+00,-6.571544408798217773e-01,8.068810462951660156e+00,2.045078516006469727e+00,1.078615474700927734e+01,4.605656147003173828e+00,-5.074554443359375000e+00,-2.797466039657592773e+00,3.651896953582763672e+00,-1.023060607910156250e+01,-6.422162801027297974e-02
2.249846935272216797e+00,-3.953510761260986328e+00,-1.407335281372070312e+00,-5.471086502075195312e+00,9.581665992736816406e-01,-3.470095634460449219e+00,5.128675937652587891e+00,-3.692282915115356445e+00,1.427509188652038574e+00,-3.673924922943115234e+00,5.521525859832763672e+00,9.362983107566833496e-01,7.905008316040039062e+00,1.868123173713684082e+00,9.972159385681152344e+00,4.383754253387451172e+00,-5.160322666168212891e+00,-2.549612283706665039e+00,3.389451742172241211e+00,-1.044309806823730469e+01,-6.442366540431976318e-02
2.997429847717285156e+00,-5.835354328155517578e+00,-1.233152508735656738e+00,-5.681499958038330078e+00,1.133276939392089844e+00,-3.955650329589843750e+00,5.261747360229492188e+00,-3.191423654556274414e+00,1.543580532073974609e+00,-3.161482334136962891e+00,5.568152427673339844e+00,2.631912469863891602e+00,7.471292972564697266e+00,1.550898551940917969e+00,8.714438438415527344e+00,3.985043048858642578e+00,-5.102221965789794922e+00,-2.530448198318481445e+00,2.924207925796508789e+00,-1.016647243499755859e+01,-6.327611207962036133e-02
3.861723899841308594e+00,-7.208144187927246094e+00,-9.566524624824523926e-01,-5.930972576141357422e+00,1.540723323822021484e+00,-4.427763938903808594e+00,5.517100334167480469e+00,-2.861162662506103516e+00,1.440649390220642090e+00,-3.017048597335815430e+00,5.581207752227783203e+00,4.254554271697998047e+00,6.711002826690673828e+00,1.085851430892944336e+00,7.008495807647705078e+00,3.385789632797241211e+00,-5.027520179748535156e+00,-2.897118568420410156e+00,2.213560581207275391e+00,-9.391456604003906250e+00,-6.068199500441551208e-02
4.595112323760986328e+00,-7.921186447143554688e+00,-7.300929427146911621e-01,-6.308960914611816406e+00,2.004250764846801758e+00,-4.925079345703125000e+00,5.680741786956787109e+00,-2.728839635848999023e+00,9.884093999862670898e-01,-3.346476078033447266e+00,5.409622192382812500e+00,5.678180217742919922e+00,5.621047973632812500e+00,4.880877733230590820e-01,4.912794589996337891e+00,2.600233554840087891e+00,-5.071787834167480469e+00,-3.737777233123779297e+00,1.264326453208923340e+00,-8.207682609558105469e+00,-5.692416056990623474e-02
