Fp1,Fp2,F7,F3,Fz,F4,F8,T3,C3,Cz,C4,T4,T5,P3,Pz,P4,T6,O1,Oz,O2,A1
-1.611820220947265625e+01,-6.225656032562255859e+00,-2.305254745483398438e+01,-7.952724933624267578e+00,-1.344147968292236328e+01,-5.490207195281982422e+00,-1.346233367919921875e+01,-1.583342266082763672e+01,-2.319941902160644531e+01,-2.467101669311523438e+01,-1.389208793640136719e+01,-9.748479843139648438e+00,-1.538038730621337891e+01,-1.806002616882324219e+01,-1.974496269226074219e+01,-1.720865440368652344e+01,-2.059660339355468750e+01,-2.591948318481445312e+01,-2.307065773010253906e+01,2.905625581741333008e+00,1.747700423002243042e-01
-1.628156471252441406e+01,-5.857116699218750000e+00,-2.355308532714843750e+01,-6.962810039520263672e+00,-1.361263465881347656e+01,-5.335112094879150391e+00,-1.301524257659912109e+01,-1.524808120727539062e+01,-2.321738433837890625e+01,-2.345979309082031250e+01,-1.468591117858886719e+01,-9.950133323669433594e+00,-1.589312267303466797e+01,-1.785911560058593750e+01,-2.068391227722167969e+01,-1.755442047119140625e+01,-2.043374252319335938e+01,-2.607941627502441406e+01,-2.355319786071777344e+01,3.359661817550659180e+00,1.739471256732940674e-01
-1.580314350128173828e+01,-5.459784507751464844e+00,-2.329077148437500000e+01,-5.373260974884033203e+00,-1.320346736907958984e+01,-5.193387031555175781e+00,-1.219557380676269531e+01,-1.438862895965576172e+01,-2.263475227355957031e+01,-2.171790885925292969e+01,-1.498567676544189453e+01,-1.007026767730712891e+01,-1.591130542755126953e+01,-1.742938995361328125e+01,-2.129422950744628906e+01,-1.757868385314941406e+01,-1.949917030334472656e+01,-2.555137825012207031e+01,-2.358637237548828125e+01,3.556895971298217773e+00,1.578902006149291992e-01
-1.475061416625976562e+01,-5.166104793548583984e+00,-2.232181930541992188e+01,-3.489063262939453125e+00,-1.229420471191406250e+01,-5.174668788909912109e+00,-1.117223167419433594e+01,-1.338640975952148438e+01,-2.157728767395019531e+01,-1.966722488403320312e+01,-1.487465286254882812e+01,-1.004881477355957031e+01,-1.554766273498535156e+01,-1.682665824890136719e+01,-2.157591629028320312e+01,-1.731784439086914062e+01,-1.792067146301269531e+01,-2.438614082336425781e+01,-2.315510368347167969e+01,3.496004819869995117e+00,1.235283911228179932e-01
-1.326867198944091797e+01,-5.134433269500732422e+00,-2.078808975219726562e+01,-1.672066330909729004e+00,-1.102123832702636719e+01,-5.426029682159423828e+00,-1.007934093475341797e+01,-1.235563850402832031e+01,-2.019642448425292969e+01,-1.756856918334960938e+01,-1.453602886199951172e+01,-9.817128181457519531e+00,-1.494765377044677734e+01,-1.608161354064941406e+01,-2.151515960693359375e+01,-1.680222892761230469e+01,-1.592374515533447266e+01,-2.269794082641601562e+01,-2.226843643188476562e+01,3.223318576812744141e+00,7.098211348056793213e-02
-1.155802059173583984e+01,-5.511610507965087891e+00,-1.889301109313964844e+01,-2.479334324598312378e-01,-9.561070442199707031e+00,-6.091869354248046875e+00,-9.041094779968261719e+00,-1.140481567382812500e+01,-1.867695999145507812e+01,-1.565279865264892578e+01,-1.415021896362304688e+01,-9.332300186157226562e+00,-1.424218845367431641e+01,-1.518867588043212891e+01,-2.107330131530761719e+01,-1.605003738403320312e+01,-1.380655193328857422e+01,-2.070256423950195312e+01,-2.095351600646972656e+01,2.795756816864013672e+00,4.526522941887378693e-03
-9.866039276123046875e+00,-6.384013175964355469e+00,-1.687748336791992188e+01,5.429642796516418457e-01,-8.108925819396972656e+00,-7.252408504486083984e+00,-8.141943931579589844e+00,-1.062531185150146484e+01,-1.719342994689941406e+01,-1.409679603576660156e+01,-1.382269763946533203e+01,-8.581460952758789062e+00,-1.348217678070068359e+01,-1.411436176300048828e+01,-2.016749000549316406e+01,-1.503094005584716797e+01,-1.189230823516845703e+01,-1.865895462036132812e+01,-1.924954795837402344e+01,2.278182268142700195e+00,-6.807083636522293091e-02
-8.416769981384277344e+00,-7.722848415374755859e+00,-1.500381755828857422e+01,6.024108529090881348e-01,-6.835958957672119141e+00,-8.856841087341308594e+00,-7.466338634490966797e+00,-1.007709026336669922e+01,-1.591779804229736328e+01,-1.297851276397705078e+01,-1.354791259765625000e+01,-7.646130084991455078e+00,-1.265670871734619141e+01,-1.285587787628173828e+01,-1.873420906066894531e+01,-1.372673702239990234e+01,-1.043157005310058594e+01,-1.681081962585449219e+01,-1.724399185180664062e+01,1.732809543609619141e+00,-1.375170201063156128e-01
-7.375910282135009766e+00,-9.372638702392578125e+00,-1.346741199493408203e+01,-1.273182407021522522e-02,-5.878559589385986328e+00,-1.071530818939208984e+01,-7.078859329223632812e+00,-9.802978515625000000e+00,-1.498353290557861328e+01,-1.227396488189697266e+01,-1.325924873352050781e+01,-6.646441459655761719e+00,-1.175487709045410156e+01,-1.148298740386962891e+01,-1.680383872985839844e+01,-1.219202423095703125e+01,-9.534581184387207031e+00,-1.533840465545654297e+01,-1.509970664978027344e+01,1.213911175727844238e+00,-1.956029385328292847e-01
-6.794802188873291016e+00,-1.107425498962402344e+01,-1.237533187866210938e+01,-1.103446960449218750e+00,-5.300910949707031250e+00,-1.254436111450195312e+01,-7.009311676025390625e+00,-9.782991409301757812e+00,-1.446250057220458984e+01,-1.186922454833984375e+01,-1.288176631927490234e+01,-5.758306503295898438e+00,-1.082031631469726562e+01,-1.015195369720458984e+01,-1.451998043060302734e+01,-1.059665012359619141e+01,-9.148725509643554688e+00,-1.430771446228027344e+01,-1.301573848724365234e+01,7.744359970092773438e-01,-2.371502220630645752e-01
-6.631438255310058594e+00,-1.254841327667236328e+01,-1.172757911682128906e+01,-2.411271333694458008e+00,-5.113709926605224609e+00,-1.404183197021484375e+01,-7.272598743438720703e+00,-9.997140884399414062e+00,-1.435213375091552734e+01,-1.165636062622070312e+01,-1.241546440124511719e+01,-5.131892204284667969e+00,-9.973031044006347656e+00,-9.097171783447265625e+00,-1.215051174163818359e+01,-9.183258056640625000e+00,-9.108636856079101562e+00,-1.370097732543945312e+01,-1.120319843292236328e+01,4.567431211471557617e-01,-2.609746754169464111e-01
-6.783133506774902344e+00,-1.358493137359619141e+01,-1.145991325378417969e+01,-3.690664768218994141e+00,-5.258121967315673828e+00,-1.500716495513916016e+01,-7.824011802673339844e+00,-1.040545177459716797e+01,-1.458313369750976562e+01,-1.158740520477294922e+01,-1.193528461456298828e+01,-4.870171070098876953e+00,-9.365748405456542969e+00,-8.541876792907714844e+00,-9.993687629699707031e+00,-8.236953735351562500e+00,-9.231409072875976562e+00,-1.345219039916992188e+01,-9.837008476257324219e+00,2.820120453834533691e-01,-2.693845033645629883e-01
-7.130864620208740234e+00,-1.410894870758056641e+01,-1.146526622772216797e+01,-4.765872001647949219e+00,-5.656592845916748047e+00,-1.538420677185058594e+01,-8.569164276123046875e+00,-1.097937202453613281e+01,-1.502203273773193359e+01,-1.169533538818359375e+01,-1.154947471618652344e+01,-4.973143100738525391e+00,-9.096653938293457031e+00,-8.600475311279296875e+00,-8.251106262207031250e+00,-7.897253990173339844e+00,-9.394269943237304688e+00,-1.349026966094970703e+01,-8.935262680053710938e+00,2.343581169843673706e-01,-2.666146755218505859e-01
-7.569612979888916016e+00,-1.419244575500488281e+01,-1.163389587402343750e+01,-5.561939239501953125e+00,-6.196801185607910156e+00,-1.527189636230468750e+01,-9.359025955200195312e+00,-1.167321586608886719e+01,-1.549429893493652344e+01,-1.205510520935058594e+01,-1.132465076446533203e+01,-5.372160434722900391e+00,-9.111199378967285156e+00,-9.200417518615722656e+00,-6.953145503997802734e+00,-8.121698379516601562e+00,-9.572164535522460938e+00,-1.372382545471191406e+01,-8.395421028137207031e+00,2.581850886344909668e-01,-2.569002509117126465e-01
-8.017696380615234375e+00,-1.399665927886962891e+01,-1.185070610046386719e+01,-6.094373703002929688e+00,-6.742358684539794922e+00,-1.487881088256835938e+01,-9.970051765441894531e+00,-1.242702102661132812e+01,-1.581513118743896484e+01,-1.270269012451171875e+01,-1.123583126068115234e+01,-5.938507556915283203e+00,-9.202109336853027344e+00,-1.008498287200927734e+01,-5.939631462097167969e+00,-8.679775238037109375e+00,-9.802675247192382812e+00,-1.404115581512451172e+01,-7.997325897216796875e+00,2.740697264671325684e-01,-2.434927076101303101e-01
-8.398099899291992188e+00,-1.370585823059082031e+01,-1.199792289733886719e+01,-6.432960510253906250e+00,-7.154200553894042969e+00,-1.444293975830078125e+01,-1.021346855163574219e+01,-1.315512847900390625e+01,-1.583053112030029297e+01,-1.360211277008056641e+01,-1.117754364013671875e+01,-6.530598163604736328e+00,-9.067562103271484375e+00,-1.088583564758300781e+01,-4.964779853820800781e+00,-9.231786727905273438e+00,-1.013090324401855469e+01,-1.428740501403808594e+01,-7.487643241882324219e+00,1.999413818120956421e-01,-2.275762856006622314e-01
-8.643145561218261719e+00,-1.347264194488525391e+01,-1.198453903198242188e+01,-6.665577411651611328e+00,-7.317332744598388672e+00,-1.414879417419433594e+01,-9.945213317871093750e+00,-1.376616764068603516e+01,-1.545323181152343750e+01,-1.462445735931396484e+01,-1.102210998535156250e+01,-7.066911697387695312e+00,-8.449370384216308594e+00,-1.124580097198486328e+01,-3.821470022201538086e+00,-9.486561775207519531e+00,-1.054682540893554688e+01,-1.427217292785644531e+01,-6.679389476776123047e+00,-2.111990563571453094e-02,-2.094319611787796021e-01
-8.678152084350585938e+00,-1.337474822998046875e+01,-1.173293304443359375e+01,-6.864593982696533203e+00,-7.162223815917968750e+00,-1.410600948333740234e+01,-9.140448570251464844e+00,-1.416876888275146484e+01,-1.468323326110839844e+01,-1.557184982299804688e+01,-1.068348503112792969e+01,-7.500252723693847656e+00,-7.256624698638916016e+00,-1.091374015808105469e+01,-2.410282850265502930e+00,-9.256051063537597656e+00,-1.096525287628173828e+01,-1.381013965606689453e+01,-5.476056098937988281e+00,-4.063225090503692627e-01,-1.889593899250030518e-01
-8.477448463439941406e+00,-1.343809127807617188e+01,-1.124310302734375000e+01,-7.092041969299316406e+00,-6.710267066955566406e+00,-1.434934806823730469e+01,-7.883624076843261719e+00,-1.432010078430175781e+01,-1.360523509979248047e+01,-1.623442459106445312e+01,-1.015334415435791016e+01,-7.826331615447998047e+00,-5.547507286071777344e+00,-9.805940628051757812e+00,-7.367420792579650879e-01,-8.503859519958496094e+00,-1.126090812683105469e+01,-1.277183246612548828e+01,-3.889707088470458984e+00,-9.291920065879821777e-01,-1.666804105043411255e-01
-8.085375785827636719e+00,-1.366842842102050781e+01,-1.059802722930908203e+01,-7.376351356506347656e+00,-6.063086509704589844e+00,-1.487881088256835938e+01,-6.343641757965087891e+00,-1.420588779449462891e+01,-1.235527133941650391e+01,-1.646227836608886719e+01,-9.506628036499023438e+00,-8.036566734313964844e+00,-3.518384933471679688e+00,-7.986581325531005859e+00,1.149443387985229492e+00,-7.236053466796875000e+00,-1.133858013153076172e+01,-1.113948345184326172e+01,-1.938437342643737793e+00,-1.528837323188781738e+00,-1.437390893697738647e-01
-7.634958267211914062e+00,-1.408879375457763672e+01,-9.971687316894531250e+00,-7.733030796051025391e+00,-5.407882690429687500e+00,-1.566498279571533203e+01,-4.709273815155029297e+00,-1.386610412597656250e+01,-1.108220672607421875e+01,-1.618045997619628906e+01,-8.840481758117675781e+00,-8.100924491882324219e+00,-1.361987709999084473e+00,-5.606346130371093750e+00,3.253796815872192383e+00,-5.470829963684082031e+00,-1.117571926116943359e+01,-9.007019996643066406e+00,3.355308473110198975e-01,-2.132453680038452148e+00,-1.213998869061470032e-01
-7.319899559020996094e+00,-1.471070480346679688e+01,-9.564834594726562500e+00,-8.149156570434570312e+00,-4.939880371093750000e+00,-1.665973091125488281e+01,-3.154388666152954102e+00,-1.334643554687500000e+01,-9.888709068298339844e+00,-1.536798095703125000e+01,-8.227072715759277344e+00,-7.967918395996093750e+00,7.725909948348999023e-01,-2.860565185546875000e+00,5.617742061614990234e+00,-3.189991950988769531e+00,-1.083746910095214844e+01,-6.577535629272460938e+00,2.908070325851440430e+00,-2.667236804962158203e+00,-1.005058214068412781e-01
-7.310564517974853516e+00,-1.553416061401367188e+01,-9.538067817687988281e+00,-8.552359580993652344e+00,-4.811513900756835938e+00,-1.777213668823242188e+01,-1.783307671546936035e+00,-1.269542121887207031e+01,-8.831244468688964844e+00,-1.405782127380371094e+01,-7.685829639434814453e+00,-7.620387077331542969e+00,2.801713466644287109e+00,3.868957236409187317e-02,8.282704353332519531e+00,-4.117366969585418701e-01,-1.041403102874755859e+01,-4.074430465698242188e+00,5.718863964080810547e+00,-3.072295188903808594e+00,-8.127765357494354248e-02
-7.686301231384277344e+00,-1.648142242431640625e+01,-9.934213638305664062e+00,-8.828915596008300781e+00,-5.068246841430664062e+00,-1.886582565307617188e+01,-6.407402157783508301e-01,-1.194732666015625000e+01,-7.914945602416992188e+00,-1.231293964385986328e+01,-7.188995838165283203e+00,-7.088364124298095703e+00,4.667197227478027344e+00,2.862602710723876953e+00,1.117411899566650391e+01,2.754746198654174805e+00,-9.980569839477539062e+00,-1.718566656112670898e+00,8.626165390014648438e+00,-3.323801994323730469e+00,-6.327383220195770264e-02
-8.377096176147460938e+00,-1.740277099609375000e+01,-1.065155982971191406e+01,-8.821161270141601562e+00,-5.629849910736083984e+00,-1.976965522766113281e+01,2.733137011528015137e-01,-1.113355922698974609e+01,-7.116713523864746094e+00,-1.025026226043701172e+01,-6.686610698699951172e+00,-6.474821090698242188e+00,6.281767845153808594e+00,5.376778602600097656e+00,1.407934093475341797e+01,6.030418395996093750e+00,-9.529570579528808594e+00,3.504301607608795166e-01,1.140378475189208984e+01,-3.428375959396362305e+00,-4.629363492131233215e-02
-9.168243408203125000e+00,-1.809954071044921875e+01,-1.147329616546630859e+01,-8.384358406066894531e+00,-6.311796188354492188e+00,-2.032318496704101562e+01,9.737572073936462402e-01,-1.027696228027343750e+01,-6.398048400878906250e+00,-8.034683227539062500e+00,-6.150918483734130859e+00,-5.912764549255371094e+00,7.514513969421386719e+00,7.366353511810302734e+00,1.665593147277832031e+01,9.033117294311523438e+00,-8.990876197814941406e+00,2.048784494400024414e+00,1.378029251098632812e+01,-3.428375959396362305e+00,-3.075856342911720276e-02
-9.807695388793945312e+00,-1.841337585449218750e+01,-1.216119956970214844e+01,-7.451305866241455078e+00,-6.926885128021240234e+00,-2.043816947937011719e+01,1.460590243339538574e+00,-9.426075935363769531e+00,-5.743549346923828125e+00,-5.891057491302490234e+00,-5.601348400115966797e+00,-5.522328376770019531e+00,8.190888404846191406e+00,8.683435440063476562e+00,1.853659439086914062e+01,1.138068294525146484e+01,-8.269276618957519531e+00,3.346032857894897461e+00,1.550838756561279297e+01,-3.384693145751953125e+00,-1.783274114131927490e-02
-1.010175037384033203e+01,-1.828093147277832031e+01,-1.253860855102539062e+01,-6.071111679077148438e+00,-7.338727474212646484e+00,-2.012263107299804688e+01,1.679168462753295898e+00,-8.660849571228027344e+00,-5.160917282104492188e+00,-4.059231758117675781e+00,-5.112841606140136719e+00,-5.350708007812500000e+00,8.183615684509277344e+00,9.266634941101074219e+00,1.941754913330078125e+01,1.281227302551269531e+01,-7.334704399108886719e+00,4.226943016052246094e+00,1.644933891296386719e+01,-3.352923870086669922e+00,-8.981362916529178619e-03
-9.989728927612304688e+00,-1.776267242431640625e+01,-1.255734539031982422e+01,-4.409192562103271484e+00,-7.520579814910888672e+00,-1.948353195190429688e+01,1.554976344108581543e+00,-8.032677650451660156e+00,-4.680951595306396484e+00,-2.761064291000366211e+00,-4.785319805145263672e+00,-5.367869853973388672e+00,7.478149890899658203e+00,9.188503265380859375e+00,1.923528289794921875e+01,1.328542518615722656e+01,-6.259821414947509766e+00,4.663590431213378906e+00,1.663330841064453125e+01,-3.364837408065795898e+00,-5.268199369311332703e-03
-9.569651603698730469e+00,-1.702847290039062500e+01,-1.229235553741455078e+01,-2.705919504165649414e+00,-7.544648647308349609e+00,-1.867329406738281250e+01,1.033369421958923340e+00,-7.627222061157226562e+00,-4.362685203552246094e+00,-2.149456501007080078e+00,-4.715929508209228516e+00,-5.475132942199707031e+00,6.187220573425292969e+00,8.563446998596191406e+00,1.812235069274902344e+01,1.295179176330566406e+01,-5.232544422149658203e+00,4.620433330535888672e+00,1.620505332946777344e+01,-3.419109821319580078e+00,-6.813678424805402756e-03
-9.046887397766113281e+00,-1.627411842346191406e+01,-1.190423965454101562e+01,-1.214586257934570312e+00,-7.541974067687988281e+00,-1.786305427551269531e+01,1.143478080630302429e-01,-7.487311363220214844e+00,-4.283118724822998047e+00,-2.278373956680297852e+00,-4.960183143615722656e+00,-5.608138561248779297e+00,4.536285877227783203e+00,7.544940948486328125e+00,1.636319923400878906e+01,1.208434581756591797e+01,-4.498416900634765625e+00,4.059392452239990234e+00,1.537267303466796875e+01,-3.481324672698974609e+00,-1.263431273400783539e-02
-8.654814720153808594e+00,-1.565508747100830078e+01,-1.157233333587646484e+01,-1.316249519586563110e-01,-7.646271705627441406e+00,-1.713838577270507812e+01,-1.127573251724243164e+00,-7.632932662963867188e+00,-4.508985042572021484e+00,-3.090852975845336914e+00,-5.526406764984130859e+00,-5.749725341796875000e+00,2.754440069198608398e+00,6.255763053894042969e+00,1.426436996459960938e+01,1.091966247558593750e+01,-4.287950038909912109e+00,2.990622282028198242e+00,1.432013320922851562e+01,-3.501180648803710938e+00,-2.086348459124565125e-02
-8.561464309692382812e+00,-1.523760128021240234e+01,-1.143582344055175781e+01,4.525021314620971680e-01,-7.935096263885498047e+00,-1.653137588500976562e+01,-2.573169469833374023e+00,-8.026967048645019531e+00,-5.096750736236572266e+00,-4.421999454498291016e+00,-6.359088897705078125e+00,-5.947088718414306641e+00,1.023504018783569336e+00,4.796369552612304688e+00,1.207716751098632812e+01,9.597261428833007812e+00,-4.733938694000244141e+00,1.510591506958007812e+00,1.315600681304931641e+01,-3.425728559494018555e+00,-2.955429442226886749e-02
-8.829847335815429688e+00,-1.499286746978759766e+01,-1.154556655883789062e+01,5.662260055541992188e-01,-8.424492835998535156e+00,-1.601795768737792969e+01,-4.048571586608886719e+00,-8.566623687744140625e+00,-6.002782344818115234e+00,-6.019974708557128906e+00,-7.347205162048339844e+00,-6.264586448669433594e+00,-5.437931418418884277e-01,3.286747694015502930e+00,9.967290878295898438e+00,8.196002006530761719e+00,-5.813832759857177734e+00,-1.801469326019287109e-01,1.195267295837402344e+01,-3.224523067474365234e+00,-3.706090524792671204e-02
-9.406287193298339844e+00,-1.482875251770019531e+01,-1.186141300201416016e+01,3.129319548606872559e-01,-9.050279617309570312e+00,-1.554999828338623047e+01,-5.374943733215332031e+00,-9.100568771362304688e+00,-7.088480472564697266e+00,-7.578975200653076172e+00,-8.326994895935058594e+00,-6.732251644134521484e+00,-1.863813638687133789e+00,1.899905085563659668e+00,8.070059776306152344e+00,6.782609939575195312e+00,-7.367276668548583984e+00,-1.794726014137268066e+00,1.078251457214355469e+01,-2.896240472793579102e+00,-4.239983111619949341e-02
-1.017409706115722656e+01,-1.465024089813232422e+01,-1.229503250122070312e+01,-1.652251780033111572e-01,-9.729551315307617188e+00,-1.509273529052734375e+01,-6.418157100677490234e+00,-9.474616050720214844e+00,-8.107445716857910156e+00,-8.832171440124511719e+00,-9.129145622253417969e+00,-7.264275074005126953e+00,-2.838374376296997070e+00,8.507041335105895996e-01,6.509745121002197266e+00,5.484473228454589844e+00,-9.151231765747070312e+00,-3.048817396163940430e+00,9.742038726806640625e+00,-2.463383913040161133e+00,-4.537036269903182983e-02
-1.101892089843750000e+01,-1.441414546966552734e+01,-1.275274181365966797e+01,-7.674446702003479004e-01,-1.037405776977539062e+01,-1.464349365234375000e+01,-7.113633155822753906e+00,-9.577407836914062500e+00,-8.787611007690429688e+00,-9.629660606384277344e+00,-9.609325408935546875e+00,-7.719069004058837891e+00,-3.351109504699707031e+00,3.261036574840545654e-01,5.424428939819335938e+00,4.495705127716064453e+00,-1.091263580322265625e+01,-3.746945142745971680e+00,8.960927009582519531e+00,-1.973607301712036133e+00,-4.631370678544044495e-02
-1.184274005889892578e+01,-1.413774108886718750e+01,-1.316494846343994141e+01,-1.436864614486694336e+00,-1.090356922149658203e+01,-1.422901535034179688e+01,-7.461370944976806641e+00,-9.388957023620605469e+00,-8.910810470581054688e+00,-9.962447166442871094e+00,-9.700920104980468750e+00,-7.929303646087646484e+00,-3.285654067993164062e+00,4.237686395645141602e-01,4.880390167236328125e+00,3.986156225204467773e+00,-1.246357440948486328e+01,-3.861184120178222656e+00,8.508546829223632812e+00,-1.486478328704833984e+00,-4.571157321333885193e-02
-1.256854248046875000e+01,-1.387285327911376953e+01,-1.349417781829833984e+01,-2.142469406127929688e+00,-1.126192569732666016e+01,-1.388406276702880859e+01,-7.481241703033447266e+00,-8.997776985168457031e+00,-8.400044441223144531e+00,-1.000142192840576172e+01,-9.431686401367187500e+00,-7.779136180877685547e+00,-2.616552591323852539e+00,1.082309603691101074e+00,4.866581916809082031e+00,4.022552490234375000e+00,-1.369881248474121094e+01,-3.536237478256225586e+00,8.369815826416015625e+00,-1.064211487770080566e+00,-4.406573623418807983e-02
-1.311697769165039062e+01,-1.367130756378173828e+01,-1.372437095642089844e+01,-2.879089832305908203e+00,-1.138494300842285156e+01,-1.366479015350341797e+01,-7.217954635620117188e+00,-8.546636581420898438e+00,-7.373380184173583984e+00,-1.001341438293457031e+01,-8.915423393249511719e+00,-7.242822647094726562e+00,-1.441988945007324219e+00,2.086863756179809570e+00,5.206261157989501953e+00,4.507837295532226562e+00,-1.459329605102539062e+01,-3.038662672042846680e+00,8.406006813049316406e+00,-7.663744091987609863e-01,-4.169734194874763489e-02
-1.340636444091796875e+01,-1.357053565979003906e+01,-1.385285091400146484e+01,-3.626048803329467773e+00,-1.122448539733886719e+01,-1.361398315429687500e+01,-6.706283092498779297e+00,-8.178299903869628906e+00,-6.102882385253906250e+00,-1.027724552154541016e+01,-8.315892219543457031e+00,-6.410463809967041016e+00,-2.378505840897560120e-02,3.119322061538696289e+00,5.587364196777343750e+00,5.150839805603027344e+00,-1.516706752777099609e+01,-2.647711277008056641e+00,8.336641311645507812e+00,-6.353261470794677734e-01,-3.874688223004341125e-02
-1.337135791778564453e+01,-1.356477642059326172e+01,-1.387694168090820312e+01,-4.357500076293945312e+00,-1.076450538635253906e+01,-1.375035953521728516e+01,-6.025710105895996094e+00,-8.015545845031738281e+00,-4.942750930786132812e+00,-1.096980094909667969e+01,-7.805180549621582031e+00,-5.419356346130371094e+00,1.281689763069152832e+00,3.861575841903686523e+00,5.639834880828857422e+00,5.593662261962890625e+00,-1.545771217346191406e+01,-2.586783647537231445e+00,7.890292644500732422e+00,-6.803326010704040527e-01,-3.517421707510948181e-02
-1.298628616333007812e+01,-1.360796546936035156e+01,-1.380199432373046875e+01,-5.034674167633056641e+00,-1.004779338836669922e+01,-1.404450607299804688e+01,-5.300428390502929688e+00,-8.069797515869140625e+00,-4.193285465240478516e+00,-1.210907077789306641e+01,-7.505414962768554688e+00,-4.423958301544189453e+00,2.114429950714111328e+00,4.090391159057617188e+00,5.059895038604736328e+00,5.526935577392578125e+00,-1.549278926849365234e+01,-2.939655542373657227e+00,6.846800327301025391e+00,-8.696246147155761719e-01,-3.087899088859558105e-02
-1.228615665435791016e+01,-1.363675689697265625e+01,-1.363336467742919922e+01,-5.626554965972900391e+00,-9.165274620056152344e+00,-1.440282917022705078e+01,-4.679467678070068359e+00,-8.306789398193359375e+00,-4.018752574920654297e+00,-1.354814815521240234e+01,-7.438800334930419922e+00,-3.527241706848144531e+00,2.248977661132812500e+00,3.705312013626098633e+00,3.714987039566040039e+00,4.805074214935302734e+00,-1.527981758117675781e+01,-3.668246984481811523e+00,5.154895782470703125e+00,-1.146282196044921875e+00,-2.590134553611278534e-02
-1.135965061187744141e+01,-1.357341480255126953e+01,-1.336569786071777344e+01,-6.084034919738769531e+00,-8.237292289733886719e+00,-1.468895244598388672e+01,-4.331729888916015625e+00,-8.635150909423828125e+00,-4.375518798828125000e+00,-1.505318260192871094e+01,-7.527619838714599609e+00,-2.789274215698242188e+00,1.674423217773437500e+00,2.745404720306396484e+00,1.729383230209350586e+00,3.500871658325195312e+00,-1.481378459930419922e+01,-4.630393981933593750e+00,2.962356090545654297e+00,-1.442795515060424805e+00,-2.058248966932296753e-02
-1.033045959472656250e+01,-1.335459423065185547e+01,-1.295884513854980469e+01,-6.339913845062255859e+00,-7.373493194580078125e+00,-1.473708629608154297e+01,-4.361536026000976562e+00,-8.977789878845214844e+00,-5.045417308807373047e+00,-1.637233734130859375e+01,-7.621990680694580078e+00,-2.235798597335815430e+00,5.980427861213684082e-01,1.336238622665405273e+00,-5.599984526634216309e-01,1.869101643562316895e+00,-1.408967876434326172e+01,-5.645852565765380859e+00,5.647372007369995117e-01,-1.707539558410644531e+00,-1.552455872297286987e-02
-9.298933982849121094e+00,-1.291983222961425781e+01,-1.236194896697998047e+01,-6.311482906341552734e+00,-6.632712364196777344e+00,-1.440015506744384766e+01,-4.758950710296630859e+00,-9.269033432006835938e+00,-5.715316295623779297e+00,-1.731673049926757812e+01,-7.569253921508789062e+00,-1.875395774841308594e+00,-6.274307966232299805e-01,-3.435990810394287109e-01,-2.708537578582763672e+00,2.251995354890823364e-01,-1.312504100799560547e+01,-6.554687976837158203e+00,-1.654945254325866699e+00,-1.915363669395446777e+00,-1.149025652557611465e-02
-8.316418647766113281e+00,-1.223745822906494141e+01,-1.150006294250488281e+01,-5.908279895782470703e+00,-5.998903274536132812e+00,-1.361398315429687500e+01,-5.389846324920654297e+00,-9.474616050720214844e+00,-6.082348823547363281e+00,-1.779342651367187500e+01,-7.272264003753662109e+00,-1.720937490463256836e+00,-1.634719252586364746e+00,-2.098778247833251953e+00,-4.318561077117919922e+00,-1.139663815498352051e+00,-1.196496868133544922e+01,-7.237583637237548828e+00,-3.361929416656494141e+00,-2.068915128707885742e+00,-9.041576646268367767e-03
-7.371242523193359375e+00,-1.131323051452636719e+01,-1.031430053710937500e+01,-5.088951110839843750e+00,-5.383814334869384766e+00,-1.241065883636474609e+01,-6.000871658325195312e+00,-9.557420730590820312e+00,-5.948882579803466797e+00,-1.781141471862792969e+01,-6.753225326538085938e+00,-1.793876171112060547e+00,-2.151090860366821289e+00,-3.736759424209594727e+00,-5.155331611633300781e+00,-2.073837041854858398e+00,-1.067460823059082031e+01,-7.618381023406982422e+00,-4.330024719238281250e+00,-2.185402631759643555e+00,-8.399299345910549164e-03
-6.393393993377685547e+00,-1.017881965637207031e+01,-8.780570983886718750e+00,-3.871588945388793945e+00,-4.685822010040283203e+00,-1.093458080291748047e+01,-6.293965339660644531e+00,-9.500314712524414062e+00,-5.268716812133789062e+00,-1.743965339660644531e+01,-6.123162269592285156e+00,-2.102792739868164062e+00,-2.038361787796020508e+00,-5.078955173492431641e+00,-5.185709476470947266e+00,-2.546989679336547852e+00,-9.329125404357910156e+00,-7.669153690338134766e+00,-4.489865779876708984e+00,-2.297918796539306641e+00,-9.202145040035247803e-03
-5.308192253112792969e+00,-8.909085273742675781e+00,-6.944379329681396484e+00,-2.375086545944213867e+00,-3.792605876922607422e+00,-9.375607490539550781e+00,-6.010807037353515625e+00,-9.300441741943359375e+00,-4.129118919372558594e+00,-1.677408027648925781e+01,-5.545835971832275391e+00,-2.639106273651123047e+00,-1.300168514251708984e+00,-5.977473258972167969e+00,-4.561583518981933594e+00,-2.662244796752929688e+00,-8.006193161010742188e+00,-7.387363910675048828e+00,-3.913834095001220703e+00,-2.418377399444580078e+00,-1.070748176425695419e-02
-4.094633579254150391e+00,-7.593283653259277344e+00,-4.928850650787353516e+00,-7.932910323143005371e-01,-2.690794229507446289e+00,-7.910225868225097656e+00,-5.052043914794921875e+00,-8.960658073425292969e+00,-2.704621553421020508e+00,-1.591662883758544922e+01,-5.185007095336914062e+00,-3.359911918640136719e+00,-8.196777850389480591e-02,-6.345809936523437500e+00,-3.556354522705078125e+00,-2.553055763244628906e+00,-6.783482551574707031e+00,-6.821245670318603516e+00,-2.797960996627807617e+00,-2.546778202056884766e+00,-1.187160890549421310e-02
-2.827398061752319336e+00,-6.317790985107421875e+00,-2.934735536575317383e+00,6.411803364753723145e-01,-1.452593445777893066e+00,-6.648072242736816406e+00,-3.521997213363647461e+00,-8.523794174194335938e+00,-1.213390946388244629e+00,-1.496923637390136719e+01,-5.151700019836425781e+00,-4.179399013519287109e+00,1.398055195808410645e+00,-6.209078788757324219e+00,-2.465515136718750000e+00,-2.365007877349853516e+00,-5.731149673461914062e+00,-6.067267894744873047e+00,-1.407643675804138184e+00,-2.639438629150390625e+00,-1.177125331014394760e-02
-1.648845553398132324e+00,-5.163225650787353516e+00,-1.208286643028259277e+00,1.713803052902221680e+00,-2.598556876182556152e-01,-5.613213539123535156e+00,-1.693889379501342773e+00,-8.055521011352539062e+00,1.084400340914726257e-01,-1.402484226226806641e+01,-5.484772682189941406e+00,-5.011757850646972656e+00,2.863532543182373047e+00,-5.704011440277099609e+00,-1.554181098937988281e+00,-2.231554508209228516e+00,-4.931877613067626953e+00,-5.272671699523925781e+00,-2.034214697778224945e-02,-2.650028467178344727e+00,-9.764137677848339081e-03
-7.456777095794677734e-01,-4.207325935363769531e+00,2.297919429838657379e-02,2.290176153182983398e+00,6.814978718757629395e-01,-4.792278766632080078e+00,8.950939029455184937e-02,-7.635787963867187500e+00,1.022171735763549805e+00,-1.318238258361816406e+01,-6.167572021484375000e+00,-5.749725341796875000e+00,4.041732788085937500e+00,-5.059422492980957031e+00,-1.021188735961914062e+00,-2.255818843841552734e+00,-4.445800304412841797e+00,-4.620239257812500000e+00,1.098546743392944336e+00,-2.532217264175415039e+00,-5.769978277385234833e-03
-2.719229757785797119e-01,-3.524951696395874023e+00,5.797255039215087891e-01,2.318607330322265625e+00,1.189614772796630859e+00,-4.171898365020751953e+00,1.485428690910339355e+00,-7.353110790252685547e+00,1.304504513740539551e+00,-1.254379177093505859e+01,-7.141810417175292969e+00,-6.320363044738769531e+00,4.663560390472412109e+00,-4.554355144500732422e+00,-9.935725927352905273e-01,-2.522725343704223633e+00,-4.328039169311523438e+00,-4.300370216369628906e+00,1.731879949569702148e+00,-2.270120620727539062e+00,-4.310517106205224991e-04
-3.092632591724395752e-01,-3.188083410263061523e+00,3.709456324577331543e-01,1.824942350387573242e+00,1.165546178817749023e+00,-3.760094165802001953e+00,2.270322799682617188e+00,-7.293148994445800781e+00,7.706388831138610840e-01,-1.220800685882568359e+01,-8.349199295043945312e+00,-6.706508636474609375e+00,4.543558597564697266e+00,-4.451108932495117188e+00,-1.548657894134521484e+00,-3.123265266418457031e+00,-4.591122150421142578e+00,-4.478075027465820312e+00,1.740927577018737793e+00,-1.878299474716186523e+00,4.988159518688917160e-03
-8.320270776748657227e-01,-3.245667934417724609e+00,-5.819470286369323730e-01,8.789665699005126953e-01,6.199889779090881348e-01,-3.580932378768920898e+00,2.359741210937500000e+00,-7.527285575866699219e+00,-6.923585534095764160e-01,-1.225597667694091797e+01,-9.737003326416015625e+00,-6.946777343750000000e+00,3.583543777465820312e+00,-4.925481796264648438e+00,-2.733392238616943359e+00,-4.136297225952148438e+00,-5.212499618530273438e+00,-5.239669322967529297e+00,1.059340357780456543e+00,-1.411026239395141602e+00,9.102745912969112396e-03
-1.714191079139709473e+00,-3.683308601379394531e+00,-2.134412765502929688e+00,-4.211038649082183838e-01,-3.374103903770446777e-01,-3.647783756256103516e+00,1.803360581398010254e+00,-8.109771728515625000e+00,-3.048554420471191406e+00,-1.275665569305419922e+01,-1.125803661346435547e+01,-7.148431301116943359e+00,1.816243529319763184e+00,-6.052814960479736328e+00,-4.533967494964599609e+00,-5.598217487335205078e+00,-6.119510650634765625e+00,-6.587690353393554688e+00,-3.008183240890502930e-01,-9.331631660461425781e-01,1.086900755763053894e-02
-2.776055097579956055e+00,-4.400233268737792969e+00,-4.042874813079833984e+00,-1.946037411689758301e+00,-1.514102339744567871e+00,-3.920537233352661133e+00,7.402760386466979980e-01,-9.063449859619140625e+00,-6.087482452392578125e+00,-1.373702716827392578e+01,-1.284568405151367188e+01,-7.453057289123535156e+00,-5.692480802536010742e-01,-7.799622535705566406e+00,-6.853726863861083984e+00,-7.496893882751464844e+00,-7.201910018920898438e+00,-8.425670623779296875e+00,-2.249072313308715820e+00,-5.016303658485412598e-01,1.010630372911691666e-02
-3.823916673660278320e+00,-5.232326507568359375e+00,-6.002193450927734375e+00,-3.558848381042480469e+00,-2.698817253112792969e+00,-4.286882877349853516e+00,-6.506755948066711426e-01,-1.035691165924072266e+01,-9.460076332092285156e+00,-1.518809604644775391e+01,-1.440557479858398438e+01,-7.989370822906494141e+00,-3.278381109237670898e+00,-1.003475570678710938e+01,-9.493834495544433594e+00,-9.729204177856445312e+00,-8.331914901733398438e+00,-1.057844257354736328e+01,-4.631611824035644531e+00,-1.574631035327911377e-01,7.557267323136329651e-03
-4.692078113555908203e+00,-5.978043556213378906e+00,-7.712582111358642578e+00,-5.117382049560546875e+00,-3.701679468154907227e+00,-4.602421283721923828e+00,-2.185690164566040039e+00,-1.191591835021972656e+01,-1.275567054748535156e+01,-1.705589866638183594e+01,-1.582391071319580078e+01,-8.830310821533203125e+00,-5.958422660827636719e+00,-1.256288337707519531e+01,-1.217812728881835938e+01,-1.210709953308105469e+01,-9.396776199340820312e+00,-1.282260608673095703e+01,-7.237326145172119141e+00,7.551167905330657959e-02,4.566665273159742355e-03
-5.273185729980468750e+00,-6.470389366149902344e+00,-8.933141708374023438e+00,-6.487237930297851562e+00,-4.378277301788330078e+00,-4.744145870208740234e+00,-3.690898418426513672e+00,-1.361483573913574219e+01,-1.559953212738037109e+01,-1.924449539184570312e+01,-1.697301101684570312e+01,-9.950133323669433594e+00,-8.285732269287109375e+00,-1.514402961730957031e+01,-1.460282897949218750e+01,-1.439400386810302734e+01,-1.030128097534179688e+01,-1.494999122619628906e+01,-9.837008476257324219e+00,1.906753480434417725e-01,2.619763603433966637e-03
-5.506562709808349609e+00,-6.602833271026611328e+00,-9.530037879943847656e+00,-7.562445163726806641e+00,-4.648381710052490234e+00,-4.639857769012451172e+00,-5.022237777709960938e+00,-1.530233192443847656e+01,-1.772729492187500000e+01,-2.160698127746582031e+01,-1.775295829772949219e+01,-1.121154308319091797e+01,-1.000575828552246094e+01,-1.753821563720703125e+01,-1.650006103515625000e+01,-1.632907676696777344e+01,-1.099030876159667969e+01,-1.678797149658203125e+01,-1.218938922882080078e+01,1.853804588317871094e-01,2.619763603433966637e-03
-5.368870258331298828e+00,-6.340824604034423828e+00,-9.471151351928710938e+00,-8.265465736389160156e+00,-4.506643772125244141e+00,-4.297578811645507812e+00,-6.060483932495117188e+00,-1.680994224548339844e+01,-1.904142570495605469e+01,-2.397246360778808594e+01,-1.813043975830078125e+01,-1.241717624664306641e+01,-1.098759174346923828e+01,-1.950825881958007812e+01,-1.770136451721191406e+01,-1.771213722229003906e+01,-1.141374683380126953e+01,-1.821215248107910156e+01,-1.409542083740234375e+01,6.095075234770774841e-02,4.566665273159742355e-03
-4.864776611328125000e+00,-5.710276603698730469e+00,-8.815367698669433594e+00,-8.557528495788574219e+00,-3.985155344009399414e+00,-3.773464441299438477e+00,-6.750992298126220703e+00,-1.798348045349121094e+01,-1.954449081420898438e+01,-2.614307212829589844e+01,-1.814154243469238281e+01,-1.334392642974853516e+01,-1.122759532928466797e+01,-2.088393974304199219e+01,-1.817083930969238281e+01,-1.843399810791015625e+01,-1.153401374816894531e+01,-1.915906715393066406e+01,-1.542542076110839844e+01,-1.601105332374572754e-01,7.677693851292133331e-03
-4.047958374023437500e+00,-4.768773078918457031e+00,-7.691168785095214844e+00,-8.425712585449218750e+00,-3.180191040039062500e+00,-3.120995283126831055e+00,-7.118600845336914062e+00,-1.871158790588378906e+01,-1.933145904541015625e+01,-2.790893936157226562e+01,-1.790283966064453125e+01,-1.384162521362304688e+01,-1.084940814971923828e+01,-2.157596588134765625e+01,-1.802447319030761719e+01,-1.853105545043945312e+01,-1.130851364135742188e+01,-1.961348533630371094e+01,-1.615526199340820312e+01,-4.248546063899993896e-01,1.074858009815216064e-02
-3.039770841598510742e+00,-3.614207506179809570e+00,-6.275213241577148438e+00,-7.903616905212402344e+00,-2.238837480545043945e+00,-2.390978336334228516e+00,-7.272598743438720703e+00,-1.894286918640136719e+01,-1.853579330444335938e+01,-2.906919670104980469e+01,-1.758364486694335938e+01,-1.385878753662109375e+01,-1.006394100189208984e+01,-2.159828948974609375e+01,-1.747767448425292969e+01,-1.815496063232421875e+01,-1.072973060607910156e+01,-1.958302116394042969e+01,-1.636335754394531250e+01,-6.538581848144531250e-01,1.267541106790304184e-02
-2.026915788650512695e+00,-2.387661457061767578e+00,-4.786987304687500000e+00,-7.073949337005615234e+00,-1.342947125434875488e+00,-1.628873109817504883e+00,-7.371952533721923828e+00,-1.869160079956054688e+01,-1.729609489440917969e+01,-2.946494293212890625e+01,-1.735049438476562500e+01,-1.345977020263671875e+01,-9.140290260314941406e+00,-2.107368850708007812e+01,-1.677622222900390625e+01,-1.753622245788574219e+01,-9.852787017822265625e+00,-1.913621902465820312e+01,-1.621256446838378906e+01,-7.491660714149475098e-01,1.283598039299249649e-02
-1.238102555274963379e+00,-1.299318075180053711e+00,-3.456685066223144531e+00,-6.065942764282226562e+00,-6.797207593917846680e-01,-9.175747036933898926e-01,-7.570660114288330078e+00,-1.804915428161621094e+01,-1.578176498413085938e+01,-2.902722358703613281e+01,-1.731441116333007812e+01,-1.280332183837890625e+01,-8.307550430297851562e+00,-2.019191360473632812e+01,-1.611895751953125000e+01,-1.689928627014160156e+01,-8.802959442138671875e+00,-1.838731956481933594e+01,-1.588383388519287109e+01,-6.326786875724792480e-01,1.127042993903160095e-02
-8.810362219810485840e-01,-5.852725505828857422e-01,-2.501115798950195312e+00,-5.057935714721679688e+00,-3.908963799476623535e-01,-3.881119787693023682e-01,-7.963107109069824219e+00,-1.717256927490234375e+01,-1.414680099487304688e+01,-2.780700492858886719e+01,-1.750592803955078125e+01,-1.207822608947753906e+01,-7.725723266601562500e+00,-1.916224479675292969e+01,-1.560529613494873047e+01,-1.638973617553710938e+01,-7.758142948150634766e+00,-1.750387001037597656e+01,-1.552796077728271484e+01,-2.765979170799255371e-01,8.641109801828861237e-03
-1.065403819084167480e+00,-4.499494135379791260e-01,-2.043406009674072266e+00,-4.220514297485351562e+00,-5.246113538742065430e-01,-1.875579357147216797e-01,-8.574131965637207031e+00,-1.624744415283203125e+01,-1.255290412902832031e+01,-2.596318817138671875e+01,-1.786398124694824219e+01,-1.146468353271484375e+01,-7.420263767242431641e+00,-1.815490150451660156e+01,-1.521314620971679688e+01,-1.604397201538085938e+01,-6.893726825714111328e+00,-1.665850067138671875e+01,-1.520827770233154297e+01,2.793646156787872314e-01,5.931503605097532272e-03
-1.739862561225891113e+00,-9.739666581153869629e-01,-2.067496061325073242e+00,-3.657064437866210938e+00,-1.024705410003662109e+00,-3.907860517501831055e-01,-9.363993644714355469e+00,-1.545652008056640625e+01,-1.111300659179687500e+01,-2.375660133361816406e+01,-1.828309822082519531e+01,-1.109569931030273438e+01,-7.318444252014160156e+00,-1.728707885742187500e+01,-1.485137462615966797e+01,-1.581952762603759766e+01,-6.302415847778320312e+00,-1.602891540527343750e+01,-1.491272258758544922e+01,9.372535943984985352e-01,4.105028696358203888e-03
-2.715377092361450195e+00,-2.056551694869995117e+00,-2.415462493896484375e+00,-3.362416267395019531e+00,-1.728046298027038574e+00,-9.710557460784912109e-01,-1.024824237823486328e+01,-1.493970584869384766e+01,-9.886141777038574219e+00,-2.147806358337402344e+01,-1.865502929687500000e+01,-1.103992271423339844e+01,-7.256624698638916016e+00,-1.660342216491699219e+01,-1.441503906250000000e+01,-1.564361190795898438e+01,-5.959155082702636719e+00,-1.570904636383056641e+01,-1.456288146972656250e+01,1.566020727157592773e+00,3.824032610282301903e-03
-3.704894542694091797e+00,-3.450092077255249023e+00,-2.835698843002319336e+00,-3.230600118637084961e+00,-2.426038503646850586e+00,-1.762575745582580566e+00,-1.112752246856689453e+01,-1.475982093811035156e+01,-8.887710571289062500e+00,-1.939140129089355469e+01,-1.890205955505371094e+01,-1.131451511383056641e+01,-7.063894748687744141e+00,-1.610672760009765625e+01,-1.383233737945556641e+01,-1.548589420318603516e+01,-5.746182918548583984e+00,-1.570396995544433594e+01,-1.406526184082031250e+01,2.042560100555419922e+00,5.168799776583909988e-03
-4.433029651641845703e+00,-4.817719459533691406e+00,-3.065891981124877930e+00,-3.080691337585449219e+00,-2.915435552597045898e+00,-2.519333124160766602e+00,-1.190248107910156250e+01,-1.488831043243408203e+01,-8.117712020874023438e+00,-1.765851211547851562e+01,-1.898255157470703125e+01,-1.184653854370117188e+01,-6.598433017730712891e+00,-1.576071357727050781e+01,-1.309222316741943359e+01,-1.534637451171875000e+01,-5.490616321563720703e+00,-1.592990875244140625e+01,-1.335351657867431641e+01,2.276858568191528320e+00,8.059046231210231781e-03
-4.752756118774414062e+00,-5.859995841979980469e+00,-2.956148862838745117e+00,-2.752442836761474609e+00,-3.107985019683837891e+00,-2.997988700866699219e+00,-1.249860286712646484e+01,-1.520810699462890625e+01,-7.581279754638671875e+00,-1.632736587524414062e+01,-1.886597633361816406e+01,-1.252872943878173828e+01,-5.798420429229736328e+00,-1.552073669433593750e+01,-1.223612117767333984e+01,-1.524931812286376953e+01,-5.089727878570556641e+00,-1.623962402343750000e+01,-1.241256427764892578e+01,2.247736692428588867e+00,1.253491267561912537e-02
-4.673408031463623047e+00,-6.401288032531738281e+00,-2.527882337570190430e+00,-2.170900344848632812e+00,-3.033104658126831055e+00,-3.048795700073242188e+00,-1.289105033874511719e+01,-1.556216621398925781e+01,-7.306646823883056641e+00,-1.532600784301757812e+01,-1.854678153991699219e+01,-1.321521091461181641e+01,-4.703857898712158203e+00,-1.533656883239746094e+01,-1.134964179992675781e+01,-1.519472312927246094e+01,-4.541011333465576172e+00,-1.650618171691894531e+01,-1.129669094085693359e+01,2.001524686813354492e+00,1.899782381951808929e-02
-4.344346523284912109e+00,-6.415684223175048828e+00,-1.952399492263793945e+00,-1.377418041229248047e+00,-2.824509143829345703e+00,-2.655709743499755859e+00,-1.310466003417968750e+01,-1.579915809631347656e+01,-7.329746723175048828e+00,-1.454350948333740234e+01,-1.802496719360351562e+01,-1.375581455230712891e+01,-3.434747219085693359e+00,-1.517193317413330078e+01,-1.053496456146240234e+01,-1.514012908935546875e+01,-3.959722518920898438e+00,-1.663565254211425781e+01,-1.011145305633544922e+01,1.634854197502136230e+00,2.792948670685291290e-02
-3.982612848281860352e+00,-5.975164413452148438e+00,-1.462569832801818848e+00,-5.012274980545043945e-01,-2.658702611923217773e+00,-1.906974673271179199e+00,-1.320401382446289062e+01,-1.581343555450439453e+01,-7.630046367645263672e+00,-1.387194061279296875e+01,-1.733106422424316406e+01,-1.405185985565185547e+01,-2.140181541442871094e+00,-1.500450801849365234e+01,-9.883222579956054688e+00,-1.502487373352050781e+01,-3.496195077896118164e+00,-1.660264968872070312e+01,-9.001611709594726562e+00,1.276126027107238770e+00,3.934997320175170898e-02
-3.758571147918701172e+00,-5.186259269714355469e+00,-1.248436570167541504e+00,3.025934100151062012e-01,-2.685445547103881836e+00,-9.309449791908264160e-01,-1.328846454620361328e+01,-1.558786487579345703e+01,-8.097178459167480469e+00,-1.327832126617431641e+01,-1.654556846618652344e+01,-1.406473159790039062e+01,-9.910728335380554199e-01,-1.484266281127929688e+01,-9.493834495544433594e+00,-1.480649566650390625e+01,-3.260672807693481445e+00,-1.644017601013183594e+01,-8.127008438110351562e+00,1.041827440261840820e+00,5.201487243175506592e-02
-3.732899665832519531e+00,-4.126708030700683594e+00,-1.374239802360534668e+00,9.099822044372558594e-01,-2.947526931762695312e+00,1.761134117841720581e-01,-1.346730136871337891e+01,-1.518526363372802734e+01,-8.548911094665527344e+00,-1.279862880706787109e+01,-1.581558322906494141e+01,-1.382875347137451172e+01,-1.110591441392898560e-01,-1.471430301666259766e+01,-9.460695266723632812e+00,-1.452139091491699219e+01,-3.253156185150146484e+00,-1.618377304077148438e+01,-7.599230766296386719e+00,1.011381983757019043e+00,6.337514519691467285e-02
-3.865924358367919922e+00,-2.839698314666748047e+00,-1.786446213722229004e+00,1.248569130897521973e+00,-3.415529489517211914e+00,1.363393425941467285e+00,-1.381007194519042969e+01,-1.472555637359619141e+01,-8.782477378845214844e+00,-1.253479766845703125e+01,-1.530209636688232422e+01,-1.343402671813964844e+01,4.198582172393798828e-01,-1.464175224304199219e+01,-9.836275100708007812e+00,-1.426055049896240234e+01,-3.383445024490356445e+00,-1.588675212860107422e+01,-7.472564220428466797e+00,1.205968856811523438e+00,7.009898126125335693e-02
-4.050292015075683594e+00,-1.371298432350158691e+00,-2.359252452850341797e+00,1.284754037857055664e+00,-3.990504026412963867e+00,2.590784072875976562e+00,-1.431677532196044922e+01,-1.433437728881835938e+01,-8.654144287109375000e+00,-1.259475898742675781e+01,-1.514388656616210938e+01,-1.297494220733642578e+01,5.871335268020629883e-01,-1.463338088989257812e+01,-1.062333679199218750e+01,-1.415136146545410156e+01,-3.541295051574707031e+00,-1.559226894378662109e+01,-7.704786300659179688e+00,1.592495083808898926e+00,6.945670396089553833e-02
-4.194985389709472656e+00,1.921156793832778931e-01,-2.966855525970458984e+00,9.901058077812194824e-01,-4.573501110076904297e+00,3.799456596374511719e+00,-1.491786575317382812e+01,-1.409738540649414062e+01,-8.122845649719238281e+00,-1.305346488952636719e+01,-1.540756893157958984e+01,-1.251156711578369141e+01,4.162217974662780762e-01,-1.467523765563964844e+01,-1.173902988433837891e+01,-1.429694652557373047e+01,-3.666572809219360352e+00,-1.534094333648681641e+01,-8.193357467651367188e+00,2.106098651885986328e+00,6.062539666891098022e-02
-4.279001235961914062e+00,1.697945475578308105e+00,-3.547691583633422852e+00,3.361936509609222412e-01,-5.103012561798095703e+00,4.874426364898681641e+00,-1.550405216217041016e+01,-1.402314758300781250e+01,-7.291246891021728516e+00,-1.388393211364746094e+01,-1.605706214904785156e+01,-1.202244949340820312e+01,-3.469431772828102112e-02,-1.471151256561279297e+01,-1.302042102813720703e+01,-1.469730663299560547e+01,-3.796861648559570312e+00,-1.516069889068603516e+01,-8.805580139160156250e+00,2.676622152328491211e+00,4.545160382986068726e-02
-4.353681564331054688e+00,2.967679500579833984e+00,-4.101761341094970703e+00,-6.976596117019653320e-01,-5.592409610748291016e+00,5.681990623474121094e+00,-1.598094940185546875e+01,-1.403456878662109375e+01,-6.349281787872314453e+00,-1.494225406646728516e+01,-1.696468544006347656e+01,-1.144323062896728516e+01,-6.965227723121643066e-01,-1.465849494934082031e+01,-1.425762653350830078e+01,-1.527358245849609375e+01,-4.032383918762207031e+00,-1.506423091888427734e+01,-9.405738830566406250e+00,3.259058952331542969e+00,2.806998603045940399e-02
-4.503042697906494141e+00,3.863115787506103516e+00,-4.634417533874511719e+00,-2.070099830627441406e+00,-6.055063247680664062e+00,6.123209476470947266e+00,-1.628894615173339844e+01,-1.399173831939697266e+01,-5.494583129882812500e+00,-1.599158096313476562e+01,-1.793614768981933594e+01,-1.067522907257080078e+01,-1.478353142738342285e+00,-1.441851806640625000e+01,-1.522971630096435547e+01,-1.584379196166992188e+01,-4.465844631195068359e+00,-1.501599597930908203e+01,-9.885262489318847656e+00,3.830906152725219727e+00,1.343811489641666412e-02
-4.776093482971191406e+00,4.349703311920166016e+00,-5.126924037933349609e+00,-3.638972043991088867e+00,-6.523066043853759766e+00,6.203431129455566406e+00,-1.645287895202636719e+01,-1.372904872894287109e+01,-4.870884418487548828e+00,-1.673210716247558594e+01,-1.877715682983398438e+01,-9.624054908752441406e+00,-2.282001972198486328e+00,-1.390507888793945312e+01,-1.574890041351318359e+01,-1.621382141113281250e+01,-5.087222099304199219e+00,-1.495506858825683594e+01,-1.016875457763671875e+01,4.393487453460693359e+00,5.309298168867826462e-03
-5.170500278472900391e+00,4.508059978485107422e+00,-5.515040397644042969e+00,-5.158736228942871094e+00,-6.991068363189697266e+00,6.029617786407470703e+00,-1.653236198425292969e+01,-1.311229896545410156e+01,-4.534651756286621094e+00,-1.691199111938476562e+01,-1.934337997436523438e+01,-8.221058845520019531e+00,-3.016558885574340820e+00,-1.306516075134277344e+01,-1.571576118469238281e+01,-1.621988677978515625e+01,-5.783766269683837891e+00,-1.479513454437255859e+01,-1.021700859069824219e+01,4.949450016021728516e+00,5.148728843778371811e-03
-5.618583679199218750e+00,4.485026359558105469e+00,-5.723820209503173828e+00,-6.365759849548339844e+00,-7.435002326965332031e+00,5.764886379241943359e+00,-1.662178039550781250e+01,-1.208723735809326172e+01,-4.473052024841308594e+00,-1.639932060241699219e+01,-1.958485794067382812e+01,-6.470530986785888672e+00,-3.620204687118530273e+00,-1.191271400451660156e+01,-1.513582134246826172e+01,-1.580132961273193359e+01,-6.392615795135498047e+00,-1.449303531646728516e+01,-1.001796054840087891e+01,5.490851402282714844e+00,1.201306283473968506e-02
-6.083003044128417969e+00,4.410166740417480469e+00,-5.766646862030029297e+00,-7.079118728637695312e+00,-7.870913028717041016e+00,5.540265560150146484e+00,-1.684035873413085938e+01,-1.072239303588867188e+01,-4.688651561737060547e+00,-1.524805831909179688e+01,-1.956542968750000000e+01,-4.449701309204101562e+00,-4.103848457336425781e+00,-1.053424263000488281e+01,-1.415820789337158203e+01,-1.501274204254150391e+01,-6.811043739318847656e+00,-1.409700679779052734e+01,-9.631929397583007812e+00,6.012397289276123047e+00,2.353390492498874664e-02
-6.603433132171630859e+00,4.297877311706542969e+00,-5.780030250549316406e+00,-7.293643474578857422e+00,-8.371006965637207031e+00,5.366452217102050781e+00,-1.732719230651855469e+01,-9.209071159362792969e+00,-5.232783794403076172e+00,-1.370704555511474609e+01,-1.944607734680175781e+01,-2.325899124145507812e+00,-4.565673828125000000e+00,-9.125076293945312500e+00,-1.304251384735107422e+01,-1.404217243194580078e+01,-7.096676826477050781e+00,-1.378475284576416016e+01,-9.173516273498535156e+00,6.511439800262451172e+00,3.710200265049934387e-02
-7.301229476928710938e+00,4.056023120880126953e+00,-6.034313201904296875e+00,-7.200596332550048828e+00,-9.095742225646972656e+00,5.117765426635742188e+00,-1.818163490295410156e+01,-7.824239253997802734e+00,-6.223515510559082031e+00,-1.215104389190673828e+01,-1.942387390136718750e+01,-3.093600571155548096e-01,-5.172955989837646484e+00,-7.950305938720703125e+00,-1.209527873992919922e+01,-1.313832950592041016e+01,-7.470004558563232422e+00,-1.382029342651367188e+01,-8.823675155639648438e+00,7.001216411590576172e+00,5.093102902173995972e-02
-8.365427017211914062e+00,3.503213644027709961e+00,-6.845342636108398438e+00,-7.123057365417480469e+00,-1.020557689666748047e+01,4.604346752166748047e+00,-1.949806976318359375e+01,-6.859139919281005859e+00,-7.768645763397216797e+00,-1.097879505157470703e+01,-1.966257476806640625e+01,1.368228912353515625e+00,-6.103879451751708984e+00,-7.297345638275146484e+00,-1.159266471862792969e+01,-1.255598735809326172e+01,-8.231693267822265625e+00,-1.446510982513427734e+01,-8.766373634338378906e+00,7.506877422332763672e+00,6.405755877494812012e-02
-9.945387840270996094e+00,2.495488166809082031e+00,-8.470078468322753906e+00,-7.386690139770507812e+00,-1.183689975738525391e+01,3.655057668685913086e+00,-2.129637145996093750e+01,-6.542199134826660156e+00,-9.904109001159667969e+00,-1.049010848999023438e+01,-2.024822807312011719e+01,2.496632814407348633e+00,-7.482082843780517578e+00,-7.389429569244384766e+00,-1.170312881469726562e+01,-1.247712898254394531e+01,-9.624781608581542969e+00,-1.586898136138916016e+01,-9.161453247070312500e+00,8.057544708251953125e+00,7.589954137802124023e-02
-1.207611751556396484e+01,1.012692213058471680e+00,-1.097543621063232422e+01,-8.195680618286132812e+00,-1.399505996704101562e+01,2.245831251144409180e+00,-2.345731544494628906e+01,-6.961931705474853516e+00,-1.252980422973632812e+01,-1.080190849304199219e+01,-2.117250633239746094e+01,2.972879171371459961e+00,-9.340293884277343750e+00,-8.313061714172363281e+00,-1.245428943634033203e+01,-1.296847915649414062e+01,-1.170439147949218750e+01,-1.798621177673339844e+01,-1.006923103332519531e+01,8.669103622436523438e+00,8.567419648170471191e-02
-1.461058807373046875e+01,-8.040929436683654785e-01,-1.419011116027832031e+01,-9.568120002746582031e+00,-1.652762222290039062e+01,5.183923244476318359e-01,-2.574244880676269531e+01,-8.018401145935058594e+00,-1.537366580963134766e+01,-1.181825733184814453e+01,-2.232715797424316406e+01,2.796968460083007812e+00,-1.158396530151367188e+01,-9.970575332641601562e+00,-1.372187232971191406e+01,-1.393298339843750000e+01,-1.429513454437255859e+01,-2.057055473327636719e+01,-1.141129398345947266e+01,9.328316688537597656e+00,9.235788881778717041e-02
-1.726408195495605469e+01,-2.689979314804077148e+00,-1.772866249084472656e+01,-1.133342456817626953e+01,-1.915110969543457031e+01,-1.273223876953125000e+00,-2.782887649536132812e+01,-9.486038208007812500e+00,-1.808406066894531250e+01,-1.329331111907958984e+01,-2.355120086669921875e+01,2.114777565002441406e+00,-1.401309394836425781e+01,-1.210804367065429688e+01,-1.525733184814453125e+01,-1.517652511596679688e+01,-1.704623413085937500e+01,-2.323613357543945312e+01,-1.298256397247314453e+01,9.987529754638671875e+00,9.520798921585083008e-02
-1.967719650268554688e+01,-4.374320507049560547e+00,-2.110393714904785156e+01,-1.322279167175292969e+01,-2.150984191894531250e+01,-2.866960048675537109e+00,-2.935892486572265625e+01,-1.103933429718017578e+01,-2.032732391357421875e+01,-1.490028095245361328e+01,-2.466144371032714844e+01,1.157994031906127930e+00,-1.635858535766601562e+01,-1.436270904541015625e+01,-1.675136756896972656e+01,-1.642006683349609375e+01,-1.955679893493652344e+01,-2.558945846557617188e+01,-1.449954795837402344e+01,1.057393741607666016e+01,9.412414580583572388e-02
-2.153254127502441406e+01,-5.661329746246337891e+00,-2.386357688903808594e+01,-1.493640327453613281e+01,-2.330964660644531250e+01,-4.078306674957275391e+00,-3.005439949035644531e+01,-1.236134910583496094e+01,-2.188785362243652344e+01,-1.631837081909179688e+01,-2.549690246582031250e+01,2.226630449295043945e-01,-1.831497955322265625e+01,-1.637739753723144531e+01,-1.788915443420410156e+01,-1.737243843078613281e+01,-2.151113128662109375e+01,-2.732843208312988281e+01,-1.566065883636474609e+01,1.100679397583007812e+01,9.000956267118453979e-02
-2.264341545104980469e+01,-6.470389366149902344e+00,-2.569709396362304688e+01,-1.622096633911132812e+01,-2.435262298583984375e+01,-4.843085765838623047e+00,-2.979111289978027344e+01,-1.320081424713134766e+01,-2.269635200500488281e+01,-1.728974914550781250e+01,-2.593267250061035156e+01,-4.294942915439605713e-01,-1.962409019470214844e+01,-1.785074424743652344e+01,-1.841662406921386719e+01,-1.778493118286132812e+01,-2.272381973266601562e+01,-2.829057884216308594e+01,-1.622161102294921875e+01,1.123182678222656250e+01,8.455020934343338013e-02
-2.296080780029296875e+01,-6.815895080566406250e+00,-2.647064971923828125e+01,-1.690589332580566406e+01,-2.459598350524902344e+01,-5.185364723205566406e+00,-2.862867355346679688e+01,-1.339497566223144531e+01,-2.281185150146484375e+01,-1.759555244445800781e+01,-2.589936447143554688e+01,-6.011146306991577148e-01,-2.009682464599609375e+01,-1.859857940673828125e+01,-1.818741035461425781e+01,-1.748769378662109375e+01,-2.315727996826171875e+01,-2.844035911560058594e+01,-1.604367446899414062e+01,1.123315048217773438e+01,7.977327704429626465e-02
-2.255706596374511719e+01,-6.746794223785400391e+00,-2.622171974182128906e+01,-1.691106224060058594e+01,-2.411728477478027344e+01,-5.177342891693115234e+00,-2.674095344543457031e+01,-1.288958358764648438e+01,-2.234728622436523438e+01,-1.712785339355468750e+01,-2.538587760925292969e+01,-1.978068202733993530e-01,-1.965681838989257812e+01,-1.855951309204101562e+01,-1.717113304138183594e+01,-1.642006683349609375e+01,-2.285661506652832031e+01,-2.782854461669921875e+01,-1.511780166625976562e+01,1.104253482818603516e+01,7.740487903356552124e-02
-2.155587959289550781e+01,-6.323549270629882812e+00,-2.509752082824707031e+01,-1.624939727783203125e+01,-2.306093597412109375e+01,-4.912611484527587891e+00,-2.436143302917480469e+01,-1.171604537963867188e+01,-2.140788841247558594e+01,-1.584767341613769531e+01,-2.444772338867187500e+01,7.546861767768859863e-01,-1.836952590942382812e+01,-1.778098297119140625e+01,-1.547273826599121094e+01,-1.466090965270996094e+01,-2.190700912475585938e+01,-2.654145050048828125e+01,-1.354653167724609375e+01,1.072484111785888672e+01,7.850879430770874023e-02
-2.010427665710449219e+01,-5.586470127105712891e+00,-2.331218528747558594e+01,-1.502686595916748047e+01,-2.159541893005371094e+01,-4.466044425964355469e+00,-2.171862602233886719e+01,-1.000570678710937500e+01,-2.006039047241210938e+01,-1.386594390869140625e+01,-2.319869995117187500e+01,2.106196403503417969e+00,-1.642767715454101562e+01,-1.642483520507812500e+01,-1.332419967651367188e+01,-1.243466663360595703e+01,-2.041119384765625000e+01,-2.469839286804199219e+01,-1.155304050445556641e+01,1.035155200958251953e+01,8.332587033510208130e-02
-1.835861778259277344e+01,-4.596020221710205078e+00,-2.111999702453613281e+01,-1.342439270019531250e+01,-1.988654136657714844e+01,-3.893796920776367188e+00,-1.901620483398437500e+01,-7.986992835998535156e+00,-1.837922668457031250e+01,-1.144649505615234375e+01,-2.179979324340820312e+01,3.616455554962158203e+00,-1.414036846160888672e+01,-1.473383617401123047e+01,-1.103757953643798828e+01,-1.006283760070800781e+01,-1.852200508117675781e+01,-2.248215484619140625e+01,-9.414786338806152344e+00,9.976939201354980469e+00,9.147475659847259521e-02
-1.648226928710937500e+01,-3.418420791625976562e+00,-1.877791404724121094e+01,-1.167459678649902344e+01,-1.810545921325683594e+01,-3.227957248687744141e+00,-1.643300819396972656e+01,-5.948291778564453125e+00,-1.646706390380859375e+01,-8.979077339172363281e+00,-2.041198921203613281e+01,5.019452095031738281e+00,-1.184215068817138672e+01,-1.299539947509765625e+01,-8.922179222106933594e+00,-7.903319835662841797e+00,-1.642986679077148438e+01,-2.013644599914550781e+01,-7.406214714050292969e+00,9.619535446166992188e+00,1.020924001932144165e-01
-1.460825443267822266e+01,-2.105498313903808594e+00,-1.650810241699218750e+01,-9.981661796569824219e+00,-1.637786102294921875e+01,-2.444459438323974609e+00,-1.411310005187988281e+01,-4.183701515197753906e+00,-1.447790050506591797e+01,-6.877425193786621094e+00,-1.914631271362304688e+01,6.083498001098632812e+00,-9.805755615234375000e+00,-1.147740650177001953e+01,-7.185121536254882812e+00,-6.223021507263183594e+00,-1.434775161743164062e+01,-1.793036270141601562e+01,-5.702246665954589844e+00,9.258159637451171875e+00,1.139544472098350525e-01
-1.284859371185302734e+01,-6.946827173233032227e-01,-1.445242404937744141e+01,-8.474820137023925781e+00,-1.480804729461669922e+01,-1.484474182128906250e+00,-1.215086555480957031e+01,-2.904516696929931641e+00,-1.258370399475097656e+01,-5.471326351165771484e+00,-1.804439544677734375e+01,6.675588607788085938e+00,-8.183912277221679688e+00,-1.036123561859130859e+01,-5.884398937225341797e+00,-5.137197017669677734e+00,-1.244603538513183594e+01,-1.607715034484863281e+01,-4.366214752197265625e+00,8.855748176574707031e+00,1.256358623504638672e-01
-1.126163291931152344e+01,8.169054985046386719e-01,-1.266441249847412109e+01,-7.164411544799804688e+00,-1.344147968292236328e+01,-2.731276750564575195e-01,-1.060094738006591797e+01,-2.164987802505493164e+00,-1.092307376861572266e+01,-4.880705356597900391e+00,-1.708958816528320312e+01,6.830046653747558594e+00,-6.991166114807128906e+00,-9.677580833435058594e+00,-4.928878784179687500e+00,-4.579119682312011719e+00,-1.079988574981689453e+01,-1.464281558990478516e+01,-3.331770658493041992e+00,8.373914718627929688e+00,1.357918679714202881e-01
-9.863705635070800781e+00,2.426387071609497070e+00,-1.111730003356933594e+01,-5.967726707458496094e+00,-1.228083324432373047e+01,1.240386962890625000e+00,-9.428573608398437500e+00,-1.853757500648498535e+00,-9.549909591674804688e+00,-4.985638141632080078e+00,-1.623747634887695312e+01,6.684169292449951172e+00,-6.165699005126953125e+00,-9.306453704833984375e+00,-4.163910865783691406e+00,-4.330410957336425781e+00,-9.369215011596679688e+00,-1.351819515228271484e+01,-2.466215133666992188e+00,7.800743579864501953e+00,1.434188932180404663e-01
-8.622141838073730469e+00,4.125124454498291016e+00,-9.730787277221679688e+00,-4.758118152618408203e+00,-1.128599357604980469e+01,3.034677267074584961e+00,-8.534390449523925781e+00,-1.736689209938049316e+00,-8.415444374084472656e+00,-5.459334373474121094e+00,-1.544087696075439453e+01,6.443901062011718750e+00,-5.631145000457763672e+00,-9.021830558776855469e+00,-3.454174757003784180e+00,-4.148429393768310547e+00,-8.021225929260253906e+00,-1.245450210571289062e+01,-1.630818247795104980e+00,7.154767990112304688e+00,1.482159048318862915e-01
-7.480929851531982422e+00,5.849774360656738281e+00,-8.421897888183593750e+00,-3.421862840652465820e+00,-1.039812660217285156e+01,4.994758605957031250e+00,-7.784270286560058594e+00,-1.551093220710754395e+00,-7.419579982757568359e+00,-5.897053718566894531e+00,-1.469146251678466797e+01,6.280861377716064453e+00,-5.351140499114990234e+00,-8.606056213378906250e+00,-2.749961853027343750e+00,-3.857258319854736328e+00,-6.595565795898437500e+00,-1.119025611877441406e+01,-7.622469067573547363e-01,6.478346824645996094e+00,1.507047265768051147e-01
-6.409730434417724609e+00,7.488048076629638672e+00,-7.153159141540527344e+00,-1.894344687461853027e+00,-9.561070442199707031e+00,6.978906631469726562e+00,-7.054020881652832031e+00,-1.102807402610778809e+00,-6.433981418609619141e+00,-5.948020935058593750e+00,-1.401698970794677734e+01,6.285151958465576172e+00,-5.351140499114990234e+00,-7.925191879272460938e+00,-2.112028121948242188e+00,-3.390171766281127930e+00,-4.976977825164794922e+00,-9.573138236999511719e+00,1.093403846025466919e-01,5.832371234893798828e+00,1.519491374492645264e-01
-5.406210899353027344e+00,8.930535316467285156e+00,-5.927246570587158203e+00,-1.807329803705215454e-01,-8.774826049804687500e+00,8.799937248229980469e+00,-6.313835620880126953e+00,-3.290146291255950928e-01,-5.397050380706787109e+00,-5.414362907409667969e+00,-1.346741962432861328e+01,6.426738739013671875e+00,-5.656599998474121094e+00,-6.993188858032226562e+00,-1.637029647827148438e+00,-2.789631843566894531e+00,-3.137900829315185547e+00,-7.620919227600097656e+00,9.055308103561401367e-01,5.275084972381591797e+00,1.533139795064926147e-01
-4.528714179992675781e+00,1.007934188842773438e+01,-4.800370693206787109e+00,1.659525752067565918e+00,-8.082182884216308594e+00,1.037228107452392578e+01,-5.638230800628662109e+00,6.874806284904479980e-01,-4.313918590545654297e+00,-4.287086009979248047e+00,-1.310659027099609375e+01,6.611230850219726562e+00,-6.256609439849853516e+00,-5.921664714813232422e+00,-1.402292132377624512e+00,-2.152695655822753906e+00,-1.161018252372741699e+00,-5.508765697479248047e+00,1.547911763191223145e+00,4.860760688781738281e+00,1.556422263383865356e-01
-3.872925758361816406e+00,1.091143608093261719e+01,-3.836771488189697266e+00,3.504953861236572266e+00,-7.563368320465087891e+00,1.167989349365234375e+01,-5.201074600219726562e+00,1.786780238151550293e+00,-3.266720533370971680e+00,-2.725087404251098633e+00,-1.299834156036376953e+01,6.727074623107910156e+00,-7.049348831176757812e+00,-4.864092350006103516e+00,-1.429908275604248047e+00,-1.558221936225891113e+00,7.707641720771789551e-01,-3.508312225341796875e+00,1.994260907173156738e+00,4.631756782531738281e+00,1.590944677591323853e-01
-3.527528047561645508e+00,1.143257331848144531e+01,-3.084628582000732422e+00,5.210811614990234375e+00,-7.303961277008056641e+00,1.275753784179687500e+01,-5.201074600219726562e+00,2.794709444046020508e+00,-2.365822315216064453e+00,-9.772081375122070312e-01,-1.318708324432373047e+01,6.731365203857421875e+00,-7.860270500183105469e+00,-3.940460681915283203e+00,-1.642552971839904785e+00,-1.036540865898132324e+00,2.441968917846679688e+00,-1.853114843368530273e+00,2.274737119674682617e+00,4.614548683166503906e+00,1.632090508937835693e-01
-3.546198368072509766e+00,1.170034122467041016e+01,-2.570708990097045898e+00,6.640113830566406250e+00,-7.354773044586181641e+00,1.365067195892333984e+01,-5.747519969940185547e+00,3.599910736083984375e+00,-1.685656785964965820e+00,7.137076854705810547e-01,-1.365893650054931641e+01,6.667007446289062500e+00,-8.467553138732910156e+00,-3.164721727371215820e+00,-1.918714761734008789e+00,-5.633881688117980957e-01,3.679712772369384766e+00,-6.675670146942138672e-01,2.470768928527832031e+00,4.807811737060546875e+00,1.670627146959304810e-01
-3.910265922546386719e+00,1.182126808166503906e+01,-2.289659261703491211e+00,7.704982757568359375e+00,-7.699758052825927734e+00,1.440208053588867188e+01,-6.800668716430664062e+00,4.179541587829589844e+00,-1.231357574462890625e+00,2.170773506164550781e+00,-1.435006237030029297e+01,6.658426284790039062e+00,-8.671192169189453125e+00,-2.472695589065551758e+00,-2.128597736358642578e+00,-8.416948467493057251e-02,4.413840293884277344e+00,9.402687102556228638e-02,2.657752990722656250e+00,5.183748245239257812e+00,1.698526144027709961e-01
-4.526380538940429688e+00,1.192779922485351562e+01,-2.195976018905639648e+00,8.408002853393554688e+00,-8.247989654541015625e+00,1.508663845062255859e+01,-8.171750068664550781e+00,4.624971866607666016e+00,-9.079581499099731445e-01,3.361010313034057617e+00,-1.510225200653076172e+01,6.830046653747558594e+00,-8.333004951477050781e+00,-1.741603493690490723e+00,-2.161737203598022461e+00,4.799740314483642578e-01,4.712001323699951172e+00,6.169880032539367676e-01,2.923149824142456055e+00,5.684114456176757812e+00,1.712375134229660034e-01
-5.245180606842041016e+00,1.220420360565185547e+01,-2.222742557525634766e+00,8.852560043334960938e+00,-8.871101379394531250e+00,1.582735157012939453e+01,-9.562701225280761719e+00,5.070402622222900391e+00,-5.306588411331176758e-01,4.365366458892822266e+00,-1.573231506347656250e+01,7.276259899139404297e+00,-7.383899688720703125e+00,-8.542473912239074707e-01,-1.940807700157165527e+00,1.207901120185852051e+00,4.764617919921875000e+00,1.165335655212402344e+00,3.318229198455810547e+00,6.251990795135498047e+00,1.715185195207595825e-01
-5.919639587402343750e+00,1.283763122558593750e+01,-2.270922660827636719e+00,9.211823463439941406e+00,-9.443401336669921875e+00,1.677931404113769531e+01,-1.069036579132080078e+01,5.650033473968505859e+00,1.135733574628829956e-01,5.375718593597412109e+00,-1.605983734130859375e+01,7.975612640380859375e+00,-5.838420867919921875e+00,2.451812475919723511e-01,-1.424385070800781250e+00,2.154206514358520508e+00,4.809718132019042969e+00,1.990395665168762207e+00,3.888229131698608398e+00,6.835751056671142578e+00,1.714382320642471313e-01
-6.433068275451660156e+00,1.395764541625976562e+01,-2.225419282913208008e+00,9.669303894042968750e+00,-9.863265991210937500e+00,1.807890510559082031e+01,-1.135106754302978516e+01,6.469511032104492188e+00,1.199271440505981445e+00,6.556961059570312500e+00,-1.599599838256835938e+01,8.838005065917968750e+00,-3.776570796966552734e+00,1.562263250350952148e+00,-5.820913910865783691e-01,3.361352205276489258e+00,5.070295810699462891e+00,3.272412061691284180e+00,4.669340133666992188e+00,7.411569595336914062e+00,1.718396544456481934e-01
-6.736457824707031250e+00,1.556712722778320312e+01,-1.995226144790649414e+00,1.035423183441162109e+01,-1.009593009948730469e+01,1.977960395812988281e+01,-1.152990436553955078e+01,7.523125648498535156e+00,2.793168544769287109e+00,8.005032539367675781e+00,-1.555467605590820312e+01,9.704688072204589844e+00,-1.318350672721862793e+00,3.041190147399902344e+00,5.860732197761535645e-01,4.853602886199951172e+00,5.636550903320312500e+00,5.057080745697021484e+00,5.688705444335937500e+00,7.971503257751464844e+00,1.730037778615951538e-01
-6.846145153045654297e+00,1.753651046752929688e+01,-1.537516355514526367e+00,1.129762268066406250e+01,-1.015476512908935547e+01,2.176375198364257812e+01,-1.134609985351562500e+01,8.748059272766113281e+00,4.813131809234619141e+00,9.704942703247070312e+00,-1.488020420074462891e+01,1.042549324035644531e+01,1.358054637908935547e+00,4.606620311737060547e+00,2.011068344116210938e+00,6.600627899169921875e+00,6.475911617279052734e+00,7.270780086517333984e+00,6.928228855133056641e+00,8.519523620605468750e+00,1.744489073753356934e-01
-6.808804512023925781e+00,1.963257980346679688e+01,-8.656735420227050781e-01,1.243486118316650391e+01,-1.009860515594482422e+01,2.379335784912109375e+01,-1.101823329925537109e+01,1.001867866516113281e+01,7.048694133758544922e+00,1.152177810668945312e+01,-1.416409683227539062e+01,1.088886833190917969e+01,4.034460067749023438e+00,6.197164058685302734e+00,3.557574748992919922e+00,8.511436462402343750e+00,7.450572490692138672e+00,9.738344192504882812e+00,8.300451278686523438e+00,9.058278083801269531e+00,1.749506890773773193e-01
-6.668778896331787109e+00,2.161060142517089844e+01,-4.126076027750968933e-02,1.364446926116943359e+01,-9.975586891174316406e+00,2.559032249450683594e+01,-1.073507499694824219e+01,1.122362518310546875e+01,9.232923507690429688e+00,1.325166893005371094e+01,-1.358121967315673828e+01,1.109052181243896484e+01,6.503589153289794922e+00,7.759803771972656250e+00,5.059895038604736328e+00,1.047684001922607422e+01,8.397671699523925781e+00,1.225668144226074219e+01,9.678705215454101562e+00,9.571881294250488281e+00,1.731041371822357178e-01
-6.442403316497802734e+00,2.327766799926757812e+01,8.500686287879943848e-01,1.480496978759765625e+01,-9.801757812500000000e+00,2.690863227844238281e+01,-1.061088275909423828e+01,1.230293750762939453e+01,1.112968730926513672e+01,1.472672271728515625e+01,-1.320096111297607422e+01,1.110768413543701172e+01,8.612712860107421875e+00,9.258263587951660156e+00,6.355094432830810547e+00,1.238764858245849609e+01,9.189427375793457031e+00,1.463793182373046875e+01,1.093632411956787109e+01,1.002724075317382812e+01,1.678856313228607178e-01
-6.120343208312988281e+00,2.453300476074218750e+01,1.738721370697021484e+00,1.582590007781982422e+01,-9.587813377380371094e+00,2.762260437011718750e+01,-1.064565658569335938e+01,1.322520732879638672e+01,1.259011745452880859e+01,1.584800338745117188e+01,-1.299279117584228516e+01,1.107765007019042969e+01,1.028182983398437500e+01,1.063673496246337891e+01,7.346515178680419922e+00,1.414073944091796875e+01,9.753176689147949219e+00,1.673485374450683594e+01,1.198283195495605469e+01,1.038596916198730469e+01,1.594356745481491089e-01
-5.709600448608398438e+00,2.536221885681152344e+01,2.568487405776977539e+00,1.665298271179199219e+01,-9.331080436706542969e+00,2.775095748901367188e+01,-1.076488113403320312e+01,1.401898670196533203e+01,1.359111595153808594e+01,1.660052108764648438e+01,-1.282347869873046875e+01,1.111197471618652344e+01,1.152184963226318359e+01,1.183661937713623047e+01,8.012065887451171875e+00,1.565725421905517578e+01,1.007138252258300781e+01,1.847636604309082031e+01,1.280616569519042969e+01,1.061629676818847656e+01,1.490588933229446411e-01
-5.242846965789794922e+00,2.581137657165527344e+01,3.328660249710083008e+00,1.727329444885253906e+01,-9.034233093261718750e+00,2.743007278442382812e+01,-1.085429954528808594e+01,1.472425174713134766e+01,1.421738147735595703e+01,1.706822204589843750e+01,-1.254036712646484375e+01,1.127930450439453125e+01,1.242368125915527344e+01,1.280210685729980469e+01,8.440115928649902344e+00,1.689473152160644531e+01,1.015406513214111328e+01,1.980407714843750000e+01,1.342743492126464844e+01,1.070630931854248047e+01,1.388025283813476562e-01
-4.769092082977294922e+00,2.593518257141113281e+01,4.037976264953613281e+00,1.769717407226562500e+01,-8.686574935913085938e+00,2.684980201721191406e+01,-1.080959033966064453e+01,1.536384487152099609e+01,1.461008071899414062e+01,1.736503028869628906e+01,-1.200467491149902344e+01,1.155389690399169922e+01,1.313278293609619141e+01,1.348018169403076172e+01,8.732848167419433594e+00,1.782890319824218750e+01,1.000623798370361328e+01,2.071291351318359375e+01,1.390092754364013672e+01,1.067189311981201172e+01,1.307138651609420776e-01
-4.337345123291015625e+00,2.581137657165527344e+01,4.728556156158447266e+00,1.792720603942871094e+01,-8.282754898071289062e+00,2.619198417663574219e+01,-1.057114124298095703e+01,1.592919826507568359e+01,1.492064666748046875e+01,1.758688926696777344e+01,-1.115256309509277344e+01,1.184994220733642578e+01,1.379097557067871094e+01,1.385688877105712891e+01,8.997962951660156250e+00,1.847190666198730469e+01,9.652955055236816406e+00,2.121556472778320312e+01,1.425378417968750000e+01,1.054349136352539062e+01,1.259369254112243652e-01
-3.989614009857177734e+00,2.552345466613769531e+01,5.408428668975830078e+00,1.797631454467773438e+01,-7.804055690765380859e+00,2.560369300842285156e+01,-1.012405014038085938e+01,1.638034057617187500e+01,1.526201343536376953e+01,1.777576828002929688e+01,-9.997910499572753906e+00,1.203443431854248047e+01,1.452553272247314453e+01,1.394897365570068359e+01,9.329357147216796875e+00,1.882980346679687500e+01,9.131799697875976562e+00,2.135772895812988281e+01,1.447394275665283203e+01,1.036081886291503906e+01,1.246122270822525024e-01
-3.746902227401733398e+00,2.516931152343750000e+01,6.053504943847656250e+00,1.784191322326660156e+01,-7.263846874237060547e+00,2.519188880920410156e+01,-9.498121261596679688e+00,1.665730667114257812e+01,1.570091247558593750e+01,1.792267417907714844e+01,-8.629535675048828125e+00,1.200010967254638672e+01,1.539827346801757812e+01,1.381224250793457031e+01,9.743599891662597656e+00,1.893899345397949219e+01,8.507916450500488281e+00,2.122825813293457031e+01,1.454029178619384766e+01,1.016358375549316406e+01,1.259369254112243652e-01
-3.625546455383300781e+00,2.484108161926269531e+01,6.586161136627197266e+00,1.753692626953125000e+01,-6.710267066955566406e+00,2.501272773742675781e+01,-8.748001098632812500e+00,1.671726799011230469e+01,1.626301193237304688e+01,1.801861190795898438e+01,-7.177893161773681641e+00,1.169119358062744141e+01,1.638737869262695312e+01,1.351645660400390625e+01,1.021307563781738281e+01,1.884193611145019531e+01,7.901572227478027344e+00,2.094392967224121094e+01,1.444378471374511719e+01,9.975615501403808594e+00,1.286063939332962036e-01
-3.639549016952514648e+00,2.459346771240234375e+01,6.907361030578613281e+00,1.709495544433593750e+01,-6.220870018005371094e+00,2.508760070800781250e+01,-7.958139419555664062e+00,1.656307983398437500e+01,1.694061088562011719e+01,1.805758666992187500e+01,-5.784538269042968750e+00,1.113342761993408203e+01,1.736557579040527344e+01,1.313695907592773438e+01,1.068531227111816406e+01,1.854469871520996094e+01,7.400461196899414062e+00,2.064183044433593750e+01,1.421156215667724609e+01,9.816769599914550781e+00,1.314564943313598633e-01
-3.828584194183349609e+00,2.443511199951171875e+01,6.910037994384765625e+00,1.657027435302734375e+01,-5.915999889373779297e+00,2.538976860046386719e+01,-7.217954635620117188e+00,1.626327133178710938e+01,1.771317481994628906e+01,1.810255813598632812e+01,-4.582700252532958984e+00,1.043836498260498047e+01,1.812558746337890625e+01,1.274071788787841797e+01,1.104432296752929688e+01,1.805334854125976562e+01,7.082255840301513672e+00,2.043112373352050781e+01,1.389187908172607422e+01,9.704253196716308594e+00,1.335438936948776245e-01
-4.232326030731201172e+00,2.432282257080078125e+01,6.524598121643066406e+00,1.605334663391113281e+01,-5.899953842163085938e+00,2.584703254699707031e+01,-6.616864681243896484e+00,1.594061946868896484e+01,1.853707313537597656e+01,1.825246238708496094e+01,-3.675076723098754883e+00,9.781916618347167969e+00,1.843832015991210938e+01,1.237517166137695312e+01,1.119068813323974609e+01,1.734968566894531250e+01,6.967000484466552734e+00,2.038288879394531250e+01,1.352997493743896484e+01,9.663217544555664062e+00,1.340256035327911377e-01
-4.892781734466552734e+00,2.421053314208984375e+01,5.751041889190673828e+00,1.565531444549560547e+01,-6.244938850402832031e+00,2.637916946411132812e+01,-6.249256134033203125e+00,1.575502395629882812e+01,1.936867141723632812e+01,1.862422370910644531e+01,-3.119955301284790039e+00,9.331413269042968750e+00,1.814013481140136719e+01,1.209612941741943359e+01,1.108850860595703125e+01,1.643371009826660156e+01,7.014605998992919922e+00,2.053266906738281250e+01,1.316806983947753906e+01,9.729403495788574219e+00,1.319582760334014893e-01
-5.816953659057617188e+00,2.408096885681152344e+01,4.656286239624023438e+00,1.546663570404052734e+01,-6.958976745605468750e+00,2.691397857666015625e+01,-6.169773101806640625e+00,1.583211803436279297e+01,2.014893722534179688e+01,1.929579353332519531e+01,-2.922887086868286133e+00,9.224150657653808594e+00,1.722739219665527344e+01,1.196776962280273438e+01,1.077092266082763672e+01,1.540854644775390625e+01,7.142389297485351562e+00,2.088046264648437500e+01,1.283632373809814453e+01,9.937228202819824219e+00,1.261376440525054932e-01
-6.967500686645507812e+00,2.397443771362304688e+01,3.363456964492797852e+00,1.553125190734863281e+01,-7.991256713867187500e+00,2.740867996215820312e+01,-6.423124790191650391e+00,1.620902061462402344e+01,2.082910346984863281e+01,2.025218009948730469e+01,-3.042238235473632812e+00,9.507324218750000000e+00,1.588555335998535156e+01,1.204590129852294922e+01,1.040915012359619141e+01,1.445010852813720703e+01,7.265161037445068359e+00,2.139580917358398438e+01,1.258600616455078125e+01,1.030786991119384766e+01,1.155601367354393005e-01
-8.267409324645996094e+00,2.396867942810058594e+01,2.011741161346435547e+00,1.583623790740966797e+01,-9.240154266357421875e+00,2.786059379577636719e+01,-7.024214744567871094e+00,1.680578231811523438e+01,2.134500122070312500e+01,2.137645912170410156e+01,-3.405842781066894531e+00,1.012515735626220703e+01,1.444553089141845703e+01,1.235005760192871094e+01,1.026830768585205078e+01,1.375857830047607422e+01,7.315272331237792969e+00,2.201523780822753906e+01,1.248949813842773438e+01,1.082809162139892578e+01,1.000451371073722839e-01
-9.611659049987792969e+00,2.414719009399414062e+01,7.269420623779296875e-01,1.629371833801269531e+01,-1.057997894287109375e+01,2.828844261169433594e+01,-7.933300971984863281e+00,1.746250724792480469e+01,2.164786911010742188e+01,2.244677352905273438e+01,-3.908227920532226562e+00,1.094035434722900391e+01,1.326369476318359375e+01,1.284396362304687500e+01,1.056656265258789062e+01,1.349773788452148438e+01,7.252633571624755859e+00,2.263720703125000000e+01,1.261616516113281250e+01,1.144759273529052734e+01,8.055604994297027588e-02
-1.087422752380371094e+01,2.454740142822265625e+01,-3.758438527584075928e-01,1.677704429626464844e+01,-1.187968826293945312e+01,2.871896553039550781e+01,-9.060965538024902344e+00,1.797075462341308594e+01,2.170946884155273438e+01,2.325625419616699219e+01,-4.430041790008544922e+00,1.177700328826904297e+01,1.259095668792724609e+01,1.342995357513427734e+01,1.145028018951416016e+01,1.372218132019042969e+01,7.074738979339599609e+00,2.313731956481933594e+01,1.300219726562500000e+01,1.208033084869384766e+01,5.914013087749481201e-02
-1.192208862304687500e+01,2.515491485595703125e+01,-1.210963249206542969e+00,1.715698623657226562e+01,-1.300022029876708984e+01,2.918959999084472656e+01,-1.026314544677734375e+01,1.820489120483398438e+01,2.155803489685058594e+01,2.365200042724609375e+01,-4.818626880645751953e+00,1.247206592559814453e+01,1.250368309020996094e+01,1.396292495727539062e+01,1.289184570312500000e+01,1.432878780364990234e+01,6.826689243316650391e+00,2.340641593933105469e+01,1.362346649169921875e+01,1.262967491149902344e+01,3.852705657482147217e-02
-1.261288356781005859e+01,2.592942428588867188e+01,-1.668673038482666016e+00,1.736117172241210938e+01,-1.379716110229492188e+01,2.973243331909179688e+01,-1.132126140594482422e+01,1.812779808044433594e+01,2.128853607177734375e+01,2.362801551818847656e+01,-4.929651260375976562e+00,1.292685985565185547e+01,1.290732574462890625e+01,1.431451892852783203e+01,1.470899009704589844e+01,1.510524272918701172e+01,6.593672752380371094e+00,2.341149330139160156e+01,1.438648223876953125e+01,1.301090621948242188e+01,2.120565064251422882e-02
-1.281592178344726562e+01,2.684213638305664062e+01,-1.625846385955810547e+00,1.739477157592773438e+01,-1.413144874572753906e+01,3.038490104675292969e+01,-1.201673793792724609e+01,1.785939788818359375e+01,2.107293510437011719e+01,2.332820701599121094e+01,-4.640988349914550781e+00,1.312851333618164062e+01,1.360551834106445312e+01,1.442334556579589844e+01,1.663383865356445312e+01,1.583316993713378906e+01,6.495955944061279297e+00,2.323886489868164062e+01,1.517664146423339844e+01,1.317769527435302734e+01,8.661180734634399414e-03
-1.244718647003173828e+01,2.788441276550292969e+01,-9.727401137351989746e-01,1.733532524108886719e+01,-1.390680789947509766e+01,3.119514083862304688e+01,-1.216079998016357422e+01,1.761669540405273438e+01,2.110886955261230469e+01,2.298342895507812500e+01,-3.894349813461303711e+00,1.313709449768066406e+01,1.443825817108154297e+01,1.434521389007568359e+01,1.845374488830566406e+01,1.636698341369628906e+01,6.646289348602294922e+00,2.307385444641113281e+01,1.591854572296142578e+01,1.313401222229003906e+01,1.395423198118805885e-03
-1.152301406860351562e+01,2.905625343322753906e+01,3.254423141479492188e-01,1.726812553405761719e+01,-1.312323760986328125e+01,3.219791030883789062e+01,-1.168887042999267578e+01,1.759956359863281250e+01,2.154520225524902344e+01,2.282752799987792969e+01,-2.748023986816406250e+00,1.306844711303710938e+01,1.532190799713134766e+01,1.420848274230957031e+01,1.997815895080566406e+01,1.667028617858886719e+01,7.089772224426269531e+00,2.311954879760742188e+01,1.658505439758300781e+01,1.293677806854248047e+01,-1.133542042225599289e-03
-1.016942977905273438e+01,3.032598686218261719e+01,2.185724496841430664e+00,1.725003242492675781e+01,-1.187701416015625000e+01,3.338518905639648438e+01,-1.066552734375000000e+01,1.795076751708984375e+01,2.242300033569335938e+01,2.298942565917968750e+01,-1.368547081947326660e+00,1.306415653228759766e+01,1.623101425170898438e+01,1.417499828338623047e+01,2.115184593200683594e+01,1.680980491638183594e+01,7.786316394805908203e+00,2.350796318054199219e+01,1.718219757080078125e+01,1.266806316375732422e+01,-4.969979272573255002e-05
-8.584801673889160156e+00,3.160148048400878906e+01,4.391296386718750000e+00,1.725003242492675781e+01,-1.035533714294433594e+01,3.466873550415039062e+01,-9.249737739562988281e+00,1.867601966857910156e+01,2.363189888000488281e+01,2.343313980102539062e+01,1.370542868971824646e-02,1.328726291656494141e+01,1.716193771362304688e+01,1.434800434112548828e+01,2.193890762329101562e+01,1.689473152160644531e+01,8.598115921020507812e+00,2.420355224609375000e+01,1.774616432189941406e+01,1.240067100524902344e+01,3.041257848963141441e-03
-6.995506286621093750e+00,3.272149276733398438e+01,6.631664752960205078e+00,1.716990852355957031e+01,-8.758780479431152344e+00,3.589077758789062500e+01,-7.630272388458251953e+00,1.967538261413574219e+01,2.493576240539550781e+01,2.396380043029785156e+01,1.204440951347351074e+00,1.388364315032958984e+01,1.805286026000976562e+01,1.474703598022460938e+01,2.235315132141113281e+01,1.702818489074707031e+01,9.329737663269042969e+00,2.502607345581054688e+01,1.823473739624023438e+01,1.216769695281982422e+01,6.433282513171434402e-03
-5.578909397125244141e+00,3.349024581909179688e+01,8.596336364746093750e+00,1.687526130676269531e+01,-7.263846874237060547e+00,3.681867599487304688e+01,-5.946227073669433594e+00,2.078039360046386719e+01,2.605739402770996094e+01,2.429358863830566406e+01,2.106513500213623047e+00,1.494769001007080078e+01,1.879468917846679688e+01,1.529395961761474609e+01,2.240009880065917969e+01,1.725869369506835938e+01,9.785749435424804688e+00,2.569373703002929688e+01,1.859965705871582031e+01,1.194134044647216797e+01,8.540753275156021118e-03
-4.444698810577392578e+00,3.374937438964843750e+01,1.004173564910888672e+01,1.626787185668945312e+01,-5.977508544921875000e+00,3.725989532470703125e+01,-4.282052993774414062e+00,2.179403305053710938e+01,2.677092552185058594e+01,2.413469123840332031e+01,2.750454425811767578e+00,1.647081947326660156e+01,1.924560546875000000e+01,1.582693099975585938e+01,2.209908103942871094e+01,1.760445976257324219e+01,9.810804367065429688e+00,2.595013999938964844e+01,1.875045013427734375e+01,1.166203594207763672e+01,8.119259029626846313e-03
-3.611543655395507812e+00,3.344417953491210938e+01,1.086347198486328125e+01,1.535291194915771484e+01,-4.937206268310546875e+00,3.710480117797851562e+01,-2.667555570602416992e+00,2.257353782653808594e+01,2.695829200744628906e+01,2.331021881103515625e+01,3.266717195510864258e+00,1.831144905090332031e+01,1.932196998596191406e+01,1.616457366943359375e+01,2.150533294677734375e+01,1.802301788330078125e+01,9.354793548583984375e+00,2.567088890075683594e+01,1.862981605529785156e+01,1.125830078125000000e+01,4.667021334171295166e-03
-3.049105882644653320e+00,3.266390991210937500e+01,1.107760524749755859e+01,1.424927330017089844e+01,-4.134916305541992188e+00,3.639082717895507812e+01,-1.127573251724243164e+00,2.301896667480468750e+01,2.664259338378906250e+01,2.181717681884765625e+01,3.799633979797363281e+00,2.019927215576171875e+01,1.903105735778808594e+01,1.614504051208496094e+01,2.067132568359375000e+01,1.841124534606933594e+01,8.472838401794433594e+00,2.487375450134277344e+01,1.822870445251464844e+01,1.069836711883544922e+01,-1.575107453390955925e-03
-2.715377092361450195e+00,3.157556724548339844e+01,1.077781867980957031e+01,1.313271236419677734e+01,-3.538547277450561523e+00,3.527841949462890625e+01,3.180228769779205322e-01,2.305323219299316406e+01,2.592905998229980469e+01,1.980246734619140625e+01,4.401940822601318359e+00,2.179534149169921875e+01,1.845650291442871094e+01,1.563997268676757812e+01,1.965228843688964844e+01,1.862962341308593750e+01,7.310261249542236328e+00,2.369328308105468750e+01,1.751997375488281250e+01,1.001135635375976562e+01,-9.643711149692535400e-03
-2.594021320343017578e+00,3.037493324279785156e+01,1.006314945220947266e+01,1.216864395141601562e+01,-3.150773763656616211e+00,3.398952484130859375e+01,1.599685430526733398e+00,2.267061805725097656e+01,2.493832969665527344e+01,1.749994468688964844e+01,5.018125534057617188e+00,2.279073905944824219e+01,1.771467208862304688e+01,1.460472393035888672e+01,1.844545936584472656e+01,1.847190666198730469e+01,6.032428264617919922e+00,2.228687286376953125e+01,1.650965690612792969e+01,9.276691436767578125e+00,-1.831444911658763885e-02
-2.713043451309204102e+00,2.919157600402832031e+01,9.000513076782226562e+00,1.141393089294433594e+01,-2.987641572952270508e+00,3.270598220825195312e+01,2.618060827255249023e+00,2.185685157775878906e+01,2.376023101806640625e+01,1.514045715332031250e+01,5.459446907043457031e+00,2.301384544372558594e+01,1.686375045776367188e+01,1.305045509338378906e+01,1.703979682922363281e+01,1.779857444763183594e+01,4.787168025970458984e+00,2.076368522644042969e+01,1.517362594604492188e+01,8.601593971252441406e+00,-2.636298164725303650e-02
-3.107450008392333984e+00,2.805140686035156250e+01,7.584557533264160156e+00,1.079620361328125000e+01,-3.102636337280273438e+00,3.152672195434570312e+01,3.283730506896972656e+00,2.063477134704589844e+01,2.241786766052246094e+01,1.287690830230712891e+01,5.578798294067382812e+00,2.248611450195312500e+01,1.588555335998535156e+01,1.107204151153564453e+01,1.543529605865478516e+01,1.653683280944824219e+01,3.647140741348266602e+00,1.914910697937011719e+01,1.352695846557617188e+01,8.068135261535644531e+00,-3.322731703519821167e-02
-3.819249153137207031e+00,2.687092781066894531e+01,5.791192054748535156e+00,1.015004539489746094e+01,-3.535872936248779297e+00,3.040629386901855469e+01,3.551985502243041992e+00,1.907005500793457031e+01,2.087273597717285156e+01,1.077525615692138672e+01,5.287359237670898438e+00,2.140490531921386719e+01,1.470371723175048828e+01,8.817376136779785156e+00,1.366786003112792969e+01,1.475947761535644531e+01,2.604830026626586914e+00,1.741267204284667969e+01,1.164203834533691406e+01,7.709406852722167969e+00,-3.886730968952178955e-02
-4.855441570281982422e+00,2.553785133361816406e+01,3.609709978103637695e+00,9.304870605468750000e+00,-4.319442749023437500e+00,2.923773193359375000e+01,3.412890195846557617e+00,1.727405548095703125e+01,1.908890533447265625e+01,8.850490570068359375e+00,4.637867450714111328e+00,2.009630012512207031e+01,1.325642204284667969e+01,6.501320838928222656e+00,1.187833118438720703e+01,1.266668701171875000e+01,1.580058217048645020e+00,1.552899646759033203e+01,9.678705215454101562e+00,7.504230022430419922e+00,-4.362417384982109070e-02
-6.197357654571533203e+00,2.396867942810058594e+01,1.082938432693481445e+00,8.180555343627929688e+00,-5.442648887634277344e+00,2.790337944030761719e+01,2.896251201629638672e+00,1.542951679229736328e+01,1.705867576599121094e+01,7.126595973968505859e+00,3.791306972503662109e+00,1.890782928466796875e+01,1.157639503479003906e+01,4.358272075653076172e+00,1.025726127624511719e+01,1.056176471710205078e+01,4.675920903682708740e-01,1.352092742919921875e+01,7.842038631439208984e+00,7.408922195434570312e+00,-4.773876070976257324e-02
-7.805323123931884766e+00,2.216916847229003906e+01,-1.687409639358520508e+00,6.813284397125244141e+00,-6.884096622467041016e+00,2.634173202514648438e+01,2.056712388992309570e+00,1.373345470428466797e+01,1.483081340789794922e+01,5.657537937164306641e+00,2.950298070907592773e+00,1.811837577819824219e+01,9.805459022521972656e+00,2.591931104660034180e+00,8.992440223693847656e+00,8.711616516113281250e+00,-8.277795910835266113e-01,1.148747158050537109e+01,6.334102153778076172e+00,7.393037319183349609e+00,-5.119099840521812439e-02
-9.602324485778808594e+00,2.022281837463378906e+01,-4.548764228820800781e+00,5.332289218902587891e+00,-8.571579933166503906e+00,2.455813789367675781e+01,9.489188194274902344e-01,1.235718822479248047e+01,1.252851772308349609e+01,4.539254665374755859e+00,2.264723062515258789e+00,1.787381744384765625e+01,8.176342964172363281e+00,1.325076937675476074e+00,8.175001144409179688e+00,7.292158603668212891e+00,-2.336123228073120117e+00,9.558100700378417969e+00,5.266482830047607422e+00,7.451281070709228516e+00,-5.365974828600883484e-02
-1.148100662231445312e+01,1.824191856384277344e+01,-7.337849140167236328e+00,3.859048604965209961e+00,-1.037673187255859375e+01,2.259538269042968750e+01,-3.476468324661254883e-01,1.137495708465576172e+01,1.029808807373046875e+01,3.807723760604858398e+00,1.803972244262695312e+00,1.816986083984375000e+01,6.903595447540283203e+00,5.688709020614624023e-01,7.777328014373779297e+00,6.351919651031494141e+00,-4.019855976104736328e+00,7.829282283782958984e+00,4.627118110656738281e+00,7.590271949768066406e+00,-5.480380356311798096e-02
-1.328734207153320312e+01,1.632148170471191406e+01,-9.891386985778808594e+00,2.429746389389038086e+00,-1.215514183044433594e+01,2.049625015258789062e+01,-1.753501534461975098e+00,1.073536491394042969e+01,8.278125762939453125e+00,3.387992858886718750e+00,1.554167509078979492e+00,1.883060073852539062e+01,6.092673778533935547e+00,1.949535459280014038e-01,7.653055191040039062e+00,5.775643825531005859e+00,-5.783766269683837891e+00,6.316248893737792969e+00,4.268229007720947266e+00,7.808685779571533203e+00,-5.444252490997314453e-02
-1.484863281250000000e+01,1.449030113220214844e+01,-1.207822227478027344e+01,9.694287776947021484e-01,-1.373030376434326172e+01,1.827411079406738281e+01,-3.184194564819335938e+00,1.022711753845214844e+01,6.555895328521728516e+00,3.070196628570556641e+00,1.443143248558044434e+00,1.956427764892578125e+01,5.692667484283447266e+00,-5.060412362217903137e-02,7.575729846954345703e+00,5.375283718109130859e+00,-7.515104293823242188e+00,4.935225486755371094e+00,3.963625907897949219e+00,8.072106361389160156e+00,-5.275654792785644531e-02
-1.601318168640136719e+01,1.273110008239746094e+01,-1.380199432373046875e+01,-6.537208557128906250e-01,-1.495780754089355469e+01,1.595035839080810547e+01,-4.565210819244384766e+00,9.578958511352539062e+00,5.136530876159667969e+00,2.557525396347045898e+00,1.401509165763854980e+00,2.002336120605468750e+01,5.507210254669189453e+00,-4.775395989418029785e-01,7.316137790679931641e+00,4.926395416259765625e+00,-9.108636856079101562e+00,3.541508674621582031e+00,3.496165752410888672e+00,8.310375213623046875e+00,-5.006701126694679260e-02
-1.666663742065429688e+01,1.102372550964355469e+01,-1.499311065673828125e+01,-2.535333633422851562e+00,-1.572533130645751953e+01,1.361056041717529297e+01,-5.831970691680908203e+00,8.565319061279296875e+00,3.981533050537109375e+00,1.595142483711242676e+00,1.376528620719909668e+00,1.991180801391601562e+01,5.303570747375488281e+00,-1.356524467468261719e+00,6.697535037994384766e+00,4.240931034088134766e+00,-1.046414184570312500e+01,2.018320798873901367e+00,2.696959257125854492e+00,8.438776969909667969e+00,-4.673520103096961975e-02
-1.676698875427246094e+01,9.405606269836425781e+00,-1.560071372985839844e+01,-4.628886699676513672e+00,-1.597404193878173828e+01,1.143388080596923828e+01,-6.934796333312988281e+00,7.074839591979980469e+00,3.031868219375610352e+00,5.413057282567024231e-02,1.357099413871765137e+00,1.906657791137695312e+01,4.892654895782470703e+00,-2.843822479248046875e+00,5.631550312042236328e+00,3.209700822830200195e+00,-1.149893569946289062e+01,3.377369344234466553e-01,1.499657750129699707e+00,8.388475418090820312e+00,-4.300196841359138489e-02
-1.631657218933105469e+01,7.983273506164550781e+00,-1.558732986450195312e+01,-6.735362529754638672e+00,-1.568254280090332031e+01,9.658308982849121094e+00,-7.804141044616699219e+00,5.198892116546630859e+00,2.267002820968627930e+00,-1.972569942474365234e+00,1.376528620719909668e+00,1.752199554443359375e+01,4.209008216857910156e+00,-4.894787311553955078e+00,4.129230022430419922e+00,1.778110742568969727e+00,-1.212281894683837891e+01,-1.401235818862915039e+00,-7.764372974634170532e-02,8.121083259582519531e+00,-3.924866020679473877e-02
-1.536672878265380859e+01,6.912205219268798828e+00,-1.493957710266113281e+01,-8.536851882934570312e+00,-1.485885810852050781e+01,8.513813972473144531e+00,-8.335683822631835938e+00,3.197310209274291992e+00,1.730570435523986816e+00,-4.218130111694335938e+00,1.493104219436645508e+00,1.550545597076416016e+01,3.314448833465576172e+00,-7.277812480926513672e+00,2.259613990783691406e+00,2.501958049833774567e-02,-1.226062488555908203e+01,-3.013276338577270508e+00,-1.929389715194702148e+00,7.647192001342773438e+00,-3.595699369907379150e-02
-1.399680709838867188e+01,6.333482742309570312e+00,-1.369225120544433594e+01,-9.736121177673339844e+00,-1.355112552642822266e+01,8.134098052978515625e+00,-8.454907417297363281e+00,1.415588140487670898e+00,1.512404203414916992e+00,-6.316784381866455078e+00,1.767889261245727539e+00,1.336020088195800781e+01,2.350797414779663086e+00,-9.618981361389160156e+00,2.049698680639266968e-01,-1.897921204566955566e+00,-1.189230823516845703e+01,-4.313063144683837891e+00,-3.883675336837768555e+00,7.019748210906982422e+00,-3.386959061026573181e-02
-1.230482673645019531e+01,6.327724456787109375e+00,-1.193903636932373047e+01,-1.015741634368896484e+01,-1.185829448699951172e+01,8.540554046630859375e+00,-8.112137794494628906e+00,1.621010452508926392e-01,1.694637179374694824e+00,-7.932748317718505859e+00,2.248069286346435547e+00,1.144663429260253906e+01,1.459874391555786133e+00,-1.153321552276611328e+01,-1.830343008041381836e+00,-3.748069286346435547e+00,-1.106547546386718750e+01,-5.206666946411132812e+00,-5.729389667510986328e+00,6.315529346466064453e+00,-3.376923501491546631e-02
-1.040513992309570312e+01,6.883412837982177734e+00,-9.851237297058105469e+00,-9.805906295776367188e+00,-9.924775123596191406e+00,9.567391395568847656e+00,-7.347114086151123047e+00,-4.118190109729766846e-01,2.284969568252563477e+00,-8.880141258239746094e+00,2.933644294738769531e+00,1.001789474487304688e+01,7.325903773307800293e-01,-1.275263214111328125e+01,-3.619871854782104492e+00,-5.240319728851318359e+00,-9.915425300598144531e+00,-5.744859695434570312e+00,-7.258437156677246094e+00,5.615281105041503906e+00,-3.633834421634674072e-02
-8.428439140319824219e+00,7.902655124664306641e+00,-7.645665645599365234e+00,-8.828915596008300781e+00,-7.937770366668701172e+00,1.099533557891845703e+01,-6.249256134033203125e+00,-3.261592984199523926e-01,3.178167819976806641e+00,-9.131978988647460938e+00,3.771877765655517578e+00,9.168374061584472656e+00,1.871273219585418701e-01,-1.318793964385986328e+01,-4.975826263427734375e+00,-6.144162654876708984e+00,-8.620054244995117188e+00,-6.087576866149902344e+00,-8.307960510253906250e+00,4.991808891296386719e+00,-4.165719822049140930e-02
-6.521751403808593750e+00,9.229973793029785156e+00,-5.581956863403320312e+00,-7.466813564300537109e+00,-6.097852230072021484e+00,1.255430984497070312e+01,-4.987463951110839844e+00,2.534714043140411377e-01,4.158632755279541016e+00,-8.811184883117675781e+00,4.643418312072753906e+00,8.842295646667480469e+00,-1.983332335948944092e-01,-1.295075321197509766e+01,-5.793265342712402344e+00,-6.332210540771484375e+00,-7.364770889282226562e+00,-6.450603485107421875e+00,-8.799548149108886719e+00,4.494090080261230469e+00,-4.914373904466629028e-02
-4.857775211334228516e+00,1.065518569946289062e+01,-3.909041404724121094e+00,-5.947049617767333984e+00,-4.600244522094726562e+00,1.401434326171875000e+01,-3.750510692596435547e+00,1.070093989372253418e+00,4.964564800262451172e+00,-8.142613410949707031e+00,5.426139831542968750e+00,8.872328758239746094e+00,-4.637919068336486816e-01,-1.226988887786865234e+01,-6.066665649414062500e+00,-5.816595554351806641e+00,-6.327471733093261719e+00,-7.001489639282226562e+00,-8.745262145996093750e+00,4.138009071350097656e+00,-5.761376768350601196e-02
-3.602208614349365234e+00,1.196810817718505859e+01,-2.833022117614746094e+00,-4.453131675720214844e+00,-3.600056171417236328e+00,1.519894886016845703e+01,-2.722199916839599609e+00,1.872439980506896973e+00,5.372663974761962891e+00,-7.333132743835449219e+00,6.022895336151123047e+00,9.078273773193359375e+00,-6.274307966232299805e-01,-1.139369392395019531e+01,-5.892683982849121094e+00,-4.773233413696289062e+00,-5.638443946838378906e+00,-7.791008949279785156e+00,-8.259706497192382812e+00,3.911653041839599609e+00,-6.560208648443222046e-02
-2.892743587493896484e+00,1.296719551086425781e+01,-2.474349021911621094e+00,-3.101368427276611328e+00,-3.174842596054077148e+00,1.597175025939941406e+01,-2.041627168655395508e+00,2.492045164108276367e+00,5.246897697448730469e+00,-6.577617168426513672e+00,6.405929088592529297e+00,9.288508415222167969e+00,-6.928863525390625000e-01,-1.052587127685546875e+01,-5.431493759155273438e+00,-3.469030618667602539e+00,-5.397911071777343750e+00,-8.773465156555175781e+00,-7.496691226959228516e+00,3.777957439422607422e+00,-7.178399711847305298e-02
-2.799392700195312500e+00,1.350272941589355469e+01,-2.849082231521606445e+00,-1.956375956535339355e+00,-3.329952001571655273e+00,1.626589584350585938e+01,-1.788275361061096191e+00,2.840394735336303711e+00,4.584698677062988281e+00,-5.992991924285888672e+00,6.611324310302734375e+00,9.412933349609375000e+00,-6.783406734466552734e-01,-9.778036117553710938e+00,-4.862600326538085938e+00,-2.207290172576904297e+00,-5.648466110229492188e+00,-9.829542160034179688e+00,-6.631135463714599609e+00,3.693239212036132812e+00,-7.523623853921890259e-02
-3.317489147186279297e+00,1.351424694061279297e+01,-3.850154876708984375e+00,-1.046585083007812500e+00,-4.003875255584716797e+00,1.608940887451171875e+01,-1.972079634666442871e+00,2.948896884918212891e+00,3.483600616455078125e+00,-5.603241920471191406e+00,6.708470344543457031e+00,9.425805091857910156e+00,-6.165215373039245605e-01,-9.175303459167480469e+00,-4.332369327545166016e+00,-1.206390500068664551e+00,-6.385099411010742188e+00,-1.082215213775634766e+01,-5.810818195343017578e+00,3.634995460510253906e+00,-7.563766092061996460e-02
-4.346680641174316406e+00,1.307948493957519531e+01,-5.279493808746337891e+00,-3.409802317619323730e-01,-5.068246841430664062e+00,1.555459785461425781e+01,-2.578137159347534180e+00,2.920343875885009766e+00,2.110436439514160156e+00,-5.336412906646728516e+00,6.733450889587402344e+00,9.357156753540039062e+00,-5.728845000267028809e-01,-8.681398391723632812e+00,-3.934696197509765625e+00,-5.633881688117980957e-01,-7.512598991394042969e+00,-1.161421012878417969e+01,-5.123198986053466797e+00,3.615139722824096680e+00,-7.304847985506057739e-02
-5.730604171752929688e+00,1.239423179626464844e+01,-6.882816314697265625e+00,2.328083217144012451e-01,-6.397373676300048828e+00,1.487538814544677734e+01,-3.517029523849487305e+00,2.931765079498291016e+00,6.628390550613403320e-01,-5.018616676330566406e+00,6.686265468597412109e+00,9.297089576721191406e+00,-5.947030186653137207e-01,-8.229348182678222656e+00,-3.697197198867797852e+00,-2.479530870914459229e-01,-8.848059654235839844e+00,-1.209147548675537109e+01,-4.595421314239501953e+00,3.685297012329101562e+00,-6.772962957620620728e-02
-7.280225753784179688e+00,1.171185779571533203e+01,-8.424574851989746094e+00,7.729966640472412109e-01,-7.844170093536376953e+00,1.429511833190917969e+01,-4.679467678070068359e+00,3.151624917984008789e+00,-6.949251890182495117e-01,-4.436989784240722656e+00,6.516953468322753906e+00,9.348575592041015625e+00,-7.001591920852661133e-01,-7.743813991546630859e+00,-3.581209182739257812e+00,-1.205658465623855591e-01,-1.016848659515380859e+01,-1.217778968811035156e+01,-4.209389686584472656e+00,3.915624380111694336e+00,-6.002230569720268250e-02
-8.841515541076660156e+00,1.125406265258789062e+01,-9.752201080322265625e+00,1.351954460144042969e+00,-9.296315193176269531e+00,1.399829864501953125e+01,-5.936291694641113281e+00,3.682715177536010742e+00,-1.870456457138061523e+00,-3.450622320175170898e+00,6.153348922729492188e+00,9.606005668640136719e+00,-8.565253019332885742e-01,-7.155034065246582031e+00,-3.520453453063964844e+00,-3.564101457595825195e-02,-1.127093029022216797e+01,-1.186299800872802734e+01,-3.922881603240966797e+00,4.361718177795410156e+00,-5.048850551247596741e-02
-1.032812595367431641e+01,1.111298084259033203e+01,-1.086837005615234375e+01,1.943835377693176270e+00,-1.069229984283447266e+01,1.401701736450195312e+01,-7.188148498535156250e+00,4.505048274993896484e+00,-2.879154682159423828e+00,-2.041525602340698242e+00,5.542715549468994141e+00,1.008225250244140625e+01,-1.027437090873718262e+00,-6.437893867492675781e+00,-3.440366506576538086e+00,9.781229496002197266e-02,-1.207771873474121094e+01,-1.125879955291748047e+01,-3.711770534515380859e+00,5.031520366668701172e+00,-3.975044190883636475e-02
-1.172371864318847656e+01,1.120799446105957031e+01,-1.190156269073486328e+01,2.409069299697875977e+00,-1.202677536010742188e+01,1.422291946411132812e+01,-8.350586891174316406e+00,5.447305202484130859e+00,-3.833952903747558594e+00,-4.015772342681884766e-01,4.679501533508300781e+00,1.072582912445068359e+01,-1.194712400436401367e+00,-5.609136581420898438e+00,-3.313332080841064453e+00,2.919262051582336426e-01,-1.265399646759033203e+01,-1.059875202178955078e+01,-3.594151496887207031e+00,5.876053810119628906e+00,-2.843030914664268494e-02
-1.304696464538574219e+01,1.134619712829589844e+01,-1.302576160430908203e+01,2.535716295242309570e+00,-1.329974174499511719e+01,1.438871097564697266e+01,-9.403735160827636719e+00,6.252506732940673828e+00,-4.896551132202148438e+00,1.145430803298950195e+00,3.602565765380859375e+00,1.139943885803222656e+01,-1.401988267898559570e+00,-4.752475261688232422e+00,-3.158681392669677734e+00,4.860400855541229248e-01,-1.316262435913085938e+01,-1.019256782531738281e+01,-3.612246751785278320e+00,6.786773681640625000e+00,-1.723060570657253265e-02
-1.427685928344726562e+01,1.130588817596435547e+01,-1.434000396728515625e+01,2.140267610549926758e+00,-1.448713111877441406e+01,1.429244422912597656e+01,-1.033269214630126953e+01,6.666528701782226562e+00,-6.215815544128417969e+00,2.239729166030883789e+00,2.370196104049682617e+00,1.195720481872558594e+01,-1.740175366401672363e+00,-3.971155405044555664e+00,-3.056501626968383789e+00,5.770309567451477051e-01,-1.376145172119140625e+01,-1.033219337463378906e+01,-3.832405567169189453e+00,7.633954524993896484e+00,-7.094674278050661087e-03
-1.532472133636474609e+01,1.095174503326416016e+01,-1.578005027770996094e+01,1.158106923103332520e+00,-1.549266719818115234e+01,1.381378936767578125e+01,-1.114242553710937500e+01,6.540894031524658203e+00,-7.845645904541015625e+00,2.632477283477783203e+00,1.032353281974792480e+00,1.229186439514160156e+01,-2.300184011459350586e+00,-3.374003887176513672e+00,-3.103449106216430664e+00,5.042382478713989258e-01,-1.448555660247802734e+01,-1.113948345184326172e+01,-4.299865722656250000e+00,8.305080413818359375e+00,7.732174708507955074e-04
-1.604118728637695312e+01,1.027800846099853516e+01,-1.711035156250000000e+01,-3.254724144935607910e-01,-1.617728805541992188e+01,1.299285411834716797e+01,-1.180809497833251953e+01,5.909867763519287109e+00,-9.716742515563964844e+00,2.284700393676757812e+00,-3.804308176040649414e-01,1.239054584503173828e+01,-3.122014999389648438e+00,-3.014038562774658203e+00,-3.390657424926757812e+00,2.373316586017608643e-01,-1.523221206665039062e+01,-1.250781345367431641e+01,-5.032722949981689453e+00,8.735289573669433594e+00,4.907874856144189835e-03
-1.629323387145996094e+01,9.394088745117187500e+00,-1.801774215698242188e+01,-2.106284618377685547e+00,-1.641797447204589844e+01,1.198206233978271484e+01,-1.232473373413085938e+01,4.956189632415771484e+00,-1.166483879089355469e+01,1.367288589477539062e+00,-1.851502776145935059e+00,1.233476924896240234e+01,-4.154758453369140625e+00,-2.874517202377319336e+00,-3.945742845535278320e+00,-1.751603782176971436e-01,-1.580598354339599609e+01,-1.411223793029785156e+01,-5.970659255981445312e+00,8.931200027465820312e+00,3.924388438463211060e-03
-1.603418540954589844e+01,8.438189506530761719e+00,-1.827737808227539062e+01,-3.967220544815063477e+00,-1.615856742858886719e+01,1.095789909362792969e+01,-1.268737506866455078e+01,3.939694404602050781e+00,-1.347946929931640625e+01,1.560652107000350952e-01,-3.355881929397583008e+00,1.224466896057128906e+01,-5.278412342071533203e+00,-2.896840810775756836e+00,-4.724519252777099609e+00,-6.483129858970642090e-01,-1.605904579162597656e+01,-1.554657363891601562e+01,-7.035262584686279297e+00,8.955027580261230469e+00,-2.839589957147836685e-03
-1.538773250579833984e+01,7.485168933868408203e+00,-1.783572769165039062e+01,-5.771294593811035156e+00,-1.547929573059082031e+01,1.002732849121093750e+01,-1.292085647583007812e+01,3.060254573822021484e+00,-1.499636650085449219e+01,-1.100129365921020508e+00,-4.835280895233154297e+00,1.222321605682373047e+01,-6.332973957061767578e+00,-3.014038562774658203e+00,-5.627568244934082031e+00,-1.115399599075317383e+00,-1.600642776489257812e+01,-1.650110435485839844e+01,-8.142087936401367188e+00,8.894136428833007812e+00,-1.458121463656425476e-02
-1.460592079162597656e+01,6.520631790161132812e+00,-1.690157318115234375e+01,-7.500413894653320312e+00,-1.457538318634033203e+01,9.176979064941406250e+00,-1.305995178222656250e+01,2.400674819946289062e+00,-1.615393066406250000e+01,-2.305356502532958984e+00,-6.192552566528320312e+00,1.230902671813964844e+01,-7.205715179443359375e+00,-3.214949607849121094e+00,-6.525094509124755859e+00,-1.515759468078613281e+00,-1.585108375549316406e+01,-1.690221023559570312e+01,-9.227802276611328125e+00,8.825303077697753906e+00,-2.893208898603916168e-02
-1.401080989837646484e+01,5.452442646026611328e+00,-1.588443946838378906e+01,-9.224364280700683594e+00,-1.371960639953613281e+01,8.305237770080566406e+00,-1.314440155029296875e+01,1.889571905136108398e+00,-1.699836349487304688e+01,-3.546560764312744141e+00,-7.319449424743652344e+00,1.244632244110107422e+01,-7.871180057525634766e+00,-3.566543340682983398e+00,-7.323202133178710938e+00,-1.855458855628967285e+00,-1.592875576019287109e+01,-1.693521308898925781e+01,-1.029542064666748047e+01,8.786914825439453125e+00,-4.231954738497734070e-02
-1.388011932373046875e+01,4.162554264068603516e+00,-1.520991992950439453e+01,-1.104653072357177734e+01,-1.316602706909179688e+01,7.248986244201660156e+00,-1.320898151397705078e+01,1.364192366600036621e+00,-1.766569519042968750e+01,-5.021615028381347656e+00,-8.132701873779296875e+00,1.254071426391601562e+01,-8.413006782531738281e+00,-4.183228015899658203e+00,-7.997036933898925781e+00,-2.140563726425170898e+00,-1.658771705627441406e+01,-1.695044517517089844e+01,-1.135399246215820312e+01,8.777648925781250000e+00,-5.125121027231216431e-02
-1.436087512969970703e+01,2.596260786056518555e+00,-1.522865676879882812e+01,-1.302635955810546875e+01,-1.310184383392333984e+01,5.885218620300292969e+00,-1.328349685668945312e+01,6.674933433532714844e-01,-1.829452705383300781e+01,-6.931390285491943359e+00,-8.599004745483398438e+00,1.249351882934570312e+01,-8.947560310363769531e+00,-5.184991836547851562e+00,-8.563168525695800781e+00,-2.377139806747436523e+00,-1.803592681884765625e+01,-1.729062271118164062e+01,-1.244272232055664062e+01,8.773677825927734375e+00,-5.351925268769264221e-02
-1.542507266998291016e+01,7.881133556365966797e-01,-1.606110000610351562e+01,-1.513541984558105469e+01,-1.357252025604248047e+01,4.184520244598388672e+00,-1.338285064697265625e+01,-2.976060807704925537e-01,-1.899522590637207031e+01,-9.332850456237792969e+00,-8.735009193420410156e+00,1.227041244506835938e+01,-9.576661109924316406e+00,-6.610900402069091797e+00,-9.046452522277832031e+00,-2.540923595428466797e+00,-2.024582672119140625e+01,-1.814106941223144531e+01,-1.350430965423583984e+01,8.747203826904296875e+00,-4.912366718053817749e-02
-1.688834571838378906e+01,-1.152477979660034180e+00,-1.761891937255859375e+01,-1.728066635131835938e+01,-1.451922225952148438e+01,2.200372219085693359e+00,-1.352194595336914062e+01,-1.499697327613830566e+00,-1.976779174804687500e+01,-1.210307407379150391e+01,-8.621209144592285156e+00,1.189713764190673828e+01,-1.033303642272949219e+01,-8.416307449340820312e+00,-9.449648857116699219e+00,-2.583385944366455078e+00,-2.295683670043945312e+01,-1.943831825256347656e+01,-1.445430946350097656e+01,8.683665275573730469e+00,-4.017193242907524109e-02
-1.852664947509765625e+01,-3.104586362838745117e+00,-1.966389083862304688e+01,-1.934837150573730469e+01,-1.580021190643310547e+01,1.032205764204263687e-02,-1.373058891296386719e+01,-2.858831405639648438e+00,-2.059682273864746094e+01,-1.497223472595214844e+01,-8.368628501892089844e+00,1.144234371185302734e+01,-1.117304992675781250e+01,-1.045890045166015625e+01,-9.736856460571289062e+00,-2.462064743041992188e+00,-2.578811264038085938e+01,-2.098435401916503906e+01,-1.516605567932128906e+01,8.585709571838378906e+00,-2.997578866779804230e-02
-2.012761306762695312e+01,-5.025022983551025391e+00,-2.193102645874023438e+01,-2.127650833129882812e+01,-1.727375221252441406e+01,-2.313430786132812500e+00,-1.405845546722412109e+01,-4.286493301391601562e+00,-2.147462081909179688e+01,-1.764052391052246094e+01,-8.113272666931152344e+00,1.098325920104980469e+01,-1.203124427795410156e+01,-1.256009292602539062e+01,-9.866652488708496094e+00,-2.170893907546997070e+00,-2.837635040283203125e+01,-2.252785110473632812e+01,-1.552796077728271484e+01,8.463927268981933594e+00,-2.178675867617130280e-02
-2.159321975708007812e+01,-6.968493938446044922e+00,-2.424098777770996094e+01,-2.307282829284667969e+01,-1.883554267883300781e+01,-4.741471767425537109e+00,-1.455522441864013672e+01,-5.739852905273437500e+00,-2.245252037048339844e+01,-1.990407180786132812e+01,-8.002248764038085938e+00,1.056707954406738281e+01,-1.284580326080322266e+01,-1.454408740997314453e+01,-9.819705009460449219e+00,-1.782666087150573730e+00,-3.050106048583984375e+01,-2.393933868408203125e+01,-1.550986576080322266e+01,8.324936866760253906e+00,-1.755174435675144196e-02
-2.290012931823730469e+01,-9.064562797546386719e+00,-2.650276947021484375e+01,-2.479419326782226562e+01,-2.038396263122558594e+01,-7.289845466613769531e+00,-1.526063537597656250e+01,-7.238897800445556641e+00,-2.365115165710449219e+01,-2.168792915344238281e+01,-8.149355888366699219e+00,1.020238685607910156e+01,-1.361308765411376953e+01,-1.627973365783691406e+01,-9.640200614929199219e+00,-1.400504350662231445e+00,-3.212215423583984375e+01,-2.524166297912597656e+01,-1.516907215118408203e+01,8.151529312133789062e+00,-1.743131875991821289e-02
-2.407401466369628906e+01,-1.142264080047607422e+01,-2.866819190979003906e+01,-2.650005149841308594e+01,-2.185215187072753906e+01,-9.945180892944335938e+00,-1.614985084533691406e+01,-8.809326171875000000e+00,-2.520398139953613281e+01,-2.307004165649414062e+01,-8.601779937744140625e+00,9.859146118164062500e+00,-1.434400749206542969e+01,-1.768331909179687500e+01,-9.410985946655273438e+00,-1.151795983314514160e+00,-3.333985519409179688e+01,-2.656683731079101562e+01,-1.464129352569580078e+01,7.915906906127929688e+00,-2.034163475036621094e-02
-2.511020660400390625e+01,-1.401681327819824219e+01,-3.066230583190917969e+01,-2.818781661987304688e+01,-2.313314247131347656e+01,-1.262190914154052734e+01,-1.710861396789550781e+01,-1.044542694091796875e+01,-2.715721130371093750e+01,-2.417033767700195312e+01,-9.317886352539062500e+00,9.507324218750000000e+00,-1.501674556732177734e+01,-1.869624328613281250e+01,-9.212149620056152344e+00,-1.121465682983398438e+00,-3.431451416015625000e+01,-2.801894378662109375e+01,-1.405621433258056641e+01,7.590271949768066406e+00,-2.459671907126903534e-02
-2.594102859497070312e+01,-1.665417480468750000e+01,-3.233254623413085938e+01,-2.978253555297851562e+01,-2.409589004516601562e+01,-1.512482357025146484e+01,-1.799782943725585938e+01,-1.202156543731689453e+01,-2.939020729064941406e+01,-2.503977966308593750e+01,-1.013113975524902344e+01,9.125469207763671875e+00,-1.556220912933349609e+01,-1.925153923034667969e+01,-9.076829910278320312e+00,-1.327711701393127441e+00,-3.516139221191406250e+01,-2.957259368896484375e+01,-1.350129413604736328e+01,7.171976089477539062e+00,-2.873137779533863068e-02
-2.644512176513671875e+01,-1.898633956909179688e+01,-3.345139312744140625e+01,-3.113171386718750000e+01,-2.460668182373046875e+01,-1.717047500610351562e+01,-1.861878967285156250e+01,-1.332930374145507812e+01,-3.159497070312500000e+01,-2.559442329406738281e+01,-1.080283641815185547e+01,8.726451873779296875e+00,-1.582039451599121094e+01,-1.928502464294433594e+01,-8.980173110961914062e+00,-1.709873437881469727e+00,-3.588299179077148438e+01,-3.102977752685546875e+01,-1.298256397247314453e+01,6.692789554595947266e+00,-3.162162378430366516e-02
-2.647079277038574219e+01,-2.060445976257324219e+01,-3.377794265747070312e+01,-3.204409027099609375e+01,-2.455052185058593750e+01,-1.845669555664062500e+01,-1.878769111633300781e+01,-1.411451721191406250e+01,-3.334799957275390625e+01,-2.564838981628417969e+01,-1.107484626770019531e+01,8.331725120544433594e+00,-1.563857364654541016e+01,-1.876042366027832031e+01,-8.858662605285644531e+00,-2.189092159271240234e+00,-3.636405944824218750e+01,-3.208077621459960938e+01,-1.246383380889892578e+01,6.217573642730712891e+00,-3.264525160193443298e-02
-2.591068840026855469e+01,-2.118318176269531250e+01,-3.316231155395507812e+01,-3.233873748779296875e+01,-2.387392234802246094e+01,-1.876421165466308594e+01,-1.842505073547363281e+01,-1.420303249359130859e+01,-3.423863220214843750e+01,-2.502478981018066406e+01,-1.079173374176025391e+01,7.967031478881835938e+00,-1.494401741027832031e+01,-1.773912811279296875e+01,-8.662587165832519531e+00,-2.716839313507080078e+00,-3.640164184570312500e+01,-3.245141983032226562e+01,-1.193002414703369141e+01,5.820457935333251953e+00,-3.162162378430366516e-02
-2.476247596740722656e+01,-2.059006309509277344e+01,-3.163393592834472656e+01,-3.194070434570312500e+01,-2.263304901123046875e+01,-1.804489135742187500e+01,-1.755570602416992188e+01,-1.359484863281250000e+01,-3.404613113403320312e+01,-2.372362327575683594e+01,-9.981256484985351562e+00,7.606628894805908203e+00,-1.382036304473876953e+01,-1.641367340087890625e+01,-8.441658020019531250e+00,-3.299180984497070312e+00,-3.585041809082031250e+01,-3.203507995605468750e+01,-1.146256351470947266e+01,5.558361053466796875e+00,-2.867116406559944153e-02
-2.315217590332031250e+01,-1.894315147399902344e+01,-2.944174766540527344e+01,-3.091719055175781250e+01,-2.099637603759765625e+01,-1.644313240051269531e+01,-1.636346054077148438e+01,-1.250125980377197266e+01,-3.283466720581054688e+01,-2.200572586059570312e+01,-8.846033096313476562e+00,7.190449714660644531e+00,-1.252579784393310547e+01,-1.509659194946289062e+01,-8.347763061523437500e+00,-4.039240360260009766e+00,-3.469034957885742188e+01,-3.097138786315917969e+01,-1.123938941955566406e+01,5.452463626861572266e+00,-2.399458549916744232e-02
-2.132016944885253906e+01,-1.657931518554687500e+01,-2.698456954956054688e+01,-2.948271751403808594e+01,-1.920459556579589844e+01,-1.428517055511474609e+01,-1.510663700103759766e+01,-1.129916858673095703e+01,-3.091993713378906250e+01,-2.035977935791015625e+01,-7.685829639434814453e+00,6.628392696380615234e+00,-1.140214443206787109e+01,-1.414226531982421875e+01,-8.576976776123046875e+00,-5.046205997467041016e+00,-3.309681701660156250e+01,-2.959036445617675781e+01,-1.147462749481201172e+01,5.472319126129150391e+00,-1.787288300693035126e-02
-1.954883956909179688e+01,-1.395922946929931641e+01,-2.471208000183105469e+01,-2.796812248229980469e+01,-1.752780914306640625e+01,-1.196141815185546875e+01,-1.407335853576660156e+01,-1.039403057098388672e+01,-2.877164268493652344e+01,-1.934343147277832031e+01,-6.775430202484130859e+00,5.856101036071777344e+00,-1.073304271697998047e+01,-1.383810901641845703e+01,-9.270143508911132812e+00,-6.398937225341796875e+00,-3.136798286437988281e+01,-2.828804016113281250e+01,-1.231303977966308594e+01,5.551742553710937500e+00,-1.080783735960721970e-02
-1.809256935119628906e+01,-1.151477527618408203e+01,-2.296689414978027344e+01,-2.670682334899902344e+01,-1.616391754150390625e+01,-9.827522277832031250e+00,-1.342755985260009766e+01,-1.006566810607910156e+01,-2.680557823181152344e+01,-1.937341308593750000e+01,-6.245289325714111328e+00,4.877865314483642578e+00,-1.063849544525146484e+01,-1.427620601654052734e+01,-1.042173862457275391e+01,-8.042839050292968750e+00,-2.984711074829101562e+01,-2.735889434814453125e+01,-1.373653221130371094e+01,5.608662605285644531e+00,-3.542080288752913475e-03
-1.708671569824218750e+01,-9.539633750915527344e+00,-2.188284492492675781e+01,-2.591333961486816406e+01,-1.520384311676025391e+01,-8.108105659484863281e+00,-1.316427230834960938e+01,-1.037118816375732422e+01,-2.525531387329101562e+01,-2.050668525695800781e+01,-6.034343242645263672e+00,3.813818931579589844e+00,-1.098395538330078125e+01,-1.530866432189941406e+01,-1.183016395568847656e+01,-9.789864540100097656e+00,-2.877974510192871094e+01,-2.686385917663574219e+01,-1.553097629547119141e+01,5.579540729522705078e+00,3.021186683326959610e-03
-1.653127861022949219e+01,-8.128817558288574219e+00,-2.136089706420898438e+01,-2.560835266113281250e+01,-1.459410285949707031e+01,-6.832581996917724609e+00,-1.313446617126464844e+01,-1.106217670440673828e+01,-2.410801696777343750e+01,-2.240746688842773438e+01,-5.959401607513427734e+00,2.869907140731811523e+00,-1.149305438995361328e+01,-1.657551956176757812e+01,-1.320268821716308594e+01,-1.136097335815429688e+01,-2.821850013732910156e+01,-2.661253356933593750e+01,-1.734954833984375000e+01,5.441873550415039062e+00,7.737907581031322479e-03
