Fp1,Fp2,F7,F3,Fz,F4,F8,T3,C3,Cz,C4,T4,T5,P3,Pz,P4,T6,O1,Oz,O2,A1
9.118831634521484375e+00,-4.897030830383300781e+00,1.219491600990295410e+00,-8.689178466796875000e+00,5.036202907562255859e+00,-2.066346740722656250e+01,2.335992097854614258e+00,-6.220561981201171875e+00,1.062922358512878418e+00,6.573091149330139160e-01,-7.851107597351074219e+00,-1.124037170410156250e+01,2.776245355606079102e+00,6.730553627014160156e+00,-1.445572566986083984e+01,2.475498199462890625e+00,-7.779993414878845215e-01,1.580245614051818848e+00,5.551005363464355469e+00,-7.821061611175537109e+00,-7.520565390586853027e-02
7.153863906860351562e+00,-4.158857822418212891e+00,1.434811115264892578e+00,-9.510173797607421875e+00,6.882657051086425781e+00,-2.287408065795898438e+01,-1.712929129600524902e+00,-4.730841159820556641e+00,-9.335651993751525879e-01,7.562448382377624512e-01,-7.382982730865478516e+00,-9.903865814208984375e+00,2.538207292556762695e+00,7.284053325653076172e+00,-1.145040512084960938e+01,3.232573747634887695e+00,-1.118164658546447754e+00,1.056201815605163574e+00,5.751202106475830078e+00,-1.005655765533447266e+01,-6.960567831993103027e-02
6.272233486175537109e+00,-3.584110975265502930e+00,1.361287355422973633e+00,-1.055315113067626953e+01,8.261029243469238281e+00,-2.419351196289062500e+01,-4.684128761291503906e+00,-3.141579389572143555e+00,-2.945650339126586914e+00,8.134607076644897461e-01,-5.881472110748291016e+00,-8.992783546447753906e+00,2.578752279281616211e+00,7.349674224853515625e+00,-8.398903846740722656e+00,3.279282808303833008e+00,-1.704577684402465820e+00,3.694413006305694580e-01,5.742332458496093750e+00,-1.233896923065185547e+01,-6.248926371335983276e-02
6.660952091217041016e+00,-3.378450870513916016e+00,8.319165110588073730e-01,-1.186942195892333984e+01,8.592685699462890625e+00,-2.468591690063476562e+01,-6.342788696289062500e+00,-1.901841998100280762e+00,-4.817357540130615234e+00,5.929413437843322754e-01,-3.740971565246582031e+00,-8.926271438598632812e+00,2.641531467437744141e+00,6.657799720764160156e+00,-5.892694473266601562e+00,2.502745151519775391e+00,-2.664370775222778320e+00,-4.836253821849822998e-01,5.296324729919433594e+00,-1.435890388488769531e+01,-5.583861470222473145e-02
8.150373458862304688e+00,-3.639198541641235352e+00,-2.635871171951293945e-01,-1.343890666961669922e+01,7.553025722503662109e+00,-2.467377853393554688e+01,-6.912868022918701172e+00,-1.397350311279296875e+00,-6.542187690734863281e+00,-1.174885779619216919e-01,-1.503334879875183105e+00,-9.777117729187011719e+00,2.484583377838134766e+00,5.169913291931152344e+00,-4.214191436767578125e+00,1.025571584701538086e+00,-4.105206012725830078e+00,-1.537695169448852539e+00,4.321949005126953125e+00,-1.597941684722900391e+01,-5.005449801683425903e-02
1.023422813415527344e+01,-4.298412799835205078e+00,-1.980891466140747070e+00,-1.514671230316162109e+01,5.151459217071533203e+00,-2.456801605224609375e+01,-6.861289501190185547e+00,-1.909759998321533203e+00,-8.239722251892089844e+00,-1.468020558357238770e+00,3.457581102848052979e-01,-1.135457134246826172e+01,1.966654062271118164e+00,3.051493644714355469e+00,-3.304780006408691406e+00,-8.894991874694824219e-01,-6.085494995117187500e+00,-2.884894371032714844e+00,2.871155500411987305e+00,-1.713330268859863281e+01,-4.405374825000762939e-02
1.211904716491699219e+01,-5.133907318115234375e+00,-4.339952945709228516e+00,-1.680766677856445312e+01,1.694944262504577637e+00,-2.473446273803710938e+01,-6.720126628875732422e+00,-3.604218482971191406e+00,-1.010752964019775391e+01,-3.524214506149291992e+00,1.454043626785278320e+00,-1.340889930725097656e+01,1.047198772430419922e+00,5.607456564903259277e-01,-2.874941110610961914e+00,-2.977782726287841797e+00,-8.608675003051757812e+00,-4.656832218170166016e+00,1.079520821571350098e+00,-1.774575042724609375e+01,-3.634159266948699951e-02
1.286308956146240234e+01,-5.958384037017822266e+00,-7.322916030883789062e+00,-1.825891113281250000e+01,-2.349613666534423828e+00,-2.542798805236816406e+01,-6.941371917724609375e+00,-6.507873058319091797e+00,-1.231718349456787109e+01,-6.282494544982910156e+00,1.648315429687500000e+00,-1.574558925628662109e+01,-2.541639208793640137e-01,-2.084069252014160156e+00,-2.608511924743652344e+00,-5.095259189605712891e+00,-1.162893104553222656e+01,-6.965974807739257812e+00,-9.047083258628845215e-01,-1.776223373413085938e+01,-2.639811486005783081e-02
1.163949298858642578e+01,-6.683703422546386719e+00,-1.078798484802246094e+01,-1.937662506103515625e+01,-6.467088699340820312e+00,-2.671100997924804688e+01,-7.744912624359130859e+00,-1.036734771728515625e+01,-1.485828590393066406e+01,-9.574789047241210938e+00,1.029220342636108398e+00,-1.819773101806640625e+01,-1.776562094688415527e+00,-4.681807994842529297e+00,-2.198211193084716797e+00,-7.144618511199951172e+00,-1.498362541198730469e+01,-9.748910903930664062e+00,-2.888937473297119141e+00,-1.715612602233886719e+01,-1.549061480909585953e-02
8.042173385620117188e+00,-7.328227519989013672e+00,-1.438224506378173828e+01,-2.007380294799804688e+01,-1.017646217346191406e+01,-2.838587570190429688e+01,-9.018090248107910156e+00,-1.459105110168457031e+01,-1.744748115539550781e+01,-1.302204227447509766e+01,-5.335489287972450256e-03,-2.055450057983398438e+01,-3.207406997680664062e+00,-6.999943733215332031e+00,-1.338533282279968262e+00,-8.950701713562011719e+00,-1.836122703552246094e+01,-1.267063426971435547e+01,-4.594411849975585938e+00,-1.600350952148437500e+01,-6.446164101362228394e-03
2.294209241867065430e+00,-8.013149261474609375e+00,-1.757317543029785156e+01,-2.032367134094238281e+01,-1.309785842895507812e+01,-3.008154487609863281e+01,-1.040392589569091797e+01,-1.836908340454101562e+01,-1.961814117431640625e+01,-1.611408233642578125e+01,-8.479601740837097168e-01,-2.253980636596679688e+01,-4.143865108489990234e+00,-8.771713256835937500e+00,1.854411065578460693e-01,-1.025855445861816406e+01,-2.135857582092285156e+01,-1.521188735961914062e+01,-5.722102642059326172e+00,-1.451486873626708984e+01,-2.514264779165387154e-03
-4.778872489929199219e+00,-8.883532524108886719e+00,-1.979674339294433594e+01,-2.019873619079589844e+01,-1.499606037139892578e+01,-3.138537216186523438e+01,-1.148843383789062500e+01,-2.089719581604003906e+01,-2.093613433837890625e+01,-1.836576271057128906e+01,-9.181788563728332520e-01,-2.382611656188964844e+01,-4.248497009277343750e+00,-9.774574279785156250e+00,2.434102535247802734e+00,-1.078403186798095703e+01,-2.359083938598632812e+01,-1.687375259399414062e+01,-6.038869857788085938e+00,-1.296790122985839844e+01,-5.807094741612672806e-03
-1.196816921234130859e+01,-9.998136520385742188e+00,-2.066537284851074219e+01,-1.988751602172851562e+01,-1.578286170959472656e+01,-3.200434494018554688e+01,-1.198793220520019531e+01,-2.164714622497558594e+01,-2.123118972778320312e+01,-1.949696731567382812e+01,4.732855409383773804e-02,-2.417373275756835938e+01,-3.429750442504882812e+00,-9.935773849487304688e+00,5.196084022521972656e+00,-1.038116550445556641e+01,-2.483124160766601562e+01,-1.742770767211914062e+01,-5.530775070190429688e+00,-1.166565799713134766e+01,-1.602136716246604919e-02
-1.800199508666992188e+01,-1.134594535827636719e+01,-2.013810348510742188e+01,-1.965995788574218750e+01,-1.547237491607666016e+01,-3.186390495300292969e+01,-1.186984443664550781e+01,-2.057142639160156250e+01,-2.072686767578125000e+01,-1.956371879577636719e+01,1.848438739776611328e+00,-2.349606704711914062e+01,-1.950513005256652832e+00,-9.416511535644531250e+00,7.915437221527099609e+00,-9.199816703796386719e+00,-2.510955810546875000e+01,-1.706518363952636719e+01,-4.479108333587646484e+00,-1.086934947967529297e+01,-3.028668649494647980e-02
-2.189719963073730469e+01,-1.280943775177001953e+01,-1.856994628906250000e+01,-1.977820014953613281e+01,-1.416103935241699219e+01,-3.109755897521972656e+01,-1.132826900482177734e+01,-1.807498359680175781e+01,-1.994179153442382812e+01,-1.891765785217285156e+01,3.870738029479980469e+00,-2.188222122192382812e+01,-3.574881851673126221e-01,-8.589115142822265625e+00,9.831950187683105469e+00,-7.679826259613037109e+00,-2.469952774047851562e+01,-1.632577896118164062e+01,-3.389429569244384766e+00,-1.068929290771484375e+01,-4.428121447563171387e-02
-2.317556381225585938e+01,-1.418662643432617188e+01,-1.656379890441894531e+01,-2.037052154541015625e+01,-1.201703643798828125e+01,-2.994457435607910156e+01,-1.059395217895507812e+01,-1.483764076232910156e+01,-1.941407394409179688e+01,-1.802127647399902344e+01,5.389802932739257812e+00,-1.958694458007812500e+01,7.712314128875732422e-01,-7.861577033996582031e+00,1.025646114349365234e+01,-6.375865459442138672e+00,-2.398254585266113281e+01,-1.581728935241699219e+01,-2.753361225128173828e+00,-1.104687023162841797e+01,-5.400805920362472534e-02
-2.193861007690429688e+01,-1.525716018676757812e+01,-1.471940326690673828e+01,-2.133541488647460938e+01,-9.286165237426757812e+00,-2.860086822509765625e+01,-9.791769027709960938e+00,-1.154260921478271484e+01,-1.941017341613769531e+01,-1.719760704040527344e+01,5.889526367187500000e+00,-1.693526649475097656e+01,1.113901734352111816e+00,-7.469277381896972656e+00,8.899448394775390625e+00,-5.665498733520507812e+00,-2.325754737854003906e+01,-1.586754035949707031e+01,-2.792640209197998047e+00,-1.170750236511230469e+01,-5.735504999756813049e-02
-1.881550025939941406e+01,-1.588883113861083984e+01,-1.340332889556884766e+01,-2.234938812255859375e+01,-6.331839084625244141e+00,-2.714273071289062500e+01,-8.857924461364746094e+00,-8.666102409362792969e+00,-1.977021789550781250e+01,-1.646810531616210938e+01,5.286815643310546875e+00,-1.424217700958251953e+01,7.633839845657348633e-01,-7.348021030426025391e+00,6.007804870605468750e+00,-5.560403347015380859e+00,-2.261615753173828125e+01,-1.634133338928222656e+01,-3.329877376556396484e+00,-1.231868171691894531e+01,-5.474461615085601807e-02
-1.478270816802978516e+01,-1.605042076110839844e+01,-1.262397670745849609e+01,-2.296401977539062500e+01,-3.626842498779296875e+00,-2.554241943359375000e+01,-7.544027328491210938e+00,-6.366479873657226562e+00,-1.995478820800781250e+01,-1.555026721954345703e+01,3.980747461318969727e+00,-1.176367950439453125e+01,2.009860575199127197e-01,-7.156863689422607422e+00,2.293783426284790039e+00,-5.700530529022216797e+00,-2.190719223022460938e+01,-1.667873191833496094e+01,-3.850642442703247070e+00,-1.251014995574951172e+01,-4.854889586567878723e-02
-1.088483238220214844e+01,-1.584843349456787109e+01,-1.206414604187011719e+01,-2.275319480895996094e+01,-1.653370976448059082e+00,-2.374098777770996094e+01,-5.570466518402099609e+00,-4.548726558685302734e+00,-1.930228996276855469e+01,-1.402093601226806641e+01,2.651272773742675781e+00,-9.639074325561523438e+00,5.057730153203010559e-02,-6.457856655120849609e+00,-1.379385709762573242e+00,-5.548726081848144531e+00,-2.083630180358886719e+01,-1.617024040222167969e+01,-3.759413480758666992e+00,-1.203845214843750000e+01,-4.159495979547500610e-02
-7.942056179046630859e+00,-1.544262218475341797e+01,-1.125538539886474609e+01,-2.146927261352539062e+01,-7.477852106094360352e-01,-2.175056838989257812e+01,-2.847658634185791016e+00,-3.049956321716308594e+00,-1.737079238891601562e+01,-1.157734298706054688e+01,1.874185681343078613e+00,-7.909774303436279297e+00,7.529208064079284668e-01,-4.962837219238281250e+00,-4.338524818420410156e+00,-4.688501358032226562e+00,-1.914349365234375000e+01,-1.432771301269531250e+01,-2.692541837692260742e+00,-1.087568950653076172e+01,-3.578918054699897766e-02
-6.396531105041503906e+00,-1.493948936462402344e+01,-9.846880912780761719e+00,-1.915464401245117188e+01,-9.806501269340515137e-01,-1.972547531127929688e+01,3.461434245109558105e-01,-1.795514225959777832e+00,-1.420188903808593750e+01,-8.246904373168945312e+00,1.794604420661926270e+00,-6.545659542083740234e+00,2.332866668701171875e+00,-2.703189849853515625e+00,-6.327862262725830078e+00,-3.012814521789550781e+00,-1.679096794128417969e+01,-1.117268276214599609e+01,-6.918408274650573730e-01,-9.186704635620117188e+00,-3.154316172003746033e-02
-6.198832035064697266e+00,-1.432985401153564453e+01,-7.752504825592041016e+00,-1.609487342834472656e+01,-2.067353010177612305e+00,-1.786335945129394531e+01,3.413713693618774414e+00,-8.125472664833068848e-01,-1.031809711456298828e+01,-4.389604091644287109e+00,2.107077836990356445e+00,-5.398649215698242188e+00,4.433357715606689453e+00,5.819577723741531372e-03,-7.450416564941406250e+00,-7.338023781776428223e-01,-1.400321578979492188e+01,-7.217228889465332031e+00,1.853699684143066406e+00,-7.302446842193603516e+00,-2.790371701121330261e-02
-6.844025611877441406e+00,-1.344845294952392578e+01,-5.200180530548095703e+00,-1.268818664550781250e+01,-3.453957796096801758e+00,-1.626998329162597656e+01,5.657383441925048828e+00,-1.870228946208953857e-01,-6.507092952728271484e+00,-5.621032714843750000e-01,2.288476228713989258e+00,-4.271717548370361328e+00,6.531232833862304688e+00,2.713402271270751953e+00,-7.958407878875732422e+00,1.774862527847290039e+00,-1.119828319549560547e+01,-3.235453367233276367e+00,4.429649829864501953e+00,-5.593173503875732422e+00,-2.343023382127285004e-02
-7.602762222290039062e+00,-1.203086757659912109e+01,-2.643655538558959961e+00,-9.322772979736328125e+00,-4.538308620452880859e+00,-1.485519123077392578e+01,6.549150466918945312e+00,7.087866961956024170e-02,-3.499363660812377930e+00,2.713503122329711914e+00,1.923338770866394043e+00,-3.054430484771728516e+00,8.210578918457031250e+00,5.057216167449951172e+00,-8.009917259216308594e+00,4.207624912261962891e+00,-8.822853088378906250e+00,8.229403197765350342e-02,6.654622077941894531e+00,-4.332775115966796875e+00,-1.705037616193294525e-02
-7.836527824401855469e+00,-9.865926742553710938e+00,-5.828902125358581543e-01,-6.258539676666259766e+00,-5.009918689727783203e+00,-1.333983802795410156e+01,5.947852611541748047e+00,1.104688197374343872e-01,-1.675749063491821289e+00,5.158288002014160156e+00,1.004643797874450684e+00,-1.738003492355346680e+00,9.370688438415527344e+00,6.930270195007324219e+00,-7.553435802459716797e+00,6.471067428588867188e+00,-7.148368835449218750e+00,2.411776304244995117e+00,8.448790550231933594e+00,-3.589723110198974609e+00,-8.547509089112281799e-03
-7.232744216918945312e+00,-6.935269832611083984e+00,6.355031132698059082e-01,-3.599226951599121094e+00,-4.988749504089355469e+00,-1.141010379791259766e+01,4.148030281066894531e+00,2.145343571901321411e-01,-9.582613706588745117e-01,6.798475265502929688e+00,2.158168703317642212e-02,-4.052624404430389404e-01,1.024698257446289062e+01,8.462379455566406250e+00,-6.377595424652099609e+00,8.701424598693847656e+00,-6.177122116088867188e+00,3.867852210998535156e+00,1.000728511810302734e+01,-3.185229063034057617e+00,1.157673890702426434e-03
-5.844843864440917969e+00,-3.448228359222412109e+00,9.264470338821411133e-01,-1.350412249565124512e+00,-4.933473110198974609e+00,-8.941152572631835938e+00,1.760483264923095703e+00,6.839604377746582031e-01,-9.218670129776000977e-01,7.868887901306152344e+00,-2.815291285514831543e-01,8.208091259002685547e-01,1.123968029022216797e+01,9.890351295471191406e+00,-4.311882019042968750e+00,1.110110092163085938e+01,-5.666301727294921875e+00,4.845349311828613281e+00,1.159998989105224609e+01,-2.799754858016967773e+00,1.054873876273632050e-02
-3.938651800155639648e+00,2.095841765403747559e-01,4.884556233882904053e-01,4.945973753929138184e-01,-5.330990314483642578e+00,-6.125438690185546875e+00,-4.763997495174407959e-01,1.722353577613830566e+00,-1.032349705696105957e+00,8.652029991149902344e+00,7.682407498359680176e-01,1.824757218360900879e+00,1.266660213470458984e+01,1.138679695129394531e+01,-1.416685819625854492e+00,1.376935577392578125e+01,-5.256270408630371094e+00,5.772595882415771484e+00,1.337388610839843750e+01,-2.151803493499755859e+00,1.805509068071842194e-02
-1.796022415161132812e+00,3.630520343780517578e+00,-3.497149348258972168e-01,1.856602668762207031e+00,-6.380058288574218750e+00,-3.479639053344726562e+00,-1.983038187026977539e+00,3.281074285507202148e+00,-9.322654008865356445e-01,9.294515609741210938e+00,3.373355388641357422e+00,2.437165498733520508e+00,1.453690242767333984e+01,1.288894939422607422e+01,1.915454030036926270e+00,1.657384490966796875e+01,-4.681311130523681641e+00,6.818290233612060547e+00,1.518325996398925781e+01,-1.124718070030212402e+00,2.262605912983417511e-02
4.280911386013031006e-01,6.533633708953857422e+00,-1.256157517433166504e+00,2.582782506942749023e+00,-7.774895668029785156e+00,-1.610587596893310547e+00,-2.448603153228759766e+00,5.106745719909667969e+00,-5.553243756294250488e-01,9.749857902526855469e+00,7.083244800567626953e+00,2.493637561798095703e+00,1.653406906127929688e+01,1.414430904388427734e+01,5.073526859283447266e+00,1.916035652160644531e+01,-3.879574298858642578e+00,7.852020263671875000e+00,1.666572952270507812e+01,1.699167788028717041e-01,2.416415698826313019e-02
2.665562629699707031e+00,8.821602821350097656e+00,-1.993495583534240723e+00,2.550433397293090820e+00,-8.851014137268066406e+00,-9.083930253982543945e-01,-1.919243574142456055e+00,6.860023975372314453e+00,-8.999721705913543701e-02,9.903625488281250000e+00,1.093708229064941406e+01,1.900053262710571289e+00,1.816763877868652344e+01,1.484616947174072266e+01,7.462507724761962891e+00,2.113186836242675781e+01,-2.966740131378173828e+00,8.559120178222656250e+00,1.743864059448242188e+01,1.481035709381103516e+00,2.287518791854381561e-02
4.740066051483154297e+00,1.047239303588867188e+01,-2.477701902389526367e+00,1.767364025115966797e+00,-8.968622207641601562e+00,-1.385191798210144043e+00,-7.587248086929321289e-01,8.224187850952148438e+00,1.595637351274490356e-01,9.640194892883300781e+00,1.381487941741943359e+01,7.480228543281555176e-01,1.897199821472167969e+01,1.477626895904541016e+01,8.675647735595703125e+00,2.215946769714355469e+01,-2.171875476837158203e+00,8.629711151123046875e+00,1.728405952453613281e+01,2.497977018356323242e+00,1.871582306921482086e-02
6.229487419128417969e+00,1.140888118743896484e+01,-2.751840353012084961e+00,4.332457780838012695e-01,-7.918378353118896484e+00,-2.675149440765380859e+00,5.049512386322021484e-01,9.021646499633789062e+00,-5.490271002054214478e-02,8.951220512390136719e+00,1.488337421417236328e+01,-6.437001228332519531e-01,1.868949127197265625e+01,1.388325119018554688e+01,8.574404716491699219e+00,2.207188796997070312e+01,-1.691978931427001953e+00,7.939361095428466797e+00,1.621845436096191406e+01,2.993767738342285156e+00,1.141527295112609863e-02
6.542065620422363281e+00,1.147865867614746094e+01,-2.912542343139648438e+00,-1.059271097183227539e+00,-6.083684921264648438e+00,-4.174898147583007812e+00,1.334281086921691895e+00,9.221858978271484375e+00,-7.983863353729248047e-01,7.959479808807373047e+00,1.394244384765625000e+01,-1.807024955749511719e+00,1.733973693847656250e+01,1.230977153778076172e+01,7.272454738616943359e+00,2.088275337219238281e+01,-1.587753176689147949e+00,6.613698005676269531e+00,1.447116756439208984e+01,2.915151357650756836e+00,6.702484097331762314e-04
5.203590393066406250e+00,1.053849792480468750e+01,-3.077445507049560547e+00,-2.266224145889282227e+00,-4.301915645599365234e+00,-5.340021133422851562e+00,1.312563776969909668e+00,8.889302253723144531e+00,-1.983800888061523438e+00,6.824698925018310547e+00,1.143329429626464844e+01,-2.290174961090087891e+00,1.514376831054687500e+01,1.027266502380371094e+01,4.972283840179443359e+00,1.871662139892578125e+01,-1.803076744079589844e+00,4.929100513458251953e+00,1.231715106964111328e+01,2.353424310684204102e+00,-1.324845757335424423e-02
2.210053682327270508e+00,8.612270355224609375e+00,-3.349483251571655273e+00,-2.874162673950195312e+00,-3.419851303100585938e+00,-5.891374111175537109e+00,2.891354858875274658e-01,8.125777244567871094e+00,-3.442172527313232422e+00,5.664886474609375000e+00,8.239512443542480469e+00,-1.862242102622985840e+00,1.241286849975585938e+01,7.975927829742431641e+00,1.906573057174682617e+00,1.576616668701171875e+01,-2.238305091857910156e+00,3.161948442459106445e+00,9.961670875549316406e+00,1.481035709381103516e+00,-2.883524261415004730e-02
-1.830753326416015625e+00,5.999284744262695312e+00,-3.776971340179443359e+00,-2.809464693069458008e+00,-3.818544387817382812e+00,-5.851496219635009766e+00,-1.550049304962158203e+00,7.065892696380615234e+00,-5.008427619934082031e+00,4.512225627899169922e+00,5.242343902587890625e+00,-6.098168492317199707e-01,9.445239067077636719e+00,5.592170715332031250e+00,-1.683114886283874512e+00,1.229802036285400391e+01,-2.827008962631225586e+00,1.480940461158752441e+00,7.512427330017089844e+00,4.615583121776580811e-01,-4.320887848734855652e-02
-5.854194641113281250e+00,3.250416278839111328e+00,-4.367261886596679688e+00,-2.266224145889282227e+00,-5.223966598510742188e+00,-5.457920551300048828e+00,-3.751641750335693359e+00,5.861220836639404297e+00,-6.596778869628906250e+00,3.322613239288330078e+00,2.930977344512939453e+00,1.105679392814636230e+00,6.418753147125244141e+00,3.234091281890869141e+00,-5.558770179748535156e+00,8.600221633911132812e+00,-3.602402687072753906e+00,-1.079410314559936523e-01,4.980824470520019531e+00,-6.086393594741821289e-01,-5.330400168895721436e-02
-8.811664581298828125e+00,9.661197066307067871e-01,-5.129807949066162109e+00,-1.634860634803771973e+00,-6.895184040069580078e+00,-5.038337707519531250e+00,-5.798498153686523438e+00,4.628270626068115234e+00,-8.231923103332519531e+00,1.984001278877258301e+00,1.234025001525878906e+00,2.769723176956176758e+00,3.375264644622802734e+00,9.530456066131591797e-01,-9.510801315307617188e+00,4.921884059906005859e+00,-4.692764282226562500e+00,-1.735108852386474609e+00,2.350390434265136719e+00,-1.663620948791503906e+00,-5.724673345685005188e-02
-1.016617012023925781e+01,-4.661563038825988770e-01,-6.126579761505126953e+00,-1.349296808242797852e+00,-8.103023529052734375e+00,-4.936042785644531250e+00,-7.347214221954345703e+00,3.370434999465942383e+00,-1.002564239501953125e+01,3.688459992408752441e-01,-3.388744294643402100e-01,3.909204244613647461e+00,2.585337460041046143e-01,-1.246687054634094238e+00,-1.333139514923095703e+01,1.420652270317077637e+00,-6.257296085357666016e+00,-3.571654796600341797e+00,-3.852102756500244141e-01,-2.599409818649291992e+00,-5.526453629136085510e-02
-1.012743186950683594e+01,-1.090481758117675781e+00,-7.478365898132324219e+00,-1.737485051155090332e+00,-8.593451499938964844e+00,-5.414575099945068359e+00,-8.363855361938476562e+00,1.958763241767883301e+00,-1.209491825103759766e+01,-1.606292247772216797e+00,-2.323723554611206055e+00,4.245526790618896484e+00,-2.954982042312622070e+00,-3.375092506408691406e+00,-1.680207824707031250e+01,-1.819787621498107910e+00,-8.380752563476562500e+00,-5.721670150756835938e+00,-3.148686647415161133e+00,-3.261309385299682617e+00,-4.991368576884269714e-02
-9.448843002319335938e+00,-1.290633201599121094e+00,-9.289150238037109375e+00,-2.890894889831542969e+00,-8.712235450744628906e+00,-6.598770141601562500e+00,-9.103601455688476562e+00,2.348950058221817017e-01,-1.446704769134521484e+01,-3.906845331192016602e+00,-4.883195877075195312e+00,3.787475585937500000e+00,-6.138415813446044922e+00,-5.387948036193847656e+00,-1.961734580993652344e+01,-4.727425575256347656e+00,-1.097608852386474609e+01,-8.120546340942382812e+00,-5.768983840942382812e+00,-3.454046487808227539e+00,-4.507192596793174744e-02
-8.955931663513183594e+00,-1.527509570121765137e+00,-1.152952384948730469e+01,-4.642204284667968750e+00,-9.116808891296386719e+00,-8.403670310974121094e+00,-9.901712417602539062e+00,-1.823792815208435059e+00,-1.697175598144531250e+01,-6.327790260314941406e+00,-7.597149848937988281e+00,2.789802312850952148e+00,-8.942558288574218750e+00,-7.141171932220458984e+00,-2.136334419250488281e+01,-7.156295776367187500e+00,-1.374780559539794922e+01,-1.051104736328125000e+01,-7.969882011413574219e+00,-3.019120216369628906e+00,-4.419456049799919128e-02
-9.092183113098144531e+00,-2.047168731689453125e+00,-1.395790767669677734e+01,-6.631111145019531250e+00,-1.023879528045654297e+01,-1.050505256652832031e+01,-1.094007205963134766e+01,-3.979759454727172852e+00,-1.924119949340820312e+01,-8.525832176208496094e+00,-9.604234695434570312e+00,1.593849062919616699e+00,-1.088217735290527344e+01,-8.405091285705566406e+00,-2.158359146118164062e+01,-8.884530067443847656e+00,-1.626640319824218750e+01,-1.250313091278076172e+01,-9.443482398986816406e+00,-1.938778400421142578e+00,-4.888467863202095032e-02
-9.725354194641113281e+00,-2.752289295196533203e+00,-1.613315963745117188e+01,-8.431501388549804688e+00,-1.186649703979492188e+01,-1.240184497833251953e+01,-1.213588142395019531e+01,-5.772627830505371094e+00,-2.081135368347167969e+01,-1.010761070251464844e+01,-1.007938194274902344e+01,5.271543264389038086e-01,-1.152697277069091797e+01,-8.955737113952636719e+00,-1.996903228759765625e+01,-9.688315391540527344e+00,-1.809436225891113281e+01,-1.371273899078369141e+01,-9.961713790893554688e+00,-3.981502354145050049e-01,-5.832989886403083801e-02
-1.031310844421386719e+01,-3.183808326721191406e+00,-1.754691696166992188e+01,-9.677496910095214844e+00,-1.315313434600830078e+01,-1.357390308380126953e+01,-1.318645668029785156e+01,-6.683201313018798828e+00,-2.128708076477050781e+01,-1.075724887847900391e+01,-8.687880516052246094e+00,-2.760041356086730957e-01,-1.069776248931884766e+01,-8.696105957031250000e+00,-1.653742408752441406e+01,-9.458662033081054688e+00,-1.892931365966796875e+01,-1.388981342315673828e+01,-9.454886436462402344e+00,1.292102694511413574e+00,-6.991979479789733887e-02
-1.030375766754150391e+01,-2.825739145278930664e+00,-1.782525634765625000e+01,-1.015715408325195312e+01,-1.302729320526123047e+01,-1.367273044586181641e+01,-1.370359992980957031e+01,-6.403807640075683594e+00,-2.050720214843750000e+01,-1.037223434448242188e+01,-5.813594341278076172e+00,-8.219009041786193848e-01,-8.584193229675292969e+00,-7.716069698333740234e+00,-1.177544879913330078e+01,-8.343483924865722656e+00,-1.870711898803710938e+01,-1.301281738281250000e+01,-8.067445755004882812e+00,2.804834842681884766e+00,-8.067565411329269409e-02
-9.458193778991699219e+00,-1.422843217849731445e+00,-1.687364959716796875e+01,-9.792390823364257812e+00,-1.075862503051757812e+01,-1.265324783325195312e+01,-1.338734149932861328e+01,-5.027201652526855469e+00,-1.860040092468261719e+01,-9.100374221801757812e+00,-2.400964260101318359e+00,-1.118065595626831055e+00,-5.693728923797607422e+00,-6.296657085418701172e+00,-6.548110008239746094e+00,-6.730075836181640625e+00,-1.758468818664550781e+01,-1.128993415832519531e+01,-6.116160869598388672e+00,3.858548402786254883e+00,-8.843113481998443604e-02
-8.015525817871093750e+00,9.238859415054321289e-01,-1.493682384490966797e+01,-8.630057334899902344e+00,-6.418869495391845703e+00,-1.082060718536376953e+01,-1.215216922760009766e+01,-3.048825263977050781e+00,-1.595011520385742188e+01,-7.296883583068847656e+00,4.943877458572387695e-01,-1.229754805564880371e+00,-2.659395933151245117e+00,-4.785945892333984375e+00,-1.848300933837890625e+00,-5.134183406829833984e+00,-1.589531421661376953e+01,-9.077703475952148438e+00,-3.983684539794921875e+00,4.327710628509521484e+00,-9.242802113294601440e-02
-6.540797710418701172e+00,3.832508087158203125e+00,-1.249898719787597656e+01,-6.816281318664550781e+00,-9.477197527885437012e-01,-8.668943405151367188e+00,-1.013653087615966797e+01,-1.117956995964050293e+00,-1.304376983642578125e+01,-5.393265247344970703e+00,2.210065126419067383e+00,-1.242304086685180664e+00,-4.308838106226176023e-04,-3.429301261901855469e+00,1.551334261894226074e+00,-3.964511156082153320e+00,-1.400550651550292969e+01,-6.757792949676513672e+00,-1.971579909324645996e+00,4.264310359954833984e+00,-9.291544556617736816e-02
-5.609742641448974609e+00,6.867831230163574219e+00,-1.008425712585449219e+01,-4.555196285247802734e+00,4.187069416046142578e+00,-6.680259227752685547e+00,-7.701478004455566406e+00,3.038949966430664062e-01,-1.031939601898193359e+01,-3.743541955947875977e+00,2.728513479232788086e+00,-1.195871591567993164e+00,2.043820142745971680e+00,-2.265240430831909180e+00,3.359499692916870117e+00,-3.365078449249267578e+00,-1.222450637817382812e+01,-4.631706714630126953e+00,-2.103548198938369751e-01,3.838260173797607422e+00,-9.065162390470504761e-02
-5.548295497894287109e+00,9.791143417358398438e+00,-8.042398452758789062e+00,-2.093324422836303711e+00,7.593012809753417969e+00,-5.119826793670654297e+00,-5.294928073883056641e+00,1.165829181671142578e+00,-8.044752120971679688e+00,-2.533665418624877930e+00,2.568180799484252930e+00,-1.143164277076721191e+00,3.524365425109863281e+00,-1.142549276351928711e+00,3.787562370300292969e+00,-3.199650526046752930e+00,-1.073442173004150391e+01,-2.869340658187866211e+00,1.336735725402832031e+00,3.244832992553710938e+00,-8.649226278066635132e-02
-6.265622138977050781e+00,1.265569591522216797e+01,-6.438530445098876953e+00,3.228129148483276367e-01,8.503302574157714844e+00,-3.949502468109130859e+00,-3.283362150192260742e+00,1.826419115066528320e+00,-6.273129463195800781e+00,-1.737411856651306152e+00,2.446468353271484375e+00,-1.179557442665100098e+00,4.675319671630859375e+00,1.755784600973129272e-01,3.398576021194458008e+00,-3.139317989349365234e+00,-9.553578376770019531e+00,-1.493426561355590820e+00,2.804001092910766602e+00,2.648869991302490234e+00,-8.133638650178909302e-02
-7.311556816101074219e+00,1.565245819091796875e+01,-5.125606536865234375e+00,2.462310314178466797e+00,6.988504886627197266e+00,-2.907480478286743164e+00,-1.869022369384765625e+00,2.744910478591918945e+00,-4.930439949035644531e+00,-1.210549354553222656e+00,2.871291637420654297e+00,-1.463172674179077148e+00,5.703330516815185547e+00,1.801839947700500488e+00,2.744936466217041016e+00,-2.911611557006835938e+00,-8.605238914489746094e+00,-4.465355277061462402e-01,4.264930725097656250e+00,2.146739244461059570e+00,-7.622383534908294678e-02
-8.102353096008300781e+00,1.879244804382324219e+01,-3.940824270248413086e+00,4.129958152770996094e+00,3.767206907272338867e+00,-1.751026511192321777e+00,-1.103487133979797363e+00,4.058172225952148438e+00,-3.972489595413208008e+00,-8.350704908370971680e-01,3.787645816802978516e+00,-2.180995464324951172e+00,6.584856510162353516e+00,3.562196731567382812e+00,2.030906677246093750e+00,-2.528208017349243164e+00,-7.825263500213623047e+00,2.988509237766265869e-01,5.600420951843261719e+00,1.721956968307495117e+00,-7.219444960355758667e-02
-8.088994979858398438e+00,2.178737258911132812e+01,-2.850572109222412109e+00,5.233170986175537109e+00,-1.174034252762794495e-01,-4.021193981170654297e-01,-8.455940485000610352e-01,5.425729274749755859e+00,-3.418776273727416992e+00,-5.632952451705932617e-01,4.646655082702636719e+00,-3.386988162994384766e+00,7.110633373260498047e+00,5.057216167449951172e+00,1.082419037818908691e+00,-2.240169048309326172e+00,-7.182728767395019531e+00,7.415363192558288574e-01,6.550722122192382812e+00,1.280690670013427734e+00,-6.998478621244430542e-02
-6.892114162445068359e+00,2.411757659912109375e+01,-1.990344524383544922e+00,5.831070423126220703e+00,-3.675061941146850586e+00,9.936007261276245117e-01,-8.143754005432128906e-01,6.194909572601318359e+00,-3.326490640640258789e+00,-3.892637789249420166e-01,4.832734584808349609e+00,-4.866556644439697266e+00,7.054393291473388672e+00,5.868920326232910156e+00,-4.451077282428741455e-01,-2.366672754287719727e+00,-6.693669795989990234e+00,8.827170133590698242e-01,6.871290683746337891e+00,7.354477643966674805e-01,-6.968149542808532715e-02
-4.379467010498046875e+00,2.525605201721191406e+01,-1.603819727897644043e+00,6.105479240417480469e+00,-6.220110893249511719e+00,2.136183977127075195e+00,-6.759275794029235840e-01,5.800138950347900391e+00,-3.719029426574707031e+00,-2.927120625972747803e-01,4.056817531585693359e+00,-6.125256538391113281e+00,6.345510482788085938e+00,5.801872730255126953e+00,-2.780802726745605469e+00,-3.055630922317504883e+00,-6.384428501129150391e+00,7.654652595520019531e-01,6.493704319000244141e+00,1.521995943039655685e-02,-7.020141929388046265e-02
-7.166928052902221680e-01,2.496776008605957031e+01,-1.897914648056030273e+00,6.276148319244384766e+00,-7.413837432861328125e+00,2.737817525863647461e+00,-2.442959845066070557e-01,4.126041412353515625e+00,-4.530102252960205078e+00,-1.985443383455276489e-01,2.482748031616210938e+00,-6.549424648284912109e+00,5.148779869079589844e+00,5.015846252441406250e+00,-5.787899017333984375e+00,-4.135777473449707031e+00,-6.258441448211669922e+00,4.950682222843170166e-01,5.601687908172607422e+00,-8.723847270011901855e-01,-6.980064511299133301e-02
3.580588340759277344e+00,2.341612815856933594e+01,-2.930397987365722656e+00,6.474704265594482422e+00,-7.268002986907958984e+00,2.633788585662841797e+00,3.760047256946563721e-01,1.602451920509338379e+00,-5.618031978607177734e+00,-1.020889449864625931e-02,6.161001920700073242e-01,-5.736226558685302734e+00,3.788561820983886719e+00,3.938804626464843750e+00,-8.990376472473144531e+00,-5.182838916778564453e+00,-6.308835983276367188e+00,1.851884722709655762e-01,4.543685913085937500e+00,-1.844945907592773438e+00,-6.721187382936477661e-02
7.678834915161132812e+00,2.107858085632324219e+01,-4.585732460021972656e+00,6.650950908660888672e+00,-6.108382701873779297e+00,1.794622778892517090e+00,7.899909615516662598e-01,-1.019547224044799805e+00,-6.832042217254638672e+00,3.009021878242492676e-01,-9.895679354667663574e-01,-3.787312507629394531e+00,2.589215517044067383e+00,3.054346799850463867e+00,-1.176123905181884766e+01,-5.729723930358886719e+00,-6.552793025970458984e+00,-1.019587963819503784e-01,3.671942949295043945e+00,-2.747766733169555664e+00,-6.244593858718872070e-02
1.061760330200195312e+01,1.846192169189453125e+01,-6.566671848297119141e+00,6.585137367248535156e+00,-4.493617534637451172e+00,3.295500278472900391e-01,5.253112316131591797e-01,-3.009235143661499023e+00,-8.030454635620117188e+00,6.871090531349182129e-01,-1.990184664726257324e+00,-1.289991736412048340e+00,1.779623985290527344e+00,2.713402271270751953e+00,-1.350190925598144531e+01,-5.435845851898193359e+00,-7.007492065429687500e+00,-3.520162105560302734e-01,3.222133636474609375e+00,-3.403326034545898438e+00,-5.687845498323440552e-02
1.159140491485595703e+01,1.588933372497558594e+01,-8.462533950805664062e+00,6.008432388305664062e+00,-3.068201780319213867e+00,-1.579378962516784668e+00,-6.935728788375854492e-01,-3.967316627502441406e+00,-9.067692756652832031e+00,1.059011936187744141e+00,-2.386920452117919922e+00,9.048897624015808105e-01,1.455264210700988770e+00,3.054346799850463867e+00,-1.380031013488769531e+01,-4.166916847229003906e+00,-7.659189701080322266e+00,-5.422512888908386230e-01,3.288021087646484375e+00,-3.688627719879150391e+00,-5.274075269699096680e-02
1.024625015258789062e+01,1.339754104614257812e+01,-9.848980903625488281e+00,4.757975101470947266e+00,-2.391952753067016602e+00,-3.727574348449707031e+00,-2.748573541641235352e+00,-3.922070741653442383e+00,-9.777380943298339844e+00,1.345091104507446289e+00,-2.375217437744140625e+00,2.044370889663696289e+00,1.642294287681579590e+00,4.034383296966552734e+00,-1.248414993286132812e+01,-1.989107847213745117e+00,-8.430002212524414062e+00,-6.032700538635253906e-01,3.860736131668090820e+00,-3.597331285476684570e+00,-5.198253691196441650e-02
6.859986782073974609e+00,1.089289474487304688e+01,-1.036259746551513672e+01,2.934159755706787109e+00,-2.695382833480834961e+00,-5.894841670989990234e+00,-5.096757888793945312e+00,-3.190218687057495117e+00,-9.960652351379394531e+00,1.589450359344482422e+00,-2.169242382049560547e+00,1.896288514137268066e+00,2.374719381332397461e+00,5.550800800323486328e+00,-9.587178230285644531e+00,9.730238914489746094e-01,-9.142401695251464844e+00,-3.699629008769989014e-01,4.931408882141113281e+00,-3.205517053604125977e+00,-5.525370314717292786e-02
2.296880722045898438e+00,8.382739067077636719e+00,-9.800665855407714844e+00,9.274049401283264160e-01,-3.791494369506835938e+00,-7.793367862701416016e+00,-6.999737262725830078e+00,-2.128071546554565430e+00,-9.436834335327148438e+00,1.954201340675354004e+00,-1.881345748901367188e+00,8.634769320487976074e-01,3.720550775527954102e+00,7.555096626281738281e+00,-5.292341232299804688e+00,4.631898880004882812e+00,-9.545560836791992188e+00,3.598697185516357422e-01,6.555790424346923828e+00,-2.629842042922973633e+00,-6.167688965797424316e-02
-2.263553857803344727e+00,6.146184444427490234e+00,-8.173690795898437500e+00,-6.878151297569274902e-01,-5.174571037292480469e+00,-9.060785293579101562e+00,-7.830424308776855469e+00,-9.358423352241516113e-01,-8.126639366149902344e+00,2.657479286193847656e+00,-1.462373971939086914e+00,-2.295715361833572388e-01,5.739951610565185547e+00,1.006153678894042969e+01,6.465992331504821777e-02,8.954431533813476562e+00,-9.401248931884765625e+00,1.723819255828857422e+00,8.814973831176757812e+00,-1.978086590766906738e+00,-6.933488696813583374e-02
-5.691226482391357422e+00,4.693709850311279297e+00,-5.754759788513183594e+00,-1.393916130065917969e+00,-6.250689029693603516e+00,-9.385008811950683594e+00,-7.378432750701904297e+00,3.400917053222656250e-01,-6.154848098754882812e+00,3.823251724243164062e+00,-8.140211105346679688e-01,-5.935027003288269043e-01,8.363603591918945312e+00,1.304016304016113281e+01,5.974057197570800781e+00,1.383941936492919922e+01,-8.605238914489746094e+00,3.672831296920776367e+00,1.170642375946044922e+01,-1.299703001976013184e+00,-7.625632733106613159e-02
-7.256788730621337891e+00,4.519266128540039062e+00,-3.058539390563964844e+00,-9.722633957862854004e-01,-6.629388332366943359e+00,-8.639469146728515625e+00,-5.901655673980712891e+00,1.697468280792236328e+00,-3.849009037017822266e+00,5.364503383636474609e+00,8.828947693109512329e-02,1.105158627033233643e-01,1.132338619232177734e+01,1.630267143249511719e+01,1.175201606750488281e+01,1.902023124694824219e+01,-7.286954879760742188e+00,5.912580013275146484e+00,1.501600646972656250e+01,-5.858152508735656738e-01,-8.121723681688308716e-02
-6.818645000457763672e+00,5.823004245758056641e+00,-7.215349674224853516e-01,4.120515882968902588e-01,-6.254217147827148438e+00,-6.969806194305419922e+00,-3.947097539901733398e+00,3.106877565383911133e+00,-1.656252145767211914e+00,7.001114368438720703e+00,1.148592233657836914e+00,1.669145226478576660e+00,1.418115234375000000e+01,1.948101425170898438e+01,1.663477325439453125e+01,2.402782821655273438e+01,-5.792288780212402344e+00,7.994397640228271484e+00,1.832939147949218750e+01,1.940089017152786255e-01,-8.403347432613372803e-02
-4.801581382751464844e+00,8.382739067077636719e+00,6.733152866363525391e-01,2.278255462646484375e+00,-5.381561756134033203e+00,-4.804272651672363281e+00,-2.086195468902587891e+00,4.452942848205566406e+00,-4.210642538964748383e-03,8.356414794921875000e+00,2.173785448074340820e+00,3.468722105026245117e+00,1.643859100341796875e+01,2.207304763793945312e+01,1.991540336608886719e+01,2.828613662719726562e+01,-4.567922592163085938e+00,9.462437629699707031e+00,2.110933876037597656e+01,1.100633740425109863e+00,-8.546325564384460449e-02
-2.037802934646606445e+00,1.157047080993652344e+01,7.699465155601501465e-01,4.002792835235595703e+00,-4.410115242004394531e+00,-2.742768049240112305e+00,-7.030742168426513672e-01,5.563729286193847656e+00,8.003634214401245117e-01,9.089491844177246094e+00,2.925125837326049805e+00,4.788913726806640625e+00,1.766932678222656250e+01,2.359517097473144531e+01,2.109301948547363281e+01,3.124826812744140625e+01,-4.011288166046142578e+00,1.000323200225830078e+01,2.282621574401855469e+01,2.168295383453369141e+00,-8.668722957372665405e-02
4.948813319206237793e-01,1.449745559692382812e+01,-4.610508680343627930e-01,5.050231933593750000e+00,-3.638603210449218750e+00,-1.333177447319030762e+00,6.789036095142364502e-02,6.305761814117431641e+00,6.261907219886779785e-01,9.029892921447753906e+00,3.170891523361206055e+00,5.229395866394042969e+00,1.761832046508789062e+01,2.375066375732421875e+01,1.999533271789550781e+01,3.257168960571289062e+01,-4.329692363739013672e+00,9.529438972473144531e+00,2.312777900695800781e+01,3.356417655944824219e+00,-8.902687579393386841e-02
1.889460682868957520e+00,1.628412818908691406e+01,-2.754991292953491211e+00,5.113814353942871094e+00,-3.169345140457153320e+00,-9.378678798675537109e-01,2.090528905391693115e-01,6.572712421417236328e+00,-5.202298760414123535e-01,8.187150955200195312e+00,2.695744752883911133e+00,4.771344661712646484e+00,1.623978996276855469e+01,2.250101089477539062e+01,1.679285430908203125e+01,3.217660903930664062e+01,-5.512826442718505859e+00,8.151132583618164062e+00,2.190759086608886719e+01,4.544539928436279297e+00,-9.347869455814361572e-02
1.522114515304565430e+00,1.632268905639648438e+01,-5.656027793884277344e+00,4.144459247589111328e+00,-2.935304164886474609e+00,-1.646997690200805664e+00,-2.483679801225662231e-01,6.297843933105468750e+00,-2.541413545608520508e+00,6.682851314544677734e+00,1.381484270095825195e+00,3.677041292190551758e+00,1.368284225463867188e+01,2.005448532104492188e+01,1.196338272094726562e+01,3.025375556945800781e+01,-7.379726886749267578e+00,6.071707248687744141e+00,1.931517028808593750e+01,5.580501556396484375e+00,-1.004867926239967346e-01
-8.061916828155517578e-01,1.442767810821533203e+01,-8.673651695251464844e+00,2.288294792175292969e+00,-2.896493434906005859e+00,-3.281984090805053711e+00,-1.350521564483642578e+00,5.463057041168212891e+00,-5.289183616638183594e+00,4.649305343627929688e+00,-7.320992946624755859e-01,2.340535402297973633e+00,1.025483036041259766e+01,1.677913856506347656e+01,6.228053092956542969e+00,2.719625854492187500e+01,-9.672693252563476562e+00,3.489774942398071289e+00,1.570909309387207031e+01,6.341305255889892578e+00,-1.093471050262451172e-01
-4.853677749633789062e+00,1.092594718933105469e+01,-1.138457679748535156e+01,-1.880785226821899414e-01,-3.195219039916992188e+00,-5.496064662933349609e+00,-3.191063642501831055e+00,4.149795532226562500e+00,-8.539975166320800781e+00,2.225976467132568359e+00,-3.378174781799316406e+00,1.052972078323364258e+00,6.393902778625488281e+00,1.310435771942138672e+01,4.483178257942199707e-01,2.349651336669921875e+01,-1.212715244293212891e+01,5.776230692863464355e-01,1.157464885711669922e+01,6.739459514617919922e+00,-1.176658272743225098e-01
-9.935075759887695312e+00,6.625446319580078125e+00,-1.344954395294189453e+01,-2.934398889541625977e+00,-4.116094112396240234e+00,-7.841914653778076172e+00,-5.726559638977050781e+00,2.588812351226806641e+00,-1.192854499816894531e+01,-4.190636873245239258e-01,-6.019568920135498047e+00,-9.403855353593826294e-02,2.620604991912841797e+00,9.455254554748535156e+00,-4.464634418487548828e+00,1.967999649047851562e+01,-1.444646167755126953e+01,-2.445798397064208984e+00,7.455409049987792969e+00,6.793983936309814453e+00,-1.212186217308044434e-01
-1.501914501190185547e+01,2.642617225646972656e+00,-1.461436939239501953e+01,-5.522320747375488281e+00,-5.882574081420898438e+00,-9.788987159729003906e+00,-8.726263046264648438e+00,1.170353770256042480e+00,-1.497396850585937500e+01,-2.998543977737426758e+00,-7.995055675506591797e+00,-1.099241495132446289e+00,-5.484418869018554688e-01,6.198452472686767578e+00,-7.752369403839111328e+00,1.618849372863769531e+01,-1.628701972961425781e+01,-5.257448673248291016e+00,3.848065376281738281e+00,6.611391067504882812e+00,-1.144813150167465210e-01
-1.901186370849609375e+01,9.390033781528472900e-02,-1.473410797119140625e+01,-7.468839168548583984e+00,-8.418214797973632812e+00,-1.078419685363769531e+01,-1.182776737213134766e+01,3.276490867137908936e-01,-1.720441818237304688e+01,-5.142945766448974609e+00,-8.820125579833984375e+00,-1.922478914260864258e+00,-2.767951965332031250e+00,3.575035572052001953e+00,-9.048991203308105469e+00,1.325360965728759766e+01,-1.729262733459472656e+01,-7.466089725494384766e+00,1.078253746032714844e+00,6.343841552734375000e+00,-9.183228015899658203e-02
-2.112376976013183594e+01,-2.200986295938491821e-01,-1.384447097778320312e+01,-8.298758506774902344e+00,-1.122788238525390625e+01,-1.035074329376220703e+01,-1.465237426757812500e+01,3.661080896854400635e-01,-1.834564018249511719e+01,-6.486325740814208984e+00,-8.467862129211425781e+00,-2.375510454177856445e+00,-3.984300851821899414e+00,1.653479337692260742e+00,-8.551656723022460938e+00,1.084809398651123047e+01,-1.720100021362304688e+01,-8.741501808166503906e+00,-7.818027138710021973e-01,6.132084369659423828e+00,-4.956707358360290527e-02
-2.109705352783203125e+01,1.948514223098754883e+00,-1.219543838500976562e+01,-7.656240463256835938e+00,-1.347655773162841797e+01,-8.226820945739746094e+00,-1.686075401306152344e+01,1.318534016609191895e+00,-1.841452980041503906e+01,-6.810548782348632812e+00,-7.388833999633789062e+00,-2.139582633972167969e+00,-4.435527324676513672e+00,3.310718834400177002e-01,-6.985054016113281250e+00,8.687800407409667969e+00,-1.595830821990966797e+01,-8.947291374206542969e+00,-1.912027716636657715e+00,6.081364154815673828e+00,1.292087603360414505e-02
-1.926032257080078125e+01,6.212289810180664062e+00,-1.023760700225830078e+01,-5.454276084899902344e+00,-1.433039569854736328e+01,-4.514725685119628906e+00,-1.814071846008300781e+01,2.911189317703247070e+00,-1.768404388427734375e+01,-6.128726959228515625e+00,-6.252461433410644531e+00,-9.750030040740966797e-01,-4.515309333801269531e+00,-6.161541342735290527e-01,-5.345626831054687500e+00,6.365972042083740234e+00,-1.378102016448974609e+01,-8.217458724975585938e+00,-2.626654386520385742e+00,6.262689113616943359e+00,9.251204133033752441e-02
-1.635895729064941406e+01,1.170084476470947266e+01,-8.533956527709960938e+00,-1.986237883567810059e+00,-1.336600589752197266e+01,2.081830650568008423e-01,-1.817736625671386719e+01,4.675778865814208984e+00,-1.652852439880371094e+01,-4.703099250793457031e+00,-5.614641189575195312e+00,1.071796178817749023e+00,-4.584628105163574219e+00,-1.447829961776733398e+00,-4.526801586151123047e+00,3.547859907150268555e+00,-1.112498188018798828e+01,-6.909741878509521484e+00,-3.224710702896118164e+00,6.698883533477783203e+00,1.825449466705322266e-01
-1.327725696563720703e+01,1.733262825012207031e+01,-7.597054481506347656e+00,2.081930398941040039e+00,-1.083154201507568359e+01,4.977904796600341797e+00,-1.668972969055175781e+01,6.121385097503662109e+00,-1.525992298126220703e+01,-2.960400104522705078e+00,-5.659112930297851562e+00,3.533978700637817383e+00,-4.812202930450439453e+00,-2.377937555313110352e+00,-4.985059261322021484e+00,1.069604083895683289e-01,-8.543390274047851562e+00,-5.472809314727783203e+00,-3.884853363037109375e+00,7.378534793853759766e+00,2.735310494899749756e-01
-1.072453594207763672e+01,2.217665863037109375e+01,-7.707340240478515625e+00,5.882382392883300781e+00,-7.626708984375000000e+00,8.705604553222656250e+00,-1.356922340393066406e+01,6.918843746185302734e+00,-1.402381706237792969e+01,-1.336900949478149414e+00,-6.174050331115722656e+00,5.599601745605468750e+00,-5.153565406799316406e+00,-3.524879693984985352e+00,-6.635143756866455078e+00,-3.851630926132202148e+00,-6.504688739776611328e+00,-4.282344341278076172e+00,-4.634957790374755859e+00,8.239511489868164062e+00,3.543137013912200928e-01
-9.074817657470703125e+00,2.565451812744140625e+01,-8.808094978332519531e+00,8.607508659362792969e+00,-4.960523128509521484e+00,1.056425285339355469e+01,-9.117175102233886719e+00,6.981056690216064453e+00,-1.283710289001464844e+01,-1.568244695663452148e-01,-6.787293910980224609e+00,6.425349235534667969e+00,-5.462230205535888672e+00,-4.892936706542968750e+00,-8.981495857238769531e+00,-8.057391166687011719e+00,-5.244817256927490234e+00,-3.522600650787353516e+00,-5.412937641143798828e+00,9.152476310729980469e+00,4.136279523372650146e-01
-8.386878967285156250e+00,2.755320167541503906e+01,-1.050964450836181641e+01,9.746417045593261719e+00,-3.833833456039428711e+00,1.027643966674804688e+01,-4.090974807739257812e+00,6.414351940155029297e+00,-1.170627975463867188e+01,4.284458160400390625e-01,-7.258929729461669922e+00,5.486657619476318359e+00,-5.645336627960205078e+00,-6.426472663879394531e+00,-1.140067195892333984e+01,-1.222033405303955078e+01,-4.747740745544433594e+00,-3.195970535278320312e+00,-6.171911716461181641e+00,9.903136253356933594e+00,4.423102438449859619e-01
-8.565876960754394531e+00,2.789290809631347656e+01,-1.224585533142089844e+01,9.215447425842285156e+00,-4.641804218292236328e+00,8.197597503662109375e+00,3.787193894386291504e-01,5.364647388458251953e+00,-1.073663139343261719e+01,4.034138917922973633e-01,-7.650984287261962891e+00,2.767213344573974609e+00,-5.773510932922363281e+00,-8.048454284667968750e+00,-1.345039939880371094e+01,-1.617697906494140625e+01,-4.830204963684082031e+00,-3.215113639831542969e+00,-6.960028171539306641e+00,1.022774600982666016e+01,4.356054365634918213e-01
-9.450179100036621094e+00,2.681319236755371094e+01,-1.347895336151123047e+01,7.354820728302001953e+00,-7.063364028930664062e+00,5.168624401092529297e+00,3.149034023284912109e+00,3.917910099029541016e+00,-1.015042304992675781e+01,-1.770884096622467041e-01,-8.247842788696289062e+00,-1.202146172523498535e+00,-6.059941768646240234e+00,-9.718938827514648438e+00,-1.502588367462158203e+01,-1.992148780822753906e+01,-5.258561134338378906e+00,-3.505850315093994141e+00,-7.916665077209472656e+00,9.905672073364257812e+00,3.943692445755004883e-01
-1.087414550781250000e+01,2.456011199951171875e+01,-1.387808227539062500e+01,4.809287548065185547e+00,-1.020351219177246094e+01,2.186464548110961914e+00,3.518228292465209961e+00,2.075271368026733398e+00,-1.018161773681640625e+01,-1.223661303520202637e+00,-9.335062980651855469e+00,-5.522887706756591797e+00,-6.713892936706542969e+00,-1.141652774810791016e+01,-1.632072830200195312e+01,-2.349862289428710938e+01,-5.839247703552246094e+00,-4.044251441955566406e+00,-9.150789260864257812e+00,8.900142669677734375e+00,3.250465095043182373e-01
-1.265210056304931641e+01,2.151377105712890625e+01,-1.337707042694091797e+01,2.327336788177490234e+00,-1.302258872985839844e+01,5.387363955378532410e-02,1.574528813362121582e+00,-1.361212730407714844e-01,-1.088220882415771484e+01,-2.603993177413940430e+00,-1.088923740386962891e+01,-9.277653694152832031e+00,-7.761522293090820312e+00,-1.308273220062255859e+01,-1.761379814147949219e+01,-2.688113594055175781e+01,-6.415352344512939453e+00,-4.802798748016357422e+00,-1.062819194793701172e+01,7.369658946990966797e+00,2.382739335298538208e-01
-1.448615932464599609e+01,1.824708175659179688e+01,-1.213767051696777344e+01,5.570644736289978027e-01,-1.472320842742919922e+01,-8.598462343215942383e-01,-1.810657024383544922e+00,-2.551120519638061523e+00,-1.201823043823242188e+01,-4.108293056488037109e+00,-1.249841690063476562e+01,-1.182391643524169922e+01,-8.970024108886718750e+00,-1.455207443237304688e+01,-1.902587318420410156e+01,-2.986662101745605469e+01,-6.825383663177490234e+00,-5.667829990386962891e+00,-1.211066150665283203e+01,5.648973941802978516e+00,1.461721807718276978e-01
-1.595420837402343750e+01,1.548535919189453125e+01,-1.046448040008544922e+01,-1.244959607720375061e-01,-1.498782825469970703e+01,-6.795296072959899902e-01,-5.369581699371337891e+00,-4.851873874664306641e+00,-1.315165328979492188e+01,-5.479088783264160156e+00,-1.358212566375732422e+01,-1.295586776733398438e+01,-9.944411277770996094e+00,-1.559487915039062500e+01,-2.044505119323730469e+01,-3.211254882812500000e+01,-6.891813278198242188e+00,-6.427573680877685547e+00,-1.325102329254150391e+01,4.118489742279052734e+00,5.993035808205604553e-02
-1.658737945556640625e+01,1.389149284362792969e+01,-8.708312988281250000e+00,3.216974437236785889e-01,-1.396933746337890625e+01,1.474995911121368408e-01,-7.970229625701904297e+00,-6.618725776672363281e+00,-1.382104873657226562e+01,-6.469637870788574219e+00,-1.368394279479980469e+01,-1.280778598785400391e+01,-1.031716346740722656e+01,-1.597576618194580078e+01,-2.159247207641601562e+01,-3.328416824340820312e+01,-6.464601993560791016e+00,-6.828383445739746094e+00,-1.374391269683837891e+01,3.030539989471435547e+00,-1.225194334983825684e-02
-1.606107330322265625e+01,1.385109519958496094e+01,-7.230485916137695312e+00,1.597810506820678711e+00,-1.213229274749755859e+01,1.057751893997192383e+00,-9.126676559448242188e+00,-7.494233608245849609e+00,-1.381844902038574219e+01,-6.964316368103027344e+00,-1.277226924896240234e+01,-1.169842338562011719e+01,-9.953566551208496094e+00,-1.556634807586669922e+01,-2.218572235107421875e+01,-3.321604919433593750e+01,-5.533442497253417969e+00,-6.736257076263427734e+00,-1.348543071746826172e+01,2.440916776657104492e+00,-6.586875021457672119e-02
-1.435658645629882812e+01,1.531275081634521484e+01,-6.368157863616943359e+00,3.170642137527465820e+00,-1.005532550811767578e+01,1.600435614585876465e+00,-9.171468734741210938e+00,-7.348315715789794922e+00,-1.332712554931640625e+01,-7.064444065093994141e+00,-1.129299545288085938e+01,-9.962847709655761719e+00,-9.031495094299316406e+00,-1.443795108795166016e+01,-2.208980751037597656e+01,-3.201329040527343750e+01,-4.307930946350097656e+00,-6.256481647491455078e+00,-1.263269424438476562e+01,2.269735813140869141e+00,-9.988021850585937500e-02
-1.185729789733886719e+01,1.780087089538574219e+01,-6.380761623382568359e+00,4.436716079711914062e+00,-8.261795043945312500e+00,1.586565017700195312e+00,-9.015375137329101562e+00,-6.298611164093017578e+00,-1.283450317382812500e+01,-7.040604114532470703e+00,-9.950647354125976562e+00,-7.895969867706298828e+00,-7.944628715515136719e+00,-1.282595443725585938e+01,-2.134558105468750000e+01,-2.998923301696777344e+01,-3.185499668121337891e+00,-5.709705352783203125e+00,-1.151387214660644531e+01,2.358496427536010742e+00,-1.160952374339103699e-01
-9.301904678344726562e+00,2.050750541687011719e+01,-7.412194728851318359e+00,4.879562854766845703e+00,-7.152746677398681641e+00,1.035212278366088867e+00,-9.661464691162109375e+00,-4.704824924468994141e+00,-1.291898918151855469e+01,-7.249203681945800781e+00,-9.381875991821289062e+00,-5.785169124603271484e+00,-7.133729457855224609e+00,-1.107701015472412109e+01,-2.013244056701660156e+01,-2.757204055786132812e+01,-2.652917385101318359e+00,-5.529042243957519531e+00,-1.048501300811767578e+01,2.571521520614624023e+00,-1.184673756361007690e-01
-7.557344913482666016e+00,2.253840065002441406e+01,-9.424644470214843750e+00,4.181270122528076172e+00,-6.957516193389892578e+00,3.653550148010253906e-02,-1.167981815338134766e+01,-3.109907150268554688e+00,-1.396142673492431641e+01,-7.978705406188964844e+00,-9.910856246948242188e+00,-4.010690689086914062e+00,-6.891767501831054688e+00,-9.533488273620605469e+00,-1.863510894775390625e+01,-2.513733100891113281e+01,-3.101889848709106445e+00,-6.075818538665771484e+00,-9.800795555114746094e+00,2.850482940673828125e+00,-1.121633350849151611e-01
-7.198013305664062500e+00,2.327290153503417969e+01,-1.208095169067382812e+01,2.419921875000000000e+00,-7.630237102508544922e+00,-1.248220562934875488e+00,-1.483290004730224609e+01,-1.975366592407226562e+00,-1.588772487640380859e+01,-9.229109764099121094e+00,-1.129416561126708984e+01,-2.843601226806640625e+00,-7.157271862030029297e+00,-8.340896606445312500e+00,-1.683760070800781250e+01,-2.280577087402343750e+01,-4.559905052185058594e+00,-7.393106460571289062e+00,-9.430811882019042969e+00,3.230885028839111328e+00,-1.024473235011100769e-01
-8.251962661743164062e+00,2.254390907287597656e+01,-1.480973243713378906e+01,3.501817956566810608e-02,-8.836900711059570312e+00,-2.645674467086791992e+00,-1.820451164245605469e+01,-1.572678208351135254e+00,-1.817666625976562500e+01,-1.069407367706298828e+01,-1.283195590972900391e+01,-2.373000621795654297e+00,-7.549642086029052734e+00,-7.402229785919189453e+00,-1.452499675750732422e+01,-2.044891166687011719e+01,-6.660454750061035156e+00,-9.157865524291992188e+00,-9.102641105651855469e+00,3.772323846817016602e+00,-9.338121116161346436e-02
-1.016884136199951172e+01,2.071133041381835938e+01,-1.697658157348632812e+01,-2.309728145599365234e+00,-1.005062103271484375e+01,-4.011919975280761719e+00,-2.058662986755371094e+01,-1.949350237846374512e+00,-2.010426521301269531e+01,-1.188368606567382812e+01,-1.372724437713623047e+01,-2.536142110824584961e+00,-7.595418930053710938e+00,-6.464989662170410156e+00,-1.147527217864990234e+01,-1.784488105773925781e+01,-8.767876625061035156e+00,-1.083169460296630859e+01,-8.488112449645996094e+00,4.492551803588867188e+00,-8.682804554700851440e-02
-1.204297447204589844e+01,1.846559524536132812e+01,-1.805317878723144531e+01,-3.949488878250122070e+00,-1.065748119354248047e+01,-5.177042484283447266e+00,-2.099382972717285156e+01,-2.905169486999511719e+00,-2.104921722412109375e+01,-1.232710838317871094e+01,-1.337732124328613281e+01,-3.024312019348144531e+00,-6.955854892730712891e+00,-5.283810138702392578e+00,-7.674217224121093750e+00,-1.485161018371582031e+01,-1.023734474182128906e+01,-1.188576507568359375e+01,-7.370558738708496094e+00,5.371280193328857422e+00,-8.234372735023498535e-02
-1.306352806091308594e+01,1.654120254516601562e+01,-1.781475257873535156e+01,-4.468188762664794922e+00,-1.020939254760742188e+01,-5.932985782623291016e+00,-1.914107131958007812e+01,-4.067988872528076172e+00,-2.077886009216308594e+01,-1.178236579895019531e+01,-1.174005413055419922e+01,-3.415851593017578125e+00,-5.628334045410156250e+00,-3.764539480209350586e+00,-3.469965934753417969e+00,-1.152942943572998047e+01,-1.067257308959960938e+01,-1.205087471008300781e+01,-5.798126697540283203e+00,6.351449489593505859e+00,-7.784858345985412598e-02
-1.294196987152099609e+01,1.548535919189453125e+01,-1.644301033020019531e+01,-3.876982450485229492e+00,-8.668721199035644531e+00,-6.109834671020507812e+00,-1.561743736267089844e+01,-5.041906356811523438e+00,-1.957914733886718750e+01,-1.038177013397216797e+01,-9.425177574157714844e+00,-3.453499794006347656e+00,-4.007843017578125000e+00,-2.058391332626342773e+00,4.305558800697326660e-01,-8.183895111083984375e+00,-1.012510204315185547e+01,-1.146700859069824219e+01,-4.107857227325439453e+00,7.355710983276367188e+00,-7.137124240398406982e-02
-1.198286342620849609e+01,1.545414257049560547e+01,-1.445366764068603516e+01,-2.601984739303588867e+00,-6.441215038299560547e+00,-5.643438816070556641e+00,-1.163638305664062500e+01,-5.511332511901855469e+00,-1.809997940063476562e+01,-8.560400009155273438e+00,-7.420432567596435547e+00,-3.157335042953491211e+00,-2.713020086288452148e+00,-4.934712350368499756e-01,3.203194618225097656e+00,-5.227601528167724609e+00,-9.020996093750000000e+00,-1.058881664276123047e+01,-2.781236648559570312e+00,8.315591812133789062e+00,-6.246760115027427673e-02
-1.083941459655761719e+01,1.622169494628906250e+01,-1.248008060455322266e+01,-1.245556831359863281e+00,-4.186658859252929688e+00,-4.556337356567382812e+00,-8.465655326843261719e+00,-5.290759086608886719e+00,-1.700164985656738281e+01,-6.817700862884521484e+00,-6.587170600891113281e+00,-2.741951465606689453e+00,-2.240867376327514648e+00,6.392056345939636230e-01,4.311539649963378906e+00,-2.936912298202514648e+00,-7.899710655212402344e+00,-9.905645370483398438e+00,-2.181913375854492188e+00,9.174032211303710938e+00,-5.236164480447769165e-02
-1.009136486053466797e+01,1.735099029541015625e+01,-1.105792140960693359e+01,-3.018578290939331055e-01,-2.571893692016601562e+00,-2.976832866668701172e+00,-6.893865108489990234e+00,-4.329283714294433594e+00,-1.665720558166503906e+01,-5.491008758544921875e+00,-7.241374969482421875e+00,-2.444531917572021484e+00,-2.714327812194824219e+00,1.258326292037963867e+00,3.766247987747192383e+00,-1.290418505668640137e+00,-7.132334232330322266e+00,-9.695070266723632812e+00,-2.368172407150268555e+00,9.824520111083984375e+00,-4.315472021698951721e-02
-9.921717643737792969e+00,1.837378311157226562e+01,-1.048758792877197266e+01,3.501817956566810608e-02,-2.036774873733520508e+00,-1.116450667381286621e+00,-6.980734348297119141e+00,-2.708349943161010742e+00,-1.704324340820312500e+01,-4.661379337310791016e+00,-9.060039520263671875e+00,-2.322803258895874023e+00,-3.858742237091064453e+00,1.526516795158386230e+00,2.100178241729736328e+00,1.743473857641220093e-02,-6.797895431518554688e+00,-9.916413307189941406e+00,-3.089134216308593750e+00,1.008572959899902344e+01,-3.657989203929901123e-02
-9.999194145202636719e+00,1.895403671264648438e+01,-1.077748107910156250e+01,-8.656951785087585449e-02,-2.635402441024780273e+00,7.820754647254943848e-01,-8.107319831848144531e+00,-6.530555486679077148e-01,-1.780752372741699219e+01,-4.186964511871337891e+00,-1.125437450408935547e+01,-2.204839229583740234e+00,-5.115636348724365234e+00,1.761896729469299316e+00,1.410362720489501953e-01,1.424544692039489746e+00,-6.691379070281982422e+00,-1.028132915496826172e+01,-3.897523880004882812e+00,9.734491348266601562e+00,-3.290795162320137024e-02
-9.699974060058593750e+00,1.897974586486816406e+01,-1.173539066314697266e+01,-3.185900747776031494e-01,-4.089044094085693359e+00,2.481213092803955078e+00,-9.438862800598144531e+00,1.466714262962341309e+00,-1.851591300964355469e+01,-3.869893550872802734e+00,-1.296420097351074219e+01,-1.847182869911193848e+00,-5.943538665771484375e+00,2.255481481552124023e+00,-1.368728637695312500e+00,3.289013862609863281e+00,-6.516142368316650391e+00,-1.045361804962158203e+01,-4.366339206695556641e+00,8.612305641174316406e+00,-3.099074587225914001e-02
-8.609958648681640625e+00,1.853904533386230469e+01,-1.310398197174072266e+01,-3.565165102481842041e-01,-5.997830867767333984e+00,3.720889806747436523e+00,-1.038356590270996094e+01,3.214336633682250977e+00,-1.889675331115722656e+01,-3.625534296035766602e+00,-1.372607421875000000e+01,-1.119320511817932129e+00,-6.065173149108886719e+00,3.134233236312866211e+00,-2.045458555221557617e+00,5.741238594055175781e+00,-6.121000766754150391e+00,-1.025979328155517578e+01,-4.257371425628662109e+00,6.774963855743408203e+00,-2.939848974347114563e-02
-6.805286884307861328e+00,1.779903602600097656e+01,-1.462592315673828125e+01,-1.099946722388267517e-01,-8.008936882019042969e+00,4.256638526916503906e+00,-1.084098625183105469e+01,4.212008476257324219e+00,-1.891105270385742188e+01,-3.500374555587768555e+00,-1.362425708770751953e+01,-1.316866129636764526e-01,-5.528933525085449219e+00,4.351076126098632812e+00,-1.882048606872558594e+00,8.707262992858886719e+00,-5.582691669464111328e+00,-9.752499580383300781e+00,-3.551614284515380859e+00,4.528055667877197266e+00,-2.721049077808856964e-02
-4.875050544738769531e+00,1.685520172119140625e+01,-1.604598236083984375e+01,2.904638946056365967e-01,-9.895378112792968750e+00,3.948019504547119141e+00,-1.114231395721435547e+01,4.268565654754638672e+00,-1.867058944702148438e+01,-3.588582277297973633e+00,-1.309761619567871094e+01,8.283387422561645508e-01,-4.584628105163574219e+00,5.787607192993164062e+00,-1.089866161346435547e+00,1.202165889739990234e+01,-5.131428718566894531e+00,-9.124364852905273438e+00,-2.364371061325073242e+00,2.350888252258300781e+00,-2.442674897611141205e-02
-3.622066259384155273e+00,1.565245819091796875e+01,-1.705850791931152344e+01,6.251089572906494141e-01,-1.147956466674804688e+01,2.847047805786132812e+00,-1.167981815338134766e+01,3.474500417709350586e+00,-1.824425697326660156e+01,-3.886581420898437500e+00,-1.256278419494628906e+01,1.509768486022949219e+00,-3.445445299148559570e+00,7.383911609649658203e+00,1.552458107471466064e-01,1.559295463562011719e+01,-4.964209556579589844e+00,-8.534516334533691406e+00,-7.995416522026062012e-01,7.582718729972839355e-01,-2.196795865893363953e-02
-3.618058919906616211e+00,1.402737522125244141e+01,-1.730428886413574219e+01,7.656598687171936035e-01,-1.253568935394287109e+01,1.227665662765502930e+00,-1.249964618682861328e+01,2.189517259597778320e+00,-1.752026939392089844e+01,-4.202460765838623047e+00,-1.206306076049804688e+01,1.871189713478088379e+00,-2.123156070709228516e+00,9.191344261169433594e+00,1.853287220001220703e+00,1.945034217834472656e+01,-5.067289829254150391e+00,-7.970990180969238281e+00,1.132737755775451660e+00,6.086819991469383240e-02,-2.060316689312458038e-02
-4.905774116516113281e+00,1.185509014129638672e+01,-1.645246315002441406e+01,7.890850305557250977e-01,-1.279090023040771484e+01,-4.680043160915374756e-01,-1.314845085144042969e+01,8.954849839210510254e-01,-1.621917343139648438e+01,-4.192924499511718750e+00,-1.122979831695556641e+01,2.070724487304687500e+00,-4.228833019733428955e-01,1.133258819580078125e+01,4.167667865753173828e+00,2.366583442687988281e+01,-5.187550067901611328e+00,-7.226800441741943359e+00,3.492019176483154297e+00,2.802333533763885498e-01,-2.021322585642337799e-02
-7.029702186584472656e+00,9.192525863647460938e+00,-1.435493564605712891e+01,9.218275547027587891e-01,-1.202879714965820312e+01,-1.770098567008972168e+00,-1.287019824981689453e+01,-3.658031672239303589e-02,-1.407710838317871094e+01,-3.539710521697998047e+00,-9.586680412292480469e+00,2.267749309539794922e+00,1.864637613296508789e+00,1.385186767578125000e+01,7.194302558898925781e+00,2.818493461608886719e+01,-4.963064193725585938e+00,-6.027960300445556641e+00,6.274501323699951172e+00,1.169106125831604004e+00,-1.986661180853843689e-02
-9.285875320434570312e+00,6.298593521118164062e+00,-1.118606281280517578e+01,1.375829339027404785e+00,-1.017175769805908203e+01,-2.357861518859863281e+00,-1.109345054626464844e+01,-4.607605040073394775e-01,-1.108757591247558594e+01,-2.129578590393066406e+00,-6.945285797119140625e+00,2.453479528427124023e+00,4.721096038818359375e+00,1.659368705749511719e+01,1.072715187072753906e+01,3.268651962280273438e+01,-4.143002033233642578e+00,-4.220129013061523438e+00,9.278720855712890625e+00,2.311580181121826172e+00,-1.833934523165225983e-02
-1.104379272460937500e+01,3.647046566009521484e+00,-7.480466842651367188e+00,2.176746368408203125e+00,-7.372674465179443359e+00,-2.203552007675170898e+00,-7.793776512145996094e+00,-4.618916511535644531e-01,-7.611920356750488281e+00,-1.425205022096633911e-01,-3.731609106063842773e+00,2.378183603286743164e+00,7.789434432983398438e+00,1.920141220092773438e+01,1.419961166381835938e+01,3.661786270141601562e+01,-2.741108417510986328e+00,-1.889450550079345703e+00,1.211441993713378906e+01,3.301893472671508789e+00,-1.512233819812536240e-02
-1.188935661315917969e+01,1.843847870826721191e+00,-3.976535797119140625e+00,3.134946823120117188e+00,-4.005541801452636719e+00,-1.539501309394836426e+00,-3.568402051925659180e+00,-2.220884561538696289e-01,-4.259744644165039062e+00,2.029297113418579102e+00,-8.514711260795593262e-01,1.706793308258056641e+00,1.050071620941162109e+01,2.127703475952148438e+01,1.689232063293457031e+01,3.941651153564453125e+01,-1.029973626136779785e+00,6.745352745056152344e-01,1.433812522888183594e+01,3.943504810333251953e+00,-1.084382459521293640e-02
-1.165291976928710938e+01,1.443545103073120117e+00,-1.392701625823974609e+00,3.951480627059936523e+00,-5.854854583740234375e-01,-6.986015439033508301e-01,4.968072772026062012e-01,1.726819127798080444e-01,-1.682247996330261230e+00,3.946027517318725586e+00,6.851485967636108398e-01,2.862067818641662598e-01,1.229777336120605469e+01,2.254665946960449219e+01,1.817650985717773438e+01,4.074577331542968750e+01,5.986968278884887695e-01,3.100929737091064453e+00,1.565080833435058594e+01,4.218662261962890625e+00,-7.096064742654561996e-03
-1.040394306182861328e+01,2.651798486709594727e+00,-2.016171216964721680e-01,4.353054523468017578e+00,2.352375984191894531e+00,2.786643058061599731e-02,3.254905700683593750e+00,7.473046779632568359e-01,-3.304595947265625000e-01,5.276295661926269531e+00,2.416003495454788208e-01,-1.731728792190551758e+00,1.287063503265380859e+01,2.296321105957031250e+01,1.780528450012207031e+01,4.063289260864257812e+01,1.787557601928710938e+00,5.065495491027832031e+00,1.600812149047851562e+01,4.132437705993652344e+00,-5.817926488816738129e-03
-8.468362808227539062e+00,5.106866359710693359e+00,-4.988630712032318115e-01,4.193540573120117188e+00,4.350545406341552734e+00,4.838594794273376465e-01,3.977006435394287109e+00,1.554943799972534180e+00,-3.239606022834777832e-01,5.855605602264404297e+00,-2.121259689331054688e+00,-3.920335531234741211e+00,1.227161502838134766e+01,2.267362213134765625e+01,1.598468589782714844e+01,3.942818832397460938e+01,2.309831619262695312e+00,6.376801490783691406e+00,1.560519313812255859e+01,3.640451192855834961e+00,-8.298381231725215912e-03
-6.353785514831542969e+00,7.989780902862548828e+00,-1.963035702705383301e+00,3.544329166412353516e+00,5.134994029998779297e+00,6.988523602485656738e-01,2.706543684005737305e+00,2.550353288650512695e+00,-1.402791738510131836e+00,5.724486351013183594e+00,-5.602938175201416016e+00,-5.775129795074462891e+00,1.093232345581054688e+01,2.194608497619628906e+01,1.337900924682617188e+01,3.769800949096679688e+01,2.154065608978271484e+00,7.039632797241210938e+00,1.482467937469482422e+01,2.719878196716308594e+00,-1.452659536153078079e-02
-4.633269786834716797e+00,1.027407741546630859e+01,-3.959730148315429688e+00,2.675367593765258789e+00,4.729244709014892578e+00,8.514280319213867188e-01,3.081381320953369141e-01,3.508435010910034180e+00,-3.005440950393676758e+00,5.118951797485351562e+00,-8.909070014953613281e+00,-6.929669857025146484e+00,9.525020599365234375e+00,2.110157012939453125e+01,1.089233779907226562e+01,3.605346298217773438e+01,1.521839141845703125e+00,7.257386207580566406e+00,1.413032531738281250e+01,1.465819597244262695e+00,-2.315944246947765350e-02
-3.829115867614746094e+00,1.116282367706298828e+01,-5.811478137969970703e+00,1.933571100234985352e+00,3.374394178390502930e+00,1.090694308280944824e+00,-1.927387595176696777e+00,4.041205406188964844e+00,-4.492408275604248047e+00,4.362034320831298828e+00,-1.080497550964355469e+01,-7.397760868072509766e+00,8.687963485717773438e+00,2.038259124755859375e+01,9.323959350585937500e+00,3.493633651733398438e+01,7.075039148330688477e-01,7.329173088073730469e+00,1.388704872131347656e+01,2.003489434719085693e-01,-3.187894448637962341e-02
-4.235200405120849609e+00,1.045953941345214844e+01,-7.008864402770996094e+00,1.632390499114990234e+00,1.442085862159729004e+00,1.459996700286865234e+00,-2.815082788467407227e+00,3.811582326889038086e+00,-5.333376884460449219e+00,3.802987813949584961e+00,-1.057091236114501953e+01,-7.455487728118896484e+00,8.820061683654785156e+00,1.995034790039062500e+01,9.133906364440917969e+00,3.454320144653320312e+01,7.702474016696214676e-03,7.543337345123291016e+00,1.428870964050292969e+01,-5.528470277786254883e-01,-3.831296041607856750e-02
-5.820799827575683594e+00,8.610433578491210938e+00,-7.322916030883789062e+00,1.955880761146545410e+00,-6.595788002014160156e-01,1.851838588714599609e+00,-1.703427791595458984e+00,2.767533540725708008e+00,-5.229393005371093750e+00,3.731468200683593750e+00,-8.254864692687988281e+00,-7.348818302154541016e+00,9.995865821838378906e+00,1.988758087158203125e+01,1.035947990417480469e+01,3.484680938720703125e+01,-3.530789613723754883e-01,8.087720870971679688e+00,1.534290981292724609e+01,-2.852976322174072266e-01,-4.102087765932083130e-02
-8.210553169250488281e+00,6.496908664703369141e+00,-6.842910766601562500e+00,2.846036672592163086e+00,-2.657747983932495117e+00,2.032155275344848633e+00,1.235195875167846680e+00,1.216730713844299316e+00,-4.199954032897949219e+00,4.260714530944824219e+00,-4.720522880554199219e+00,-7.154303073883056641e+00,1.193679237365722656e+01,2.017716789245605469e+01,1.263478469848632812e+01,3.562529373168945312e+01,-3.313175439834594727e-01,8.944376945495605469e+00,1.686212539672851562e+01,1.164034008979797363e+00,-3.975357115268707275e-02
-1.075392341613769531e+01,4.983837604522705078e+00,-5.857692718505859375e+00,4.008370399475097656e+00,-4.458334922790527344e+00,1.742608308792114258e+00,5.152455806732177734e+00,-2.560228705406188965e-01,-2.533614873886108398e+00,5.277487754821777344e+00,-1.209586620330810547e+00,-6.713820934295654297e+00,1.415499496459960938e+01,2.068644523620605469e+01,1.535768985748291016e+01,3.651471328735351562e+01,-4.612840712070465088e-02,9.882390975952148438e+00,1.852958679199218750e+01,3.433766126632690430e+00,-3.547506034374237061e-02
-1.270286178588867188e+01,4.519266128540039062e+00,-4.681313037872314453e+00,5.022345066070556641e+00,-6.093093395233154297e+00,8.843704462051391602e-01,8.997776985168457031e+00,-1.019547224044799805e+00,-6.177146434783935547e-01,6.501667976379394531e+00,1.267964005470275879e+00,-5.734971523284912109e+00,1.617308807373046875e+01,2.123138618469238281e+01,1.797757530212402344e+01,3.714528656005859375e+01,2.951822876930236816e-01,1.059786605834960938e+01,2.000318717956542969e+01,5.754218578338623047e+00,-2.971260808408260345e-02
-1.342686748504638672e+01,5.048106193542480469e+00,-3.572155237197875977e+00,5.499771595001220703e+00,-7.652583122253417969e+00,-4.125222861766815186e-01,1.193504333496093750e+01,-6.632358431816101074e-01,1.187702894210815430e+00,7.576848983764648438e+00,2.290816783905029297e+00,-4.043319225311279297e+00,1.767979049682617188e+01,2.159943389892578125e+01,2.010900878906250000e+01,3.719588470458984375e+01,4.807270169258117676e-01,1.083835220336914062e+01,2.101811027526855469e+01,7.292310714721679688e+00,-2.375518530607223511e-02
-1.262271308898925781e+01,6.192090988159179688e+00,-2.703524827957153320e+00,5.238748550415039062e+00,-9.230889320373535156e+00,-1.829048156738281250e+00,1.357877254486083984e+01,8.253538608551025391e-01,2.635676145553588867e+00,8.194302558898925781e+00,2.101226091384887695e+00,-1.781926274299621582e+00,1.853385162353515625e+01,2.158802223205566406e+01,2.152818679809570312e+01,3.639015579223632812e+01,3.627572357654571533e-01,1.050334644317626953e+01,2.139189529418945312e+01,7.587756156921386719e+00,-1.819853484630584717e-02
-1.034115982055664062e+01,7.508683204650878906e+00,-2.176254510879516602e+00,4.293934345245361328e+00,-1.084330272674560547e+01,-2.956027269363403320e+00,1.403076457977294922e+01,3.031090736389160156e+00,3.617022752761840820e+00,8.195494651794433594e+00,1.348715543746948242e+00,6.112349629402160645e-01,1.874311447143554688e+01,2.101740455627441406e+01,2.208413696289062500e+01,3.452373886108398438e+01,-8.850590884685516357e-02,9.665834426879882812e+00,2.104598617553710938e+01,6.769891738891601562e+00,-1.312930881977081299e-02
-6.956233024597167969e+00,8.737134933471679688e+00,-2.051264286041259766e+00,2.967624187469482422e+00,-1.235927677154541016e+01,-3.498710870742797852e+00,1.363713836669921875e+01,5.265106678009033203e+00,4.123943328857421875e+00,7.586384773254394531e+00,6.851485967636108398e-01,2.571443557739257812e+00,1.835597610473632812e+01,1.974635124206542969e+01,2.161877250671386719e+01,3.147986793518066406e+01,-7.940340638160705566e-01,8.510066032409667969e+00,1.997277832031250000e+01,5.429608821868896484e+00,-8.244222030043601990e-03
-3.107781887054443359e+00,9.853575706481933594e+00,-2.410480260848999023e+00,1.663624048233032227e+00,-1.357417297363281250e+01,-3.420689344406127930e+00,1.265035724639892578e+01,6.758220672607421875e+00,4.131742000579833984e+00,6.457563877105712891e+00,3.375659286975860596e-01,3.592960596084594727e+00,1.734758377075195312e+01,1.765931701660156250e+01,1.990119361877441406e+01,2.722350502014160156e+01,-1.643874764442443848e+00,7.184402942657470703e+00,1.816467094421386719e+01,4.303618431091308594e+00,-3.608264261856675148e-03
4.628220498561859131e-01,1.091492938995361328e+01,-3.325325489044189453e+00,7.232714891433715820e-01,-1.425630283355712891e+01,-2.964696168899536133e+00,1.109892749786376953e+01,6.904138565063476562e+00,3.567630290985107422e+00,4.919888496398925781e+00,2.977387234568595886e-02,3.462447404861450195e+00,1.560284233093261719e+01,1.469495582580566406e+01,1.675555419921875000e+01,2.186169624328613281e+01,-2.556709051132202148e+00,5.723541259765625000e+00,1.564954090118408203e+01,3.856012344360351562e+00,1.719912106636911631e-04
3.129086732864379883e+00,1.188079738616943359e+01,-4.804203033447265625e+00,2.826555073261260986e-01,-1.421278762817382812e+01,-2.468825578689575195e+00,8.813179969787597656e+00,5.461925983428955078e+00,2.327624559402465820e+00,3.052030086517333984e+00,-7.168852090835571289e-01,2.284063339233398438e+00,1.305243301391601562e+01,1.091461086273193359e+01,1.222803592681884766e+01,1.570388793945312500e+01,-3.494740962982177734e+00,4.058087348937988281e+00,1.251608085632324219e+01,4.071573257446289062e+00,2.544128568843007088e-03
4.550382137298583984e+00,1.261529827117919922e+01,-6.715819835662841797e+00,2.503064870834350586e-01,-1.332131481170654297e+01,-2.134199380874633789e+00,5.638380527496337891e+00,2.713238477706909180e+00,3.857283294200897217e-01,9.481562972068786621e-01,-2.210203409194946289e+00,4.079354703426361084e-01,9.802295684814453125e+00,6.572206974029541016e+00,6.776896953582763672e+00,9.302803039550781250e+00,-4.441935539245605469e+00,2.124629020690917969e+00,9.018971443176269531e+00,4.549612045288085938e+00,3.356504486873745918e-03
4.776133060455322266e+00,1.305232620239257812e+01,-8.768182754516601562e+00,3.964348137378692627e-01,-1.156777095794677734e+01,-1.893199324607849121e+00,1.657326102256774902e+00,-5.931047201156616211e-01,-2.102082252502441406e+00,-1.227237343788146973e+00,-4.336660385131835938e+00,-1.734238743782043457e+00,6.214720249176025391e+00,2.128518819808959961e+00,1.272471785545349121e+00,3.384378194808959961e+00,-5.358205795288085938e+00,-2.418974786996841431e-02,5.577613830566406250e+00,4.798141479492187500e+00,3.085712436586618423e-03
4.203073024749755859e+00,1.332409095764160156e+01,-1.056951427459716797e+01,4.968283474445343018e-01,-9.106224060058593750e+00,-1.433738589286804199e+00,-2.690208196640014648e+00,-3.487710237503051758e+00,-4.760166168212890625e+00,-3.210719585418701172e+00,-6.609406471252441406e+00,-3.788567304611206055e+00,2.839024782180786133e+00,-1.838703393936157227e+00,-3.196432113647460938e+00,-1.327396392822265625e+00,-6.156506061553955078e+00,-2.153865337371826172e+00,2.687430620193481445e+00,4.545807838439941406e+00,2.804088871926069260e-03
3.358844995498657227e+00,1.372806644439697266e+01,-1.175219535827636719e+01,4.455161094665527344e-01,-6.247160911560058594e+00,-3.865150809288024902e-01,-6.755417346954345703e+00,-5.136922836303710938e+00,-7.095901012420654297e+00,-4.687602996826171875e+00,-8.426900863647460938e+00,-5.547986507415771484e+00,2.258361876010894775e-01,-4.803064346313476562e+00,-5.695537090301513672e+00,-4.330398559570312500e+00,-6.716576576232910156e+00,-3.926999568939208984e+00,7.437477111816406250e-01,3.850940227508544922e+00,3.529811277985572815e-03
2.626824378967285156e+00,1.452499961853027344e+01,-1.213661956787109375e+01,2.636922895908355713e-01,-3.431612253189086914e+00,1.401046991348266602e+00,-9.969579696655273438e+00,-5.216103076934814453e+00,-8.716747283935546875e+00,-5.427833080291748047e+00,-9.439220428466796875e+00,-6.997436523437500000e+00,-1.331875324249267578e+00,-6.513492107391357422e+00,-5.842961311340332031e+00,-5.581811904907226562e+00,-6.959388256072998047e+00,-5.080374717712402344e+00,-1.558708846569061279e-01,2.992499828338623047e+00,5.479513201862573624e-03
2.089831113815307617e+00,1.570938110351562500e+01,-1.184252452850341797e+01,4.617301374673843384e-02,-1.154710769653320312e+00,3.677544593811035156e+00,-1.207344436645507812e+01,-4.051021575927734375e+00,-9.523921012878417969e+00,-5.420680999755859375e+00,-9.773930549621582031e+00,-8.170800209045410156e+00,-1.937434077262878418e+00,-7.096949100494384766e+00,-4.008152961730957031e+00,-5.537048816680908203e+00,-6.915865421295166016e+00,-5.597239494323730469e+00,-2.787765264511108398e-01,2.232963800430297852e+00,7.840818725526332855e-03
1.568867683410644531e+00,1.689927291870117188e+01,-1.126168727874755859e+01,-1.211495101451873779e-01,1.601527482271194458e-01,5.815337181091308594e+00,-1.310230159759521484e+01,-2.500218868255615234e+00,-9.733188629150390625e+00,-4.897394657135009766e+00,-9.935433387756347656e+00,-9.078118324279785156e+00,-2.019831895828247070e+00,-6.995664119720458984e+00,-1.178675889968872070e+00,-4.972648143768310547e+00,-6.725739002227783203e+00,-5.716884136199951172e+00,-1.520696729421615601e-01,1.673772692680358887e+00,9.162283502519130707e-03
8.061236739158630371e-01,1.746483802795410156e+01,-1.089406871795654297e+01,-2.059262543916702271e-01,3.048112392425537109e-01,7.067150592803955078e+00,-1.330318641662597656e+01,-1.562497854232788086e+00,-9.739686965942382812e+00,-4.250140190124511719e+00,-1.044920063018798828e+01,-9.650368690490722656e+00,-2.116616725921630859e+00,-6.751725196838378906e+00,1.396805405616760254e+00,-4.667092800140380859e+00,-6.579135894775390625e+00,-5.822171688079833984e+00,-3.231239020824432373e-01,1.243918418884277344e+00,8.328244090080261230e-03
-3.306455016136169434e-01,1.680011558532714844e+01,-1.113039493560791016e+01,-2.427372038364410400e-01,-6.313527822494506836e-01,6.886834144592285156e+00,-1.296385383605957031e+01,-1.949350237846374512e+00,-9.900861740112304688e+00,-3.875853538513183594e+00,-1.154578304290771484e+01,-9.780882835388183594e+00,-2.629314184188842773e+00,-6.788815021514892578e+00,2.673888921737670898e+00,-5.108882904052734375e+00,-6.639838695526123047e+00,-6.231356620788574219e+00,-1.127712368965148926e+00,7.798280119895935059e-01,5.468681454658508301e-03
-1.769306302070617676e+00,1.461497592926025391e+01,-1.203788757324218750e+01,-2.951649427413940430e-01,-2.309626817703247070e+00,5.170358180999755859e+00,-1.225668430328369141e+01,-3.805562734603881836e+00,-1.032329559326171875e+01,-4.005781173706054688e+00,-1.300282096862792969e+01,-9.442049980163574219e+00,-3.641630649566650391e+00,-7.248162746429443359e+00,2.165897369384765625e+00,-6.327210426330566406e+00,-6.950225353240966797e+00,-7.012636184692382812e+00,-2.553164482116699219e+00,2.066889703273773193e-01,2.035039709880948067e-03
-3.254720211029052734e+00,1.113527965545654297e+01,-1.327833843231201172e+01,-4.022513329982757568e-01,-4.280745983123779297e+00,2.318234443664550781e+00,-1.120339393615722656e+01,-6.663971424102783203e+00,-1.078082466125488281e+01,-4.604163169860839844e+00,-1.423633003234863281e+01,-8.714187622070312500e+00,-4.881521701812744141e+00,-7.957155704498291016e+00,1.019599959254264832e-01,-7.903640270233154297e+00,-7.392325878143310547e+00,-7.921936035156250000e+00,-4.242166519165039062e+00,-3.144617974758148193e-01,2.803079842124134302e-04
-4.472973346710205078e+00,6.994532585144042969e+00,-1.421103954315185547e+01,-5.305319428443908691e-01,-6.128376007080078125e+00,-9.101268649101257324e-01,-9.745619773864746094e+00,-9.664904594421386719e+00,-1.082891654968261719e+01,-5.375385284423828125e+00,-1.456986904144287109e+01,-7.711494445800781250e+00,-5.872911930084228516e+00,-8.533479690551757812e+00,-2.736397981643676758e+00,-9.197870254516601562e+00,-7.706148147583007812e+00,-8.487854957580566406e+00,-5.653680801391601562e+00,-4.666225910186767578e-01,2.002544701099395752e-03
-5.215680599212646484e+00,2.978651046752929688e+00,-1.419318389892578125e+01,-5.918835401535034180e-01,-7.641998291015625000e+00,-3.715437650680541992e+00,-7.939011096954345703e+00,-1.193624877929687500e+01,-1.007893371582031250e+01,-5.912975311279296875e+00,-1.361138343811035156e+01,-6.510521411895751953e+00,-6.199887275695800781e+00,-8.610513687133789062e+00,-5.416674613952636719e+00,-9.663014411926269531e+00,-7.613376140594482422e+00,-8.262923240661621094e+00,-6.336630821228027344e+00,5.579617619514465332e-02,7.678343914449214935e-03
-5.433416366577148438e+00,-2.127536237239837646e-01,-1.292437458038330078e+01,-4.948364794254302979e-01,-8.846309661865234375e+00,-5.534208297729492188e+00,-6.065892696380615234e+00,-1.291469097137451172e+01,-8.465886116027832031e+00,-5.885559558868408203e+00,-1.147907447814941406e+01,-5.117543697357177734e+00,-5.735581874847412109e+00,-8.002804756164550781e+00,-7.260364055633544922e+00,-9.094720840454101562e+00,-6.945643901824951172e+00,-7.066476345062255859e+00,-6.133899688720703125e+00,1.363111138343811035e+00,1.637618057429790497e-02
-5.202322483062744141e+00,-2.122454881668090820e+00,-1.059262180328369141e+01,-1.713462620973587036e-01,-9.820108413696289062e+00,-6.184388637542724609e+00,-4.541608810424804688e+00,-1.250521564483642578e+01,-6.313423156738281250e+00,-5.182281494140625000e+00,-8.762780189514160156e+00,-3.506206989288330078e+00,-4.682720661163330078e+00,-6.770270347595214844e+00,-8.059651374816894531e+00,-7.679826259613037109e+00,-5.712115287780761719e+00,-5.083963871002197266e+00,-5.212740898132324219e+00,3.248637199401855469e+00,2.620051242411136627e-02
-4.637277126312255859e+00,-2.553974151611328125e+00,-7.845984935760498047e+00,3.707787096500396729e-01,-1.055398559570312500e+01,-5.846294879913330078e+00,-3.776073694229125977e+00,-1.104151153564453125e+01,-4.231149196624755859e+00,-3.979557275772094727e+00,-6.336723804473876953e+00,-1.784436106681823730e+00,-3.493837594985961914e+00,-5.219615459442138672e+00,-8.093399047851562500e+00,-5.908774852752685547e+00,-4.134984970092773438e+00,-2.820286273956298828e+00,-3.981150388717651367e+00,5.216583728790283203e+00,3.528828918933868408e-02
-3.894570350646972656e+00,-1.540363311767578125e+00,-5.506879806518554688e+00,1.040068745613098145e+00,-1.091151523590087891e+01,-4.877092838287353516e+00,-4.033967018127441406e+00,-9.058609962463378906e+00,-2.854664564132690430e+00,-2.674320936203002930e+00,-5.059913158416748047e+00,-2.458856999874114990e-01,-2.671167135238647461e+00,-3.747420787811279297e+00,-7.903346061706542969e+00,-4.344022274017333984e+00,-2.577325105667114258e+00,-9.023817777633666992e-01,-2.896539926528930664e+00,6.634214878082275391e+00,4.257800802588462830e-02
-3.157206535339355469e+00,7.218983173370361328e-01,-4.179251194000244141e+00,1.720513701438903809e+00,-1.069041156768798828e+01,-3.578466415405273438e+00,-5.254208087921142578e+00,-7.012364864349365234e+00,-2.523216485977172852e+00,-1.695691943168640137e+00,-5.453137874603271484e+00,7.116297483444213867e-01,-2.520758390426635742e+00,-2.651834249496459961e+00,-7.976170063018798828e+00,-3.376755714416503906e+00,-1.386173725128173828e+00,2.067245095968246460e-01,-2.247800827026367188e+00,6.957556724548339844e+00,4.791802540421485901e-02
-2.704369068145751953e+00,3.799455404281616211e+00,-3.983888149261474609e+00,2.310604572296142578e+00,-9.793058395385742188e+00,-2.083918809890747070e+00,-6.964446544647216797e+00,-5.119955539703369141e+00,-3.113324165344238281e+00,-1.324980974197387695e+00,-7.514057636260986328e+00,7.756314277648925781e-01,-3.025608539581298828e+00,-2.011315345764160156e+00,-8.519685745239257812e+00,-3.106232404708862305e+00,-7.837260365486145020e-01,3.897808790206909180e-01,-2.059007644653320312e+00,5.977387428283691406e+00,5.169828236103057861e-02
-2.863329648971557617e+00,7.005550384521484375e+00,-4.512208461761474609e+00,2.719986915588378906e+00,-8.359410285949707031e+00,-3.691769242286682129e-01,-8.453439712524414062e+00,-3.319169521331787109e+00,-4.089471340179443359e+00,-1.558612346649169922e+00,-1.070783901214599609e+01,-3.254673629999160767e-02,-3.862666130065917969e+00,-1.647546291351318359e+00,-9.404230117797851562e+00,-3.328100442886352539e+00,-7.722726464271545410e-01,-8.999432623386383057e-02,-2.090684413909912109e+00,3.908000469207763672e+00,5.428705364465713501e-02
-3.858503580093383789e+00,9.524887084960937500e+00,-5.082542896270751953e+00,2.885078430175781250e+00,-6.814033985137939453e+00,1.619507551193237305e+00,-9.056095123291015625e+00,-1.429022431373596191e+00,-4.786162376403808594e+00,-2.137922525405883789e+00,-1.417313289642333984e+01,-1.311325550079345703e+00,-4.546699047088623047e+00,-1.246687054634094238e+00,-1.026035499572753906e+01,-3.662848472595214844e+00,-1.177722215652465820e+00,-7.516294717788696289e-01,-1.980449438095092773e+00,1.325070858001708984e+00,5.552186444401741028e-02
-5.627108097076416016e+00,1.063581943511962891e+01,-5.079391479492187500e+00,2.772414684295654297e+00,-5.713218212127685547e+00,3.817983388900756836e+00,-8.412719726562500000e+00,6.364522576332092285e-01,-4.714673519134521484e+00,-2.681473016738891602e+00,-1.694092178344726562e+01,-2.434492349624633789e+00,-4.623865127563476562e+00,-5.162959694862365723e-01,-1.064578914642333984e+01,-3.725127220153808594e+00,-1.728629827499389648e+00,-1.134492516517639160e+00,-1.416603922843933105e+00,-1.073997855186462402e+00,5.479614064097404480e-02
-7.724320411682128906e+00,1.001332950592041016e+01,-4.253825187683105469e+00,2.393150329589843750e+00,-5.475648880004882812e+00,5.995653629302978516e+00,-6.633257389068603516e+00,2.700795888900756836e+00,-3.769721269607543945e+00,-2.884112358093261719e+00,-1.827156639099121094e+01,-2.877484560012817383e+00,-3.853510618209838867e+00,6.548976302146911621e-01,-1.020174121856689453e+01,-3.248305797576904297e+00,-2.186764955520629883e+00,-1.011258482933044434e+00,-2.863789200782775879e-01,-2.730014562606811523e+00,5.148164927959442139e-02
-9.446171760559082031e+00,7.809828281402587891e+00,-2.862125873565673828e+00,1.758440136909484863e+00,-6.194236755371093750e+00,7.798820018768310547e+00,-4.272857189178466797e+00,4.279877185821533203e+00,-2.293152332305908203e+00,-2.702929019927978516e+00,-1.791579055786132812e+01,-2.572535276412963867e+00,-2.332420587539672852e+00,2.084295988082885742e+00,-8.821638107299804688e+00,-2.226545572280883789e+00,-2.487988948822021484e+00,-5.219116806983947754e-01,1.223966598510742188e+00,-3.417274236679077148e+00,4.534008726477622986e-02
-1.008869266510009766e+01,4.620259761810302734e+00,-1.494584560394287109e+00,8.917095065116882324e-01,-7.565552711486816406e+00,8.929266929626464844e+00,-2.050904750823974609e+00,4.874860763549804688e+00,-8.568772077560424805e-01,-2.350097894668579102e+00,-1.608776283264160156e+01,-1.859732151031494141e+00,-4.071884751319885254e-01,3.391011238098144531e+00,-6.629815101623535156e+00,-8.350052833557128906e-01,-2.725073814392089844e+00,-4.931513220071792603e-02,2.743181705474853516e+00,-3.254969358444213867e+00,3.714050725102424622e-02
-9.235114097595214844e+00,1.348060011863708496e+00,-7.519947886466979980e-01,-1.557295024394989014e-01,-9.010961532592773438e+00,9.302036285400390625e+00,-5.388370156288146973e-01,4.317204952239990234e+00,3.088386543095111847e-02,-2.145074605941772461e+00,-1.331178379058837891e+01,-1.257363319396972656e+00,1.501040816307067871e+00,4.188450336456298828e+00,-3.887371540069580078e+00,7.025007009506225586e-01,-3.075547218322753906e+00,-6.243043579161167145e-03,3.901282310485839844e+00,-2.566441774368286133e+00,2.865930274128913879e-02
-6.904136657714843750e+00,-1.112516760826110840e+00,-9.620625972747802734e-01,-1.323640704154968262e+00,-9.922428131103515625e+00,9.010755538940429688e+00,6.110370531678199768e-02,2.953041553497314453e+00,1.556643396615982056e-01,-2.331026077270507812e+00,-1.021630764007568359e+01,-1.135634660720825195e+00,3.057444334030151367e+00,4.251218318939208984e+00,-9.300087094306945801e-01,2.197190046310424805e+00,-3.677994966506958008e+00,-6.104487180709838867e-01,4.468928813934326172e+00,-1.735897302627563477e+00,2.232277207076549530e-02
-3.439061164855957031e+00,-2.113273859024047852e+00,-2.031307697296142578e+00,-2.536171197891235352e+00,-9.835397720336914062e+00,8.260014533996582031e+00,-1.354955323040485382e-02,1.587746977806091309e+00,-3.122624456882476807e-01,-2.894840478897094727e+00,-7.301060676574707031e+00,-1.475722074508666992e+00,4.145618915557861328e+00,3.633523941040039062e+00,1.958082675933837891e+00,3.578999280929565430e+00,-4.511800765991210938e+00,-1.739894628524780273e+00,4.472730159759521484e+00,-1.033421635627746582e+00,2.042722888290882111e-02
6.752148866653442383e-01,-1.402644515037536621e+00,-3.539594650268554688e+00,-3.704082489013671875e+00,-8.534646987915039062e+00,7.211057186126708984e+00,-2.212213426828384399e-01,1.138681650161743164e+00,-9.270662069320678711e-01,-3.555206537246704102e+00,-4.821169376373291016e+00,-1.883575916290283203e+00,4.875428676605224609e+00,2.629236221313476562e+00,4.601059436798095703e+00,4.879067420959472656e+00,-5.373095035552978516e+00,-2.980610132217407227e+00,4.138224124908447266e+00,-5.667951107025146484e-01,2.439162321388721466e-02
5.000547885894775391e+00,8.394183516502380371e-01,-5.001666545867919922e+00,-4.737020015716552734e+00,-6.049578666687011719e+00,5.856948375701904297e+00,-4.341085627675056458e-02,2.144271373748779297e+00,-1.244216561317443848e+00,-3.929493427276611328e+00,-2.828128099441528320e+00,-1.891105532646179199e+00,5.457445144653320312e+00,1.596417427062988281e+00,6.936754226684570312e+00,6.144104003906250000e+00,-5.956071853637695312e+00,-3.855212926864624023e+00,3.737830400466918945e+00,-3.284098505973815918e-01,3.433510288596153259e-02
9.164248466491699219e+00,4.074892997741699219e+00,-6.126579761505126953e+00,-5.559131622314453125e+00,-2.648339271545410156e+00,4.071120262145996094e+00,7.126230597496032715e-01,4.439369201660156250e+00,-1.073943257331848145e+00,-3.759037971496582031e+00,-1.355875611305236816e+00,-1.238539338111877441e+00,6.017227172851562500e+00,7.519026994705200195e-01,8.940300941467285156e+00,7.337131023406982422e+00,-6.003030776977539062e+00,-4.080144882202148438e+00,3.426131486892700195e+00,-2.713495492935180664e-01,4.879539087414741516e-02
1.275488948822021484e+01,7.521536827087402344e+00,-6.943743705749511719e+00,-6.119104385375976562e+00,1.173938393592834473e+00,1.751277446746826172e+00,1.802560567855834961e+00,7.155253410339355469e+00,-5.930184721946716309e-01,-3.085559844970703125e+00,-5.097399950027465820e-01,-7.395958900451660156e-02,6.495919227600097656e+00,7.429374754428863525e-02,1.053709983825683594e+01,8.304397583007812500e+00,-5.448687553405761719e+00,-3.737961053848266602e+00,3.152444839477539062e+00,-3.575740158557891846e-01,6.525954604148864746e-02
1.518471717834472656e+01,1.030345726013183594e+01,-7.727296352386474609e+00,-6.395744323730468750e+00,4.703371047973632812e+00,-1.017623305320739746e+00,2.694327592849731445e+00,9.060105323791503906e+00,-2.446730136871337891e-01,-2.269042253494262695e+00,-4.477134346961975098e-01,1.083090543746948242e+00,6.663330554962158203e+00,-6.589505076408386230e-01,1.156906795501708984e+01,8.800681114196777344e+00,-4.469423294067382812e+00,-3.251007080078125000e+00,2.707703828811645508e+00,-5.591870546340942383e-01,8.061885833740234375e-02
1.575376987457275391e+01,1.159617900848388672e+01,-8.771333694458007812e+00,-6.406898975372314453e+00,7.084943771362304688e+00,-3.911358594894409180e+00,2.869423627853393555e+00,9.099695205688476562e+00,-4.994331598281860352e-01,-1.823235511779785156e+00,-1.273953795433044434e+00,1.709303140640258789e+00,6.233030796051025391e+00,-1.720300078392028809e+00,1.175379180908203125e+01,8.561297416687011719e+00,-3.430601835250854492e+00,-3.163666486740112305e+00,1.852432608604431152e+00,-7.937683463096618652e-01,9.211127460002899170e-02
1.386494255065917969e+01,1.085066032409667969e+01,-1.014727783203125000e+01,-6.180455684661865234e+00,7.550673484802246094e+00,-6.437525272369384766e+00,2.099816322326660156e+00,6.879253387451171875e+00,-1.587362885475158691e+00,-2.122426748275756836e+00,-2.938137531280517578e+00,1.544906616210937500e+00,5.041532039642333984e+00,-3.235291242599487305e+00,1.078398990631103516e+01,7.426656723022460938e+00,-2.695295095443725586e+00,-3.838462591171264648e+00,4.903340339660644531e-01,-9.611452221870422363e-01,9.814451634883880615e-02
9.369962692260742188e+00,8.013651847839355469e+00,-1.156628608703613281e+01,-5.737608909606933594e+00,5.734797954559326172e+00,-8.124526023864746094e+00,5.877485275268554688e-01,2.799205541610717773e+00,-3.339488744735717773e+00,-3.180919647216796875e+00,-5.176944255828857422e+00,6.551576852798461914e-01,3.180387258529663086e+00,-5.075534343719482422e+00,8.496253013610839844e+00,5.435683727264404297e+00,-2.438739299774169922e+00,-5.213180065155029297e+00,-1.217674255371093750e+00,-9.598771929740905762e-01,9.877275675535202026e-02
2.831202507019042969e+00,3.615830421447753906e+00,-1.243491649627685547e+01,-5.059394836425781250e+00,1.887822270393371582e+00,-8.672410964965820312e+00,-1.119775056838989258e+00,-2.096399307250976562e+00,-5.207296371459960938e+00,-4.583899497985839844e+00,-7.516398429870605469e+00,-5.884829759597778320e-01,1.041967153549194336e+00,-6.868701934814453125e+00,5.059317111968994141e+00,2.862793922424316406e+00,-2.525784969329833984e+00,-6.762578964233398438e+00,-2.871198654174804688e+00,-7.303679585456848145e-01,9.555574506521224976e-02
-4.550449848175048828e+00,-1.286960601806640625e+00,-1.211456298828125000e+01,-4.093386173248291016e+00,-3.171697378158569336e+00,-8.051706314086914062e+00,-2.420099020004272461e+00,-6.510135650634765625e+00,-6.503193855285644531e+00,-5.648352146148681641e+00,-9.467308044433593750e+00,-1.727964043617248535e+00,-8.348724842071533203e-01,-8.148312568664550781e+00,1.023804664611816406e+00,1.361535638570785522e-01,-2.571598529815673828e+00,-7.705379009246826172e+00,-3.983684539794921875e+00,-3.347499072551727295e-01,9.104976803064346313e-02
-1.130026721954345703e+01,-5.396491050720214844e+00,-1.021554946899414062e+01,-2.789386034011840820e+00,-8.351177215576171875e+00,-6.465266227722167969e+00,-2.908738613128662109e+00,-9.349314689636230469e+00,-6.683865547180175781e+00,-5.716296195983886719e+00,-1.069145488739013672e+01,-2.425707817077636719e+00,-1.954436779022216797e+00,-8.543465614318847656e+00,-2.787907600402832031e+00,-2.296609163284301758e+00,-2.119189977645874023e+00,-7.366784572601318359e+00,-4.183881282806396484e+00,8.622833341360092163e-02,8.799523115158081055e-02
-1.614656448364257812e+01,-7.561431407928466797e+00,-6.787242889404296875e+00,-1.134008526802062988e+00,-1.264741802215576172e+01,-4.252920150756835938e+00,-2.464890956878662109e+00,-1.003931522369384766e+01,-5.546543121337890625e+00,-4.438476085662841797e+00,-1.108701992034912109e+01,-2.529867649078369141e+00,-2.056453227996826172e+00,-7.935757637023925781e+00,-5.569427490234375000e+00,-4.137723922729492188e+00,-8.616089820861816406e-01,-5.483577251434326172e+00,-3.366622209548950195e+00,4.019620120525360107e-01,8.825519680976867676e-02
-1.844414710998535156e+01,-7.157455921173095703e+00,-2.327503442764282227e+00,7.902004718780517578e-01,-1.542062759399414062e+01,-1.804774761199951172e+00,-1.221575021743774414e+00,-8.617463111877441406e+00,-3.301794528961181641e+00,-1.917403221130371094e+00,-1.080965614318847656e+01,-2.079345941543579102e+00,-1.203700900077819824e+00,-6.504932880401611328e+00,-6.848287105560302734e+00,-5.319073200225830078e+00,1.193127155303955078e+00,-2.342903852462768555e+00,-1.729569911956787109e+00,5.591948628425598145e-01,9.241455793380737305e-02
-1.829052925109863281e+01,-4.254342555999755859e+00,2.395871400833129883e+00,2.804763555526733398e+00,-1.650850677490234375e+01,5.168019533157348633e-01,5.782471895217895508e-01,-5.622185230255126953e+00,-4.552400708198547363e-01,1.355819106101989746e+00,-1.012385368347167969e+01,-1.262383103370666504e+00,2.794601917266845703e-01,-4.660409927368164062e+00,-6.668891429901123047e+00,-5.992462158203125000e+00,3.712870597839355469e+00,1.345741987228393555e+00,3.230809867382049561e-01,6.149871349334716797e-01,9.949847310781478882e-02
-1.632556152343750000e+01,4.593143463134765625e-01,6.625586509704589844e+00,4.693277359008789062e+00,-1.607688331604003906e+01,2.418795824050903320e+00,2.665823698043823242e+00,-1.849809288978576660e+00,2.404312372207641602e+00,4.744665145874023438e+00,-9.256651878356933594e+00,-3.174169957637786865e-01,1.962730288505554199e+00,-2.870095491409301758e+00,-5.564098834991455078e+00,-6.416736125946044922e+00,6.191381931304931641e+00,4.765187263488769531e+00,2.352924585342407227e+00,6.783874630928039551e-01,1.076438948512077332e-01
-1.331599521636962891e+01,5.980922222137451172e+00,9.864831924438476562e+00,6.253838539123535156e+00,-1.433745288848876953e+01,3.687947511672973633e+00,4.833482742309570312e+00,1.905599355697631836e+00,4.816734790802001953e+00,7.719888210296630859e+00,-8.350831031799316406e+00,5.208796262741088867e-01,3.470741510391235352e+00,-1.493479490280151367e+00,-4.318986892700195312e+00,-6.829332351684570312e+00,8.173961639404296875e+00,7.335155487060546875e+00,4.041926860809326172e+00,8.508363962173461914e-01,1.151827424764633179e-01
-9.830883026123046875e+00,1.128217983245849609e+01,1.196025848388671875e+01,7.334742069244384766e+00,-1.141252803802490234e+01,4.204624176025390625e+00,6.923774242401123047e+00,5.072811603546142578e+00,6.554563045501708984e+00,1.003236198425292969e+01,-7.480118751525878906e+00,1.132032990455627441e+00,4.577226638793945312e+00,-6.774955987930297852e-01,-3.642256736755371094e+00,-7.345077991485595703e+00,9.416653633117675781e+00,8.883358001708984375e+00,5.282386779785156250e+00,1.158962011337280273e+00,1.213568001985549927e-01
-6.107997417449951172e+00,1.564878559112548828e+01,1.303160476684570312e+01,7.866827487945556641e+00,-7.418541908264160156e+00,3.986163377761840820e+00,8.718167304992675781e+00,7.467450141906738281e+00,7.609997749328613281e+00,1.171665287017822266e+01,-6.714734554290771484e+00,1.601378679275512695e+00,5.224638462066650391e+00,-3.279919922351837158e-01,-3.885595321655273438e+00,-7.893909454345703125e+00,9.942363739013671875e+00,9.627547264099121094e+00,6.147794723510742188e+00,1.533023953437805176e+00,1.264585256576538086e-01
-2.163368463516235352e+00,1.879611968994140625e+01,1.328683662414550781e+01,7.856788158416748047e+00,-2.689502239227294922e+00,3.200745820999145508e+00,9.908547401428222656e+00,9.221858978271484375e+00,8.064927101135253906e+00,1.292533683776855469e+01,-6.202137947082519531e+00,2.168609380722045898e+00,5.441750049591064453e+00,-2.224276512861251831e-01,-4.981507301330566406e+00,-8.292882919311523438e+00,9.936636924743652344e+00,9.924266815185546875e+00,6.769925117492675781e+00,1.866509795188903809e+00,1.313327699899673462e-01
1.962929844856262207e+00,2.071500205993652344e+01,1.287930583953857422e+01,7.338088512420654297e+00,2.113630771636962891e+00,2.169126510620117188e+00,1.019765853881835938e+01,1.058262920379638672e+01,7.986938953399658203e+00,1.373112678527832031e+01,-6.116704940795898438e+00,3.090986728668212891e+00,5.252104282379150391e+00,-1.511003971099853516e-01,-6.558767318725585938e+00,-8.370730400085449219e+00,9.596471786499023438e+00,1.000801753997802734e+01,7.209598064422607422e+00,2.094750881195068359e+00,1.364344954490661621e-01
6.001065254211425781e+00,2.142012405395507812e+01,1.181321144104003906e+01,6.329691410064697266e+00,6.057044982910156250e+00,1.293550491333007812e+00,9.422622680664062500e+00,1.166739940643310547e+01,7.340939998626708984e+00,1.399336624145507812e+01,-6.609406471252441406e+00,4.442551612854003906e+00,4.617771625518798828e+00,-5.409532040357589722e-02,-8.201746940612792969e+00,-8.111885070800781250e+00,8.980279922485351562e+00,9.814193725585937500e+00,7.369248390197753906e+00,2.213943719863891602e+00,1.413954049348831177e-01
9.400686264038085938e+00,2.084354019165039062e+01,9.974067687988281250e+00,4.849444866180419922e+00,8.231627464294433594e+00,9.537230134010314941e-01,7.659448146820068359e+00,1.235739898681640625e+01,6.008648395538330078e+00,1.339855957031250000e+01,-7.646302700042724609e+00,5.996161460876464844e+00,3.460278272628784180e+00,-4.981568455696105957e-02,-9.645792007446289062e+00,-7.675933837890625000e+00,7.975818157196044922e+00,9.018556594848632812e+00,7.023338794708251953e+00,2.263395786285400391e+00,1.451214998960494995e-01
1.149255466461181641e+01,1.885304450988769531e+01,7.275746822357177734e+00,2.974317073822021484e+00,8.118722915649414062e+00,1.357701659202575684e+00,5.281402587890625000e+00,1.231667804718017578e+01,3.886080503463745117e+00,1.164036464691162109e+01,-8.972266197204589844e+00,7.271175384521484375e+00,1.744310617446899414e+00,-3.764945268630981445e-01,-1.084472370147705078e+01,-7.347024440765380859e+00,6.406705379486083984e+00,7.257386207580566406e+00,5.933660030364990234e+00,2.296364068984985352e+00,1.463454812765121460e-01
1.174769401550292969e+01,1.547250556945800781e+01,3.782318830490112305e+00,8.560140132904052734e-01,5.861814975738525391e+00,2.422263383865356445e+00,2.801556825637817383e+00,1.119344902038574219e+01,9.771357774734497070e-01,8.607925415039062500e+00,-1.025141716003417969e+01,7.729226589202880859e+00,-4.908941984176635742e-01,-1.270938396453857422e+00,-1.194773960113525391e+01,-7.417088031768798828e+00,4.172151088714599609e+00,4.348824024200439453e+00,3.958300352096557617e+00,2.322992086410522461e+00,1.448290497064590454e-01
1.005790138244628906e+01,1.109855461120605469e+01,-2.257749289274215698e-01,-1.236632943153381348e+00,2.232415199279785156e+00,3.779839515686035156e+00,6.515430808067321777e-01,8.906269073486328125e+00,-2.531015157699584961e+00,4.543217658996582031e+00,-1.116309070587158203e+01,7.084189891815185547e+00,-3.081848382949829102e+00,-2.821593046188354492e+00,-1.313956546783447266e+01,-8.030143737792968750e+00,1.377526640892028809e+00,4.854966402053833008e-01,1.161880254745483398e+00,2.284951925277709961e+00,1.417745202779769897e-01
6.890710353851318359e+00,6.586884975433349609e+00,-4.274831771850585938e+00,-2.945553779602050781e+00,-1.662779688835144043e+00,4.892948150634765625e+00,-9.066739678382873535e-01,5.813713073730468750e+00,-6.236735343933105469e+00,2.197501063346862793e-02,-1.149897003173828125e+01,5.569483280181884766e+00,-5.730350494384765625e+00,-4.862979412078857422e+00,-1.444862079620361328e+01,-9.051904678344726562e+00,-1.619822740554809570e+00,-3.783426046371459961e+00,-2.150236606597900391e+00,2.098555088043212891e+00,1.394132077693939209e-01
3.161145925521850586e+00,3.041083812713623047e+00,-7.842833518981933594e+00,-3.924948215484619141e+00,-4.831153869628906250e+00,5.232775688171386719e+00,-1.836446404457092285e+00,2.596730232238769531e+00,-9.650001525878906250e+00,-4.254908561706542969e+00,-1.126490783691406250e+01,3.874066114425659180e+00,-8.087189674377441406e+00,-7.041313648223876953e+00,-1.567952346801757812e+01,-1.011648178100585938e+01,-4.328547000885009766e+00,-7.761611938476562500e+00,-5.529508113861083984e+00,1.704204916954040527e+00,1.401605904102325439e-01
-6.882791966199874878e-02,1.427018761634826660e+00,-1.050964450836181641e+01,-3.978491306304931641e+00,-6.662319183349609375e+00,4.495904922485351562e+00,-2.284365892410278320e+00,-4.908194299787282944e-03,-1.232628250122070312e+01,-7.700970172882080078e+00,-1.059665966033935547e+01,2.813646078109741211e+00,-9.813620567321777344e+00,-8.934339523315429688e+00,-1.643085289001464844e+01,-1.072759151458740234e+01,-6.291656017303466797e+00,-1.086040973663330078e+01,-8.500783920288085938e+00,1.101901769638061523e+00,1.452298164367675781e-01
-1.917580604553222656e+00,2.097250461578369141e+00,-1.208410263061523438e+01,-3.159726619720458984e+00,-6.995151042938232422e+00,2.755155563354492188e+00,-2.485250949859619141e+00,-1.503678202629089355e+00,-1.401081848144531250e+01,-1.002774715423583984e+01,-9.593702316284179688e+00,2.975532531738281250e+00,-1.065329456329345703e+01,-1.020253753662109375e+01,-1.625323295593261719e+01,-1.046874523162841797e+01,-7.249158382415771484e+00,-1.280463600158691406e+01,-1.069154453277587891e+01,3.677258193492889404e-01,1.540576368570327759e-01
-1.949639797210693359e+00,4.634949684143066406e+00,-1.264813518524169922e+01,-1.825608253479003906e+00,-6.020176410675048828e+00,4.249098002910614014e-01,-2.650845527648925781e+00,-1.913153529167175293e+00,-1.473350524902343750e+01,-1.132940769195556641e+01,-8.336787223815917969e+00,4.309528827667236328e+00,-1.055389404296875000e+01,-1.076031684875488281e+01,-1.489622211456298828e+01,-9.219278335571289062e+00,-7.257175922393798828e+00,-1.370914936065673828e+01,-1.196875000000000000e+01,-3.651820421218872070e-01,1.644885390996932983e-01
-2.277885824441909790e-01,8.011816024780273438e+00,-1.251474189758300781e+01,-5.561880469322204590e-01,-4.090219974517822266e+00,-1.924407958984375000e+00,-2.946743965148925781e+00,-1.709547042846679688e+00,-1.478809738159179688e+01,-1.198381328582763672e+01,-6.912517070770263672e+00,6.095301151275634766e+00,-9.701141357421875000e+00,-1.079740715026855469e+01,-1.246461200714111328e+01,-7.247767448425292969e+00,-6.661600112915039062e+00,-1.397595787048339844e+01,-1.247177600860595703e+01,-9.395890831947326660e-01,1.739012748003005981e-01
2.772427082061767578e+00,1.092778301239013672e+01,-1.211876392364501953e+01,2.720979414880275726e-02,-1.615736246109008789e+00,-3.822934150695800781e+00,-3.546684741973876953e+00,-1.589645385742187500e+00,-1.463082218170166016e+01,-1.246895599365234375e+01,-5.447286605834960938e+00,7.355256080627441406e+00,-8.495255470275878906e+00,-1.070468139648437500e+01,-9.494815826416015625e+00,-5.145860671997070312e+00,-5.973252296447753906e+00,-1.409919166564941406e+01,-1.254780006408691406e+01,-1.245178699493408203e+00,1.804544329643249512e-01
6.339023590087890625e+00,1.230864429473876953e+01,-1.185933017730712891e+01,-5.238390564918518066e-01,9.610669612884521484e-01,-5.109424114227294922e+00,-4.601331710815429688e+00,-2.140514135360717773e+00,-1.470750999450683594e+01,-1.317700195312500000e+01,-4.126004219055175781e+00,7.283724784851074219e+00,-7.428007602691650391e+00,-1.090867805480957031e+01,-6.775463104248046875e+00,-3.606408596038818359e+00,-5.680045604705810547e+00,-1.447607231140136719e+01,-1.262762546539306641e+01,-1.274342894554138184e+00,1.834548115730285645e-01
9.670518875122070312e+00,1.160352325439453125e+01,-1.197801876068115234e+01,-2.345423460006713867e+00,3.139177083969116211e+00,-5.976330757141113281e+00,-6.128330230712890625e+00,-3.612136602401733398e+00,-1.528201961517333984e+01,-1.432489490509033203e+01,-3.128898382186889648e+00,5.587052345275878906e+00,-6.916617870330810547e+00,-1.172323513031005859e+01,-5.034792900085449219e+00,-3.147102832794189453e+00,-6.092367172241210938e+00,-1.529085254669189453e+01,-1.306349658966064453e+01,-1.137398123741149902e+00,1.830756962299346924e-01
1.199214553833007812e+01,8.825275421142578125e+00,-1.251054096221923828e+01,-5.230063915252685547e+00,4.397588729858398438e+00,-6.822432041168212891e+00,-7.886075019836425781e+00,-5.851808071136474609e+00,-1.635045242309570312e+01,-1.594720172882080078e+01,-2.594065666198730469e+00,2.576463222503662109e+00,-7.155963897705078125e+00,-1.322824001312255859e+01,-4.604953765869140625e+00,-3.900286197662353516e+00,-7.270919799804687500e+00,-1.651481819152832031e+01,-1.401253128051757812e+01,-1.061317682266235352e+00,1.799236834049224854e-01
1.262932395935058594e+01,4.387055873870849609e+00,-1.328884220123291016e+01,-8.742721557617187500e+00,4.359953880310058594e+00,-7.992756366729736328e+00,-9.369638442993164062e+00,-8.424036979675292969e+00,-1.766714668273925781e+01,-1.794141197204589844e+01,-2.562467336654663086e+00,-1.054063916206359863e+00,-8.070187568664550781e+00,-1.526819992065429688e+01,-5.269250392913818359e+00,-5.581811904907226562e+00,-9.026722908020019531e+00,-1.797448348999023438e+01,-1.540503978729248047e+01,-1.287022948265075684e+00,1.745511740446090698e-01
1.112387275695800781e+01,-1.116189241409301758e+00,-1.401987743377685547e+01,-1.235911846160888672e+01,2.961588382720947266e+00,-9.577462196350097656e+00,-9.953291893005371094e+00,-1.081188869476318359e+01,-1.886555862426757812e+01,-2.013349342346191406e+01,-3.008356094360351562e+00,-4.511410236358642578e+00,-9.385936737060546875e+00,-1.752642059326171875e+01,-6.377595424652099609e+00,-7.650633335113525391e+00,-1.100128555297851562e+01,-1.945089912414550781e+01,-1.699647712707519531e+01,-1.934974312782287598e+00,1.674131006002426147e-01
7.347555637359619141e+00,-6.935269832611083984e+00,-1.439274787902832031e+01,-1.556724929809570312e+01,5.506131052970886230e-01,-1.133901691436767578e+01,-9.183684349060058594e+00,-1.253801918029785156e+01,-1.961944198608398438e+01,-2.229935073852539062e+01,-3.910666704177856445e+00,-7.121675014495849609e+00,-1.077100563049316406e+01,-1.963200187683105469e+01,-7.173330307006835938e+00,-9.554026603698730469e+00,-1.276625156402587891e+01,-2.074066925048828125e+01,-1.847007751464843750e+01,-2.943039655685424805e+00,1.592243462800979614e-01
1.591576337814331055e+00,-1.219796562194824219e+01,-1.417532825469970703e+01,-1.793876647949218750e+01,-2.200250864028930664e+00,-1.284570121765136719e+01,-7.039099693298339844e+00,-1.326873970031738281e+01,-1.976501846313476562e+01,-2.417674636840820312e+01,-5.249503612518310547e+00,-8.507122993469238281e+00,-1.199520206451416016e+01,-2.127823448181152344e+01,-7.201749324798583984e+00,-1.094167423248291016e+01,-1.394365882873535156e+01,-2.169184303283691406e+01,-1.956609153747558594e+01,-4.039865493774414062e+00,1.511547416448593140e-01
-5.456125259399414062e+00,-1.594942760467529297e+01,-1.329619407653808594e+01,-1.914571952819824219e+01,-4.593584537506103516e+00,-1.368486690521240234e+01,-4.067900180816650391e+00,-1.286039543151855469e+01,-1.933608627319335938e+01,-2.548913383483886719e+01,-7.000290393829345703e+00,-8.616302490234375000e+00,-1.301144218444824219e+01,-2.228965568542480469e+01,-6.510809898376464844e+00,-1.175713634490966797e+01,-1.428840541839599609e+01,-2.219794082641601562e+01,-2.015654563903808594e+01,-4.823493480682373047e+00,1.444932669401168823e-01
-1.282976245880126953e+01,-1.737986755371093750e+01,-1.187088394165039062e+01,-1.901743888854980469e+01,-6.191884994506835938e+00,-1.369700431823730469e+01,-1.289441585540771484e+00,-1.141026496887207031e+01,-1.854191017150878906e+01,-2.602672386169433594e+01,-9.108022689819335938e+00,-7.644982814788818359e+00,-1.395313167572021484e+01,-2.264914512634277344e+01,-5.619160652160644531e+00,-1.217557144165039062e+01,-1.375124168395996094e+01,-2.221588706970214844e+01,-2.028071975708007812e+01,-4.935078144073486328e+00,1.404530555009841919e-01
-1.948073005676269531e+01,-1.615876007080078125e+01,-1.013992500305175781e+01,-1.758738899230957031e+01,-6.963397026062011719e+00,-1.306242847442626953e+01,2.429861873388290405e-01,-9.282577514648437500e+00,-1.763075256347656250e+01,-2.571442031860351562e+01,-1.142992210388183594e+01,-5.978429317474365234e+00,-1.500991630554199219e+01,-2.248223876953125000e+01,-5.187545776367187500e+00,-1.246166419982910156e+01,-1.247075366973876953e+01,-2.174927330017089844e+01,-2.009319305419921875e+01,-4.257962703704833984e+00,1.393807083368301392e-01
-2.448331642150878906e+01,-1.265151977539062500e+01,-8.373254776000976562e+00,-1.510878562927246094e+01,-7.220959663391113281e+00,-1.217644882202148438e+01,-9.634680300951004028e-02,-7.058742046356201172e+00,-1.677938461303710938e+01,-2.464639282226562500e+01,-1.370032691955566406e+01,-4.077202320098876953e+00,-1.627465820312500000e+01,-2.198722839355468750e+01,-5.636922836303710938e+00,-1.279252052307128906e+01,-1.070006179809570312e+01,-2.084356307983398438e+01,-1.976502227783203125e+01,-2.997564077377319336e+00,1.405397057533264160e-01
-2.716160392761230469e+01,-7.846050262451171875e+00,-6.801947593688964844e+00,-1.201889610290527344e+01,-7.378554821014404297e+00,-1.143090915679931641e+01,-2.269435167312622070e+00,-5.365414619445800781e+00,-1.603720092773437500e+01,-2.304554176330566406e+01,-1.567113208770751953e+01,-2.369235754013061523e+00,-1.769503974914550781e+01,-2.137096023559570312e+01,-6.954858303070068359e+00,-1.322457885742187500e+01,-8.716336250305175781e+00,-1.955857849121093750e+01,-1.942164611816406250e+01,-1.621776700019836426e+00,1.424027532339096069e-01
-2.718965530395507812e+01,-2.976311922073364258e+00,-5.560447216033935547e+00,-8.854269981384277344e+00,-7.652583122253417969e+00,-1.100959205627441406e+01,-5.596255779266357422e+00,-4.657316684722900391e+00,-1.533401203155517578e+01,-2.117291450500488281e+01,-1.717615318298339844e+01,-1.203401207923889160e+00,-1.909449577331542969e+01,-2.078892898559570312e+01,-8.766576766967773438e+00,-1.373837852478027344e+01,-6.731465816497802734e+00,-1.794098281860351562e+01,-1.910994720458984375e+01,-6.289274692535400391e-01,1.433992683887481689e-01
-2.463292694091796875e+01,9.036871790885925293e-01,-4.671860218048095703e+00,-6.086755275726318359e+00,-7.936019420623779297e+00,-1.078593063354492188e+01,-9.066953659057617188e+00,-5.007972240447998047e+00,-1.453203678131103516e+01,-1.920731163024902344e+01,-1.814517211914062500e+01,-7.516245245933532715e-01,-2.025591278076171875e+01,-2.030533027648925781e+01,-1.058362293243408203e+01,-1.432613372802734375e+01,-4.854257106781005859e+00,-1.600991821289062500e+01,-1.881218719482421875e+01,-3.157297968864440918e-01,1.425002366304397583e-01
-1.996162033081054688e+01,3.347737789154052734e+00,-4.102576255798339844e+00,-3.994108200073242188e+00,-7.931314945220947266e+00,-1.035247707366943359e+01,-1.179247665405273438e+01,-6.061069965362548828e+00,-1.353379344940185547e+01,-1.720714187622070312e+01,-1.859925270080566406e+01,-1.025200366973876953e+00,-2.104719352722167969e+01,-1.990447235107421875e+01,-1.210049247741699219e+01,-1.503844642639160156e+01,-3.124796628952026367e+00,-1.379529380798339844e+01,-1.850809097290039062e+01,-6.314634680747985840e-01,1.395540237426757812e-01
-1.400927734375000000e+01,4.587207317352294922e+00,-3.831588983535766602e+00,-2.634333848953247070e+00,-7.399724483489990234e+00,-9.260174751281738281e+00,-1.333712005615234375e+01,-7.201266288757324219e+00,-1.238087368011474609e+01,-1.518074798583984375e+01,-1.860042381286621094e+01,-1.958872079849243164e+00,-2.146702957153320312e+01,-1.955354118347167969e+01,-1.330297565460205078e+01,-1.597457408905029297e+01,-1.606078624725341797e+00,-1.141556072235107422e+01,-1.821666526794433594e+01,-1.186850428581237793e+00,1.350913643836975098e-01
-7.828512668609619141e+00,5.189497947692871094e+00,-3.903012037277221680e+00,-1.928232789039611816e+00,-6.381234645843505859e+00,-7.266288280487060547e+00,-1.379861259460449219e+01,-7.916151523590087891e+00,-1.128384590148925781e+01,-1.319249820709228516e+01,-1.824230766296386719e+01,-3.469813823699951172e+00,-2.166583061218261719e+01,-1.926965904235839844e+01,-1.440954494476318359e+01,-1.721820259094238281e+01,-4.573047161102294922e-01,-9.123168945312500000e+00,-1.803293991088867188e+01,-1.441719770431518555e+00,1.295022219419479370e-01
-2.455909490585327148e+00,5.679776668548583984e+00,-4.423980236053466797e+00,-1.750870823860168457e+00,-5.219262123107910156e+00,-4.478315830230712891e+00,-1.365337848663330078e+01,-8.004381179809570312e+00,-1.055595970153808594e+01,-1.141403961181640625e+01,-1.763023567199707031e+01,-5.471435546875000000e+00,-2.186332321166992188e+01,-1.913271141052246094e+01,-1.565643310546875000e+01,-1.877127838134765625e+01,8.444011211395263672e-02,-7.283033370971679688e+00,-1.808615684509277344e+01,-1.000453472137451172e+00,1.225591152906417847e-01
1.391205787658691406e+00,6.291248321533203125e+00,-5.511081218719482422e+00,-2.034203767776489258e+00,-4.433637142181396484e+00,-1.340112686157226562e+00,-1.346606636047363281e+01,-7.633364677429199219e+00,-1.050786685943603516e+01,-1.013264274597167969e+01,-1.696315765380859375e+01,-7.847027301788330078e+00,-2.228577613830566406e+01,-1.927821922302246094e+01,-1.717152595520019531e+01,-2.054622077941894531e+01,-2.282371371984481812e-01,-6.283999919891357422e+00,-1.849921989440917969e+01,2.142970114946365356e-01,1.133738532662391663e-01
3.495096921920776367e+00,6.966989040374755859e+00,-7.200026035308837891e+00,-2.778231143951416016e+00,-4.439517498016357422e+00,1.541485905647277832e+00,-1.361944484710693359e+01,-7.168463230133056641e+00,-1.131764030456542969e+01,-9.634388923645019531e+00,-1.662727737426757812e+01,-1.032803440093994141e+01,-2.310190773010253906e+01,-1.981745338439941406e+01,-1.892640495300292969e+01,-2.240290641784667969e+01,-1.522468924522399902e+00,-6.390483856201171875e+00,-1.933041763305664062e+01,1.979362368583679199e+00,1.010474041104316711e-01
4.156320095062255859e+00,7.609676837921142578e+00,-9.363724708557128906e+00,-3.943911314010620117e+00,-5.263953208923339844e+00,3.667141675949096680e+00,-1.419495391845703125e+01,-6.874364852905273438e+00,-1.292288875579833984e+01,-1.003251552581787109e+01,-1.707199668884277344e+01,-1.248652267456054688e+01,-2.433525848388671875e+01,-2.074185371398925781e+01,-2.075943756103515625e+01,-2.414670944213867188e+01,-3.672268152236938477e+00,-7.600091934204101562e+00,-2.049865531921386719e+01,3.899124622344970703e+00,8.539563417434692383e-02
