Fp1,Fp2,F7,F3,Fz,F4,F8,T3,C3,Cz,C4,T4,T5,P3,Pz,P4,T6,O1,Oz,O2,A1
-4.767863273620605469e+00,-6.284852027893066406e+00,-6.864371776580810547e+00,-6.019196987152099609e+00,-5.853854656219482422e+00,-6.170722007751464844e+00,-3.057029962539672852e+00,8.293305397033691406e+00,1.395102977752685547e+00,7.472931861877441406e+00,-1.314689874649047852e+00,5.462048053741455078e+00,1.229037666320800781e+01,2.213236808776855469e+01,2.056066131591796875e+01,2.255586051940917969e+01,-6.516887664794921875e+00,3.103648662567138672e+00,1.692041015625000000e+01,9.376479983329772949e-01,-4.165683686733245850e-02
-4.592804431915283203e+00,-5.743401527404785156e+00,-6.383650779724121094e+00,-5.962277889251708984e+00,-4.919556617736816406e+00,-6.183292388916015625e+00,-2.350973129272460938e+00,8.924156188964843750e+00,1.618382096290588379e+00,8.126961708068847656e+00,-5.616710782051086426e-01,6.017820835113525391e+00,1.350939846038818359e+01,2.291285324096679688e+01,2.162516593933105469e+01,2.327800750732421875e+01,-6.238997936248779297e+00,3.579737663269042969e+00,1.783946228027343750e+01,1.222530364990234375e+00,-4.036786034703254700e-02
-3.712478876113891602e+00,-4.531723022460937500e+00,-5.135888099670410156e+00,-5.191399097442626953e+00,-3.461077213287353516e+00,-5.680477142333984375e+00,-1.238765478134155273e+00,9.816245079040527344e+00,2.579685688018798828e+00,9.238108634948730469e+00,5.312423706054687500e-01,6.604146480560302734e+00,1.508813285827636719e+01,2.381412887573242188e+01,2.275308036804199219e+01,2.411523246765136719e+01,-5.204963207244873047e+00,4.715819835662841797e+00,1.908532714843750000e+01,1.816035151481628418e+00,-3.961864113807678223e-02
-2.347219705581665039e+00,-2.933712244033813477e+00,-3.356690883636474609e+00,-3.836483955383300781e+00,-1.750119447708129883e+00,-4.736301898956298828e+00,1.356918960809707642e-01,1.077335929870605469e+01,4.216174602508544922e+00,1.057289123535156250e+01,1.836935520172119141e+00,7.117726802825927734e+00,1.691238403320312500e+01,2.470456314086914062e+01,2.384832954406738281e+01,2.494078254699707031e+01,-3.563864707946777344e+00,6.400177955627441406e+00,2.054353523254394531e+01,2.714771032333374023e+00,-3.929639607667922974e-02
-7.807431817054748535e-01,-1.337165117263793945e+00,-1.372526884078979492e+00,-2.088086128234863281e+00,-8.786323666572570801e-02,-3.493230819702148438e+00,1.551840186119079590e+00,1.150916194915771484e+01,6.284514904022216797e+00,1.180781078338623047e+01,3.173025608062744141e+00,7.324323177337646484e+00,1.868524742126464844e+01,2.529767036437988281e+01,2.470531463623046875e+01,2.550115585327148438e+01,-1.539922714233398438e+00,8.361251831054687500e+00,2.192543411254882812e+01,3.735599279403686523e+00,-3.914333134889602661e-02
7.283863425254821777e-01,-5.085430666804313660e-02,5.102102756500244141e-01,-1.367604881525039673e-01,1.274494767189025879e+00,-2.103505373001098633e+00,2.767602920532226562e+00,1.173959922790527344e+01,8.441097259521484375e+00,1.263624858856201172e+01,4.325351715087890625e+00,6.963507175445556641e+00,1.998991584777832031e+01,2.524656867980957031e+01,2.504926109313964844e+01,2.549948883056640625e+01,6.199821829795837402e-01,1.025873279571533203e+01,2.283453369140625000e+01,4.569897651672363281e+00,-3.877275064587593079e-02
2.034286499023437500e+00,7.964425683021545410e-01,2.106627702713012695e+00,1.891281843185424805e+00,2.201103448867797852e+00,-6.551182866096496582e-01,3.609491586685180664e+00,1.131066608428955078e+01,1.037573719024658203e+01,1.288942146301269531e+01,5.107385635375976562e+00,5.905793190002441406e+00,2.046382141113281250e+01,2.430193138122558594e+01,2.465535545349121094e+01,2.472397232055664062e+01,2.730988264083862305e+00,1.181590461730957031e+01,2.295065879821777344e+01,4.919217586517333984e+00,-3.785435482859611511e-02
3.119853734970092773e+00,1.321795821189880371e+00,3.390312194824218750e+00,3.946546316146850586e+00,2.700933694839477539e+00,8.519306182861328125e-01,4.033125877380371094e+00,1.028624629974365234e+01,1.193869113922119141e+01,1.262780952453613281e+01,5.416883468627929688e+00,4.276302814483642578e+00,1.995993995666503906e+01,2.245447349548339844e+01,2.347748184204101562e+01,2.317960929870605469e+01,4.707223892211914062e+00,1.295026779174804688e+01,2.217593383789062500e+01,4.630943775177001953e+00,-3.622702136635780334e-02
4.076641559600830078e+00,1.791540741920471191e+00,4.463747024536132812e+00,6.040169239044189453e+00,2.904710769653320312e+00,2.469319581985473633e+00,4.123231887817382812e+00,8.957239151000976562e+00,1.317408084869384766e+01,1.212709045410156250e+01,5.282859802246093750e+00,2.430032253265380859e+00,1.864099693298339844e+01,1.999222564697265625e+01,2.170394706726074219e+01,2.112990951538085938e+01,6.563000679016113281e+00,1.379932117462158203e+01,2.072104263305664062e+01,3.792123556137084961e+00,-3.397936746478080750e-02
5.036448001861572266e+00,2.477865934371948242e+00,5.483298778533935547e+00,8.193184852600097656e+00,3.034153938293457031e+00,4.234759807586669922e+00,4.057333469390869141e+00,7.743449687957763672e+00,1.427042102813720703e+01,1.178108692169189453e+01,4.869735717773437500e+00,8.543732166290283203e-01,1.692951393127441406e+01,1.743706512451171875e+01,1.972481155395507812e+01,1.901850318908691406e+01,8.362722396850585938e+00,1.465868759155273438e+01,1.904053688049316406e+01,2.675204038619995117e+00,-3.144975006580352783e-02
6.099881649017333984e+00,3.506621837615966797e+00,6.571525096893310547e+00,1.036723709106445312e+01,3.313546180725097656e+00,6.072828769683837891e+00,4.022367000579833984e+00,7.031603336334228516e+00,1.542024135589599609e+01,1.193721008300781250e+01,4.416543006896972656e+00,-3.457194566726684570e-02,1.534792423248291016e+01,1.535267162322998047e+01,1.800123596191406250e+01,1.731570053100585938e+01,1.014216995239257812e+01,1.582570743560791016e+01,1.764702606201171875e+01,1.606895327568054199e+00,-2.899263612926006317e-02
7.273984432220458984e+00,4.773908615112304688e+00,7.747443675994873047e+00,1.242497634887695312e+01,3.905652999877929688e+00,7.778210163116455078e+00,4.147439956665039062e+00,7.011069297790527344e+00,1.668638229370117188e+01,1.274454975128173828e+01,4.140205860137939453e+00,-6.221508607268333435e-02,1.429162883758544922e+01,1.413858318328857422e+01,1.686179161071777344e+01,1.633337974548339844e+01,1.183812999725341797e+01,1.744475364685058594e+01,1.690713882446289062e+01,8.144251108169555664e-01,-2.694638445973396301e-02
8.492354393005371094e+00,6.000220775604248047e+00,8.944492340087890625e+00,1.414862632751464844e+01,4.882244586944580078e+00,9.054801940917968750e+00,4.472898483276367188e+00,7.619104862213134766e+00,1.797257614135742188e+01,1.409058475494384766e+01,4.170602798461914062e+00,6.623261570930480957e-01,1.389623165130615234e+01,1.389700412750244141e+01,1.640447807312011719e+01,1.612490653991699219e+01,1.328840351104736328e+01,1.944192123413085938e+01,1.690382003784179688e+01,3.486650884151458740e-01,-2.545600570738315582e-02
9.645329475402832031e+00,6.846054553985595703e+00,1.004856681823730469e+01,1.528824043273925781e+01,6.211280345916748047e+00,9.614882469177246094e+00,4.963776111602783203e+00,8.572795867919921875e+00,1.906490516662597656e+01,1.565040969848632812e+01,4.496680736541748047e+00,1.813153743743896484e+00,1.402327251434326172e+01,1.442042446136474609e+01,1.647557258605957031e+01,1.648848342895507812e+01,1.427234649658203125e+01,2.154393005371093750e+01,1.743799972534179688e+01,1.169155985116958618e-01,-2.460205741226673126e-02
1.063230037689208984e+01,7.065561294555664062e+00,1.095401287078857422e+01,1.563965225219726562e+01,7.768444061279296875e+00,9.264308929443359375e+00,5.546104907989501953e+00,9.496827125549316406e+00,1.974945068359375000e+01,1.700910377502441406e+01,4.994087696075439453e+00,2.993079423904418945e+00,1.437013721466064453e+01,1.532015132904052734e+01,1.676571846008300781e+01,1.705886268615722656e+01,1.459675025939941406e+01,2.339672470092773438e+01,1.814470863342285156e+01,-4.022186994552612305e-02,-2.449732832610607147e-02
1.141000556945800781e+01,6.606060028076171875e+00,1.161540126800537109e+01,1.513604450225830078e+01,9.384562492370605469e+00,8.032411575317382812e+00,6.164745330810546875e+00,1.008432865142822266e+01,1.993663024902343750e+01,1.784176063537597656e+01,5.514983177185058594e+00,3.902393102645874023e+00,1.465562248229980469e+01,1.619664955139160156e+01,1.696939659118652344e+01,1.747580718994140625e+01,1.419840145111083984e+01,2.472530555725097656e+01,1.869879341125488281e+01,-2.606665194034576416e-01,-2.531905099749565125e-02
1.199152278900146484e+01,5.631449222564697266e+00,1.206865310668945312e+01,1.389620399475097656e+01,1.089302444458007812e+01,6.156630992889404297e+00,6.807592868804931641e+00,1.020639228820800781e+01,1.971602630615234375e+01,1.803445243835449219e+01,5.965412616729736328e+00,4.449436187744140625e+00,1.476553440093994141e+01,1.680679130554199219e+01,1.692328071594238281e+01,1.753251266479492188e+01,1.319299030303955078e+01,2.543857955932617188e+01,1.895261192321777344e+01,-6.258133053779602051e-01,-2.718001231551170349e-02
1.241709804534912109e+01,4.443184852600097656e+00,1.239406394958496094e+01,1.219111347198486328e+01,1.215413475036621094e+01,4.007096290588378906e+00,7.506925582885742188e+00,9.936027526855468750e+00,1.932027244567871094e+01,1.770532798767089844e+01,6.363337993621826172e+00,4.754965782165527344e+00,1.477267169952392578e+01,1.710876464843750000e+01,1.665811538696289062e+01,1.722897720336914062e+01,1.185363483428955078e+01,2.563795089721679688e+01,1.897086143493652344e+01,-1.177490115165710449e+00,-2.993520162999629974e-02
1.272194194793701172e+01,3.364673852920532227e+00,1.267510128021240234e+01,1.037961006164550781e+01,1.308843326568603516e+01,1.993041872978210449e+00,8.301743507385253906e+00,9.481997489929199219e+00,1.901543617248535156e+01,1.713709640502929688e+01,6.816531181335449219e+00,5.080863952636718750e+00,1.486688137054443359e+01,1.721871376037597656e+01,1.633722496032714844e+01,1.674365234375000000e+01,1.052262783050537109e+01,2.553654670715332031e+01,1.895924758911132812e+01,-1.958655595779418945e+00,-3.295624256134033203e-02
1.291007995605468750e+01,2.637374162673950195e+00,1.294451618194580078e+01,8.794545173645019531e+00,1.366131591796875000e+01,4.692323803901672363e-01,9.193392753601074219e+00,9.075880050659179688e+00,1.898602294921875000e+01,1.662371826171875000e+01,7.442434787750244141e+00,5.671554088592529297e+00,1.519661712646484375e+01,1.730233764648437500e+01,1.614892005920410156e+01,1.631836891174316406e+01,9.490978240966796875e+00,2.534232902526855469e+01,1.912680053710937500e+01,-3.017920494079589844e+00,-3.517166897654533386e-02
1.292617702484130859e+01,2.359332084655761719e+00,1.314314460754394531e+01,7.637608051300048828e+00,1.384458732604980469e+01,-3.380653858184814453e-01,1.008100700378417969e+01,8.854568481445312500e+00,1.921999740600585938e+01,1.632975769042968750e+01,8.260393142700195312e+00,6.636154174804687500e+00,1.573618412017822266e+01,1.743706512451171875e+01,1.616813468933105469e+01,1.610322570800781250e+01,8.887492179870605469e+00,2.513951873779296875e+01,1.953324127197265625e+01,-4.397112369537353516e+00,-3.531667962670326233e-02
1.267666816711425781e+01,2.464695453643798828e+00,1.313152217864990234e+01,6.938496589660644531e+00,1.357929229736328125e+01,-3.534291684627532959e-01,1.076285648345947266e+01,8.820344924926757812e+00,1.952483367919921875e+01,1.624255371093750000e+01,9.122564315795898438e+00,7.893189907073974609e+00,1.624434852600097656e+01,1.754856300354003906e+01,1.629495239257812500e+01,1.608821678161621094e+01,8.646575927734375000e+00,2.486795997619628906e+01,2.003590011596679688e+01,-6.064578533172607422e+00,-3.238425776362419128e-02
1.206798553466796875e+01,2.779322147369384766e+00,1.274271965026855469e+01,6.577185630798339844e+00,1.277956390380859375e+01,3.519088327884674072e-01,1.096862125396728516e+01,8.868257522583007812e+00,1.959703254699707031e+01,1.619754409790039062e+01,9.751232147216796875e+00,9.199691772460937500e+00,1.635283279418945312e+01,1.744480705261230469e+01,1.628150177001953125e+01,1.609155082702636719e+01,8.554740905761718750e+00,2.436093330383300781e+01,2.032123756408691406e+01,-7.860919952392578125e+00,-2.607632614672183990e-02
1.106391143798828125e+01,3.099802255630493164e+00,1.185840320587158203e+01,6.348273277282714844e+00,1.138131999969482422e+01,1.572632431983947754e+00,1.047101974487304688e+01,8.854568481445312500e+00,1.914780044555664062e+01,1.598375415802001953e+01,9.821698188781738281e+00,1.027340984344482422e+01,1.571762752532958984e+01,1.689505958557128906e+01,1.584532451629638672e+01,1.584805583953857422e+01,8.353181838989257812e+00,2.345344161987304688e+01,2.002594757080078125e+01,-9.496731758117675781e+00,-1.695681177079677582e-02
9.734871864318847656e+00,3.297358512878417969e+00,1.047857475280761719e+01,6.072340488433837891e+00,9.407631874084472656e+00,3.025209665298461914e+00,9.193392753601074219e+00,8.686874389648437500e+00,1.802204513549804688e+01,1.545490455627441406e+01,9.151579856872558594e+00,1.088446807861328125e+01,1.419741821289062500e+01,1.575840091705322266e+01,1.480771923065185547e+01,1.512757587432861328e+01,7.867769241333007812e+00,2.207158088684082031e+01,1.889123153686523438e+01,-1.059330272674560547e+01,-6.258301436901092529e-03
8.256930351257324219e+00,3.357357025146484375e+00,8.744808197021484375e+00,5.657823085784912109e+00,7.028951644897460938e+00,4.400968074798583984e+00,7.268883705139160156e+00,8.372018814086914062e+00,1.628661918640136719e+01,1.459833717346191406e+01,7.780947685241699219e+00,1.097758197784423828e+01,1.192780971527099609e+01,1.406425094604492188e+01,1.318021774291992188e+01,1.385172557830810547e+01,7.073458671569824219e+00,2.028925514221191406e+01,1.687230110168457031e+01,-1.077757167816162109e+01,4.440209362655878067e-03
6.858470439910888672e+00,3.319309234619140625e+00,6.894823551177978516e+00,5.096058845520019531e+00,4.543897628784179688e+00,5.423358917236328125e+00,5.001432418823242188e+00,7.983013153076171875e+00,1.415677642822265625e+01,1.350266170501708984e+01,5.984756469726562500e+00,1.064877414703369141e+01,9.261376380920410156e+00,1.198295497894287109e+01,1.115881061553955078e+01,1.211056518554687500e+01,6.066854476928710938e+00,1.828693199157714844e+01,1.414334392547607422e+01,-9.817790031433105469e+00,1.362417172640562057e-02
5.727629661560058594e+00,3.219799280166625977e+00,5.174791812896728516e+00,4.426644325256347656e+00,2.294661283493041992e+00,5.891256332397460938e+00,2.767602920532226562e+00,7.596289157867431641e+00,1.193735504150390625e+01,1.229587173461914062e+01,4.142969131469726562e+00,1.007845306396484375e+01,6.630629539489746094e+00,9.754544258117675781e+00,9.039406776428222656e+00,1.013091182708740234e+01,4.995847225189208984e+00,1.627257728576660156e+01,1.103946590423583984e+01,-7.737697124481201172e+00,2.033490873873233795e-02
4.941875934600830078e+00,3.017853021621704102e+00,3.748476028442382812e+00,3.670613765716552734e+00,5.529448986053466797e-01,5.713874340057373047e+00,8.726807832717895508e-01,7.215269088745117188e+00,9.871687889099121094e+00,1.104688644409179688e+01,2.601007699966430664e+00,9.433931350708007812e+00,4.375295162200927734e+00,7.591174125671386719e+00,7.079487323760986328e+00,8.156262397766113281e+00,3.961812019348144531e+00,1.438884735107421875e+01,7.917339324951171875e+00,-4.859480857849121094e+00,2.425823360681533813e-02
4.453924179077148438e+00,2.584692478179931641e+00,2.658136606216430664e+00,2.811882019042968750e+00,-5.569347739219665527e-01,4.916353702545166016e+00,-5.313637256622314453e-01,6.754394054412841797e+00,8.080106735229492188e+00,9.733201980590820312e+00,1.559216618537902832e+00,8.796684265136718750e+00,2.649536132812500000e+00,5.593502521514892578e+00,5.440456390380859375e+00,6.368403911590576172e+00,2.985024452209472656e+00,1.266495800018310547e+01,5.058984756469726562e+00,-1.734819412231445312e+00,2.578083798289299011e-02
4.139019012451171875e+00,1.768126726150512695e+00,1.837212443351745605e+00,1.788580536842346191e+00,-1.074707746505737305e+00,3.607637405395507812e+00,-1.470083117485046387e+00,6.058518886566162109e+00,6.527849197387695312e+00,8.250734329223632812e+00,1.016214132308959961e+00,8.147797584533691406e+00,1.400537848472595215e+00,3.758431673049926758e+00,4.137686252593994141e+00,4.824041366577148438e+00,2.005851745605468750e+00,1.102356815338134766e+01,2.595458269119262695e+00,9.941722750663757324e-01,2.573250047862529755e-02
3.851278543472290039e+00,4.949863255023956299e-01,1.161033034324645996e+00,5.351290702819824219e-01,-1.174673795700073242e+00,1.925999760627746582e+00,-2.106206655502319336e+00,4.962230205535888672e+00,5.065170288085937500e+00,6.470086574554443359e+00,8.227781057357788086e-01,7.417436599731445312e+00,4.384522140026092529e-01,1.991498470306396484e+00,3.061651945114135742e+00,3.454795360565185547e+00,9.384220838546752930e-01,9.332335472106933594e+00,5.101698637008666992e-01,2.764512300491333008e+00,2.508801221847534180e-02
3.503172636032104492e+00,-1.127901792526245117e+00,5.281713008880615234e-01,-9.707449674606323242e-01,-1.061891555786132812e+00,-4.251944832503795624e-03,-2.630706071853637695e+00,3.381110429763793945e+00,3.530293226242065430e+00,4.344842433929443359e+00,8.034344911575317383e-01,6.576503276824951172e+00,-4.265683591365814209e-01,2.199196964502334595e-01,2.091299533843994141e+00,2.175609350204467773e+00,-2.542366385459899902e-01,7.491572856903076172e+00,-1.278168082237243652e+00,3.244968652725219727e+00,2.456436492502689362e-02
3.105768442153930664e+00,-2.812251806259155273e+00,-9.729468822479248047e-02,-2.651087522506713867e+00,-8.773388266563415527e-01,-2.072777986526489258e+00,-3.144446611404418945e+00,1.388169169425964355e+00,1.853694319725036621e+00,1.965019226074218750e+00,8.739004731178283691e-01,5.693377494812011719e+00,-1.264467835426330566e+00,-1.529978990554809570e+00,1.176670432090759277e+00,9.814801812171936035e-01,-1.508913636207580566e+00,5.511592864990234375e+00,-2.806052207946777344e+00,2.446846008300781250e+00,2.439518831670284271e-02
2.751626014709472656e+00,-4.199535846710205078e+00,-6.731037497520446777e-01,-4.333904743194580078e+00,-6.504927873611450195e-01,-4.166444778442382812e+00,-3.620530605316162109e+00,-7.690441608428955078e-01,1.129191815853118896e-01,-4.260562360286712646e-01,1.082535028457641602e+00,4.961561679840087891e+00,-1.982463479042053223e+00,-3.080110549926757812e+00,3.965455293655395508e-01,4.162132274359464645e-03,-2.665792703628540039e+00,3.531613111495971680e+00,-3.992194890975952148e+00,7.058984637260437012e-01,2.407294325530529022e-02
2.540347814559936523e+00,-5.045369148254394531e+00,-1.132694482803344727e+00,-5.797708511352539062e+00,-3.441864848136901855e-01,-6.155358314514160156e+00,-3.924471378326416016e+00,-2.743732929229736328e+00,-1.495492815971374512e+00,-2.513324499130249023e+00,1.570270061492919922e+00,4.615295410156250000e+00,-2.370723485946655273e+00,-4.145535469055175781e+00,-8.959142118692398071e-02,-5.295269489288330078e-01,-3.549552679061889648e+00,1.757881164550781250e+00,-4.650794029235839844e+00,-1.465763926506042480e+00,2.255839481949806213e-02
2.499098300933837891e+00,-5.365849494934082031e+00,-1.453879714012145996e+00,-6.879166126251220703e+00,7.233878970146179199e-02,-7.920798301696777344e+00,-3.912367582321166992e+00,-4.207352638244628906e+00,-2.757621526718139648e+00,-4.036580085754394531e+00,2.433823823928833008e+00,4.837895393371582031e+00,-2.239400386810302734e+00,-4.456800460815429688e+00,-1.337856948375701904e-01,-3.894335329532623291e-01,-4.061203479766845703e+00,3.657077252864837646e-01,-4.584436416625976562e+00,-3.539074182510375977e+00,1.878813654184341431e-02
2.551414966583251953e+00,-5.463895797729492188e+00,-1.695825219154357910e+00,-7.544868946075439453e+00,5.503816604614257812e-01,-9.374772071838378906e+00,-3.538493633270263672e+00,-4.969392776489257812e+00,-3.558485031127929688e+00,-4.897367477416992188e+00,3.626218557357788086e+00,5.655550003051757812e+00,-1.532824039459228516e+00,-3.891567945480346680e+00,3.062354922294616699e-01,5.178378224372863770e-01,-4.250835895538330078e+00,-6.070949435234069824e-01,-3.726764440536499023e+00,-5.125144958496093750e+00,1.211768016219139099e-02
2.545378446578979492e+00,-5.777059078216552734e+00,-1.975805759429931641e+00,-7.898755550384521484e+00,9.528091549873352051e-01,-1.048375892639160156e+01,-2.891610860824584961e+00,-5.033276557922363281e+00,-3.920812368392944336e+00,-5.194141864776611328e+00,4.925003051757812500e+00,6.922770023345947266e+00,-3.837455511093139648e-01,-2.539654970169067383e+00,1.130554676055908203e+00,2.102227210998535156e+00,-4.294964313507080078e+00,-1.287713050842285156e+00,-2.203856945037841797e+00,-6.031794548034667969e+00,2.748426748439669609e-03
2.315990686416625977e+00,-6.662404060363769531e+00,-2.433283329010009766e+00,-8.149940490722656250e+00,1.086097240447998047e+00,-1.126870918273925781e+01,-2.190933704376220703e+00,-4.586091041564941406e+00,-4.015739440917968750e+00,-5.195548534393310547e+00,5.988901138305664062e+00,8.351484298706054688e+00,9.252047538757324219e-01,-6.921956539154052734e-01,2.135493755340576172e+00,4.090219020843505859e+00,-4.438083648681640625e+00,-1.939112663269042969e+00,-3.275951147079467773e-01,-6.252239227294921875e+00,-8.344832807779312134e-03
1.749564051628112793e+00,-8.206269264221191406e+00,-3.170741558074951172e+00,-8.512488365173339844e+00,7.721012830734252930e-01,-1.176314449310302734e+01,-1.706780314445495605e+00,-3.925580024719238281e+00,-4.070556640625000000e+00,-5.226491928100585938e+00,6.487689971923828125e+00,9.625978469848632812e+00,2.065718650817871094e+00,1.265213131904602051e+00,3.094317436218261719e+00,6.119904994964599609e+00,-4.894871711730957031e+00,-2.846603393554687500e+00,1.512169957160949707e+00,-5.948138713836669922e+00,-1.972811296582221985e-02
8.269827961921691895e-01,-1.018475914001464844e+01,-4.207198143005371094e+00,-9.113848686218261719e+00,-7.632869482040405273e-02,-1.198103141784667969e+01,-1.658365011215209961e+00,-3.335797071456909180e+00,-4.267095565795898438e+00,-5.531705856323242188e+00,6.238986492156982422e+00,1.049746417999267578e+01,2.790851354598999023e+00,2.977945804595947266e+00,3.855227231979370117e+00,7.882746696472167969e+00,-5.744044780731201172e+00,-4.180339813232421875e+00,2.986968040466308594e+00,-5.356894493103027344e+00,-3.003993071615695953e-02
-3.803208172321319580e-01,-1.215300464630126953e+01,-5.473978042602539062e+00,-9.942883491516113281e+00,-1.424588918685913086e+00,-1.194192314147949219e+01,-2.142518281936645508e+00,-3.000408172607421875e+00,-4.666858673095703125e+00,-6.185735225677490234e+00,5.269042968750000000e+00,1.086264514923095703e+01,3.013530015945434570e+00,4.227652072906494141e+00,4.372107982635498047e+00,9.186949729919433594e+00,-6.915235519409179688e+00,-5.923134803771972656e+00,3.929246425628662109e+00,-4.712518215179443359e+00,-3.843439370393753052e-02
-1.738537430763244629e+00,-1.366321277618408203e+01,-6.832675933837890625e+00,-1.086595821380615234e+01,-3.126575231552124023e+00,-1.166397857666015625e+01,-3.096031188964843750e+00,-2.951354503631591797e+00,-5.219040393829345703e+00,-7.074652671813964844e+00,3.782349109649658203e+00,1.076662158966064453e+01,2.815117597579956055e+00,4.983360767364501953e+00,4.702604293823242188e+00,1.001750278472900391e+01,-8.218811988830566406e+00,-7.867021560668945312e+00,4.363888740539550781e+00,-4.191364288330078125e+00,-4.471815750002861023e-02
-3.072607994079589844e+00,-1.441977977752685547e+01,-8.108964920043945312e+00,-1.167519569396972656e+01,-4.937499046325683594e+00,-1.116255950927734375e+01,-4.317173480987548828e+00,-3.079121828079223633e+00,-5.775232315063476562e+00,-7.956537723541259766e+00,2.091165781021118164e+00,1.036070346832275391e+01,2.401164054870605469e+00,5.376700878143310547e+00,4.962005615234375000e+00,1.048781681060791016e+01,-9.406700134277343750e+00,-9.680284500122070312e+00,4.458448410034179688e+00,-3.849957704544067383e+00,-4.918929934501647949e-02
-4.224576950073242188e+00,-1.439051246643066406e+01,-9.154930114746093750e+00,-1.217756557464599609e+01,-6.604881763458251953e+00,-1.045582485198974609e+01,-5.547729492187500000e+00,-3.197762966156005859e+00,-6.208420753479003906e+00,-8.575404167175292969e+00,4.732115566730499268e-01,9.828209877014160156e+00,1.984355330467224121e+00,5.607439517974853516e+00,5.246386051177978516e+00,1.075632858276367188e+01,-1.027614784240722656e+01,-1.106386375427246094e+01,4.416975021362304688e+00,-3.613686084747314453e+00,-5.232312530279159546e-02
-5.093835353851318359e+00,-1.376418590545654297e+01,-9.886049270629882812e+00,-1.226665592193603516e+01,-7.928791522979736328e+00,-9.573104858398437500e+00,-6.584624767303466797e+00,-3.158976316452026367e+00,-6.481168746948242188e+00,-8.789194107055664062e+00,-9.209094047546386719e-01,9.294260025024414062e+00,1.681740880012512207e+00,5.819595336914062500e+00,5.551902770996093750e+00,1.090976428985595703e+01,-1.073651409149169922e+01,-1.185963726043701172e+01,4.352276325225830078e+00,-3.344630718231201172e+00,-5.443382263183593750e-02
-5.646176815032958984e+00,-1.283054924011230469e+01,-1.030232143402099609e+01,-1.194246673583984375e+01,-8.815670013427734375e+00,-8.542333602905273438e+00,-7.348510742187500000e+00,-2.909145832061767578e+00,-6.669685840606689453e+00,-8.607753753662109375e+00,-2.110540866851806641e+00,8.808322906494140625e+00,1.464771986007690430e+00,6.039494037628173828e+00,5.786324501037597656e+00,1.095145893096923828e+01,-1.082238578796386719e+01,-1.210025978088378906e+01,4.254398822784423828e+00,-2.925220489501953125e+00,-5.556973442435264587e-02
-5.914802074432373047e+00,-1.185008525848388672e+01,-1.046502780914306641e+01,-1.128542518615722656e+01,-9.278333663940429688e+00,-7.383065223693847656e+00,-7.898562908172607422e+00,-2.504169225692749023e+00,-6.927727222442626953e+00,-8.167514801025390625e+00,-3.239378213882446289e+00,8.320930480957031250e+00,1.186423778533935547e+00,6.174221038818359375e+00,5.784403324127197266e+00,1.079135227203369141e+01,-1.064348697662353516e+01,-1.196276092529296875e+01,4.010534286499023438e+00,-2.323802471160888672e+00,-5.564223974943161011e-02
-5.943978309631347656e+00,-1.093254566192626953e+01,-1.043333148956298828e+01,-1.038338565826416016e+01,-9.388552665710449219e+00,-6.114853382110595703e+00,-8.346405029296875000e+00,-2.061546802520751953e+00,-7.375622749328613281e+00,-7.631632328033447266e+00,-4.445590019226074219e+00,7.749154567718505859e+00,6.911067366600036621e-01,6.089048862457275391e+00,5.421241760253906250e+00,1.033271312713623047e+01,-1.029403781890869141e+01,-1.163792037963867188e+01,3.522805929183959961e+00,-1.600291728973388672e+00,-5.460300296545028687e-02
-5.753828048706054688e+00,-1.003256702423095703e+01,-1.022308254241943359e+01,-9.275943756103515625e+00,-9.211688995361328125e+00,-4.775409698486328125e+00,-8.772728919982910156e+00,-1.693075299263000488e+00,-8.018719673156738281e+00,-7.105596065521240234e+00,-5.780298233032226562e+00,7.001334667205810547e+00,-9.540536254644393921e-02,5.689514636993408203e+00,4.668017387390136719e+00,9.527175903320312500e+00,-9.789543151855468750e+00,-1.123573684692382812e+01,2.782918453216552734e+00,-8.586933016777038574e-01,-5.270981788635253906e-02
-5.315174579620361328e+00,-9.024298667907714844e+00,-9.787791252136230469e+00,-7.966810703277587891e+00,-8.768250465393066406e+00,-3.444345951080322266e+00,-9.174844741821289062e+00,-1.470623254776000977e+00,-8.748722076416015625e+00,-6.616128921508789062e+00,-7.160602569580078125e+00,6.010546207427978516e+00,-1.124580025672912598e+00,4.947743415832519531e+00,3.609276533126831055e+00,8.398090362548828125e+00,-9.066792488098144531e+00,-1.077511692047119141e+01,1.877136945724487305e+00,-1.928374022245407104e-01,-5.050244182348251343e-02
-4.578719139099121094e+00,-7.786279678344726562e+00,-9.051389694213867188e+00,-6.452274799346923828e+00,-8.036447525024414062e+00,-2.211052179336547852e+00,-9.478785514831542969e+00,-1.431836843490600586e+00,-9.375775337219238281e+00,-6.154791831970214844e+00,-8.420700073242187500e+00,4.731687545776367188e+00,-2.263666629791259766e+00,3.885415315628051758e+00,2.396816492080688477e+00,7.028844356536865234e+00,-8.044683456420898438e+00,-1.022684097290039062e+01,9.331997036933898926e-01,3.531870543956756592e-01,-4.855286702513694763e-02
-3.515285968780517578e+00,-6.259974479675292969e+00,-7.957880973815917969e+00,-4.758321285247802734e+00,-6.998337745666503906e+00,-1.128602623939514160e+00,-9.593099594116210938e+00,-1.580138087272644043e+00,-9.731417655944824219e+00,-5.720178604125976562e+00,-9.387880325317382812e+00,3.167667627334594727e+00,-3.358502864837646484e+00,2.535051107406616211e+00,1.195885300636291504e+00,5.516169548034667969e+00,-6.677896499633789062e+00,-9.590909957885742188e+00,5.064334347844123840e-02,8.019897341728210449e-01,-4.730416834354400635e-02
-2.151032924652099609e+00,-4.458553791046142578e+00,-6.506207942962646484e+00,-2.943105936050415039e+00,-5.673146724700927734e+00,-1.592866331338882446e-01,-9.459957122802734375e+00,-1.894993185997009277e+00,-9.706014633178710938e+00,-5.348858833312988281e+00,-9.950225830078125000e+00,1.370863437652587891e+00,-4.290612697601318359e+00,9.477536678314208984e-01,1.563592851161956787e-01,3.946789979934692383e+00,-4.996247768402099609e+00,-8.917166709899902344e+00,-7.439891695976257324e-01,1.208964467048645020e+00,-4.686108231544494629e-02
-5.946171879768371582e-01,-2.480064630508422852e+00,-4.781950473785400391e+00,-1.087057352066040039e+00,-4.163403034210205078e+00,8.212030529975891113e-01,-9.110290527343750000e+00,-2.331911563873291016e+00,-9.299566268920898438e+00,-5.097092628479003906e+00,-1.011464691162109375e+01,-5.496072769165039062e-01,-5.037156581878662109e+00,-8.238251805305480957e-01,-6.333730816841125488e-01,2.362400531768798828e+00,-3.104691028594970703e+00,-8.300142288208007812e+00,-1.508760809898376465e+00,1.601242899894714355e+00,-4.706248641014099121e-02
9.688410162925720215e-01,-4.796245694160461426e-01,-2.944644212722778320e+00,7.182592153549194336e-01,-2.648532390594482422e+00,1.963710904121398926e+00,-8.667828559875488281e+00,-2.821305751800537109e+00,-8.598978042602539062e+00,-5.005669116973876953e+00,-9.993058204650878906e+00,-2.452619314193725586e+00,-5.683781147003173828e+00,-2.723936319351196289e+00,-1.177154660224914551e+00,7.613334655761718750e-01,-1.157079339027404785e+00,-7.830927848815917969e+00,-2.363115072250366211e+00,1.968650698661804199e+00,-4.766669496893882751e-02
2.333094120025634766e+00,1.374477505683898926e+00,-1.193973302841186523e+00,2.389940261840820312e+00,-1.343847155570983887e+00,3.350642919540405273e+00,-8.295299530029296875e+00,-3.297010660171508789e+00,-7.763352870941162109e+00,-5.071775436401367188e+00,-9.742973327636718750e+00,-4.208685874938964844e+00,-6.381792545318603516e+00,-4.703025341033935547e+00,-1.574903130531311035e+00,-8.981059193611145020e-01,6.879637837409973145e-01,-7.554212093353271484e+00,-3.446403264999389648e+00,2.262576818466186523e+00,-4.841591045260429382e-02
3.339180469512939453e+00,2.919806480407714844e+00,2.915084958076477051e-01,3.852506399154663086e+00,-4.185202121734619141e-01,4.942891120910644531e+00,-8.133914947509765625e+00,-3.695142507553100586e+00,-6.974522113800048828e+00,-5.244776725769042969e+00,-9.492888450622558594e+00,-5.746517658233642578e+00,-7.293918132781982422e+00,-6.703794479370117188e+00,-1.991866469383239746e+00,-2.657612085342407227e+00,2.304016351699829102e+00,-7.456244468688964844e+00,-4.871433258056640625e+00,2.460411787033081055e+00,-4.906040057539939880e-02
3.923716545104980469e+00,4.021731376647949219e+00,1.388187050819396973e+00,5.030478477478027344e+00,4.542485252022743225e-02,6.570056915283203125e+00,-8.248229026794433594e+00,-3.994026660919189453e+00,-6.400949001312255859e+00,-5.478258132934570312e+00,-9.310505867004394531e+00,-7.090847015380859375e+00,-8.527215003967285156e+00,-8.693723678588867188e+00,-2.625957965850830078e+00,-4.558879375457763672e+00,3.600436449050903320e+00,-7.494056224822998047e+00,-6.697926998138427734e+00,2.599461555480957031e+00,-4.942292347550392151e-02
4.125939846038818359e+00,4.604156494140625000e+00,2.048518657684326172e+00,5.843427658081054688e+00,9.028141945600509644e-02,8.012857437133789062e+00,-8.603274345397949219e+00,-4.225605010986328125e+00,-6.152266979217529297e+00,-5.759561061859130859e+00,-9.176482200622558594e+00,-8.350792884826660156e+00,-1.008739280700683594e+01,-1.066661834716796875e+01,-3.642426252365112305e+00,-6.636930942535400391e+00,4.519976139068603516e+00,-7.626399040222167969e+00,-8.917589187622070312e+00,2.761121034622192383e+00,-4.925374686717987061e-02
4.068593025207519531e+00,4.668545246124267578e+00,2.312651157379150391e+00,6.236910343170166016e+00,-1.416911184787750244e-01,9.100893974304199219e+00,-9.075324058532714844e+00,-4.456042289733886719e+00,-6.249867916107177734e+00,-6.105563640594482422e+00,-9.023115158081054688e+00,-9.654384613037109375e+00,-1.186311149597167969e+01,-1.261628437042236328e+01,-5.110444545745849609e+00,-8.878424644470214844e+00,5.051901817321777344e+00,-7.815459251403808594e+00,-1.143586158752441406e+01,2.995131492614746094e+00,-4.819839820265769958e-02
3.896552324295043945e+00,4.282213211059570312e+00,2.289407491683959961e+00,6.205976009368896484e+00,-4.569687247276306152e-01,9.781090736389160156e+00,-9.516441345214843750e+00,-4.767475128173828125e+00,-6.613532066345214844e+00,-6.535957336425781250e+00,-8.779938697814941406e+00,-1.108891773223876953e+01,-1.367308807373046875e+01,-1.453962421417236328e+01,-6.981975555419921875e+00,-1.124833774566650391e+01,5.223644733428955078e+00,-8.018269538879394531e+00,-1.409348392486572266e+01,3.238185644149780273e+00,-4.584601148962974548e-02
3.752681970596313477e+00,3.592961311340332031e+00,2.145719289779663086e+00,5.842190265655517578e+00,-6.581824421882629395e-01,1.014144134521484375e+01,-9.780035972595214844e+00,-5.175873756408691406e+00,-7.053405284881591797e+00,-7.005733489990234375e+00,-8.394448280334472656e+00,-1.261802005767822266e+01,-1.529036235809326172e+01,-1.635766029357910156e+01,-9.076399803161621094e+00,-1.364660358428955078e+01,5.129425048828125000e+00,-8.123112678527832031e+00,-1.664991188049316406e+01,3.315058708190917969e+00,-4.182601720094680786e-02
3.763748884201049805e+00,2.843710899353027344e+00,2.087610244750976562e+00,5.354668617248535156e+00,-5.838487148284912109e-01,1.039284896850585938e+01,-9.758518218994140625e+00,-5.587695121765136719e+00,-7.302087306976318359e+00,-7.355955600738525391e+00,-7.840392112731933594e+00,-1.407001304626464844e+01,-1.649082946777343750e+01,-1.790004920959472656e+01,-1.110549259185791016e+01,-1.590477466583251953e+01,4.943370342254638672e+00,-7.937489509582519531e+00,-1.880653381347656250e+01,3.077656745910644531e+00,-3.586449474096298218e-02
4.016276836395263672e+00,2.308113813400268555e+00,2.298916339874267578e+00,5.004493713378906250e+00,-1.493808180093765259e-01,1.074621677398681641e+01,-9.404817581176757812e+00,-5.826117992401123047e+00,-7.105548381805419922e+00,-7.354548931121826172e+00,-7.132968902587890625e+00,-1.519756221771240234e+01,-1.710319519042968750e+01,-1.894843864440917969e+01,-1.276181697845458984e+01,-1.781438064575195312e+01,4.873003482818603516e+00,-7.232809066772460938e+00,-2.023985862731933594e+01,2.490934848785400391e+00,-2.782450057566165924e-02
4.526362419128417969e+00,2.205677270889282227e+00,2.875781774520874023e+00,5.020579814910888672e+00,6.208705306053161621e-01,1.132724761962890625e+01,-8.772728919982910156e+00,-5.712039947509765625e+00,-6.326076984405517578e+00,-6.797569274902343750e+00,-6.327445983886718750e+00,-1.578097724914550781e+01,-1.706608200073242188e+01,-1.932009887695312500e+01,-1.381479358673095703e+01,-1.917195320129394531e+01,5.088874340057373047e+00,-5.856104373931884766e+00,-2.071265602111816406e+01,1.663419604301452637e+00,-1.767380535602569580e-02
5.236659526824951172e+00,2.640300989151000977e+00,3.786511182785034180e+00,5.493253231048583984e+00,1.596180438995361328e+00,1.211359500885009766e+01,-7.988668918609619141e+00,-5.172451496124267578e+00,-5.013142108917236328e+00,-5.623129367828369141e+00,-5.516396522521972656e+00,-1.571259689331054688e+01,-1.644086837768554688e+01,-1.896857070922851562e+01,-1.417987632751464844e+01,-1.985240554809570312e+01,5.655387401580810547e+00,-3.829718589782714844e+00,-2.014032173156738281e+01,7.940763235092163086e-01,-5.388241726905107498e-03
5.987199783325195312e+00,3.587107658386230469e+00,4.853606700897216797e+00,6.329712390899658203e+00,2.562519073486328125e+00,1.295860385894775391e+01,-7.222093105316162109e+00,-4.295192241668701172e+00,-3.416763067245483398e+00,-3.985945701599121094e+00,-4.811736583709716797e+00,-1.503897762298583984e+01,-1.540170192718505859e+01,-1.801309585571289062e+01,-1.392816162109375000e+01,-1.984239959716796875e+01,6.484285354614257812e+00,-1.409743070602416992e+00,-1.863898086547851562e+01,4.795598983764648438e-02,8.991910144686698914e-03
6.567711830139160156e+00,4.901222705841064453e+00,5.804484367370605469e+00,7.284958839416503906e+00,3.281505823135375977e+00,1.366114807128906250e+01,-6.629005432128906250e+00,-3.317544698715209961e+00,-1.897930026054382324e+00,-2.210923671722412109e+00,-4.307421207427978516e+00,-1.392306709289550781e+01,-1.418125247955322266e+01,-1.670144653320312500e+01,-1.323642539978027344e+01,-1.923866462707519531e+01,7.362082004547119141e+00,9.758577942848205566e-01,-1.649563026428222656e+01,-5.319830179214477539e-01,2.515246160328388214e-02
6.798105239868164062e+00,6.385089874267578125e+00,6.379236698150634766e+00,8.096671104431152344e+00,3.586530447006225586e+00,1.409273147583007812e+01,-6.268579959869384766e+00,-2.472227334976196289e+00,-7.788603901863098145e-01,-6.623507738113403320e-01,-4.015885829925537109e+00,-1.254963970184326172e+01,-1.297793102264404297e+01,-1.527984619140625000e+01,-1.227952289581298828e+01,-1.819296646118164062e+01,8.052631378173828125e+00,2.893963336944580078e+00,-1.407855319976806641e+01,-9.988734722137451172e-01,4.228780046105384827e-02
6.590851783752441406e+00,7.842616081237792969e+00,6.426780700683593750e+00,8.595329284667968750e+00,3.441707849502563477e+00,1.425754261016845703e+01,-6.070884227752685547e+00,-1.880163073539733887e+00,-2.240050286054611206e-01,4.164462387561798096e-01,-3.854228496551513672e+00,-1.103072166442871094e+01,-1.190307903289794922e+01,-1.388921928405761719e+01,-1.116698074340820312e+01,-1.682205390930175781e+01,8.404465675354003906e+00,4.057545185089111328e+00,-1.171622180938720703e+01,-1.392282366752624512e+00,5.921368300914764404e-02
5.979151248931884766e+00,9.085024833679199219e+00,5.947115898132324219e+00,8.766085624694824219e+00,2.934187889099121094e+00,1.426731967926025391e+01,-5.885292053222656250e+00,-1.498002052307128906e+00,-2.026130110025405884e-01,9.776456952095031738e-01,-3.673227548599243164e+00,-9.399776458740234375e+00,-1.096525955200195312e+01,-1.252801513671875000e+01,-9.929541587829589844e+00,-1.520264053344726562e+01,8.385383605957031250e+00,4.413322925567626953e+00,-9.630933761596679688e+00,-1.692991495132446289e+00,7.481031119823455811e-02
5.081722259521484375e+00,9.926468849182128906e+00,5.068082332611083984e+00,8.696793556213378906e+00,2.225454092025756836e+00,1.427570056915283203e+01,-5.547729492187500000e+00,-1.155768275260925293e+00,-5.355262160301208496e-01,1.156273126602172852e+00,-3.312607526779174805e+00,-7.627706050872802734e+00,-1.011165904998779297e+01,-1.110951232910156250e+01,-8.553754806518554688e+00,-1.335974502563476562e+01,8.065751075744628906e+00,4.122857093811035156e+00,-7.902317523956298828e+00,-1.835432648658752441e+00,8.886821568012237549e-02
4.029355525970458984e+00,1.018109703063964844e+01,3.964008092880249023e+00,8.503764152526855469e+00,1.466737270355224609e+00,1.438185024261474609e+01,-4.972125053405761719e+00,-6.846265196800231934e-01,-1.011498570442199707e+00,1.156273126602172852e+00,-2.688085556030273438e+00,-5.715964794158935547e+00,-9.275186538696289062e+00,-9.554735183715820312e+00,-7.039620399475097656e+00,-1.133339500427246094e+01,7.545751571655273438e+00,3.454270124435424805e+00,-6.495536327362060547e+00,-1.780038833618164062e+00,1.028052791953086853e-01
2.903545141220092773e+00,9.712815284729003906e+00,2.777524471282958984e+00,8.215457916259765625e+00,7.349343895912170410e-01,1.454386806488037109e+01,-4.198824882507324219e+00,-5.035329982638359070e-02,-1.492818832397460938e+00,1.121110200881958008e+00,-1.821768522262573242e+00,-3.762031078338623047e+00,-8.428722381591796875e+00,-7.894654750823974609e+00,-5.448626518249511719e+00,-9.231993675231933594e+00,6.870706558227539062e+00,2.646465778350830078e+00,-5.319347381591796875e+00,-1.583334445953369141e+00,1.196667104959487915e-01
1.724411845207214355e+00,8.487966537475585938e+00,1.578362584114074707e+00,7.739071846008300781e+00,2.491899020969867706e-02,1.457040596008300781e+01,-3.393247604370117188e+00,5.884830355644226074e-01,-1.975476145744323730e+00,1.039532423019409180e+00,-8.545885086059570312e-01,-1.988505482673645020e+00,-7.622226238250732422e+00,-6.321294307708740234e+00,-3.915277719497680664e+00,-7.242334365844726562e+00,6.000065803527832031e+00,1.811161875724792480e+00,-4.317347049713134766e+00,-1.420544505119323730e+00,1.427877396345138550e-01
4.969864785671234131e-01,6.636791229248046875e+00,3.792005181312561035e-01,6.917461395263671875e+00,-6.991941928863525391e-01,1.424497222900390625e+01,-2.767882823944091797e+00,9.478284120559692383e-01,-2.570441484451293945e+00,7.694814801216125488e-01,7.583451457321643829e-03,-6.834582686424255371e-01,-6.984166622161865234e+00,-5.128885746002197266e+00,-2.635565519332885742e+00,-5.621253967285156250e+00,4.847957611083984375e+00,9.294520020484924316e-01,-3.499489545822143555e+00,-1.507591962814331055e+00,1.737876385450363159e-01
-7.173597216606140137e-01,4.465135574340820312e+00,-7.988308668136596680e-01,5.644211769104003906e+00,-1.433560252189636230e+00,1.342929458618164062e+01,-2.497564077377319336e+00,7.595998644828796387e-01,-3.412752151489257812e+00,1.337367147207260132e-01,5.671662092208862305e-01,-8.258371800184249878e-02,-6.658713340759277344e+00,-4.576041698455810547e+00,-1.797795891761779785e+00,-4.588899135589599609e+00,3.367867946624755859e+00,-7.944402843713760376e-02,-2.930472850799560547e+00,-1.956394553184509277e+00,2.110310345888137817e-01
-1.771738290786743164e+00,2.375429153442382812e+00,-1.888113737106323242e+00,3.953970432281494141e+00,-2.100000619888305664e+00,1.211638832092285156e+01,-2.644154787063598633e+00,-7.316888123750686646e-02,-4.569257736206054688e+00,-9.591254591941833496e-01,6.984263658523559570e-01,-2.571719586849212646e-01,-6.737221717834472656e+00,-4.766517162322998047e+00,-1.517258405685424805e+00,-4.243669033050537109e+00,1.620622873306274414e+00,-1.263650774955749512e+00,-2.676655054092407227e+00,-2.671991825103759766e+00,2.492975443601608276e-01
-2.483041286468505859e+00,7.481510043144226074e-01,-2.778768777847290039e+00,2.049664735794067383e+00,-2.571635484695434570e+00,1.044871807098388672e+01,-3.149826049804687500e+00,-1.413584351539611816e+00,-5.983804702758789062e+00,-2.423307657241821289e+00,3.806386291980743408e-01,-1.061732888221740723e+00,-7.212554931640625000e+00,-5.564037322998046875e+00,-1.790109992027282715e+00,-4.515517234802246094e+00,-2.136862426996231079e-01,-2.575043678283691406e+00,-2.752966165542602539e+00,-3.384197711944580078e+00,2.812238931655883789e-01
-2.736575126647949219e+00,-2.088993191719055176e-01,-3.376765012741088867e+00,2.233129292726516724e-01,-2.761314630508422852e+00,8.658137321472167969e+00,-3.890849590301513672e+00,-2.939946889877319336e+00,-7.506648540496826172e+00,-4.018295764923095703e+00,-3.323112726211547852e-01,-2.189281940460205078e+00,-7.989075183868408203e+00,-6.668177127838134766e+00,-2.506825685501098633e+00,-5.195970535278320312e+00,-1.891757130622863770e+00,-3.872686862945556641e+00,-3.106320619583129883e+00,-3.761779785156250000e+00,3.000832498073577881e-01
-2.575601339340209961e+00,-5.249893069267272949e-01,-3.666254281997680664e+00,-1.259051203727722168e+00,-2.686980962753295898e+00,6.991863250732421875e+00,-4.742152214050292969e+00,-4.282643795013427734e+00,-8.951946258544921875e+00,-5.444501876831054688e+00,-1.340941905975341797e+00,-3.284823179244995117e+00,-8.916902542114257812e+00,-7.725859165191650391e+00,-3.496392965316772461e+00,-6.019853115081787109e+00,-3.201296329498291016e+00,-4.988144397735595703e+00,-3.630545854568481445e+00,-3.632904529571533203e+00,3.024517297744750977e-01
-2.203349351882934570e+00,-4.371865391731262207e-01,-3.739155054092407227e+00,-2.268741607666015625e+00,-2.492175340652465820e+00,5.648229122161865234e+00,-5.631111621856689453e+00,-5.165606975555419922e+00,-1.016995429992675781e+01,-6.452972888946533203e+00,-2.518138170242309570e+00,-4.060286045074462891e+00,-9.847584724426269531e+00,-8.467630386352539062e+00,-4.582034587860107422e+00,-6.760346412658691406e+00,-4.027808666229248047e+00,-5.799386024475097656e+00,-4.201221466064453125e+00,-3.089140892028808594e+00,2.890141606330871582e-01
-1.900517344474792480e+00,-2.498739510774612427e-01,-3.763455152511596680e+00,-2.820606708526611328e+00,-2.388364315032958984e+00,4.764112472534179688e+00,-6.526795387268066406e+00,-5.475898742675781250e+00,-1.108312606811523438e+01,-6.926968574523925781e+00,-3.718823194503784180e+00,-4.371634960174560547e+00,-1.065693569183349609e+01,-8.754117965698242188e+00,-5.600424289703369141e+00,-7.284029006958007812e+00,-4.377257823944091797e+00,-6.263443946838378906e+00,-4.707198143005371094e+00,-2.447025299072265625e+00,2.632346153259277344e-01
-1.890456438064575195e+00,-1.840218603610992432e-01,-3.907143354415893555e+00,-3.027246713638305664e+00,-2.549848079681396484e+00,4.407951354980468750e+00,-7.410375118255615234e+00,-5.259150981903076172e+00,-1.166873264312744141e+01,-6.884773254394531250e+00,-4.793774604797363281e+00,-4.208685874938964844e+00,-1.125360012054443359e+01,-8.582225799560546875e+00,-6.430508136749267578e+00,-7.559212207794189453e+00,-4.325973510742187500e+00,-6.414692401885986328e+00,-5.062211513519287109e+00,-2.102227210998535156e+00,2.290283739566802979e-01
-2.222465038299560547e+00,-2.703612744808197021e-01,-4.236780643463134766e+00,-2.990125656127929688e+00,-3.026609182357788086e+00,4.599300861358642578e+00,-8.226711273193359375e+00,-4.616892337799072266e+00,-1.192409896850585938e+01,-6.392492771148681641e+00,-5.592389106750488281e+00,-3.623815536499023438e+00,-1.156049633026123047e+01,-7.995312690734863281e+00,-6.966603755950927734e+00,-7.580893516540527344e+00,-3.964597940444946289e+00,-6.289224624633789062e+00,-5.186632156372070312e+00,-2.329454898834228516e+00,1.888686716556549072e-01
-2.765751600265502930e+00,-3.727978467941284180e-01,-4.713275909423828125e+00,-2.745127439498901367e+00,-3.719963550567626953e+00,5.289274692535400391e+00,-8.877628326416015625e+00,-3.641525983810424805e+00,-1.183585739135742188e+01,-5.512014389038085938e+00,-6.004131317138671875e+00,-2.666489839553833008e+00,-1.150625419616699219e+01,-7.030545234680175781e+00,-7.120322704315185547e+00,-7.335730075836181641e+00,-3.343222856521606445e+00,-5.892197608947753906e+00,-5.009125232696533203e+00,-3.147926092147827148e+00,1.434966772794723511e-01
-3.320105075836181641e+00,-3.157260417938232422e-01,-5.204562664031982422e+00,-2.294726133346557617e+00,-4.455611228942871094e+00,6.320045948028564453e+00,-9.274365425109863281e+00,-2.382105827331542969e+00,-1.139865779876708984e+01,-4.277094364166259766e+00,-6.013803482055664062e+00,-1.377446651458740234e+00,-1.107088947296142578e+01,-5.720444202423095703e+00,-6.855157375335693359e+00,-6.798705577850341797e+00,-2.519095659255981445e+00,-5.192673683166503906e+00,-4.489877223968505859e+00,-4.322500705718994141e+00,9.337963163852691650e-02
-3.734612703323364258e+00,-1.099394867196679115e-03,-5.596535205841064453e+00,-1.653770804405212402e+00,-5.073350429534912109e+00,7.426239490509033203e+00,-9.376575469970703125e+00,-8.717142939567565918e-01,-1.062854576110839844e+01,-2.706017017364501953e+00,-5.707068920135498047e+00,1.822084635496139526e-01,-1.028437709808349609e+01,-4.095980644226074219e+00,-6.182635784149169922e+00,-5.954809665679931641e+00,-1.580473184585571289e+00,-4.152840137481689453e+00,-3.638840436935424805e+00,-5.464290618896484375e+00,4.068463668227195740e-02
-3.999213457107543945e+00,5.286440849304199219e-01,-5.842707157135009766e+00,-9.064019322395324707e-01,-5.507818222045898438e+00,8.292199134826660156e+00,-9.238053321838378906e+00,8.269058465957641602e-01,-9.604402542114257812e+00,-8.564498424530029297e-01,-5.271838188171386719e+00,1.888808608055114746e+00,-9.268049240112304688e+00,-2.250070095062255859e+00,-5.196911334991455078e+00,-4.864082813262939453e+00,-6.728598475456237793e-01,-2.779572963714599609e+00,-2.548916578292846680e+00,-6.174235820770263672e+00,-9.899661876261234283e-03
-4.226589202880859375e+00,1.089118480682373047e+00,-5.964208126068115234e+00,-1.887298375368118286e-01,-5.798745155334472656e+00,8.655343055725097656e+00,-8.995976448059082031e+00,2.611084461212158203e+00,-8.443885803222656250e+00,1.161899209022521973e+00,-4.930561542510986328e+00,3.550306797027587891e+00,-8.206044197082519531e+00,-3.406673073768615723e-01,-4.067075729370117188e+00,-3.681627988815307617e+00,3.438676893711090088e-02,-1.138183355331420898e+00,-1.390975952148437500e+00,-6.188931941986083984e+00,-5.207338556647300720e-02
-4.534451484680175781e+00,1.473987340927124023e+00,-6.004356384277343750e+00,3.717968165874481201e-01,-6.030717849731445312e+00,8.417902946472167969e+00,-8.811729431152343750e+00,4.345068454742431641e+00,-7.312783718109130859e+00,3.194313287734985352e+00,-4.867003917694091797e+00,4.944103240966796875e+00,-7.309619903564453125e+00,1.412328481674194336e+00,-3.004491567611694336e+00,-2.602575302124023438e+00,4.196155369281768799e-01,6.372674703598022461e-01,-3.757043778896331787e-01,-5.417941093444824219e+00,-8.035837858915328979e-02
-4.925818920135498047e+00,1.577887296676635742e+00,-5.955755710601806641e+00,7.318702340126037598e-01,-6.244747638702392578e+00,7.690217494964599609e+00,-8.800971031188964844e+00,5.911358356475830078e+00,-6.343457698822021484e+00,5.079043388366699219e+00,-5.153013229370117188e+00,5.894154071807861328e+00,-6.750068664550781250e+00,2.801407337188720703e+00,-2.201308727264404297e+00,-1.823722839355468750e+00,4.840191006660461426e-01,2.381781101226806641e+00,3.077791333198547363e-01,-3.938135385513305664e+00,-9.257949143648147583e-02
-5.237705707550048828e+00,1.462280273437500000e+00,-5.732827663421630859e+00,9.743939042091369629e-01,-6.394696712493896484e+00,6.757215976715087891e+00,-8.974458694458007812e+00,7.236943721771240234e+00,-5.625488281250000000e+00,6.690909385681152344e+00,-5.742992877960205078e+00,6.323350429534912109e+00,-6.607326030731201172e+00,3.694939613342285156e+00,-1.788188457489013672e+00,-1.455143809318542480e+00,3.683312237262725830e-01,3.944108963012695312e+00,5.516433715820312500e-01,-1.930393457412719727e+00,-9.083131700754165649e-02
-5.207523345947265625e+00,1.313015580177307129e+00,-5.210901737213134766e+00,1.272598981857299805e+00,-6.363937854766845703e+00,5.951314926147460938e+00,-9.243432998657226562e+00,8.292164802551269531e+00,-5.182940959930419922e+00,7.956773281097412109e+00,-6.501538276672363281e+00,6.246240615844726562e+00,-6.864263057708740234e+00,4.057308197021484375e+00,-1.803560376167297363e+00,-1.513516068458557129e+00,3.051202893257141113e-01,5.197064876556396484e+00,3.359811305999755859e-01,3.712747991085052490e-01,-8.057589083909988403e-02
-4.617956638336181641e+00,1.346673369407653809e+00,-4.300172805786132812e+00,1.805903673171997070e+00,-6.042252063751220703e+00,5.539285659790039062e+00,-9.473405838012695312e+00,9.062190055847167969e+00,-4.975706100463867188e+00,8.844284057617187500e+00,-7.271137237548828125e+00,5.741389274597167969e+00,-7.420959472656250000e+00,3.934970140457153320e+00,-2.214759349822998047e+00,-1.943802952766418457e+00,5.233768224716186523e-01,6.085649967193603516e+00,-2.794858217239379883e-01,2.714771032333374023e+00,-6.812115013599395752e-02
-3.429768562316894531e+00,1.706664681434631348e+00,-3.019657850265502930e+00,2.667110204696655273e+00,-5.401443958282470703e+00,5.624485015869140625e+00,-9.551408767700195312e+00,9.503671646118164062e+00,-4.940944194793701172e+00,9.340784072875976562e+00,-7.938491821289062500e+00,4.881542205810546875e+00,-8.153228759765625000e+00,3.397611856460571289e+00,-2.954532861709594727e+00,-2.669286489486694336e+00,1.149522662162780762e+00,6.609863281250000000e+00,-1.203515768051147461e+00,4.833300590515136719e+00,-5.817991495132446289e-02
-1.812987804412841797e+00,2.388599634170532227e+00,-1.511988878250122070e+00,3.814148187637329102e+00,-4.526100158691406250e+00,6.151044368743896484e+00,-9.438439369201660156e+00,9.539035797119140625e+00,-4.999772071838378906e+00,9.430800437927246094e+00,-8.455242156982421875e+00,3.687067747116088867e+00,-8.952588081359863281e+00,2.493239402770996094e+00,-3.969079494476318359e+00,-3.646604537963867188e+00,2.158511877059936523e+00,6.812673568725585938e+00,-2.346525669097900391e+00,6.458938598632812500e+00,-5.266953632235527039e-02
-5.736709386110305786e-02,3.282724618911743164e+00,2.737589925527572632e-02,5.104720592498779297e+00,-3.562324762344360352e+00,6.982086181640625000e+00,-9.149291992187500000e+00,9.090709686279296875e+00,-5.058599948883056641e+00,9.115741729736328125e+00,-8.802044868469238281e+00,2.155055761337280273e+00,-9.729107856750488281e+00,1.259018778800964355e+00,-5.200754642486572266e+00,-4.860747337341308594e+00,3.420344829559326172e+00,6.790329933166503906e+00,-3.610638380050659180e+00,7.380284309387207031e+00,-5.101803317666053772e-02
1.568468451499938965e+00,4.248555183410644531e+00,1.435730934143066406e+00,6.379207134246826172e+00,-2.631871461868286133e+00,7.969559192657470703e+00,-8.710864067077636719e+00,8.146144866943359375e+00,-4.997097969055175781e+00,8.436394691467285156e+00,-8.942976951599121094e+00,3.218790590763092041e-01,-1.038715171813964844e+01,-2.523980736732482910e-01,-6.561169147491455078e+00,-6.278358459472656250e+00,4.775205135345458984e+00,6.663144111633300781e+00,-4.868115425109863281e+00,7.508028984069824219e+00,-5.143695324659347534e-02
2.948818922042846680e+00,5.217312812805175781e+00,2.666588783264160156e+00,7.548517704010009766e+00,-1.765498876571655273e+00,9.025471687316894531e+00,-8.120466232299804688e+00,6.808010578155517578e+00,-4.688251018524169922e+00,7.509501457214355469e+00,-8.806190490722656250e+00,-1.671336770057678223e+00,-1.081252479553222656e+01,-1.932610511779785156e+00,-7.890840530395507812e+00,-7.796036720275878906e+00,6.118138790130615234e+00,6.577207088470458984e+00,-5.953062534332275391e+00,6.932611942291259766e+00,-5.237951502203941345e-02
4.141031265258789062e+00,6.216801166534423828e+00,3.783341407775878906e+00,8.634924888610839844e+00,-8.939998745918273926e-01,1.014144134521484375e+01,-7.340441703796386719e+00,5.285070896148681641e+00,-4.033120632171630859e+00,6.510875701904296875e+00,-8.310165405273437500e+00,-3.574348688125610352e+00,-1.089531612396240234e+01,-3.619017362594604492e+00,-8.991853713989257812e+00,-9.230326652526855469e+00,7.434834003448486328e+00,6.644237995147705078e+00,-6.691291332244873047e+00,5.883521556854248047e+00,-5.326568707823753357e-02
5.283945560455322266e+00,7.320189476013183594e+00,4.873681068420410156e+00,9.712670326232910156e+00,7.490202784538269043e-02,1.133283424377441406e+01,-6.355996608734130859e+00,3.822591781616210938e+00,-3.042402744293212891e+00,5.617738723754882812e+00,-7.446611404418945312e+00,-5.104905605316162109e+00,-1.059555625915527344e+01,-5.138176918029785156e+00,-9.702805519104003906e+00,-1.038776397705078125e+01,8.745566368103027344e+00,6.919235229492187500e+00,-6.981605529785156250e+00,4.654684066772460938e+00,-5.422436445951461792e-02
6.449999332427978516e+00,8.555281639099121094e+00,5.928098201751708984e+00,1.081516361236572266e+01,1.147614836692810059e+00,1.252702045440673828e+01,-5.242444038391113281e+00,2.604239702224731445e+00,-1.875201106071472168e+00,4.927139759063720703e+00,-6.341262817382812500e+00,-6.062231540679931641e+00,-1.001173877716064453e+01,-6.377043247222900391e+00,-9.991028785705566406e+00,-1.115327453613281250e+01,1.002290344238281250e+01,7.331730842590332031e+00,-6.867138862609863281e+00,3.542286396026611328e+00,-5.560195818543434143e-02
7.556694507598876953e+00,9.867933273315429688e+00,6.806075096130371094e+00,1.187682247161865234e+01,2.194695234298706055e+00,1.356617164611816406e+01,-4.170582771301269531e+00,1.701883435249328613e+00,-8.069373965263366699e-01,4.440485477447509766e+00,-5.244204521179199219e+00,-6.409953117370605469e+00,-9.360832214355468750e+00,-7.301547527313232422e+00,-9.989107131958007812e+00,-1.156188011169433594e+01,1.115354442596435547e+01,7.730476856231689453e+00,-6.546963214874267578e+00,2.743033170700073242e+00,-5.761598795652389526e-02
8.372630119323730469e+00,1.112205028533935547e+01,7.282570362091064453e+00,1.274545383453369141e+01,2.982889175415039062e+00,1.427570056915283203e+01,-3.375764369964599609e+00,1.088144302368164062e+00,-1.357629746198654175e-01,4.079011440277099609e+00,-4.438681602478027344e+00,-6.264462947845458984e+00,-8.922612190246582031e+00,-7.953500747680664062e+00,-9.933383941650390625e+00,-1.174533557891845703e+01,1.196813011169433594e+01,7.935006141662597656e+00,-6.298122406005859375e+00,2.319101095199584961e+00,-6.008921191096305847e-02
8.635219573974609375e+00,1.217568302154541016e+01,7.162125587463378906e+00,1.325648593902587891e+01,3.267408132553100586e+00,1.455923175811767578e+01,-3.059719800949096680e+00,6.888715624809265137e-01,-5.687992647290229797e-02,3.747073650360107422e+00,-4.120893955230712891e+00,-5.826537132263183594e+00,-8.924039840698242188e+00,-8.404138565063476562e+00,-1.006596660614013672e+01,-1.186708354949951172e+01,1.231757926940917969e+01,7.811257362365722656e+00,-6.359502792358398438e+00,2.228662252426147461e+00,-6.228853017091751099e-02
8.198577880859375000e+00,1.293664073944091797e+01,6.404593467712402344e+00,1.333443927764892578e+01,2.920089960098266602e+00,1.448241329193115234e+01,-3.297761678695678711e+00,4.618565142154693604e-01,-5.649402737617492676e-01,3.405290603637695312e+00,-4.310184955596923828e+00,-5.263490200042724609e+00,-9.439340591430664062e+00,-8.693723678588867188e+00,-1.050406646728515625e+01,-1.200384140014648438e+01,1.218042373657226562e+01,7.330012321472167969e+00,-6.807416915893554688e+00,2.384669303894042969e+00,-6.327942758798599243e-02
7.126089572906494141e+00,1.336833763122558594e+01,5.160000801086425781e+00,1.302509784698486328e+01,1.989636659622192383e+00,1.422960853576660156e+01,-4.010542869567871094e+00,4.070991277694702148e-01,-1.462067842483520508e+00,3.060694456100463867e+00,-4.857332229614257812e+00,-4.680074214935302734e+00,-1.037573242187500000e+01,-8.817609786987304688e+00,-1.119772434234619141e+01,-1.213726425170898438e+01,1.166996574401855469e+01,6.565176010131835938e+00,-7.520761489868164062e+00,2.723814964294433594e+00,-6.233686581254005432e-02
5.666258335113525391e+00,1.346784782409667969e+01,3.695649385452270508e+00,1.247199535369873047e+01,6.746984124183654785e-01,1.399496173858642578e+01,-5.025919914245605469e+00,5.325848460197448730e-01,-2.452785491943359375e+00,2.744228601455688477e+00,-5.546793460845947266e+00,-4.114117622375488281e+00,-1.152909374237060547e+01,-8.752569198608398438e+00,-1.198553562164306641e+01,-1.217562294006347656e+01,1.098418617248535156e+01,5.637060642242431641e+00,-8.245718002319335938e+00,3.212184667587280273e+00,-5.929971113801002502e-02
4.154110431671142578e+00,1.322931671142578125e+01,2.288351058959960938e+00,1.183970165252685547e+01,-7.658382058143615723e-01,1.387205123901367188e+01,-6.138127803802490234e+00,8.120757341384887695e-01,-3.268355846405029297e+00,2.471364736557006836e+00,-6.205857753753662109e+00,-3.584533214569091797e+00,-1.268245410919189453e+01,-8.500150680541992188e+00,-1.267535018920898438e+01,-1.205053901672363281e+01,1.031629753112792969e+01,4.667695522308349609e+00,-8.716857910156250000e+00,3.828299045562744141e+00,-5.473189800977706909e-02
2.894490242004394531e+00,1.265274524688720703e+01,1.137789368629455566e+00,1.125319099426269531e+01,-2.088466167449951172e+00,1.381478595733642578e+01,-7.195195674896240234e+00,1.182828903198242188e+00,-3.761709213256835938e+00,2.239289760589599609e+00,-6.769585609436035156e+00,-3.110234975814819336e+00,-1.366166877746582031e+01,-8.082033157348632812e+00,-1.314611530303955078e+01,-1.174033260345458984e+01,9.789142608642578125e+00,3.760204553604125977e+00,-8.766625404357910156e+00,4.540504932403564453e+00,-4.985795542597770691e-02
2.077548265457153320e+00,1.180252170562744141e+01,3.348262608051300049e-01,1.076195621490478516e+01,-3.126575231552124023e+00,1.368349552154541016e+01,-8.102983474731445312e+00,1.555863738059997559e+00,-3.911453247070312500e+00,2.040971040725708008e+00,-7.266992568969726562e+00,-2.724685907363891602e+00,-1.438109207153320312e+01,-7.546223640441894531e+00,-1.338053703308105469e+01,-1.128836441040039062e+01,9.436115264892578125e+00,2.998805999755859375e+00,-8.390046119689941406e+00,5.291147232055664062e+00,-4.616020247340202332e-02
1.761637091636657715e+00,1.086303138732910156e+01,-1.046904027462005615e-01,1.034620189666748047e+01,-3.787889242172241211e+00,1.334409523010253906e+01,-8.810384750366210938e+00,1.862733244895935059e+00,-3.773742198944091797e+00,1.891880512237548828e+00,-7.749200820922851562e+00,-2.462803602218627930e+00,-1.480218315124511719e+01,-6.922144412994384766e+00,-1.343049526214599609e+01,-1.075467586517333984e+01,9.233363151550292969e+00,2.465998888015747070e+00,-7.721493244171142578e+00,5.983004093170166016e+00,-4.481483250856399536e-02
1.925629138946533203e+00,1.014890193939208984e+01,-1.627995669841766357e-01,9.992315292358398438e+00,-4.017298698425292969e+00,1.278960227966308594e+01,-9.228639602661132812e+00,2.112563848495483398e+00,-3.398045063018798828e+00,1.869376182556152344e+00,-8.184432029724121094e+00,-2.328952550888061523e+00,-1.489068317413330078e+01,-6.186567783355712891e+00,-1.333057785034179688e+01,-1.014260101318359375e+01,9.164189338684082031e+00,2.247720003128051758e+00,-6.948426723480224609e+00,6.531289577484130859e+00,-4.617631435394287109e-02
2.523244380950927734e+00,9.995247840881347656e+00,2.164948433637619019e-01,9.734943389892578125e+00,-3.763538599014282227e+00,1.217924022674560547e+01,-9.235363960266113281e+00,2.393195629119873047e+00,-2.769654512405395508e+00,2.090198993682861328e+00,-8.445569992065429688e+00,-2.280940771102905273e+00,-1.458378696441650391e+01,-5.272903919219970703e+00,-1.304619789123535156e+01,-9.367084503173828125e+00,9.259601593017578125e+00,2.431624174118041992e+00,-6.236741542816162109e+00,6.905480384826660156e+00,-4.964043945074081421e-02
3.498142004013061523e+00,1.059523296356201172e+01,1.095528125762939453e+00,9.652039527893066406e+00,-2.989442348480224609e+00,1.176022720336914062e+01,-8.700105667114257812e+00,2.828973293304443359e+00,-1.843113064765930176e+00,2.661244153976440430e+00,-8.352997779846191406e+00,-2.238748550415039062e+00,-1.381154823303222656e+01,-4.125403881072998047e+00,-1.246590805053710938e+01,-8.296370506286621094e+00,9.584005355834960938e+00,3.058961629867553711e+00,-5.661088943481445312e+00,7.124794483184814453e+00,-5.367654934525489807e-02
4.780902385711669922e+00,1.186544704437255859e+01,2.470074176788330078e+00,9.816609382629394531e+00,-1.725768804550170898e+00,1.174486351013183594e+01,-7.558310508728027344e+00,3.499751329421997070e+00,-6.023762822151184082e-01,3.600796222686767578e+00,-7.783742904663085938e+00,-2.139815330505371094e+00,-1.255398559570312500e+01,-2.748713731765747070e+00,-1.146673297882080078e+01,-6.833728790283203125e+00,1.016960048675537109e+01,4.074732780456542969e+00,-5.213175296783447266e+00,7.242364883422851562e+00,-5.651229992508888245e-02
6.258842945098876953e+00,1.344004344940185547e+01,4.201727390289306641e+00,1.023978805541992188e+01,-1.058058664202690125e-01,1.220996761322021484e+01,-5.879912376403808594e+00,4.375869750976562500e+00,8.669876456260681152e-01,4.796333789825439453e+00,-6.748860359191894531e+00,-1.975411415100097656e+00,-1.089674377441406250e+01,-1.249685525894165039e+00,-1.000640106201171875e+01,-5.015850543975830078e+00,1.095914077758789062e+01,5.305345058441162109e+00,-4.836595535278320312e+00,7.284193038940429688e+00,-5.693121626973152161e-02
7.740808486938476562e+00,1.479513263702392578e+01,5.995716094970703125e+00,1.081640052795410156e+01,1.610278248786926270e+00,1.303542232513427734e+01,-3.892194509506225586e+00,5.297619342803955078e+00,2.356406688690185547e+00,6.010156154632568359e+00,-5.432113647460937500e+00,-1.825556397438049316e+00,-9.062500000000000000e+00,1.517820507287979126e-01,-8.211729049682617188e+00,-3.071221113204956055e+00,1.177849769592285156e+01,6.482676982879638672e+00,-4.496512889862060547e+00,7.182449340820312500e+00,-5.465939640998840332e-02
8.972257614135742188e+00,1.546536064147949219e+01,7.470632553100585938e+00,1.134722995758056641e+01,3.085418462753295898e+00,1.395306015014648438e+01,-1.938097953796386719e+00,6.022014141082763672e+00,3.594469308853149414e+00,6.956740856170654297e+00,-4.118130207061767578e+00,-1.818281888961791992e+00,-7.348160743713378906e+00,1.206367015838623047e+00,-6.338276386260986328e+00,-1.335063815116882324e+00,1.237721157073974609e+01,7.311106204986572266e+00,-4.194585800170898438e+00,6.795823097229003906e+00,-5.040577054023742676e-02
9.690603256225585938e+00,1.523268318176269531e+01,8.294726371765136719e+00,1.160955238342285156e+01,4.001774311065673828e+00,1.465979480743408203e+01,-3.686344325542449951e-01,6.320898056030273438e+00,4.343189716339111328e+00,7.409638881683349609e+00,-3.086011171340942383e+00,-2.069979906082153320e+00,-6.027791023254394531e+00,1.726690888404846191e+00,-4.674266338348388672e+00,-1.242567971348762512e-01,1.252510166168212891e+01,7.584384441375732422e+00,-3.954039096832275391e+00,5.960394382476806641e+00,-4.545126482844352722e-02
9.701670646667480469e+00,1.417758655548095703e+01,8.287330627441406250e+00,1.143137168884277344e+01,4.154286384582519531e+00,1.490282249450683594e+01,5.620157718658447266e-01,6.059659481048583984e+00,4.491596698760986328e+00,7.266174316406250000e+00,-2.501558065414428711e+00,-2.643211364746093750e+00,-5.248415946960449219e+00,1.652358889579772949e+00,-3.409925937652587891e+00,3.994255959987640381e-01,1.207427692413330078e+01,7.228606700897216797e+00,-3.781509399414062500e+00,4.597029209136962891e+00,-4.100429266691207886e-02
8.940063476562500000e+00,1.259567356109619141e+01,7.464293479919433594e+00,1.074215888977050781e+01,3.518604755401611328e+00,1.454247188568115234e+01,7.650911808013916016e-01,5.238298892974853516e+00,4.091833591461181641e+00,6.557290554046630859e+00,-2.371679544448852539e+00,-3.516152620315551758e+00,-4.970067501068115234e+00,1.077834606170654297e+00,-2.556784391403198242e+00,2.943555414676666260e-01,1.100923252105712891e+01,6.310803890228271484e+00,-3.653770923614501953e+00,2.818775653839111328e+00,-3.783824294805526733e-02
7.490293025970458984e+00,1.081766700744628906e+01,6.011564254760742188e+00,9.579034805297851562e+00,2.242115020751953125e+00,1.355220508575439453e+01,3.374224305152893066e-01,3.976597070693969727e+00,3.327069282531738281e+00,5.406761646270751953e+00,-2.573405742645263672e+00,-4.597145080566406250e+00,-4.987196922302246094e+00,2.121767848730087280e-01,-1.924614310264587402e+00,-1.893001496791839600e-01,9.419418334960937500e+00,4.994254589080810547e+00,-3.516078948974609375e+00,9.252126812934875488e-01,-3.612229228019714355e-02
5.562631130218505859e+00,9.057221412658691406e+00,4.198557853698730469e+00,8.053362846374511719e+00,5.939565896987915039e-01,1.200325489044189453e+01,-5.004317164421081543e-01,2.476472377777099609e+00,2.431278705596923828e+00,3.973522663116455078e+00,-2.910537004470825195e+00,-5.726149082183837891e+00,-4.992906570434570312e+00,-6.968413591384887695e-01,-1.215584516525268555e+00,-6.979725360870361328e-01,7.465843200683593750e+00,3.462863922119140625e+00,-3.315346956253051758e+00,-6.721631884574890137e-01,-3.558253124356269836e-02
3.447837829589843750e+00,7.384578227996826172e+00,2.301029443740844727e+00,6.332187175750732422e+00,-1.105466485023498535e+00,1.008697032928466797e+01,-1.460669040679931641e+00,9.717847704887390137e-01,1.626404166221618652e+00,2.424949645996093750e+00,-3.178584098815917969e+00,-6.705297946929931641e+00,-4.683155059814453125e+00,-1.406092286109924316e+00,-1.414716541767120361e-01,-8.964381217956542969e-01,5.351259231567382812e+00,1.891942262649536133e+00,-3.023373603820800781e+00,-1.618379473686218262e+00,-3.573559969663619995e-02
1.451762437820434570e+00,5.771933555603027344e+00,5.482453703880310059e-01,4.603587627410888672e+00,-2.563945770263671875e+00,8.065932273864746094e+00,-2.263556480407714844e+00,-3.264218568801879883e-01,1.068874835968017578e+00,9.213851094245910645e-01,-3.199309349060058594e+00,-7.330905914306640625e+00,-3.852392435073852539e+00,-1.751426339149475098e+00,1.459129452705383301e+00,-5.495402812957763672e-01,3.293923139572143555e+00,4.172696769237518311e-01,-2.643476247787475586e+00,-1.792474269866943359e+00,-3.605784103274345398e-02
-1.720609366893768311e-01,4.220751285552978516e+00,-9.034273624420166016e-01,3.049456119537353516e+00,-3.567451238632202148e+00,6.223673343658447266e+00,-2.695259809494018555e+00,-1.267564654350280762e+00,8.348996043205261230e-01,-4.007389843463897705e-01,-2.867704629898071289e+00,-7.447298049926757812e+00,-2.454941749572753906e+00,-1.646122694015502930e+00,3.553553342819213867e+00,4.077644646167755127e-01,1.508512973785400391e+00,-8.631860613822937012e-01,-2.208833694458007812e+00,-1.340280055999755859e+00,-3.610618039965629578e-02
-1.277749896049499512e+00,2.810053110122680664e+00,-1.970523118972778320e+00,1.804666280746459961e+00,-4.031396389007568359e+00,4.794839859008789062e+00,-2.656258583068847656e+00,-1.786619186401367188e+00,9.231417179107666016e-01,-1.438747048377990723e+00,-2.154754877090454102e+00,-6.983184337615966797e+00,-6.035692691802978516e-01,-1.080889940261840820e+00,5.959258556365966797e+00,1.912100434303283691e+00,1.739278435707092285e-01,-1.894425630569458008e+00,-1.750966072082519531e+00,-6.043340563774108887e-01,-3.564698249101638794e-02
-1.864298224449157715e+00,1.667153477668762207e+00,-2.640363454818725586e+00,9.236618876457214355e-01,-4.001919269561767578e+00,3.877202272415161133e+00,-2.164036273956298828e+00,-1.928075790405273438e+00,1.256054878234863281e+00,-2.164508819580078125e+00,-1.111582040786743164e+00,-5.970572471618652344e+00,1.469054341316223145e+00,-1.176713779568672180e-01,8.407237052917480469e+00,3.793354511260986328e+00,-6.287314891815185547e-01,-2.667855262756347656e+00,-1.273191213607788086e+00,2.421579696238040924e-02,-3.465608134865760803e-02
-2.067527770996093750e+00,8.710749149322509766e-01,-2.982679128646850586e+00,3.445747792720794678e-01,-3.653319597244262695e+00,3.388354063034057617e+00,-1.350389719009399414e+00,-1.826546430587768555e+00,1.685232162475585938e+00,-2.646943330764770508e+00,1.277901232242584229e-01,-4.537494182586669922e+00,3.488863229751586914e+00,1.121194958686828613e+00,1.066498756408691406e+01,5.844721794128417969e+00,-9.519420266151428223e-01,-3.250505685806274414e+00,-7.390123605728149414e-01,2.842274308204650879e-01,-3.319792449474334717e-02
-2.107771158218383789e+00,3.896229863166809082e-01,-3.126367330551147461e+00,-7.118010520935058594e-02,-3.235512733459472656e+00,3.135549783706665039e+00,-4.170497655868530273e-01,-1.652007222175598145e+00,2.031515359878540039e+00,-3.036548137664794922e+00,1.382360816001892090e+00,-2.839623212814331055e+00,5.220331668853759766e+00,2.485496520996093750e+00,1.261722087860107422e+01,7.891085624694824219e+00,-9.734098315238952637e-01,-3.762687921524047852e+00,-6.548249721527099609e-02,1.576130688190460205e-01,-3.146586194634437561e-02
-2.207373619079589844e+00,7.792311161756515503e-02,-3.235189914703369141e+00,-5.017833709716796875e-01,-3.002258539199829102e+00,2.913473129272460938e+00,4.248389899730682373e-01,-1.555040955543518066e+00,2.126442432403564453e+00,-3.520389318466186523e+00,2.462839126586914062e+00,-1.034089684486389160e+00,6.529282093048095703e+00,3.835860729217529297e+00,1.426778125762939453e+01,9.785681724548339844e+00,-9.424007534980773926e-01,-4.362525463104248047e+00,8.419579863548278809e-01,-1.623142957687377930e-01,-2.972574159502983093e-02
-2.520266532897949219e+00,-2.410936653614044189e-01,-3.476078987121582031e+00,-1.101905703544616699e+00,-3.145799636840820312e+00,2.572675943374633789e+00,9.856498837471008301e-01,-1.634895563125610352e+00,1.840324282646179199e+00,-4.255996704101562500e+00,3.192369222640991211e+00,7.670791149139404297e-01,7.361471652984619141e+00,5.042206764221191406e+00,1.566470432281494141e+01,1.139175224304199219e+01,-1.103409647941589355e+00,-5.202985763549804688e+00,2.026441574096679688e+00,-4.245868921279907227e-01,-2.822730690240859985e-02
-3.088705301284790039e+00,-6.801075935363769531e-01,-3.959969758987426758e+00,-1.940839648246765137e+00,-3.736624717712402344e+00,2.082431316375732422e+00,1.124171495437622070e+00,-1.906400918960571289e+00,1.111658811569213867e+00,-5.305256843566894531e+00,3.434164285659790039e+00,2.483863592147827148e+00,7.698344707489013672e+00,5.983745098114013672e+00,1.680606842041015625e+01,1.256920337677001953e+01,-1.610289573669433594e+00,-6.382036209106445312e+00,3.431564331054687500e+00,-4.551100134849548340e-01,-2.718806825578212738e-02
-3.830190896987915039e+00,-1.244972109794616699e+00,-4.700597763061523438e+00,-2.982701539993286133e+00,-4.709371566772460938e+00,1.509780526161193848e+00,7.610565423965454102e-01,-2.304532766342163086e+00,-4.618391767144203186e-02,-6.597844123840332031e+00,3.127429962158203125e+00,4.056612968444824219e+00,7.515634059906005859e+00,6.553623676300048828e+00,1.759195899963378906e+01,1.317127132415771484e+01,-2.473774433135986328e+00,-7.906552314758300781e+00,4.884796142578125000e+00,-2.244909852743148804e-01,-2.662414126098155975e-02
-4.584755897521972656e+00,-1.823007106781005859e+00,-5.592309474945068359e+00,-4.096330642700195312e+00,-5.870515823364257812e+00,9.538903832435607910e-01,-1.036950126290321350e-01,-2.714072465896606445e+00,-1.540950894355773926e+00,-7.943878650665283203e+00,2.299800157546997070e+00,5.434405326843261719e+00,6.794783592224121094e+00,6.680607318878173828e+00,1.784943771362304688e+01,1.309955692291259766e+01,-3.565057277679443359e+00,-9.657940864562988281e+00,6.150568008422851562e+00,1.700484156608581543e-01,-2.639051340520381927e-02
-5.156212806701660156e+00,-2.223973274230957031e+00,-6.430138111114501953e+00,-5.087460517883300781e+00,-6.953481197357177734e+00,5.055468082427978516e-01,-1.367873072624206543e+00,-2.993563413619995117e+00,-3.209527969360351562e+00,-9.076123237609863281e+00,1.096351861953735352e+00,6.579412937164306641e+00,5.574333667755126953e+00,6.360050678253173828e+00,1.745745468139648438e+01,1.235906410217285156e+01,-4.650376796722412109e+00,-1.138870429992675781e+01,7.021511554718017578e+00,5.996328592300415039e-01,-2.624550461769104004e-02
-5.377552032470703125e+00,-2.247387170791625977e+00,-6.960515975952148438e+00,-5.740789890289306641e+00,-7.698100566864013672e+00,2.569326162338256836e-01,-2.832436800003051758e+00,-3.007252693176269531e+00,-4.824625015258789062e+00,-9.717494010925292969e+00,-2.549368441104888916e-01,7.468358039855957031e+00,4.001309394836425781e+00,5.681771755218505859e+00,1.644482994079589844e+01,1.108988475799560547e+01,-5.456614017486572266e+00,-1.276197147369384766e+01,7.403068065643310547e+00,9.636491537094116211e-01,-2.603604458272457123e-02
-5.156212806701660156e+00,-1.755691647529602051e+00,-6.975307464599609375e+00,-5.865763664245605469e+00,-7.924946308135986328e+00,3.225779533386230469e-01,-4.243205547332763672e+00,-2.662737607955932617e+00,-6.154940605163574219e+00,-9.648574829101562500e+00,-1.494309067726135254e+00,8.088146209716796875e+00,2.326937675476074219e+00,4.788239002227783203e+00,1.501716232299804688e+01,9.540518760681152344e+00,-5.741659641265869141e+00,-1.343915271759033203e+01,7.320120811462402344e+00,1.233835220336914062e+00,-2.570574544370174408e-02
-4.507287025451660156e+00,-7.108385562896728516e-01,-6.385763645172119141e+00,-5.339883327484130859e+00,-7.600697517395019531e+00,8.505339026451110840e-01,-5.374241352081298828e+00,-1.942905902862548828e+00,-7.005273342132568359e+00,-8.784975051879882812e+00,-2.431092023849487305e+00,8.408225059509277344e+00,8.267123103141784668e-01,3.809534788131713867e+00,1.347612762451171875e+01,7.954461097717285156e+00,-5.355237960815429688e+00,-1.318478012084960938e+01,6.887137413024902344e+00,1.454279780387878418e+00,-2.529488317668437958e-02
-3.531383275985717773e+00,8.301002979278564453e-01,-5.252106666564941406e+00,-4.118603229522705078e+00,-6.830446243286132812e+00,1.991645097732543945e+00,-6.076263427734375000e+00,-9.196270108222961426e-01,-7.269999504089355469e+00,-7.199832439422607422e+00,-2.997583150863647461e+00,8.347119331359863281e+00,-2.966725230216979980e-01,2.792115926742553711e+00,1.208881187438964844e+01,6.476809501647949219e+00,-4.265148162841796875e+00,-1.195073032379150391e+01,6.240150451660156250e+00,1.695073246955871582e+00,-2.481151744723320007e-02
-2.372371912002563477e+00,2.726640462875366211e+00,-3.766624689102172852e+00,-2.260080099105834961e+00,-5.811561107635498047e+00,3.811556816101074219e+00,-6.315650463104248047e+00,2.359822541475296021e-01,-6.950456142425537109e+00,-5.125222682952880859e+00,-3.254576683044433594e+00,7.746244430541992188e+00,-1.013240694999694824e+00,1.661650419235229492e+00,1.094552516937255859e+01,5.062533855438232422e+00,-2.562031269073486328e+00,-9.908875465393066406e+00,5.470402240753173828e+00,2.042132139205932617e+00,-2.440871112048625946e-02
-1.193238615989685059e+00,4.766591548919677734e+00,-2.192394495010375977e+00,6.987958401441574097e-02,-4.769607543945312500e+00,6.202722549438476562e+00,-6.177128791809082031e+00,1.271809697151184082e+00,-6.153603553771972656e+00,-2.916994333267211914e+00,-3.374783515930175781e+00,6.401915073394775391e+00,-1.491428732872009277e+00,2.415998578071594238e-01,9.925213813781738281e+00,3.496489763259887695e+00,-4.379060864448547363e-01,-7.397807598114013672e+00,4.576233386993408203e+00,2.546328783035278320e+00,-2.423953264951705933e-02
-1.549574732780456543e-01,6.708496570587158203e+00,-7.850959897041320801e-01,2.625039815902709961e+00,-3.898108243942260742e+00,8.849486351013183594e+00,-5.818048477172851562e+00,1.902660608291625977e+00,-5.070632934570312500e+00,-9.647514820098876953e-01,-3.551639318466186523e+00,4.157001018524169922e+00,-2.030996084213256836e+00,-1.672448635101318359e+00,8.743497848510742188e+00,1.495155930519104004e+00,1.853191375732421875e+00,-4.823145866394042969e+00,3.499580860137939453e+00,3.174878597259521484e+00,-2.441676706075668335e-02
6.106742620468139648e-01,8.312360763549804688e+00,2.777736186981201172e-01,5.112144947052001953e+00,-3.306001663208007812e+00,1.130070972442626953e+01,-5.394414424896240234e+00,1.910645961761474609e+00,-3.914127349853515625e+00,4.234788119792938232e-01,-3.919167757034301758e+00,1.028961539268493652e+00,-2.914573192596435547e+00,-4.178055763244628906e+00,7.127524375915527344e+00,-1.126591563224792480e+00,4.053646564483642578e+00,-2.521763086318969727e+00,2.179064035415649414e+00,3.833951473236083984e+00,-2.494847029447555542e-02
1.013108849525451660e+00,9.371848106384277344e+00,9.307094216346740723e-01,7.260211467742919922e+00,-3.009948253631591797e+00,1.311922550201416016e+01,-5.012471199035644531e+00,1.226178526878356934e+00,-2.859233617782592773e+00,1.100012540817260742e+00,-4.498094081878662109e+00,-2.723231077194213867e+00,-4.277765750885009766e+00,-7.194694995880126953e+00,4.962005615234375000e+00,-4.332061290740966797e+00,5.951166629791259766e+00,-6.655318140983581543e-01,6.063884496688842773e-01,4.390150547027587891e+00,-2.560907043516635895e-02
1.028200149536132812e+00,9.805007934570312500e+00,1.207520365715026855e+00,8.877448081970214844e+00,-2.948430776596069336e+00,1.404943370819091797e+01,-4.699116706848144531e+00,-2.525615878403186798e-02,-2.019597053527832031e+00,1.115484237670898438e+00,-5.188936710357666016e+00,-6.610729694366455078e+00,-6.036355495452880859e+00,-1.043433094024658203e+01,2.369915723800659180e+00,-7.856076717376708984e+00,7.416944503784179688e+00,7.421101331710815430e-01,-1.138817071914672852e+00,4.754166603088378906e+00,-2.602798864245414734e-02
7.122889757156372070e-01,9.693791389465332031e+00,1.207520365715026855e+00,9.889614105224609375e+00,-3.003540277481079102e+00,1.411088848114013672e+01,-4.418038845062255859e+00,-1.549337029457092285e+00,-1.432653784751892090e+00,6.752449870109558105e-01,-5.832802295684814453e+00,-1.004720783233642578e+01,-7.929123401641845703e+00,-1.349742794036865234e+01,-3.316991627216339111e-01,-1.129003238677978516e+01,8.405658721923828125e+00,1.793974518775939941e+00,-2.928813934326171875e+00,4.905651569366455078e+00,-2.576213702559471130e-02
2.052214443683624268e-01,9.289898872375488281e+00,1.053266882896423340e+00,1.032764148712158203e+01,-3.048396825790405273e+00,1.357734584808349609e+01,-4.114098072052001953e+00,-2.993563413619995117e+00,-1.106425642967224121e+00,3.668718039989471436e-02,-6.283232212066650391e+00,-1.254091072082519531e+01,-9.657736778259277344e+00,-1.601697158813476562e+01,-2.796970605850219727e+00,-1.425701045989990234e+01,8.931620597839355469e+00,2.563966751098632812e+00,-4.657430171966552734e+00,4.895477294921875000e+00,-2.454566583037376404e-02
-3.149251937866210938e-01,8.915273666381835938e+00,8.409042954444885254e-01,1.028928279876708984e+01,-2.966373205184936523e+00,1.283429622650146484e+01,-3.769811153411865234e+00,-4.085289001464843750e+00,-1.059630513191223145e+00,-6.145292520523071289e-01,-6.469759464263916016e+00,-1.386196136474609375e+01,-1.103377628326416016e+01,-1.781797409057617188e+01,-4.826064109802246094e+00,-1.656354713439941406e+01,9.028225898742675781e+00,3.017712116241455078e+00,-6.326323986053466797e+00,4.786950588226318359e+00,-2.239468507468700409e-02
-6.700736880302429199e-01,8.824543952941894531e+00,6.380504965782165527e-01,9.897037506103515625e+00,-2.674164772033691406e+00,1.222672843933105469e+01,-3.408041238784790039e+00,-4.725265979766845703e+00,-1.336389780044555664e+00,-1.222143769264221191e+00,-6.414492130279541016e+00,-1.411656951904296875e+01,-1.206152343750000000e+01,-1.895153617858886719e+01,-6.440115451812744141e+00,-1.826468086242675781e+01,8.727676391601562500e+00,3.017712116241455078e+00,-8.033373832702636719e+00,4.617377758026123047e+00,-1.954282261431217194e-02
-7.254084348678588867e-01,9.095269203186035156e+00,4.806274473667144775e-01,9.270931243896484375e+00,-2.130759477615356445e+00,1.195436954498291016e+01,-3.085272312164306641e+00,-4.985363960266113281e+00,-1.971465110778808594e+00,-1.852262496948242188e+00,-6.203094482421875000e+00,-1.367864418029785156e+01,-1.290655994415283203e+01,-1.965614128112792969e+01,-7.852410793304443359e+00,-1.958722877502441406e+01,8.075291633605957031e+00,2.410999536514282227e+00,-9.922906875610351562e+00,4.383367538452148438e+00,-1.630426757037639618e-02
-4.225764572620391846e-01,9.611842155456542969e+00,3.971615433692932129e-01,8.535935401916503906e+00,-1.351536870002746582e+00,1.206750297546386719e+01,-2.847230195999145508e+00,-5.037839412689208984e+00,-2.942127704620361328e+00,-2.593495845794677734e+00,-5.928138732910156250e+00,-1.301375389099121094e+01,-1.377015304565429688e+01,-2.021517944335937500e+01,-9.305056571960449219e+00,-2.080637550354003906e+01,7.167678833007812500e+00,1.163199663162231445e+00,-1.205298709869384766e+01,4.045352458953857422e+00,-1.295292656868696213e-02
1.991849243640899658e-01,1.012841510772705078e+01,4.056137800216674805e-01,7.826925277709960938e+00,-4.159570038318634033e-01,1.251165676116943359e+01,-2.706018924713134766e+00,-5.037839412689208984e+00,-4.134732723236083984e+00,-3.459909200668334961e+00,-5.653183460235595703e+00,-1.248562431335449219e+01,-1.476364231109619141e+01,-2.080364227294921875e+01,-1.092103004455566406e+01,-2.207055091857910156e+01,6.171808719635009766e+00,-5.469393134117126465e-01,-1.431744098663330078e+01,3.553591251373291016e+00,-9.625754319131374359e-03
1.014114856719970703e+00,1.037572574615478516e+01,5.007015466690063477e-01,7.262686252593994141e+00,5.337206125259399414e-01,1.317788696289062500e+01,-2.641465187072753906e+00,-5.066359043121337891e+00,-5.368784427642822266e+00,-4.347420215606689453e+00,-5.398952960968017578e+00,-1.225429439544677734e+01,-1.584991359710693359e+01,-2.144010925292968750e+01,-1.262923431396484375e+01,-2.334973716735839844e+01,5.292819023132324219e+00,-2.363639593124389648e+00,-1.643756675720214844e+01,2.854951143264770508e+00,-6.314693950116634369e-03
1.844136118888854980e+00,1.020451068878173828e+01,6.496723294258117676e-01,6.931072235107421875e+00,1.310380101203918457e+00,1.394747352600097656e+01,-2.615912675857543945e+00,-5.102864265441894531e+00,-6.441059112548828125e+00,-5.059116840362548828e+00,-5.165448188781738281e+00,-1.227320861816406250e+01,-1.685767745971679688e+01,-2.199295425415039062e+01,-1.418564128875732422e+01,-2.447048377990722656e+01,4.710801601409912109e+00,-3.858937025070190430e+00,-1.804508018493652344e+01,1.941519021987915039e+00,-3.068082733079791069e-03
2.519220113754272461e+00,9.661597251892089844e+00,7.965300083160400391e-01,6.863017082214355469e+00,1.739721536636352539e+00,1.471985340118408203e+01,-2.594394683837890625e+00,-5.068640708923339844e+00,-7.176409244537353516e+00,-5.389647483825683594e+00,-4.944378376007080078e+00,-1.238087081909179688e+01,-1.756710815429687500e+01,-2.226395606994628906e+01,-1.529818344116210938e+01,-2.521598052978515625e+01,4.525939464569091797e+00,-4.680490970611572266e+00,-1.881482887268066406e+01,8.754712939262390137e-01,-1.759401784511283040e-04
2.929703235626220703e+00,8.967954635620117188e+00,8.831655383110046387e-01,7.026349544525146484e+00,1.721778869628906250e+00,1.540563774108886719e+01,-2.555393457412719727e+00,-4.882693767547607422e+00,-7.491941452026367188e+00,-5.211020469665527344e+00,-4.738507270812988281e+00,-1.242160892486572266e+01,-1.780548858642578125e+01,-2.209206199645996094e+01,-1.576318454742431641e+01,-2.543779563903808594e+01,4.728691577911376953e+00,-4.654710292816162109e+00,-1.859419059753417969e+01,-2.030117660760879517e-01,1.999208703637123108e-03
3.045403242111206055e+00,8.406017303466796875e+00,8.736567497253417969e-01,7.344352245330810547e+00,1.265523552894592285e+00,1.591823005676269531e+01,-2.504288434982299805e+00,-4.523348331451416016e+00,-7.406373500823974609e+00,-4.531673431396484375e+00,-4.578231811523437500e+00,-1.232703971862792969e+01,-1.753427696228027344e+01,-2.143391418457031250e+01,-1.556719207763671875e+01,-2.511424636840820312e+01,5.209332942962646484e+00,-3.831437349319458008e+00,-1.748435783386230469e+01,-1.123226881027221680e+00,3.255961462855339050e-03
2.905557155609130859e+00,8.187973976135253906e+00,7.711732983589172363e-01,7.729173183441162109e+00,4.850192070007324219e-01,1.621852302551269531e+01,-2.465287208557128906e+00,-4.024827957153320312e+00,-7.028002262115478516e+00,-3.471161127090454102e+00,-4.511910915374755859e+00,-1.213499259948730469e+01,-1.686481475830078125e+01,-2.037623214721679688e+01,-1.490620040893554688e+01,-2.435207176208496094e+01,5.818781852722167969e+00,-2.427232742309570312e+00,-1.580882835388183594e+01,-1.716731667518615723e+00,3.666823031380772591e-03
2.581597328186035156e+00,8.356262207031250000e+00,6.169198751449584961e-01,8.107807159423828125e+00,-4.467157721519470215e-01,1.630791091918945312e+01,-2.478735923767089844e+00,-3.448734283447265625e+00,-6.503898143768310547e+00,-2.217956304550170898e+00,-4.582376956939697266e+00,-1.194585514068603516e+01,-1.600264930725097656e+01,-1.910329818725585938e+01,-1.409340953826904297e+01,-2.333305931091308594e+01,6.424652099609375000e+00,-7.325624227523803711e-01,-1.400224208831787109e+01,-1.869347214698791504e+00,3.811832983046770096e-03
2.159041166305541992e+00,8.787959098815917969e+00,4.679490923881530762e-01,8.453032493591308594e+00,-1.346410393714904785e+00,1.622131538391113281e+01,-2.578256130218505859e+00,-2.856669902801513672e+00,-5.967760562896728516e+00,-9.520928859710693359e-01,-4.785484790802001953e+00,-1.184692192077636719e+01,-1.515190219879150391e+01,-1.779784202575683594e+01,-1.341512393951416016e+01,-2.222899055480957031e+01,6.957770824432373047e+00,9.792952537536621094e-01,-1.245279216766357422e+01,-1.539245486259460449e+00,4.536882508546113968e-03
1.705296158790588379e+00,9.298678398132324219e+00,3.802570402622222900e-01,8.772272109985351562e+00,-2.070523500442504883e+00,1.599504852294921875e+01,-2.770572662353515625e+00,-2.281717300415039062e+00,-5.506495475769042969e+00,1.885907948017120361e-01,-5.067348480224609375e+00,-1.186438083648681641e+01,-1.443961620330810547e+01,-1.659304428100585938e+01,-1.302890396118164062e+01,-2.115827560424804688e+01,7.414558887481689453e+00,2.505529880523681641e+00,-1.138443374633789062e+01,-7.524276375770568848e-01,6.591190118342638016e-03
1.258593916893005371e+00,9.731839179992675781e+00,3.781439960002899170e-01,9.080376625061035156e+00,-2.551129579544067383e+00,1.565983867645263672e+01,-3.061064720153808594e+00,-1.742128729820251465e+00,-5.169570922851562500e+00,1.109858155250549316e+00,-5.347830772399902344e+00,-1.194876575469970703e+01,-1.390004920959472656e+01,-1.554465389251708984e+01,-1.292130088806152344e+01,-2.016261291503906250e+01,7.809329032897949219e+00,3.689736604690551758e+00,-1.082371234893798828e+01,4.255381226539611816e-01,1.027283072471618652e-02
8.350315093994140625e-01,1.004207515716552734e+01,4.394227564334869385e-01,9.363733291625976562e+00,-2.799763202667236328e+00,1.524082565307617188e+01,-3.449732065200805664e+00,-1.276690840721130371e+00,-4.997097969055175781e+00,1.718879103660583496e+00,-5.559228897094726562e+00,-1.200550651550292969e+01,-1.348324012756347656e+01,-1.466196155548095703e+01,-1.295973110198974609e+01,-1.922865676879882812e+01,8.134924888610839844e+00,4.389260768890380859e+00,-1.064620590209960938e+01,1.905343532562255859e+00,1.525150518864393234e-02
4.084509015083312988e-01,1.026158237457275391e+01,4.827404916286468506e-01,9.565423965454101562e+00,-2.912545442581176758e+00,1.475616836547851562e+01,-3.966162204742431641e+00,-9.698212742805480957e-01,-5.047904014587402344e+00,1.884847879409790039e+00,-5.701542377471923828e+00,-1.195458507537841797e+01,-1.314779567718505859e+01,-1.395890522003173828e+01,-1.297510242462158203e+01,-1.832472038269042969e+01,8.317401885986328125e+00,4.447697639465332031e+00,-1.069763278961181641e+01,3.554721593856811523e+00,2.064909785985946655e-02
-4.831231757998466492e-02,1.043133449554443359e+01,4.098398983478546143e-01,9.592645645141601562e+00,-3.017637968063354492e+00,1.424217891693115234e+01,-4.629183292388916016e+00,-9.344571232795715332e-01,-5.368784427642822266e+00,1.476958513259887695e+00,-5.838329315185546875e+00,-1.176253795623779297e+01,-1.286944675445556641e+01,-1.345871257781982422e+01,-1.285597038269042969e+01,-1.742245292663574219e+01,8.254190444946289062e+00,3.729267358779907227e+00,-1.085191440582275391e+01,5.214274406433105469e+00,2.541025727987289429e-02
-5.382763743400573730e-01,1.054694175720214844e+01,1.541595458984375000e-01,9.388480186462402344e+00,-3.221415042877197266e+00,1.375891780853271484e+01,-5.421311855316162109e+00,-1.244749069213867188e+00,-5.963749408721923828e+00,4.389504790306091309e-01,-6.053872108459472656e+00,-1.144100475311279297e+01,-1.263392162322998047e+01,-1.316603088378906250e+01,-1.254853153228759766e+01,-1.648349380493164062e+01,7.880888462066650391e+00,2.209907770156860352e+00,-1.102278518676757812e+01,6.741559982299804688e+00,2.876965329051017761e-02
-1.019185662269592285e+00,1.054108810424804688e+01,-2.705656886100769043e-01,8.957877159118652344e+00,-3.561043262481689453e+00,1.335945892333984375e+01,-6.259166240692138672e+00,-1.890429973602294922e+00,-6.733861923217773438e+00,-1.143378853797912598e+00,-6.403438568115234375e+00,-1.100744342803955078e+01,-1.240981578826904297e+01,-1.302201271057128906e+01,-1.204702281951904297e+01,-1.544780349731445312e+01,7.238045692443847656e+00,6.149204447865486145e-02,-1.113559246063232422e+01,7.985094070434570312e+00,3.050977364182472229e-02
-1.395461916923522949e+00,1.032889842987060547e+01,-7.502304911613464355e-01,8.394875526428222656e+00,-3.971160411834716797e+00,1.305218315124511719e+01,-6.996154785156250000e+00,-2.753999710083007812e+00,-7.493278503417968750e+00,-3.001385211944580078e+00,-6.855249881744384766e+00,-1.044148635864257812e+01,-1.211148357391357422e+01,-1.288109111785888672e+01,-1.135528659820556641e+01,-1.421197986602783203e+01,6.498597145080566406e+00,-2.344733476638793945e+00,-1.108748340606689453e+01,8.782086372375488281e+00,3.102536313235759735e-02
-1.528265357017517090e+00,9.838665962219238281e+00,-1.091489791870117188e+00,7.850434780120849609e+00,-4.300535678863525391e+00,1.278122138977050781e+01,-7.461480140686035156e+00,-3.614147186279296875e+00,-8.004013061523437500e+00,-4.744057178497314453e+00,-7.283572673797607422e+00,-9.642745971679687500e+00,-1.161331176757812500e+01,-1.251407718658447266e+01,-1.044642162322998047e+01,-1.264260101318359375e+01,5.922543048858642578e+00,-4.501742839813232422e+00,-1.073910617828369141e+01,9.017227172851562500e+00,3.112203627824783325e-02
-1.274731636047363281e+00,9.071854591369628906e+00,-1.086207151412963867e+00,7.474276065826416016e+00,-4.358208656311035156e+00,1.244182109832763672e+01,-7.523344039916992188e+00,-4.224463939666748047e+00,-8.069525718688964844e+00,-5.976164340972900391e+00,-7.515696048736572266e+00,-8.462820053100585938e+00,-1.079539585113525391e+01,-1.167010021209716797e+01,-9.281998634338378906e+00,-1.062625694274902344e+01,5.760341167449951172e+00,-5.930009841918945312e+00,-9.954426765441894531e+00,8.643036842346191406e+00,3.166985139250755310e-02
-5.604102611541748047e-01,8.114804267883300781e+00,-6.118249893188476562e-01,7.334453582763671875e+00,-4.007045745849609375e+00,1.192783260345458984e+01,-7.154849529266357422e+00,-4.393299579620361328e+00,-7.608260631561279297e+00,-6.447347164154052734e+00,-7.424504756927490234e+00,-6.759129524230957031e+00,-9.623478889465332031e+00,-1.018191146850585938e+01,-7.850489139556884766e+00,-8.122920989990234375e+00,6.125294685363769531e+00,-6.352818012237548828e+00,-8.675383567810058594e+00,7.713777542114257812e+00,3.332135453820228577e-02
5.955829620361328125e-01,7.121169567108154297e+00,3.147521615028381348e-01,7.398796558380126953e+00,-3.230386257171630859e+00,1.119595718383789062e+01,-6.447447776794433594e+00,-4.053347110748291016e+00,-6.719155311584472656e+00,-6.121035575866699219e+00,-6.983747005462646484e+00,-4.479298114776611328e+00,-8.184632301330566406e+00,-8.035575866699218750e+00,-6.213379859924316406e+00,-5.185964107513427734e+00,6.947036743164062500e+00,-5.780479907989501953e+00,-6.969993114471435547e+00,6.387718200683593750e+00,3.641489893198013306e-02
2.048371553421020508e+00,6.251922130584716797e+00,1.522366404533386230e+00,7.541093349456787109e+00,-2.151265382766723633e+00,1.028669929504394531e+01,-5.590765476226806641e+00,-3.275335788726806641e+00,-5.649554252624511719e+00,-5.180077075958251953e+00,-6.302575588226318359e+00,-1.709164261817932129e+00,-6.680124759674072266e+00,-5.395241737365722656e+00,-4.505175113677978516e+00,-1.978826284408569336e+00,7.973916053771972656e+00,-4.508617877960205078e+00,-5.025714874267578125e+00,4.863823890686035156e+00,4.089409485459327698e-02
3.534361124038696289e+00,5.591938018798828125e+00,2.721528530120849609e+00,7.576977252960205078e+00,-1.024724721908569336e+00,9.282465934753417969e+00,-4.816120147705078125e+00,-2.256620168685913086e+00,-4.727024078369140625e+00,-3.952189445495605469e+00,-5.592389106750488281e+00,1.303938031196594238e+00,-5.366892337799072266e+00,-2.579918146133422852e+00,-2.931474924087524414e+00,1.263334751129150391e+00,8.850520133972167969e+00,-3.004726886749267578e+00,-3.098025798797607422e+00,3.325233221054077148e+00,4.642863944172859192e-02
4.743677139282226562e+00,5.101705551147460938e+00,3.594222545623779297e+00,7.324554443359375000e+00,-1.493808180093765259e-01,8.267058372497558594e+00,-4.329277038574218750e+00,-1.229918956756591797e+00,-4.240355491638183594e+00,-2.790407896041870117e+00,-5.082547187805175781e+00,4.209377288818359375e+00,-4.470468044281005859e+00,6.041565909981727600e-02,-1.688271045684814453e+00,4.282013416290283203e+00,9.242904663085937500e+00,-1.751770853996276855e+00,-1.415860176086425781e+00,1.932475090026855469e+00,5.247877910733222961e-02
5.385560035705566406e+00,4.624643802642822266e+00,3.879485845565795898e+00,6.658851623535156250e+00,2.145981937646865845e-01,7.243270874023437500e+00,-4.256654262542724609e+00,-4.028540551662445068e-01,-4.367370605468750000e+00,-1.978848814964294434e+00,-4.933324813842773438e+00,6.671072006225585938e+00,-4.105047225952148438e+00,2.236174583435058594e+00,-9.119890928268432617e-01,6.858730792999267578e+00,8.929235458374023438e+00,-1.115839719772338867e+00,-1.119328364729881287e-01,8.370347619056701660e-01,5.836779251694679260e-02
5.253762722015380859e+00,3.950025796890258789e+00,3.423064708709716797e+00,5.520475387573242188e+00,-8.914485573768615723e-02,6.151044368743896484e+00,-4.635907649993896484e+00,1.173412352800369263e-01,-5.134809017181396484e+00,-1.663789391517639160e+00,-5.190318584442138672e+00,8.473695755004882812e+00,-4.252071857452392578e+00,3.804889202117919922e+00,-6.352945566177368164e-01,8.878410339355468750e+00,7.841530799865722656e+00,-1.267088294029235840e+00,8.038023710250854492e-01,1.836142390966415405e-01,6.348341703414916992e-02
4.265786170959472656e+00,2.892002344131469727e+00,2.202771902084350586e+00,3.911900043487548828e+00,-1.084960699081420898e+00,4.878642559051513672e+00,-5.432070732116699219e+00,3.215406835079193115e-01,-6.459776878356933594e+00,-1.870547175407409668e+00,-5.774771690368652344e+00,9.602699279785156250e+00,-4.780220031738281250e+00,4.785141944885253906e+00,-7.717203497886657715e-01,1.034272003173828125e+01,6.040616035461425781e+00,-2.205516338348388672e+00,1.427564024925231934e+00,9.769734740257263184e-02,6.747925281524658203e-02
2.483000993728637695e+00,1.365697264671325684e+00,3.147521615028381348e-01,1.878908157348632812e+00,-2.678009748458862305e+00,3.343659400939941406e+00,-6.545623302459716797e+00,2.987251281738281250e-01,-8.172474861145019531e+00,-2.523169994354248047e+00,-6.522263526916503906e+00,1.026322555541992188e+01,-5.475376605987548828e+00,5.347277641296386719e+00,-1.119510054588317871e+00,1.138341331481933594e+01,3.671995878219604492e+00,-3.786750316619873047e+00,1.915292501449584961e+00,6.312864422798156738e-01,7.041167467832565308e-02
9.052760154008865356e-02,-5.718174576759338379e-01,-2.064554214477539062e+00,-4.906470775604248047e-01,-4.683739185333251953e+00,1.558665394783020020e+00,-7.827284812927246094e+00,2.017588913440704346e-01,-1.007369041442871094e+01,-3.454282999038696289e+00,-7.231068611145019531e+00,1.078116989135742188e+01,-6.079178333282470703e+00,5.748360633850097656e+00,-1.394283056259155273e+00,1.220396041870117188e+01,9.181469082832336426e-01,-5.773604869842529297e+00,2.452789306640625000e+00,1.714291453361511230e+00,7.273989170789718628e-02
-2.646027326583862305e+00,-2.766886949539184570e+00,-4.720671653747558594e+00,-3.077978610992431641e+00,-6.875302791595458984e+00,-3.673962652683258057e-01,-9.104911804199218750e+00,1.983365565538406372e-01,-1.195886135101318359e+01,-4.450095653533935547e+00,-7.724330425262451172e+00,1.150862121582031250e+01,-6.334687709808349609e+00,6.256295680999755859e+00,-1.307816028594970703e+00,1.302617454528808594e+01,-2.031298160552978516e+00,-7.889364719390869141e+00,3.205948352813720703e+00,3.126267671585083008e+00,7.518894225358963013e-02
-5.441941261291503906e+00,-5.020491600036621094e+00,-7.419050216674804688e+00,-5.730890750885009766e+00,-9.020728111267089844e+00,-2.280887603759765625e+00,-1.019963550567626953e+01,4.333370625972747803e-01,-1.364481925964355469e+01,-5.270093917846679688e+00,-7.894277572631835938e+00,1.267108821868896484e+01,-6.050629615783691406e+00,7.073947429656982422e+00,-6.468234658241271973e-01,1.400015735626220703e+01,-4.979550361633300781e+00,-9.847001075744628906e+00,4.277624130249023438e+00,4.537113666534423828e+00,7.851611822843551636e-02
-8.022552490234375000e+00,-7.117515087127685547e+00,-9.927253723144531250e+00,-8.240268707275390625e+00,-1.089957809448242188e+01,-4.019790172576904297e+00,-1.097293567657470703e+01,9.991635084152221680e-01,-1.497112464904785156e+01,-5.679389953613281250e+00,-7.721567153930664062e+00,1.430494308471679688e+01,-5.147068500518798828e+00,8.277196884155273438e+00,6.482607126235961914e-01,1.516093158721923828e+01,-7.707160949707031250e+00,-1.138526725769042969e+01,5.686064243316650391e+00,5.615596771240234375e+00,8.309198915958404541e-02
-1.015042591094970703e+01,-8.863327026367187500e+00,-1.201495742797851562e+01,-1.035245132446289062e+01,-1.231960868835449219e+01,-5.417895793914794922e+00,-1.134143066406250000e+01,1.923194646835327148e+00,-1.580808639526367188e+01,-5.500762462615966797e+00,-7.269755840301513672e+00,1.623123359680175781e+01,-3.685383558273315430e+00,9.782419204711914062e+00,2.462147235870361328e+00,1.641009712219238281e+01,-9.956515312194824219e+00,-1.229791355133056641e+01,7.336710453033447266e+00,6.146924495697021484e+00,8.869903534650802612e-02
-1.164144515991210938e+01,-1.010427284240722656e+01,-1.348459148406982422e+01,-1.179645729064941406e+01,-1.313471698760986328e+01,-6.331343650817871094e+00,-1.129704952239990234e+01,3.138124465942382812e+00,-1.607949829101562500e+01,-4.684983730316162109e+00,-6.654905319213867188e+00,1.807750511169433594e+01,-1.873979091644287109e+00,1.135732746124267578e+01,4.525827407836914062e+00,1.752250480651855469e+01,-1.148311901092529297e+01,-1.249900531768798828e+01,9.023853302001953125e+00,6.107357501983642578e+00,9.466055780649185181e-02
-1.236482143402099609e+01,-1.070718574523925781e+01,-1.418507099151611328e+01,-1.233471107482910156e+01,-1.325646972656250000e+01,-6.638619422912597656e+00,-1.088686466217041016e+01,4.485384464263916016e+00,-1.576797676086425781e+01,-3.327696561813354492e+00,-5.993078231811523438e+00,1.937236785888671875e+01,-5.477481056004762650e-03,1.265813732147216797e+01,6.510726451873779297e+00,1.821796798706054688e+01,-1.208421897888183594e+01,-1.202119827270507812e+01,1.047542572021484375e+01,5.629162311553955078e+00,1.001951023936271667e-01
-1.225717067718505859e+01,-1.058865165710449219e+01,-1.404772186279296875e+01,-1.181006813049316406e+01,-1.266820812225341797e+01,-6.240557193756103516e+00,-1.017273807525634766e+01,5.727693080902099609e+00,-1.491363334655761719e+01,-1.644098281860351562e+00,-5.364410877227783203e+00,1.965752792358398438e+01,1.626071214675903320e+00,1.331938266754150391e+01,8.120934486389160156e+00,1.825132369995117188e+01,-1.165366840362548828e+01,-1.100714588165283203e+01,1.142931652069091797e+01,4.901129722595214844e+00,1.048273667693138123e-01
-1.135169219970703125e+01,-9.764768600463867188e+00,-1.310952281951904297e+01,-1.022129058837890625e+01,-1.143913841247558594e+01,-5.137157440185546875e+00,-9.212500572204589844e+00,6.588981151580810547e+00,-1.361273097991943359e+01,6.059793755412101746e-02,-4.799301624298095703e+00,1.859836006164550781e+01,2.807980537414550781e+00,1.304373455047607422e+01,9.166225433349609375e+00,1.746246528625488281e+01,-1.023440456390380859e+01,-9.651065826416015625e+00,1.169474697113037109e+01,4.062309741973876953e+00,1.086862385272979736e-01
-9.785216331481933594e+00,-8.359924316406250000e+00,-1.151204872131347656e+01,-7.740372657775878906e+00,-9.717927932739257812e+00,-3.462503194808959961e+00,-8.047842979431152344e+00,6.809151649475097656e+00,-1.198693847656250000e+01,1.489617109298706055e+00,-4.279787540435791016e+00,1.606682968139648438e+01,3.448895215988159180e+00,1.166704463958740234e+01,9.600481986999511719e+00,1.583804893493652344e+01,-8.008903503417968750e+00,-8.162643432617187500e+00,1.119208812713623047e+01,3.125137329101562500e+00,1.122792661190032959e-01
-7.772037506103515625e+00,-6.543869972229003906e+00,-9.456041336059570312e+00,-4.684079170227050781e+00,-7.689129352569580078e+00,-1.473589777946472168e+00,-6.677420616149902344e+00,6.239902973175048828e+00,-1.013786602020263672e+01,2.434795141220092773e+00,-3.734021663665771484e+00,1.221715831756591797e+01,3.611621856689453125e+00,9.243512153625488281e+00,9.506329536437988281e+00,1.349815654754638672e+01,-5.263403415679931641e+00,-6.677658557891845703e+00,9.994333267211914062e+00,2.015000581741333008e+00,1.161784157156944275e-01
-5.535507202148437500e+00,-4.503918647766113281e+00,-7.138013362884521484e+00,-1.437231779098510742e+00,-5.515508174896240234e+00,5.083402395248413086e-01,-5.072990417480468750e+00,4.899487495422363281e+00,-8.110973358154296875e+00,2.835652112960815430e+00,-3.063904047012329102e+00,7.443624973297119141e+00,3.477443695068359375e+00,6.031751155853271484e+00,9.060543060302734375e+00,1.068795013427734375e+01,-2.303224325180053711e+00,-5.240797996520996094e+00,8.293918609619140625e+00,6.663314700126647949e-01,1.206576153635978699e-01
-3.260746002197265625e+00,-2.409822463989257812e+00,-4.714332580566406250e+00,1.620298743247985840e+00,-3.299593448638916016e+00,2.164837121963500977e+00,-3.217069625854492188e+00,2.956740379333496094e+00,-5.906258583068847656e+00,2.751261234283447266e+00,-2.175480127334594727e+00,2.294726371765136719e+00,3.273321628570556641e+00,2.435941934585571289e+00,8.461038589477539062e+00,7.700958728790283203e+00,5.973216891288757324e-01,-3.833156108856201172e+00,6.339686870574951172e+00,-8.937383294105529785e-01,1.255235075950622559e-01
-1.051380395889282227e+00,-4.079189598560333252e-01,-2.271634340286254883e+00,4.191544532775878906e+00,-1.063173174858093262e+00,3.291981220245361328e+00,-1.104278445243835449e+00,6.922938823699951172e-01,-3.518375158309936523e+00,2.311021804809570312e+00,-1.006573915481567383e+00,-2.656305551528930664e+00,3.203377723693847656e+00,-1.101021528244018555e+00,7.861533641815185547e+00,4.829044818878173828e+00,3.236675500869750977e+00,-2.403170585632324219e+00,4.367206573486328125e+00,-2.513723850250244141e+00,1.303893923759460449e-01
1.082528710365295410e+00,1.378867626190185547e+00,1.636683195829391479e-01,6.115648269653320312e+00,1.234764695167541504e+00,3.850664615631103516e+00,1.230416297912597656e+00,-1.576715826988220215e+00,-9.606924653053283691e-01,1.673870682716369629e+00,4.663031399250030518e-01,-6.923533439636230469e+00,3.417491674423217773e+00,-4.195090293884277344e+00,7.363867759704589844e+00,2.322373867034912109e+00,5.507497787475585938e+00,-9.095918536186218262e-01,2.562279462814331055e+00,-3.961875677108764648e+00,1.349088698625564575e-01
3.194303989410400391e+00,2.832003831863403320e+00,2.591575145721435547e+00,7.366624832153320312e+00,3.657019376754760742e+00,3.933070659637451172e+00,3.717081308364868164e+00,-3.575360774993896484e+00,1.707961201667785645e+00,9.818652272224426270e-01,2.212754011154174805e+00,-1.018105888366699219e+01,3.998454570770263672e+00,-6.561324596405029297e+00,7.017999649047851562e+00,3.493922352790832520e-01,7.381164550781250000e+00,6.561735272407531738e-01,1.057620286941528320e+00,-5.040358543395996094e+00,1.391222178936004639e-01
5.314127922058105469e+00,3.818321704864501953e+00,4.972994804382324219e+00,8.006342887878417969e+00,6.202309131622314453e+00,3.659315586090087891e+00,6.241402626037597656e+00,-5.138228416442871094e+00,4.361907958984375000e+00,3.306488096714019775e-01,4.138823986053466797e+00,-1.228921222686767578e+01,4.939128875732421875e+00,-8.063449859619140625e+00,6.814321517944335938e+00,-1.018185973167419434e+00,8.858868598937988281e+00,2.258032321929931641e+00,-8.538978546857833862e-02,-5.680213451385498047e+00,1.432952731847763062e-01
7.373586654663085938e+00,4.210507392883300781e+00,7.187482357025146484e+00,8.126367568969726562e+00,8.747598648071289062e+00,3.106218814849853516e+00,8.641996383666992188e+00,-6.217405319213867188e+00,6.824663162231445312e+00,-2.291441559791564941e-01,6.075947761535644531e+00,-1.328145599365234375e+01,6.139594554901123047e+00,-8.718501091003417969e+00,6.685582160949707031e+00,-1.835397362709045410e+00,9.923913002014160156e+00,3.827235221862792969e+00,-8.684097528457641602e-01,-5.952660560607910156e+00,1.476133465766906738e-01
9.181524276733398438e+00,3.916368007659912109e+00,9.033241271972656250e+00,7.787329196929931641e+00,1.103912925720214844e+01,2.286350727081298828e+00,1.072116565704345703e+01,-6.868790149688720703e+00,8.883645057678222656e+00,-6.904810667037963867e-01,7.793383121490478516e+00,-1.332655811309814453e+01,7.411431789398193359e+00,-8.679785728454589844e+00,6.489590167999267578e+00,-2.287365198135375977e+00,1.052143478393554688e+01,5.265814304351806641e+00,-1.354479312896728516e+00,-6.027272701263427734e+00,1.518830806016921997e-01
1.045824718475341797e+01,2.913953065872192383e+00,1.026832485198974609e+01,7.020162582397460938e+00,1.274752330780029297e+01,1.195520997047424316e+00,1.226642131805419922e+01,-7.212164878845214844e+00,1.033429050445556641e+01,-1.080085754394531250e+00,9.038282394409179688e+00,-1.269658470153808594e+01,8.496275901794433594e+00,-8.204371452331542969e+00,6.032275199890136719e+00,-2.657612085342407227e+00,1.056794834136962891e+01,6.456895828247070312e+00,-1.664701223373413086e+00,-6.089449405670166016e+00,1.556372344493865967e-01
1.095022392272949219e+01,1.301308512687683105e+00,1.071206760406494141e+01,5.852089405059814453e+00,1.358698177337646484e+01,-1.020215675234794617e-01,1.311772441864013672e+01,-7.359324932098388672e+00,1.103888988494873047e+01,-1.431714415550231934e+00,9.614444732666015625e+00,-1.171598148345947266e+01,9.147182464599609375e+00,-7.583389282226562500e+00,5.127253532409667969e+00,-3.261347770690917969e+00,1.000620651245117188e+01,7.300793647766113281e+00,-1.926813840866088867e+00,-6.236412525177001953e+00,1.583601981401443481e-01
1.055784988403320312e+01,-6.932780146598815918e-01,1.032960414886474609e+01,4.374674797058105469e+00,1.343318843841552734e+01,-1.416324734687805176e+00,1.323472785949707031e+01,-7.374155521392822266e+00,1.098808383941650391e+01,-1.753806352615356445e+00,9.473512649536132812e+00,-1.069609451293945312e+01,9.215699195861816406e+00,-7.058419704437255859e+00,3.676528692245483398e+00,-4.308712482452392578e+00,8.879143714904785156e+00,7.747663974761962891e+00,-2.220446348190307617e+00,-6.424072742462158203e+00,1.598183512687683105e-01
9.378716468811035156e+00,-2.756643295288085938e+00,9.261451721191406250e+00,2.767336845397949219e+00,1.237713623046875000e+01,-2.465253114700317383e+00,1.271426296234130859e+01,-7.257795810699462891e+00,1.029819202423095703e+01,-2.014011621475219727e+00,8.727402687072753906e+00,-9.874074935913085938e+00,8.691833496093750000e+00,-6.767286300659179688e+00,1.703158617019653320e+00,-5.838065147399902344e+00,7.352540969848632812e+00,7.826725959777832031e+00,-2.553893327713012695e+00,-6.509989738464355469e+00,1.602614372968673706e-01
7.683461189270019531e+00,-4.572697639465332031e+00,7.775969982147216797e+00,1.255275964736938477e+00,1.069181060791015625e+01,-2.998795986175537109e+00,1.175537014007568359e+01,-6.982868194580078125e+00,9.180459022521972656e+00,-2.157476186752319336e+00,7.626199245452880859e+00,-9.380863189697265625e+00,7.695489883422851562e+00,-6.731668949127197266e+00,-6.564309597015380859e-01,-7.695970058441162109e+00,5.680433273315429688e+00,7.623915195465087891e+00,-2.875727891921997070e+00,-6.350591182708740234e+00,1.602856069803237915e-01
5.822201728820800781e+00,-5.899982929229736328e+00,6.188004493713378906e+00,4.884436726570129395e-02,8.734783172607421875e+00,-2.917786836624145508e+00,1.059743690490722656e+01,-6.536823272705078125e+00,7.862175941467285156e+00,-2.126532793045043945e+00,6.443476200103759766e+00,-9.217913627624511719e+00,6.400813579559326172e+00,-6.883430004119873047e+00,-3.210091114044189453e+00,-9.598905563354492188e+00,4.121628284454345703e+00,7.254387855529785156e+00,-3.131204605102539062e+00,-5.911962985992431641e+00,1.604709029197692871e-01
4.119903564453125000e+00,-6.641916751861572266e+00,4.759575366973876953e+00,-7.294586300849914551e-01,6.836709499359130859e+00,-2.326978921890258789e+00,9.450263023376464844e+00,-5.951603889465332031e+00,6.537208080291748047e+00,-1.900084018707275391e+00,5.400303363800048828e+00,-9.283384323120117188e+00,4.977669239044189453e+00,-7.103328704833984375e+00,-5.767593860626220703e+00,-1.124500274658203125e+01,2.866951227188110352e+00,6.824704647064208984e+00,-3.307052373886108398e+00,-5.310544967651367188e+00,1.611556708812713623e-01
2.788851261138916016e+00,-6.807278633117675781e+00,3.645992517471313477e+00,-1.074683666229248047e+00,5.223154544830322266e+00,-1.486160159111022949e+00,8.437575340270996094e+00,-5.309345245361328125e+00,5.319200515747070312e+00,-1.509072780609130859e+00,4.586490154266357422e+00,-9.412871360778808594e+00,3.528831005096435547e+00,-7.286061763763427734e+00,-8.198278427124023438e+00,-1.242245388031005859e+01,1.991539716720581055e+00,6.395021438598632812e+00,-3.456357002258300781e+00,-4.763390064239501953e+00,1.622674167156219482e-01
1.927641272544860840e+00,-6.485334873199462891e+00,2.907477855682373047e+00,-1.077158451080322266e+00,4.000492572784423828e+00,-6.858459115028381348e-01,7.587617874145507812e+00,-4.709295272827148438e+00,4.246925830841064453e+00,-1.030857682228088379e+00,3.961968183517456055e+00,-9.440514564514160156e+00,2.088557481765747070e+00,-7.374330997467041016e+00,-1.042336368560791016e+01,-1.306621646881103516e+01,1.471540570259094238e+00,5.987681865692138672e+00,-3.681972980499267578e+00,-4.495464801788330078e+00,1.634838879108428955e-01
1.530237197875976562e+00,-5.775595664978027344e+00,2.531352996826171875e+00,-8.544325828552246094e-01,3.176413297653198242e+00,-1.117985323071479797e-01,6.853318691253662109e+00,-4.238153457641601562e+00,3.311025142669677734e+00,-5.667077302932739258e-01,3.410675525665283203e+00,-9.247012138366699219e+00,6.382919549942016602e-01,-7.377428054809570312e+00,-1.242363548278808594e+01,-1.325967884063720703e+01,1.244935393333435059e+00,5.594092369079589844e+00,-4.109979629516601562e+00,-4.635644912719726562e+00,1.644022762775421143e-01
1.528225064277648926e+00,-4.758546829223632812e+00,2.477469921112060547e+00,-5.017833709716796875e-01,2.703496932983398438e+00,2.066511064767837524e-01,6.153985977172851562e+00,-3.946114063262939453e+00,2.487432718276977539e+00,-2.207050621509552002e-01,2.809642314910888672e+00,-8.788718223571777344e+00,-8.533689379692077637e-01,-7.358844757080078125e+00,-1.420101356506347656e+01,-1.316294765472412109e+01,1.259247303009033203e+00,5.197064876556396484e+00,-4.836595535278320312e+00,-5.137580394744873047e+00,1.647164672613143921e-01
1.813953518867492676e+00,-3.502967119216918945e+00,2.681380271911621094e+00,-6.994273513555526733e-02,2.498438358306884766e+00,3.658759295940399170e-01,5.412962436676025391e+00,-3.848006963729858398e+00,1.754756212234497070e+00,-7.724053412675857544e-02,2.091165781021118164e+00,-8.099094390869140625e+00,-2.404981851577758789e+00,-7.402205467224121094e+00,-1.576510620117187500e+01,-1.296448135375976562e+01,1.481081843376159668e+00,4.772538185119628906e+00,-5.903294563293457031e+00,-5.804566860198974609e+00,1.641767024993896484e-01
2.247576713562011719e+00,-2.099586009979248047e+00,3.033204793930053711e+00,3.965441286563873291e-01,2.453581809997558594e+00,4.804060459136962891e-01,4.579143047332763672e+00,-3.948395490646362305e+00,1.094277739524841309e+00,-2.122659683227539062e-01,1.241428852081298828e+00,-7.271255016326904297e+00,-4.012264251708984375e+00,-7.584938049316406250e+00,-1.711783409118652344e+01,-1.278602981567382812e+01,1.859154582023620605e+00,4.287855625152587891e+00,-7.295145511627197266e+00,-6.396941184997558594e+00,1.624849289655685425e-01
2.643974781036376953e+00,-7.254723310470581055e-01,3.360729217529296875e+00,8.184857964515686035e-01,2.420259714126586914e+00,5.851592421531677246e-01,3.624285221099853516e+00,-4.271235942840576172e+00,4.658873975276947021e-01,-6.961071491241455078e-01,2.866839766502380371e-01,-6.412862777709960938e+00,-5.653804779052734375e+00,-7.955049514770507812e+00,-1.826112174987792969e+01,-1.268262767791748047e+01,2.273007154464721680e+00,3.686299085617065430e+00,-8.932519912719726562e+00,-6.737217426300048828e+00,1.592786014080047607e-01
2.768729448318481445e+00,3.266976773738861084e-01,3.429403781890869141e+00,1.037499547004699707e+00,2.213919639587402344e+00,6.033164262771606445e-01,2.516112089157104492e+00,-4.869004249572753906e+00,-2.280160337686538696e-01,-1.599089741706848145e+00,-7.799774408340454102e-01,-5.647584438323974609e+00,-7.319612026214599609e+00,-8.535767555236816406e+00,-1.922186660766601562e+01,-1.264927196502685547e+01,2.500805139541625977e+00,2.878494739532470703e+00,-1.071753978729248047e+01,-6.772262573242187500e+00,1.542435288429260254e-01
2.392453193664550781e+00,7.393707633018493652e-01,2.999395847320556641e+00,8.580815196037292480e-01,1.660261273384094238e+00,4.035870730876922607e-01,1.214277863502502441e+00,-5.794176101684570312e+00,-1.126480579376220703e+00,-2.977474451065063477e+00,-2.000005960464477539e+00,-5.074352741241455078e+00,-9.008257865905761719e+00,-9.325545310974121094e+00,-2.003849983215332031e+01,-1.265427494049072266e+01,2.264658689498901367e+00,1.771631002426147461e+00,-1.255066967010498047e+01,-6.560861587524414062e+00,1.473877727985382080e-01
1.389385104179382324e+00,3.223075270652770996e-01,1.934413313865661621e+00,1.305105090141296387e-01,6.798248887062072754e-01,-7.688081264495849609e-02,-2.946665883064270020e-01,-7.041047573089599609e+00,-2.339140415191650391e+00,-4.817195892333984375e+00,-3.406562089920043945e+00,-4.748454570770263672e+00,-1.069547653198242188e+01,-1.028256988525390625e+01,-2.074176406860351562e+01,-1.266428184509277344e+01,1.355852603912353516e+00,3.210206627845764160e-01,-1.430748748779296875e+01,-6.186670780181884766e+00,1.390819400548934937e-01
-1.962070167064666748e-01,-8.820539712905883789e-01,2.746040225028991699e-01,-1.157587170600891113e+00,-6.620272994041442871e-01,-7.696484327316284180e-01,-1.971719741821289062e+00,-8.516075134277343750e+00,-3.891398429870605469e+00,-7.009953022003173828e+00,-4.965103626251220703e+00,-4.662615776062011719e+00,-1.231846046447753906e+01,-1.132011985778808594e+01,-2.131244659423828125e+01,-1.264426803588867188e+01,-2.661632299423217773e-01,-1.425211668014526367e+00,-1.584200763702392578e+01,-5.701692581176757812e+00,1.299946457147598267e-01
-2.141978025436401367e+00,-2.538599729537963867e+00,-1.744425535202026367e+00,-2.847828626632690430e+00,-2.162799835205078125e+00,-1.500127196311950684e+00,-3.703912496566772461e+00,-1.004357814788818359e+01,-5.677631378173828125e+00,-9.340548515319824219e+00,-6.538844108581542969e+00,-4.742635250091552734e+00,-1.376158905029296875e+01,-1.231585884094238281e+01,-2.168137359619140625e+01,-1.255254077911376953e+01,-2.414141654968261719e+00,-3.317536115646362305e+00,-1.698501777648925781e+01,-5.095752716064453125e+00,1.208026260137557983e-01
-4.087749004364013672e+00,-4.086855411529541016e+00,-3.735985517501831055e+00,-4.627160549163818359e+00,-3.522594690322875977e+00,-2.040653467178344727e+00,-5.284135341644287109e+00,-1.138741588592529297e+01,-7.454505443572998047e+00,-1.150939464569091797e+01,-7.887369155883789062e+00,-4.837203979492187500e+00,-1.484786033630371094e+01,-1.310873317718505859e+01,-2.170058822631835938e+01,-1.229903793334960938e+01,-4.696890354156494141e+00,-5.110174179077148438e+00,-1.755071640014648438e+01,-4.307804107666015625e+00,1.118522882461547852e-01
