Fp1,Fp2,F7,F3,Fz,F4,F8,T3,C3,Cz,C4,T4,T5,P3,Pz,P4,T6,O1,Oz,O2,A1
-1.107860660552978516e+01,-4.284924983978271484e+00,-9.118697643280029297e-01,-3.283360004425048828e+00,-5.836434841156005859e+00,-5.259323120117187500e+00,3.883335113525390625e+00,-1.329231858253479004e+00,4.969087123870849609e+00,1.470912456512451172e+00,1.181101799011230469e+00,3.514192104339599609e+00,9.024638175964355469e+00,6.414869308471679688e+00,1.021237087249755859e+01,7.845951557159423828e+00,2.498154163360595703e+00,1.358694434165954590e+00,5.850088119506835938e+00,-3.444136142730712891e+00,-6.076096370816230774e-02
-1.108797264099121094e+01,-3.944205760955810547e+00,-4.369260743260383606e-02,-2.407977342605590820e+00,-5.228274822235107422e+00,-4.982022285461425781e+00,3.829785823822021484e+00,-1.276219129562377930e+00,5.736844062805175781e+00,1.374169468879699707e+00,1.643112182617187500e+00,3.116617679595947266e+00,8.290751457214355469e+00,5.787345409393310547e+00,9.158742904663085938e+00,6.742110252380371094e+00,2.755186796188354492e+00,1.932483792304992676e+00,5.363630771636962891e+00,-3.780355930328369141e+00,-6.130872294306755066e-02
-1.107626533508300781e+01,-2.878158330917358398e+00,9.278148412704467773e-01,-1.616407990455627441e+00,-4.552541732788085938e+00,-4.355121135711669922e+00,3.903415918350219727e+00,-1.097036361694335938e+00,6.571274757385253906e+00,1.192449450492858887e+00,2.056028604507446289e+00,2.725320816040039062e+00,7.377269744873046875e+00,5.114536285400390625e+00,7.832315921783447266e+00,5.507102966308593750e+00,3.207176685333251953e+00,2.565794944763183594e+00,4.640345096588134766e+00,-4.034071445465087891e+00,-6.202318891882896423e-02
-1.105168056488037109e+01,-1.187266111373901367e+00,1.915531039237976074e+00,-9.850150346755981445e-01,-3.866139173507690430e+00,-3.523218393325805664e+00,4.104225635528564453e+00,-9.687457680702209473e-01,7.351154327392578125e+00,8.107066750526428223e-01,2.454041242599487305e+00,2.255555152893066406e+00,6.355255603790283203e+00,4.414232254028320312e+00,6.339268207550048828e+00,4.151150226593017578e+00,3.760039806365966797e+00,3.134822607040405273e+00,3.683431625366210938e+00,-4.262353420257568359e+00,-6.276147067546844482e-02
-1.100602436065673828e+01,8.940096497535705566e-01,2.811060190200805664e+00,-5.678114295005798340e-01,-3.224192857742309570e+00,-2.660199642181396484e+00,4.359540939331054688e+00,-1.063108325004577637e+00,7.920910835266113281e+00,1.387348324060440063e-01,2.816986799240112305e+00,1.614204883575439453e+00,5.260886669158935547e+00,3.641148805618286133e+00,4.740041255950927734e+00,2.643589735031127930e+00,4.301263332366943359e+00,3.502666711807250977e+00,2.460886955261230469e+00,-4.517309665679931641e+00,-6.338067352771759033e-02
-1.089597988128662109e+01,3.031879425048828125e+00,3.518163681030273438e+00,-3.908723592758178711e-01,-2.667602300643920898e+00,-1.931712985038757324e+00,4.564175128936767578e+00,-1.505233883857727051e+00,8.149217605590820312e+00,-8.639935851097106934e-01,3.088757753372192383e+00,7.186162471771240234e-01,4.100622653961181641e+00,2.704714775085449219e+00,3.062404632568359375e+00,9.384279847145080566e-01,4.726095199584960938e+00,3.557426691055297852e+00,9.407071471214294434e-01,-4.826234817504882812e+00,-6.373791396617889404e-02
-1.064311122894287109e+01,4.850974559783935547e+00,3.985176086425781250e+00,-4.458166062831878662e-01,-2.199923753738403320e+00,-1.472290515899658203e+00,4.625374317169189453e+00,-2.338592767715454102e+00,7.973441600799560547e+00,-2.168717145919799805e+00,3.213246345520019531e+00,-4.688757061958312988e-01,2.889968872070312500e+00,1.522446870803833008e+00,1.303091406822204590e+00,-9.967006444931030273e-01,4.983128070831298828e+00,3.240771293640136719e+00,-8.931098580360412598e-01,-5.198433876037597656e+00,-6.380935758352279663e-02
-1.015376377105712891e+01,6.026745319366455078e+00,4.219189167022705078e+00,-6.916687488555908203e-01,-1.780257940292358398e+00,-1.346910238265991211e+00,4.504888534545898438e+00,-3.520775079727172852e+00,7.418838024139404297e+00,-3.664312124252319336e+00,3.159768819808959961e+00,-1.924207210540771484e+00,1.652181863784790039e+00,5.391151458024978638e-02,-5.362647771835327148e-01,-3.163499593734741211e+00,5.087881088256835938e+00,2.576508760452270508e+00,-2.981357097625732422e+00,-5.621500015258789062e+00,-6.357119977474212646e-02
-9.356525421142578125e+00,6.370929718017578125e+00,4.285036563873291016e+00,-1.066965699195861816e+00,-1.344588041305541992e+00,-1.545505285263061523e+00,4.232361316680908203e+00,-4.921369552612304688e+00,6.602591037750244141e+00,-5.184746265411376953e+00,2.937968730926513672e+00,-3.554262399673461914e+00,4.363597929477691650e-01,-1.666927218437194824e+00,-2.429527521133422852e+00,-5.504051208496093750e+00,5.124738693237304688e+00,1.661064743995666504e+00,-5.205620288848876953e+00,-6.068138599395751953e+00,-6.319015473127365112e-02
-8.237348556518554688e+00,5.897387504577636719e+00,4.279971599578857422e+00,-1.492550730705261230e+00,-8.271186947822570801e-01,-1.974726676940917969e+00,3.884291172027587891e+00,-6.358012676239013672e+00,5.697445869445800781e+00,-6.532611846923828125e+00,2.603076934814453125e+00,-5.206288337707519531e+00,-6.864344477653503418e-01,-3.520387172698974609e+00,-4.329324245452880859e+00,-7.905927658081054688e+00,5.216882228851318359e+00,6.432433128356933594e-01,-7.375476837158203125e+00,-6.496167659759521484e+00,-6.273765861988067627e-02
-6.852425575256347656e+00,4.815170288085937500e+00,4.301245212554931641e+00,-1.892060399055480957e+00,-1.833940595388412476e-01,-2.486314773559570312e+00,3.564908266067504883e+00,-7.627135753631591797e+00,4.883219718933105469e+00,-7.520959854125976562e+00,2.231364488601684570e+00,-6.696146488189697266e+00,-1.647722125053405762e+00,-5.335031032562255859e+00,-6.158879280090332031e+00,-1.022433471679687500e+01,5.488464355468750000e+00,-3.114850819110870361e-01,-9.286103248596191406e+00,-6.854719161987304688e+00,-6.235660612583160400e-02
-5.330532073974609375e+00,3.469617366790771484e+00,4.417745113372802734e+00,-2.200306892395019531e+00,5.830295085906982422e-01,-2.917366504669189453e+00,3.359317541122436523e+00,-8.550616264343261719e+00,4.306391716003417969e+00,-8.012518882751464844e+00,1.899102807044982910e+00,-7.844926834106445312e+00,-2.391944885253906250e+00,-6.928100585937500000e+00,-7.839783191680908203e+00,-1.230425643920898438e+01,6.022898197174072266e+00,-1.050744891166687012e+00,-1.075827693939208984e+01,-7.091065406799316406e+00,-6.216608360409736633e-02
-3.841418027877807617e+00,2.232632637023925781e+00,4.655810356140136719e+00,-2.370727062225341797e+00,1.413469910621643066e+00,-3.128773927688598633e+00,3.317243099212646484e+00,-8.993802070617675781e+00,4.045758247375488281e+00,-7.934078693389892578e+00,1.656262397766113281e+00,-8.506155967712402344e+00,-2.893261432647705078e+00,-8.145950317382812500e+00,-9.295259475708007812e+00,-1.400941848754882812e+01,6.834733963012695312e+00,-1.465016007423400879e+00,-1.166878509521484375e+01,-7.159302234649658203e+00,-6.216608360409736633e-02
-2.560686111450195312e+00,1.398736357688903809e+00,4.995179176330566406e+00,-2.379108428955078125e+00,2.211901903152465820e+00,-3.047322511672973633e+00,3.440597534179687500e+00,-8.900499343872070312e+00,4.103340148925781250e+00,-7.293482780456542969e+00,1.515993595123291016e+00,-8.599271774291992188e+00,-3.151672124862670898e+00,-8.894773483276367188e+00,-1.046976852416992188e+01,-1.523931598663330078e+01,7.863835334777832031e+00,-1.504300355911254883e+00,-1.196802043914794922e+01,-7.033995151519775391e+00,-6.235660612583160400e-02
-1.628819108009338379e+00,1.099596261978149414e+00,5.382161140441894531e+00,-2.229175806045532227e+00,2.860961198806762695e+00,-2.673012256622314453e+00,3.686350345611572266e+00,-8.285552978515625000e+00,4.414483547210693359e+00,-6.166557312011718750e+00,1.449365854263305664e+00,-8.112766265869140625e+00,-3.202062129974365234e+00,-9.163249969482421875e+00,-1.133227252960205078e+01,-1.594795417785644531e+01,8.984110832214355469e+00,-1.176930904388427734e+00,-1.169438838958740234e+01,-6.715144634246826172e+00,-6.264239549636840820e-02
-1.124252915382385254e+00,1.301717996597290039e+00,5.747869491577148438e+00,-1.942348361015319824e+00,3.261066436767578125e+00,-2.069905757904052734e+00,3.978002548217773438e+00,-7.223178863525390625e+00,4.860994815826416016e+00,-4.680113792419433594e+00,1.398518443107604980e+00,-7.113599300384521484e+00,-3.101282119750976562e+00,-9.003134727478027344e+00,-1.188440608978271484e+01,-1.614214897155761719e+01,1.003843021392822266e+01,-5.543336868286132812e-01,-1.094069862365722656e+01,-6.230045318603515625e+00,-6.321396678686141968e-02
-1.062206506729125977e+00,1.837629079818725586e+00,6.019364833831787109e+00,-1.562395095825195312e+00,3.348200321197509766e+00,-1.339588761329650879e+00,4.217061519622802734e+00,-5.845910072326660156e+00,5.301445007324218750e+00,-2.993647575378417969e+00,1.288933396339416504e+00,-5.732551574707031250e+00,-2.926854848861694336e+00,-8.526021957397460938e+00,-1.216374015808105469e+01,-1.589003658294677734e+01,1.086578464508056641e+01,2.420669347047805786e-01,-9.858970642089843750e+00,-5.625222206115722656e+00,-6.378553807735443115e-02
-1.399364471435546875e+00,2.486728429794311523e+00,6.132825851440429688e+00,-1.140535116195678711e+00,3.104580879211425781e+00,-5.836465954780578613e-01,4.297385215759277344e+00,-4.310663700103759766e+00,5.594405174255371094e+00,-1.266653776168823242e+00,1.046093106269836426e+00,-4.150623798370361328e+00,-2.764056205749511719e+00,-7.874238491058349609e+00,-1.223888301849365234e+01,-1.530745410919189453e+01,1.133329296112060547e+01,1.057514548301696777e+00,-8.639626502990722656e+00,-4.957124710083007812e+00,-6.440474838018417358e-02
-2.060802698135375977e+00,3.054979085922241211e+00,6.034560680389404297e+00,-7.354378700256347656e-01,2.558659553527832031e+00,1.210452765226364136e-01,4.115700244903564453e+00,-2.780718326568603516e+00,5.625721454620361328e+00,3.622896671295166016e-01,6.130130887031555176e-01,-2.570788860321044922e+00,-2.702037572860717773e+00,-7.203046798706054688e+00,-1.219804477691650391e+01,-1.454260063171386719e+01,1.136724090576171875e+01,1.730109930038452148e+00,-7.484289646148681641e+00,-4.272899150848388672e+00,-6.502395123243331909e-02
-2.948183774948120117e+00,3.424572944641113281e+00,5.695191383361816406e+00,-3.945974111557006836e-01,1.763784050941467285e+00,7.369642853736877441e-01,3.589770555496215820e+00,-1.402389287948608398e+00,5.327710628509521484e+00,1.795132398605346680e+00,-3.748354688286781311e-02,-1.189740896224975586e+00,-2.807986021041870117e+00,-6.658006668090820312e+00,-1.213270282745361328e+01,-1.374538230895996094e+01,1.096277809143066406e+01,2.126524686813354492e+00,-6.578582763671875000e+00,-3.612246036529541016e+00,-6.547644734382629395e-02
-3.965510845184326172e+00,3.577030420303344727e+00,5.114718437194824219e+00,-1.450202316045761108e-01,7.893059253692626953e-01,1.263195276260375977e+00,2.679433345794677734e+00,-2.785209715366363525e-01,4.696331501007080078e+00,2.990039587020874023e+00,-8.887399435043334961e-01,-1.612786799669265747e-01,-3.109034299850463867e+00,-6.341010093688964844e+00,-1.210656642913818359e+01,-1.303163337707519531e+01,1.019264984130859375e+01,2.170570611953735352e+00,-6.056921005249023438e+00,-2.990673780441284180e+00,-6.571460515260696411e-02
-5.014446735382080078e+00,3.582805395126342773e+00,4.341766834259033203e+00,1.329364441335201263e-02,-2.936452627182006836e-01,1.731769561767578125e+00,1.406682848930358887e+00,5.463559627532958984e-01,3.801288127899169922e+00,3.967928409576416016e+00,-1.879388451576232910e+00,4.392679035663604736e-01,-3.579341650009155273e+00,-6.295724868774414062e+00,-1.212943553924560547e+01,-1.245075416564941406e+01,9.201375961303710938e+00,1.876533389091491699e+00,-5.978511810302734375e+00,-2.418728113174438477e+00,-6.561934202909469604e-02
-5.997824192047119141e+00,3.579340457916259766e+00,3.471563816070556641e+00,1.157320365309715271e-01,-1.408604860305786133e+00,2.197598457336425781e+00,-1.309452056884765625e-01,1.097687602043151855e+00,2.772897958755493164e+00,4.796781063079833984e+00,-2.902474164962768555e+00,6.307313442230224609e-01,-4.129756450653076172e+00,-6.478483200073242188e+00,-1.214903831481933594e+01,-1.196186161041259766e+01,8.188763618469238281e+00,1.349170923233032227e+00,-6.261744976043701172e+00,-1.898269891738891602e+00,-6.516684591770172119e-02
-6.829011917114257812e+00,3.730643033981323242e+00,2.644921302795410156e+00,2.284142673015594482e-01,-2.482664823532104492e+00,2.732065916061401367e+00,-1.771846771240234375e+00,1.458173751831054688e+00,1.779864788055419922e+00,5.572032451629638672e+00,-3.825618267059326172e+00,5.219215154647827148e-01,-4.625905036926269531e+00,-6.767984867095947266e+00,-1.205919456481933594e+01,-1.144060325622558594e+01,7.373048305511474609e+00,7.670485377311706543e-01,-6.727400302886962891e+00,-1.433021187782287598e+00,-6.452382355928421021e-02
-7.434257507324218750e+00,4.196100234985351562e+00,2.015822172164916992e+00,4.304972887039184570e-01,-3.439360380172729492e+00,3.410217523574829102e+00,-3.313299894332885742e+00,1.753984332084655762e+00,9.908934235572814941e-01,6.383889675140380859e+00,-4.520825386047363281e+00,2.875618934631347656e-01,-4.928245544433593750e+00,-6.987941741943359375e+00,-1.172758769989013672e+01,-1.072515106201171875e+01,6.954036235809326172e+00,3.361112475395202637e-01,-7.122647285461425781e+00,-1.027324318885803223e+00,-6.380935758352279663e-02
-7.771415233612060547e+00,5.081970691680908203e+00,1.712922573089599609e+00,7.974129915237426758e-01,-4.209340572357177734e+00,4.293370246887207031e+00,-4.565969467163085938e+00,2.110229492187500000e+00,5.282188057899475098e-01,7.287260055541992188e+00,-4.896044731140136719e+00,1.180696412920951843e-01,-4.926953315734863281e+00,-6.953978061676025391e+00,-1.104477119445800781e+01,-9.657082557678222656e+00,7.057819366455078125e+00,2.313530147075653076e-01,-7.191455364227294922e+00,-6.836606860160827637e-01,-6.319015473127365112e-02
-7.835803031921386719e+00,6.400959014892578125e+00,1.799031138420104980e+00,1.374793052673339844e+00,-4.751705169677734375e+00,5.403488636016845703e+00,-5.400763988494873047e+00,2.618090629577636719e+00,4.403308629989624023e-01,8.274300575256347656e+00,-4.928481578826904297e+00,1.693358123302459717e-01,-4.584558963775634766e+00,-6.523768424987792969e+00,-9.963373184204101562e+00,-8.144412040710449219e+00,7.704765796661376953e+00,5.408659577369689941e-01,-6.759404182434082031e+00,-4.032707810401916504e-01,-6.285673379898071289e-02
-7.663712024688720703e+00,8.047962188720703125e+00,2.242743730545043945e+00,2.159843683242797852e+00,-5.057563304901123047e+00,6.702135086059570312e+00,-5.784214496612548828e+00,3.304074525833129883e+00,6.827804446220397949e-01,9.274414062500000000e+00,-4.679504871368408203e+00,5.219215154647827148e-01,-3.948868989944458008e+00,-5.647175788879394531e+00,-8.512798309326171875e+00,-6.190545082092285156e+00,8.791092872619628906e+00,1.239650964736938477e+00,-5.776887893676757812e+00,-1.799514144659042358e-01,-6.288055330514907837e-02
-7.324212551116943359e+00,9.797758102416992188e+00,2.917429685592651367e+00,3.092964172363281250e+00,-5.167814731597900391e+00,8.076742172241210938e+00,-5.787083148956298828e+00,4.127891063690185547e+00,1.131312131881713867e+00,1.016863346099853516e+01,-4.272725105285644531e+00,1.166410565376281738e+00,-3.138751506805419922e+00,-4.372719764709472656e+00,-6.795956611633300781e+00,-3.894283294677734375e+00,1.010535526275634766e+01,2.193188905715942383e+00,-4.344718456268310547e+00,-3.777252510190010071e-03,-6.316633522510528564e-02
-6.902765274047851562e+00,1.134196758270263672e+01,3.629598379135131836e+00,4.068922519683837891e+00,-5.151810169219970703e+00,9.349762916564941406e+00,-5.555674076080322266e+00,4.997298717498779297e+00,1.624292969703674316e+00,1.081968784332275391e+01,-3.870328903198242188e+00,2.018056869506835938e+00,-2.302793025970458984e+00,-2.847577810287475586e+00,-4.950066089630126953e+00,-1.407234072685241699e+00,1.137403106689453125e+01,3.195534706115722656e+00,-2.664519548416137695e+00,1.388990134000778198e-01,-6.357119977474212646e-02
-6.477805614471435547e+00,1.236528110504150391e+01,4.170562744140625000e+00,4.953618049621582031e+00,-5.096684932708740234e+00,1.032443428039550781e+01,-5.264021873474121094e+00,5.805211544036865234e+00,2.005140781402587891e+00,1.111122417449951172e+01,-3.616968393325805664e+00,2.960726499557495117e+00,-1.574075102806091309e+00,-1.248038887977600098e+00,-3.097641706466674805e+00,1.107070326805114746e+00,1.232553672790527344e+01,4.032410144805908203e+00,-9.667185544967651367e-01,2.611043453216552734e-01,-6.390462070703506470e-02
-6.109039306640625000e+00,1.262399673461914062e+01,4.370132446289062500e+00,5.620398521423339844e+00,-5.084237098693847656e+00,1.082503986358642578e+01,-5.054606437683105469e+00,6.468930244445800781e+00,2.169804573059082031e+00,1.098964214324951172e+01,-3.597681522369384766e+00,3.878286361694335938e+00,-1.021076321601867676e+00,2.609297037124633789e-01,-1.318726301193237305e+00,3.531091451644897461e+00,1.275521850585937500e+01,4.543106555938720703e+00,5.710633993148803711e-01,3.752453327178955078e-01,-6.407132744789123535e-02
-5.824562549591064453e+00,1.201994132995605469e+01,4.137132644653320312e+00,5.973345756530761719e+00,-5.164258003234863281e+00,1.075365638732910156e+01,-4.996275901794433594e+00,6.953465938568115234e+00,2.096059560775756836e+00,1.047716522216796875e+01,-3.811591386795043945e+00,4.706915378570556641e+00,-6.308761835098266602e-01,1.575818777084350586e+00,3.834133148193359375e-01,5.817132472991943359e+00,1.257577991485595703e+01,4.662149906158447266e+00,1.870417118072509766e+00,4.949693381786346436e-01,-6.399988383054733276e-02
-5.631399154663085938e+00,1.062125968933105469e+01,3.479668140411376953e+00,5.975207805633544922e+00,-5.358086585998535156e+00,1.011760330200195312e+01,-5.078512191772460938e+00,7.281084060668945312e+00,1.839467048645019531e+00,9.682303428649902344e+00,-4.170153617858886719e+00,5.436150550842285156e+00,-3.194913566112518311e-01,2.690158843994140625e+00,2.057782888412475586e+00,7.983931541442871094e+00,1.182796001434326172e+01,4.433586597442626953e+00,2.971347332000732422e+00,6.314423084259033203e-01,-6.378553807735443115e-02
-5.519012928009033203e+00,8.646242141723632812e+00,2.492964982986450195e+00,5.648336410522460938e+00,-5.660388469696044922e+00,9.023042678833007812e+00,-5.220991134643554688e+00,7.512218952178955078e+00,1.510139703750610352e+00,8.765859603881835938e+00,-4.534852504730224609e+00,6.104702949523925781e+00,3.969945386052131653e-02,3.670260667800903320e+00,3.782791852951049805e+00,1.009110927581787109e+01,1.066209793090820312e+01,3.985983133316040039e+00,3.992268323898315430e+00,7.914878129959106445e-01,-6.354738771915435791e-02
-5.481551170349121094e+00,6.394029140472412109e+00,1.325940489768981934e+00,5.067231178283691406e+00,-6.049824237823486328e+00,7.645690441131591797e+00,-5.324265003204345703e+00,7.711546897888183594e+00,1.230312466621398926e+00,7.916090011596679688e+00,-4.757529258728027344e+00,6.771163463592529297e+00,5.616889595985412598e-01,4.630954265594482422e+00,5.623781681060791016e+00,1.219999122619628906e+01,9.291580200195312500e+00,3.488381624221801758e+00,5.077196598052978516e+00,9.769669771194458008e-01,-6.342830508947372437e-02
-5.522524833679199219e+00,4.169535636901855469e+00,1.406810730695724487e-01,4.343643665313720703e+00,-6.508611202239990234e+00,6.185056209564208984e+00,-5.307052612304687500e+00,7.926778316497802734e+00,1.093934535980224609e+00,7.291182041168212891e+00,-4.732982158660888672e+00,7.484704971313476562e+00,1.321416258811950684e+00,5.678984165191650391e+00,7.598721027374267578e+00,1.432931327819824219e+01,7.933670520782470703e+00,3.100300073623657227e+00,6.338145732879638672e+00,1.178574681282043457e+00,-6.347593665122985840e-02
-5.663007259368896484e+00,2.216462850570678711e+00,-9.260523319244384766e-01,3.593049764633178711e+00,-7.029636859893798828e+00,4.814110279083251953e+00,-5.144492626190185547e+00,8.160034179687500000e+00,1.137373447418212891e+00,6.989187240600585938e+00,-4.433157444000244141e+00,8.258928298950195312e+00,2.320173501968383789e+00,6.872573375701904297e+00,9.656970024108886719e+00,1.643478775024414062e+01,6.761019229888916016e+00,2.931258201599121094e+00,7.810319900512695312e+00,1.375840187072753906e+00,-6.369028240442276001e-02
-5.928753376007080078e+00,6.814931631088256836e-01,-1.788151264190673828e+00,2.918818950653076172e+00,-7.616457939147949219e+00,3.650910854339599609e+00,-4.872921466827392578e+00,8.378445625305175781e+00,1.334363698959350586e+00,7.016641139984130859e+00,-3.913286209106445312e+00,9.063493728637695312e+00,3.486897468566894531e+00,8.190696716308593750e+00,1.168418216705322266e+01,1.840228271484375000e+01,5.867708683013916016e+00,3.011017322540283203e+00,9.447314262390136719e+00,1.541468739509582520e+00,-6.390462070703506470e-02
-6.340835571289062500e+00,-3.984141051769256592e-01,-2.410159111022949219e+00,2.389864444732666016e+00,-8.267295837402343750e+00,2.749454498291015625e+00,-4.577444076538085938e+00,8.521579742431640625e+00,1.609139919281005859e+00,7.295104026794433594e+00,-3.296103477478027344e+00,9.829347610473632812e+00,4.697551250457763672e+00,9.524993896484375000e+00,1.351210403442382812e+01,2.006826400756835938e+01,5.268289089202880859e+00,3.297912120819091797e+00,1.113391304016113281e+01,1.643203139305114746e+00,-6.419040262699127197e-02
-6.892229080200195312e+00,-1.064838171005249023e+00,-2.803219556808471680e+00,2.034123659133911133e+00,-8.967924118041992188e+00,2.106995105743408203e+00,-4.351772308349609375e+00,8.531122207641601562e+00,1.867752790451049805e+00,7.679461479187011719e+00,-2.728891372680664062e+00,1.046651268005371094e+01,5.799673080444335938e+00,1.071696567535400391e+01,1.495124530792236328e+01,2.124365043640136719e+01,4.913292407989501953e+00,3.694326877593994141e+00,1.271170043945312500e+01,1.656850337982177734e+00,-6.416659057140350342e-02
-7.536107063293457031e+00,-1.413642406463623047e+00,-3.002788782119750977e+00,1.841353297233581543e+00,-9.677443504333496094e+00,1.684180021286010742e+00,-4.268579959869384766e+00,8.371024131774902344e+00,2.033426761627197266e+00,7.997144699096679688e+00,-2.341398954391479492e+00,1.088919734954833984e+01,6.652428150177001953e+00,1.158708953857421875e+01,1.583498573303222656e+01,2.176490974426269531e+01,4.721245288848876953e+00,4.076456069946289062e+00,1.401905441284179688e+01,1.571244597434997559e+00,-6.378553807735443115e-02
-8.188179969787597656e+00,-1.554550051689147949e+00,-3.053441047668457031e+00,1.772440195083618164e+00,-1.031583309173583984e+01,1.425182819366455078e+00,-4.344122409820556641e+00,8.038105010986328125e+00,2.082926750183105469e+00,8.103038787841796875e+00,-2.196746587753295898e+00,1.103148651123046875e+01,7.164081096649169922e+00,1.199627399444580078e+01,1.605877876281738281e+01,2.152983283996582031e+01,4.615522384643554688e+00,4.338351726531982422e+00,1.492316150665283203e+01,1.390107750892639160e+00,-6.297580897808074951e-02
-8.741914749145507812e+00,-1.590354442596435547e+00,-2.988606214523315430e+00,1.771508932113647461e+00,-1.078706836700439453e+01,1.270516753196716309e+00,-4.530588626861572266e+00,7.569472789764404297e+00,2.048579692840576172e+00,7.910860538482666016e+00,-2.273894548416137695e+00,1.087350368499755859e+01,7.307498931884765625e+00,1.188306045532226562e+01,1.561445903778076172e+01,2.054352951049804688e+01,4.550536632537841797e+00,4.409777641296386719e+00,1.534721183776855469e+01,1.132670164108276367e+00,-6.173740327358245850e-02
-9.093121528625488281e+00,-1.588044524192810059e+00,-2.830571651458740234e+00,1.788271546363830566e+00,-1.098978805541992188e+01,1.167100906372070312e+00,-4.727573394775390625e+00,7.028743743896484375e+00,2.020293951034545898e+00,7.420608520507812500e+00,-2.457120656967163086e+00,1.044244861602783203e+01,7.136948108673095703e+00,1.128464889526367188e+01,1.459840202331542969e+01,1.891332054138183594e+01,4.519498825073242188e+00,4.281210899353027344e+00,1.527360343933105469e+01,8.280873894691467285e-01,-6.007031351327896118e-02
-9.177411079406738281e+00,-1.569564819335937500e+00,-2.590480566024780273e+00,1.784546613693237305e+00,-1.085286331176757812e+01,1.069176197052001953e+00,-4.812678337097167969e+00,6.490135192871093750e+00,2.114243268966674805e+00,6.702879905700683594e+00,-2.575472354888916016e+00,9.808422088623046875e+00,6.768712997436523438e+00,1.032557201385498047e+01,1.320826721191406250e+01,1.685383796691894531e+01,4.551506996154785156e+00,3.996697187423706055e+00,1.475194168090820312e+01,5.079963207244873047e-01,-5.804599076509475708e-02
-8.987759590148925781e+00,-1.514125704765319824e+00,-2.281502723693847656e+00,1.739846229553222656e+00,-1.036384582519531250e+01,9.465414881706237793e-01,-4.677849292755126953e+00,6.018322467803955078e+00,2.422356128692626953e+00,5.877949714660644531e+00,-2.443093776702880859e+00,9.068724632263183594e+00,6.348795413970947266e+00,9.185355186462402344e+00,1.169071674346923828e+01,1.463082599639892578e+01,4.686327934265136719e+00,3.638376235961914062e+00,1.387983798980712891e+01,2.034135013818740845e-01,-5.575969815254211426e-02
-8.582701683044433594e+00,-1.380147933959960938e+00,-1.926938056945800781e+00,1.653239130973815918e+00,-9.567192077636718750e+00,7.799779176712036133e-01,-4.265711307525634766e+00,5.648293972015380859e+00,2.986051559448242188e+00,5.058248519897460938e+00,-1.918838977813720703e+00,8.325888633728027344e+00,6.012861728668212891e+00,8.033816337585449219e+00,1.028588008880615234e+01,1.250490951538085938e+01,4.943360805511474609e+00,3.293150424957275391e+00,1.277250766754150391e+01,-6.084775924682617188e-02,-5.333050712943077087e-02
-8.075794219970703125e+00,-1.129517078399658203e+00,-1.573386311531066895e+00,1.530313134193420410e+00,-8.580266952514648438e+00,5.649096369743347168e-01,-3.587739706039428711e+00,5.376869201660156250e+00,3.766941308975219727e+00,4.319602489471435547e+00,-9.492308497428894043e-01,7.660474300384521484e+00,5.837142467498779297e+00,6.992255687713623047e+00,9.160376548767089844e+00,1.065154743194580078e+01,5.302236557006835938e+00,3.025302648544311523e+00,1.153556060791015625e+01,-2.674181759357452393e-01,-5.097276717424392700e-02
-7.582934379577636719e+00,-7.714729309082031250e-01,-1.280617117881774902e+00,1.374793052673339844e+00,-7.561332225799560547e+00,3.031669557094573975e-01,-2.717564582824707031e+00,5.156336784362792969e+00,4.647841453552246094e+00,3.671162605285644531e+00,4.096232950687408447e-01,7.109101772308349609e+00,5.816469669342041016e+00,6.089786052703857422e+00,8.356678962707519531e+00,9.140580177307128906e+00,5.688270568847656250e+00,2.851499080657958984e+00,1.022980594635009766e+01,-4.057521224021911621e-01,-4.894844442605972290e-02
-7.203631877899169922e+00,-3.799344003200531006e-01,-1.117517352104187012e+00,1.182022571563720703e+00,-6.656205654144287109e+00,2.071325201541185379e-03,-1.768978118896484375e+00,4.905056476593017578e+00,5.463078022003173828e+00,3.063250303268432617e+00,2.004304409027099609e+00,6.659214973449707031e+00,5.856523036956787109e+00,5.269799709320068359e+00,7.798011779785156250e+00,7.897055149078369141e+00,5.984100818634033203e+00,2.730074882507324219e+00,8.885647773742675781e+00,-4.727479219436645508e-01,-4.744806513190269470e-02
-6.977689266204833984e+00,-9.580907225608825684e-02,-1.137778162956237793e+00,9.324454069137573242e-01,-5.978694438934326172e+00,-3.356316685676574707e-01,-8.662909865379333496e-01,4.522305488586425781e+00,6.046977519989013672e+00,2.405659198760986328e+00,3.617395877838134766e+00,6.253270149230957031e+00,5.804841041564941406e+00,4.415849685668945312e+00,7.301418304443359375e+00,6.760848522186279297e+00,6.054906368255615234e+00,2.578889608383178711e+00,7.466279506683349609e+00,-4.777105748653411865e-01,-4.666215181350708008e-02
-6.884034156799316406e+00,-9.580907225608825684e-02,-1.365712642669677734e+00,5.953299403190612793e-01,-5.571475982666015625e+00,-7.181786894798278809e-01,-1.127767190337181091e-01,3.914780139923095703e+00,6.280335426330566406e+00,1.610797643661499023e+00,5.023590564727783203e+00,5.807568550109863281e+00,5.492164134979248047e+00,3.392080068588256836e+00,6.651272773742675781e+00,5.534358501434326172e+00,5.787204265594482422e+00,2.299137592315673828e+00,5.938098430633544922e+00,-4.411110281944274902e-01,-4.656688868999481201e-02
-6.851254940032958984e+00,-5.323919057846069336e-01,-1.779033899307250977e+00,1.427385210990905762e-01,-5.406099319458007812e+00,-1.162043094635009766e+00,4.255843460559844971e-01,3.015685558319091797e+00,6.119712352752685547e+00,6.211426258087158203e-01,6.041416168212890625e+00,5.238409519195556641e+00,4.784119129180908203e+00,2.098216295242309570e+00,5.659718990325927734e+00,4.043832302093505859e+00,5.120858669281005859e+00,1.802726507186889648e+00,4.264300346374511719e+00,-3.976877927780151367e-01,-4.680504277348518372e-02
-6.793891429901123047e+00,-1.489871144294738770e+00,-2.319998502731323242e+00,-4.439540803432464600e-01,-5.397208213806152344e+00,-1.691019535064697266e+00,7.191489338874816895e-01,1.806996941566467285e+00,5.607537746429443359e+00,-5.711498260498046875e-01,6.564794063568115234e+00,4.488249301910400391e+00,3.614810705184936523e+00,4.857385456562042236e-01,4.220578193664550781e+00,2.207504510879516602e+00,4.075268745422363281e+00,1.046800613403320312e+00,2.459286928176879883e+00,-3.908641636371612549e-01,-4.694793745875358582e-02
-6.645214080810546875e+00,-2.938217401504516602e+00,-2.900471687316894531e+00,-1.161022782325744629e+00,-5.445220947265625000e+00,-2.322496652603149414e+00,7.669607400894165039e-01,3.268835842609405518e-01,4.851902961730957031e+00,-1.921630144119262695e+00,6.577944278717041016e+00,3.542440652847290039e+00,2.013956785202026367e+00,-1.413006544113159180e+00,2.340383768081665039e+00,4.411236569285392761e-02,2.745487451553344727e+00,4.326438158750534058e-02,5.566617250442504883e-01,-4.646836221218109131e-01,-4.632873460650444031e-02
-6.384150981903076172e+00,-4.741142749786376953e+00,-3.432318687438964844e+00,-1.981461167335510254e+00,-5.466559886932373047e+00,-3.059220075607299805e+00,5.766696929931640625e-01,-1.323930621147155762e+00,3.993227481842041016e+00,-3.350550889968872070e+00,6.145740985870361328e+00,2.442833662033081055e+00,9.525774419307708740e-02,-3.507448434829711914e+00,1.351165622472763062e-01,-2.321991205215454102e+00,1.287675023078918457e+00,-1.141217827796936035e+00,-1.352364182472229004e+00,-6.532644033432006836e-01,-4.447111859917640686e-02
-6.042310237884521484e+00,-6.682665824890136719e+00,-3.848679065704345703e+00,-2.852187633514404297e+00,-5.423882007598876953e+00,-3.879225015640258789e+00,1.654880642890930176e-01,-3.002311229705810547e+00,3.164858102798461914e+00,-4.752017498016357422e+00,5.391796112060546875e+00,1.278359174728393555e+00,-1.966859221458435059e+00,-5.656879425048828125e+00,-2.202466726303100586e+00,-4.698315620422363281e+00,-1.216407492756843567e-01,-2.400697469711303711e+00,-3.152577161788940430e+00,-9.677725434303283691e-01,-4.113693907856941223e-02
-5.692274570465087891e+00,-8.524860382080078125e+00,-4.115108966827392578e+00,-3.702426195144653320e+00,-5.326078414916992188e+00,-4.738583087921142578e+00,-4.398095607757568359e-01,-4.541799068450927734e+00,2.468825817108154297e+00,-6.024057388305664062e+00,4.469528675079345703e+00,1.735208034515380859e-01,-3.965665578842163086e+00,-7.696332454681396484e+00,-4.440404415130615234e+00,-6.860003948211669922e+00,-1.319510698318481445e+00,-3.608988523483276367e+00,-4.715962409973144531e+00,-1.389598011970520020e+00,-3.649290651082992554e-02
-5.420675277709960938e+00,-1.005174541473388672e+01,-4.236674308776855469e+00,-4.455813884735107422e+00,-5.217605590820312500e+00,-5.570485591888427734e+00,-1.197148799896240234e+00,-5.781234741210937500e+00,1.963722467422485352e+00,-7.058162212371826172e+00,3.533234357833862305e+00,-7.419465780258178711e-01,-5.712521553039550781e+00,-9.455986976623535156e+00,-6.356536388397216797e+00,-8.604345321655273438e+00,-2.192452192306518555e+00,-4.641095161437988281e+00,-5.922504901885986328e+00,-1.873456597328186035e+00,-3.115821816027164459e-02
-5.301265239715576172e+00,-1.110624313354492188e+01,-4.243765354156494141e+00,-5.037850379943847656e+00,-5.153588771820068359e+00,-6.297142028808593750e+00,-2.041505575180053711e+00,-6.597629547119140625e+00,1.665711522102355957e+00,-7.769353866577148438e+00,2.718798637390136719e+00,-1.354001879692077637e+00,-7.058841228485107422e+00,-1.078219699859619141e+01,-7.776075363159179688e+00,-9.776325225830078125e+00,-2.691968917846679688e+00,-5.406544208526611328e+00,-6.674593925476074219e+00,-2.352352619171142578e+00,-2.584734745323657990e-02
-5.369164943695068359e+00,-1.160404014587402344e+01,-4.179944038391113281e+00,-5.387072086334228516e+00,-5.178483963012695312e+00,-6.842591762542724609e+00,-2.894468307495117188e+00,-6.927368640899658203e+00,1.555598974227905273e+00,-8.093573570251464844e+00,2.109505891799926758e+00,-1.599870204925537109e+00,-7.921932697296142578e+00,-1.155851554870605469e+01,-8.604275703430175781e+00,-1.030609989166259766e+01,-2.832609415054321289e+00,-5.843433856964111328e+00,-6.911422252655029297e+00,-2.753707170486450195e+00,-2.127476036548614502e-02
-5.616179943084716797e+00,-1.152203655242919922e+01,-4.085731029510498047e+00,-5.465297698974609375e+00,-5.313630580902099609e+00,-7.142772197723388672e+00,-3.674757242202758789e+00,-6.777872562408447266e+00,1.594997048377990723e+00,-8.007289886474609375e+00,1.733410239219665527e+00,-1.472227931022644043e+00,-8.299212455749511719e+00,-1.172348308563232422e+01,-8.836236953735351562e+00,-1.021411323547363281e+01,-2.679359674453735352e+00,-5.937478065490722656e+00,-6.631389141082763672e+00,-3.017968416213989258e+00,-1.786913350224494934e-02
-5.995482444763183594e+00,-1.090065670013427734e+01,-3.987465858459472656e+00,-5.257627010345458984e+00,-5.559028625488281250e+00,-7.159245491027832031e+00,-4.320216655731201172e+00,-6.216999053955078125e+00,1.732385158538818359e+00,-7.518344879150390625e+00,1.551937460899353027e+00,-1.028618574142456055e+00,-8.253990173339843750e+00,-1.128195190429687500e+01,-8.560170173645019531e+00,-9.605978965759277344e+00,-2.319513797760009766e+00,-5.716057300567626953e+00,-5.896902084350585938e+00,-3.104194402694702148e+00,-1.563047058880329132e-02
-6.436831951141357422e+00,-9.841538429260253906e+00,-3.896291971206665039e+00,-4.776166915893554688e+00,-5.891560077667236328e+00,-6.882859706878662109e+00,-4.799291133880615234e+00,-5.357133388519287109e+00,1.915232539176940918e+00,-6.684263229370117188e+00,1.470406174659729004e+00,-3.684358596801757812e-01,-7.899967670440673828e+00,-1.030993747711181641e+01,-7.927993774414062500e+00,-8.645228385925292969e+00,-1.839395880699157715e+00,-5.233931541442871094e+00,-4.829575538635253906e+00,-2.997497558593750000e+00,-1.415390614420175552e-02
-6.860620498657226562e+00,-8.505226135253906250e+00,-3.812209606170654297e+00,-4.058166980743408203e+00,-6.286330699920654297e+00,-6.336494922637939453e+00,-5.108155250549316406e+00,-4.319145679473876953e+00,2.099090099334716797e+00,-5.593943119049072266e+00,1.365204572677612305e+00,3.880017399787902832e-01,-7.362473487854003906e+00,-8.938441276550292969e+00,-7.117762088775634766e+00,-7.514132022857666016e+00,-1.301081895828247070e+00,-4.561336040496826172e+00,-3.597429990768432617e+00,-2.704080581665039062e+00,-1.291549671441316605e-02
-7.191925048828125000e+00,-7.104233741760253906e+00,-3.723061800003051758e+00,-3.155777692794799805e+00,-6.709552764892578125e+00,-5.573231220245361328e+00,-5.263065814971923828e+00,-3.210120916366577148e+00,2.260723114013671875e+00,-4.350664615631103516e+00,1.118857502937316895e+00,1.129791855812072754e+00,-6.753916740417480469e+00,-7.321111679077148438e+00,-6.284661293029785156e+00,-6.371111392974853516e+00,-7.365796566009521484e-01,-3.758983135223388672e+00,-2.365283966064453125e+00,-2.248136997222900391e+00,-1.131985336542129517e-02
-7.366357326507568359e+00,-5.869559288024902344e+00,-3.613653182983398438e+00,-2.131393671035766602e+00,-7.114992618560791016e+00,-4.666283607482910156e+00,-5.277409076690673828e+00,-2.097915410995483398e+00,2.411243915557861328e+00,-3.049863100051879883e+00,6.550937294960021973e-01,1.777419686317443848e+00,-6.138899326324462891e+00,-5.590569019317626953e+00,-5.526702880859375000e+00,-5.303043365478515625e+00,-1.439492553472518921e-01,-2.863776445388793945e+00,-1.265954017639160156e+00,-1.661923527717590332e+00,-9.105006232857704163e-03
-7.327724933624267578e+00,-5.005633354187011719e+00,-3.458657741546630859e+00,-1.045546770095825195e+00,-7.447524547576904297e+00,-3.691612243652343750e+00,-5.154054641723632812e+00,-1.011155843734741211e+00,2.592070817947387695e+00,-1.758212924003601074e+00,-3.134678676724433899e-02,2.297405004501342773e+00,-5.529049873352050781e+00,-3.847087621688842773e+00,-4.855321407318115234e+00,-4.315037250518798828e+00,5.049373507499694824e-01,-1.885239362716674805e+00,-3.602468073368072510e-01,-9.820401668548583984e-01,-6.199507508426904678e-03
-7.037394523620605469e+00,-4.624489784240722656e+00,-3.222619056701660156e+00,5.240648612380027771e-02,-7.643131256103515625e+00,-2.710534811019897461e+00,-4.884396076202392578e+00,5.333827435970306396e-02,2.871898174285888672e+00,-5.083975791931152344e-01,-8.764663934707641602e-01,2.698118209838867188e+00,-4.886899471282958984e+00,-2.129483461380004883e+00,-4.201909065246582031e+00,-3.323624610900878906e+00,1.252757310867309570e+00,-8.067057728767395020e-01,3.710397183895111084e-01,-2.481878995895385742e-01,-2.889144001528620720e-03
-6.468440532684326172e+00,-4.704183101654052734e+00,-2.866028070449829102e+00,1.134528398513793945e+00,-7.634240150451660156e+00,-1.754167199134826660e+00,-4.456958293914794922e+00,1.118892669677734375e+00,3.319419622421264648e+00,6.969682574272155762e-01,-1.764543294906616211e+00,3.023501396179199219e+00,-4.150429248809814453e+00,-4.232007265090942383e-01,-3.453751564025878906e+00,-2.202749252319335938e+00,2.143157720565795898e+00,3.992042839527130127e-01,1.007915139198303223e+00,4.968303442001342773e-01,3.735883219633251429e-04
-5.620862960815429688e+00,-5.079552173614501953e+00,-2.348363637924194336e+00,2.193368911743164062e+00,-7.371059894561767578e+00,-8.133578300476074219e-01,-3.881304264068603516e+00,2.202471494674682617e+00,3.981105089187622070e+00,1.870957970619201660e+00,-2.563198804855346680e+00,3.330052375793457031e+00,-3.261496543884277344e+00,1.302489995956420898e+00,-2.491601705551147461e+00,-8.280583024024963379e-01,3.206206798553466797e+00,1.749156951904296875e+00,1.660792350769042969e+00,1.207730293273925781e+00,3.017115872353315353e-03
-4.527441024780273438e+00,-5.493035316467285156e+00,-1.645312309265136719e+00,3.239171743392944336e+00,-6.837586402893066406e+00,1.503311693668365479e-01,-3.195682764053344727e+00,3.310436010360717773e+00,4.853923320770263672e+00,3.017493486404418945e+00,-3.159341335296630859e+00,3.673221826553344727e+00,-2.194260597229003906e+00,3.070231437683105469e+00,-1.246850848197937012e+00,8.702896237373352051e-01,4.447723865509033203e+00,3.226485967636108398e+00,2.416081666946411133e+00,1.841709136962890625e+00,4.469865467399358749e-03
-3.247879743576049805e+00,-5.665127277374267578e+00,-7.639656066894531250e-01,4.284974575042724609e+00,-6.067606449127197266e+00,1.184489369392395020e+00,-2.472768068313598633e+00,4.424761772155761719e+00,5.874232292175292969e+00,4.122194290161132812e+00,-3.493356466293334961e+00,4.085443496704101562e+00,-9.655179977416992188e-01,4.862232685089111328e+00,2.788673043251037598e-01,2.871853113174438477e+00,5.830851078033447266e+00,4.768098831176757812e+00,3.310587644577026367e+00,2.358445405960083008e+00,4.160263109952211380e-03
-1.880516886711120605e+00,-5.386776924133300781e+00,2.521157264709472656e-01,5.337296009063720703e+00,-5.135806083679199219e+00,2.322063446044921875e+00,-1.799577713012695312e+00,5.506220340728759766e+00,6.921816349029541016e+00,5.135381698608398438e+00,-3.559107542037963867e+00,4.574041843414306641e+00,3.627127707004547119e-01,6.608948707580566406e+00,2.003876209259033203e+00,5.065907478332519531e+00,7.279934406280517578e+00,6.262094020843505859e+00,4.313906192779541016e+00,2.728163003921508789e+00,1.683444366790354252e-03
-5.330559015274047852e-01,-4.584065437316894531e+00,1.315809965133666992e+00,6.375648975372314453e+00,-4.159549713134765625e+00,3.557562112808227539e+00,-1.258347868919372559e+00,6.496496677398681641e+00,7.848176002502441406e+00,5.987765789031982422e+00,-3.402181863784790039e+00,5.113905906677246094e+00,1.699987888336181641e+00,8.198783874511718750e+00,3.790959596633911133e+00,7.258258342742919922e+00,8.677611351013183594e+00,7.568000316619873047e+00,5.344428062438964844e+00,2.934733390808105469e+00,-3.198746358975768089e-03
6.891416311264038086e-01,-3.332065820693969727e+00,2.317708730697631836e+00,7.353469848632812500e+00,-3.254422903060913086e+00,4.836074352264404297e+00,-8.988029956817626953e-01,7.325614452362060547e+00,8.513901710510253906e+00,6.600907802581787109e+00,-3.093590259552001953e+00,5.659001350402832031e+00,2.951987504959106445e+00,9.510437965393066406e+00,5.483297824859619141e+00,9.246193885803222656e+00,9.891969680786132812e+00,8.538204193115234375e+00,6.296540737152099609e+00,2.977536201477050781e+00,-1.043867785483598709e-02
1.698274016380310059e+00,-1.820195674896240234e+00,3.149416446685791016e+00,8.199983596801757812e+00,-2.534233808517456055e+00,6.058760643005371094e+00,-7.257242202758789062e-01,7.920416831970214844e+00,8.827066421508789062e+00,6.914669036865234375e+00,-2.713111162185668945e+00,6.150738239288330078e+00,4.036020278930664062e+00,1.044202041625976562e+01,6.950208663940429688e+00,1.084914875030517578e+01,1.079885864257812500e+01,9.060805320739746094e+00,7.077433586120605469e+00,2.868978261947631836e+00,-1.960767060518264771e-02
2.442831039428710938e+00,-2.875359058380126953e-01,3.726850509643554688e+00,8.843482971191406250e+00,-2.073668479919433594e+00,7.113968372344970703e+00,-6.999058127403259277e-01,8.221528053283691406e+00,8.770494461059570312e+00,6.914669036865234375e+00,-2.315098524093627930e+00,6.537849903106689453e+00,4.902987957000732422e+00,1.094824409484863281e+01,8.105115890502929688e+00,1.195298957824707031e+01,1.132068443298339844e+01,9.088185310363769531e+00,7.627898693084716797e+00,2.632011651992797852e+00,-2.991980873048305511e-02
2.902911186218261719e+00,1.051087021827697754e+00,4.014554500579833984e+00,9.229954719543457031e+00,-1.910069823265075684e+00,7.893705368041992188e+00,-7.572800517082214355e-01,8.191841125488281250e+00,8.412881851196289062e+00,6.641435146331787109e+00,-1.941632747650146484e+00,6.784764766693115234e+00,5.542554378509521484e+00,1.104851818084716797e+01,8.926781654357910156e+00,1.254579257965087891e+01,1.144774532318115234e+01,8.657247543334960938e+00,7.939935207366943359e+00,2.298273324966430664e+00,-4.042247310280799866e-02
3.082026481628417969e+00,2.043215751647949219e+00,4.027723789215087891e+00,9.343568801879882812e+00,-2.041660070419311523e+00,8.322926521301269531e+00,-8.251727819442749023e-01,7.827114582061767578e+00,7.882523059844970703e+00,6.196939945220947266e+00,-1.618137717247009277e+00,6.881019592285156250e+00,5.970223903656005859e+00,1.082532691955566406e+01,9.446244239807128906e+00,1.268377304077148438e+01,1.124308967590332031e+01,7.884655952453613281e+00,8.037547111511230469e+00,1.903122067451477051e+00,-5.009159073233604431e-02
3.000078201293945312e+00,2.612621307373046875e+00,3.811945915222167969e+00,9.206673622131347656e+00,-2.452434539794921875e+00,8.365940093994140625e+00,-8.586410880088806152e-01,7.155973911285400391e+00,7.336000919342041016e+00,5.715839862823486328e+00,-1.366530537605285645e+00,6.830799579620361328e+00,6.223466396331787109e+00,1.039673519134521484e+01,9.725578308105468750e+00,1.248787498474121094e+01,1.082310771942138672e+01,6.938260555267333984e+00,7.962337970733642578e+00,1.482537150382995605e+00,-5.806980654597282410e-02
2.676968574523925781e+00,2.740824222564697266e+00,3.432055234909057617e+00,8.875145912170410156e+00,-3.112163543701171875e+00,8.019084930419921875e+00,-8.423850536346435547e-01,6.234613895416259766e+00,6.910704135894775391e+00,5.336711406707763672e+00,-1.213988184928894043e+00,6.648752212524414062e+00,6.341042995452880859e+00,9.880806922912597656e+00,9.836658477783203125e+00,1.209437656402587891e+01,1.032165145874023438e+01,5.999007701873779297e+00,7.757513999938964844e+00,1.070016741752624512e+00,-6.390462070703506470e-02
2.131428241729736328e+00,2.435909271240234375e+00,2.935664415359497070e+00,8.411378860473632812e+00,-4.003064155578613281e+00,7.299750328063964844e+00,-8.022231459617614746e-01,5.133011341094970703e+00,6.688458919525146484e+00,5.158913612365722656e+00,-1.201714754104614258e+00,6.349525451660156250e+00,6.347503662109375000e+00,9.363261222839355469e+00,9.831757545471191406e+00,1.161740779876708984e+01,9.844443321228027344e+00,5.216892242431640625e+00,7.447077274322509766e+00,6.959567666053771973e-01,-6.761984527111053467e-02
1.388041973114013672e+00,1.723286032676696777e+00,2.346073865890502930e+00,7.860074520111083984e+00,-5.103797912597656250e+00,6.239967346191406250e+00,-7.850108742713928223e-01,3.927503347396850586e+00,6.676336288452148438e+00,5.215128898620605469e+00,-1.370037317276000977e+00,5.939395904541015625e+00,6.249307155609130859e+00,8.891000747680664062e+00,9.732112884521484375e+00,1.113532924652099609e+01,9.440949440002441406e+00,4.678815841674804688e+00,7.032628059387207031e+00,3.845503032207489014e-01,-6.947746127843856812e-02
4.784179329872131348e-01,6.526186466217041016e-01,1.668348670005798340e+00,7.238925457000732422e+00,-6.387690544128417969e+00,4.883664131164550781e+00,-8.356913924217224121e-01,2.688067436218261719e+00,6.822816371917724609e+00,5.466137886047363281e+00,-1.751393079757690430e+00,5.427780151367187500e+00,6.029658317565917969e+00,8.459174156188964844e+00,9.539356231689453125e+00,1.067028522491455078e+01,9.095652580261230469e+00,4.397873401641845703e+00,6.506165981292724609e+00,1.494446545839309692e-01,-7.007285207509994507e-02
-5.353972315788269043e-01,-6.813844442367553711e-01,9.045149087905883789e-01,6.535825252532958984e+00,-7.797838687896728516e+00,3.299480199813842773e+00,-9.791268706321716309e-01,1.488921046257019043e+00,7.037990093231201172e+00,5.817811965942382812e+00,-2.350165605545043945e+00,4.836649894714355469e+00,5.662715435028076172e+00,8.033816337585449219e+00,9.209383010864257812e+00,1.021035194396972656e+01,8.757145881652832031e+00,4.331209182739257812e+00,5.864490032196044922e+00,-6.258578971028327942e-03,-6.992995738983154297e-02
-1.569114089012145996e+00,-2.120490789413452148e+00,8.395071327686309814e-02,5.728424549102783203e+00,-9.245329856872558594e+00,1.581679344177246094e+00,-1.200017452239990234e+00,4.032218158245086670e-01,7.234980583190917969e+00,6.162949562072753906e+00,-3.130410909652709961e+00,4.209947109222412109e+00,5.125221252441406250e+00,7.585815906524658203e+00,8.702987670898437500e+00,9.724865913391113281e+00,8.368201255798339844e+00,4.403825759887695312e+00,5.122002124786376953e+00,-9.062367677688598633e-02,-6.954890489578247070e-02
-2.517370700836181641e+00,-3.454493761062622070e+00,-7.335743308067321777e-01,4.807410240173339844e+00,-1.059679603576660156e+01,-1.416126042604446411e-01,-1.448638916015625000e+00,-4.863305687904357910e-01,7.356205463409423828e+00,6.415265560150146484e+00,-4.018487930297851562e+00,3.620909452438354492e+00,4.413299560546875000e+00,7.107086181640625000e+00,7.977700233459472656e+00,9.176352500915527344e+00,7.905542373657226562e+00,4.533583164215087891e+00,4.317106723785400391e+00,-1.228809133172035217e-01,-6.916785985231399536e-02
-3.273634672164916992e+00,-4.467411994934082031e+00,-1.454860329627990723e+00,3.788614034652709961e+00,-1.170819950103759766e+01,-1.722135782241821289e+00,-1.659967184066772461e+00,-1.097036361694335938e+00,7.383481025695800781e+00,6.542077541351318359e+00,-4.912701606750488281e+00,3.156374931335449219e+00,3.551500082015991211e+00,6.620269775390625000e+00,7.012283325195312500e+00,8.537555694580078125e+00,7.391477108001708984e+00,4.658578872680664062e+00,3.520212411880493164e+00,-1.272232383489608765e-01,-6.885825842618942261e-02
-3.762982130050659180e+00,-4.997548580169677734e+00,-1.984681487083435059e+00,2.718598365783691406e+00,-1.245150566101074219e+01,-3.020782232284545898e+00,-1.773759245872497559e+00,-1.367400884628295898e+00,7.327919483184814453e+00,6.562994956970214844e+00,-5.707850456237792969e+00,2.891674280166625977e+00,2.588920593261718750e+00,6.175504207611083984e+00,5.819805145263671875e+00,7.799958229064941406e+00,6.886140823364257812e+00,4.733575820922851562e+00,2.795326709747314453e+00,-1.315655559301376343e-01,-6.862010061740875244e-02
-3.965510845184326172e+00,-5.009098052978515625e+00,-2.264281034469604492e+00,1.660689234733581543e+00,-1.275914192199707031e+01,-3.938712120056152344e+00,-1.766109347343444824e+00,-1.274098634719848633e+00,7.213766098022460938e+00,6.529004096984863281e+00,-6.316266536712646484e+00,2.867610454559326172e+00,1.595331549644470215e+00,5.826160907745361328e+00,4.447638988494873047e+00,6.961856365203857422e+00,6.457429409027099609e+00,4.721671581268310547e+00,2.203256607055664062e+00,-1.563788205385208130e-01,-6.831049919128417969e-02
-3.929219722747802734e+00,-4.621024608612060547e+00,-2.292646169662475586e+00,6.726244091987609863e-01,-1.264177799224853516e+01,-4.438402652740478516e+00,-1.657098412513732910e+00,-8.531781435012817383e-01,7.051122665405273438e+00,6.496320724487304688e+00,-6.690608978271484375e+00,3.064305067062377930e+00,6.482565402984619141e-01,5.611056327819824219e+00,2.974193811416625977e+00,6.031768321990966797e+00,6.143170356750488281e+00,4.587152481079101562e+00,1.769605278968811035e+00,-2.159306555986404419e-01,-6.802470982074737549e-02
-3.761811256408691406e+00,-4.085113525390625000e+00,-2.139676809310913086e+00,-2.074145227670669556e-01,-1.219188213348388672e+01,-4.556461334228515625e+00,-1.506969332695007324e+00,-2.011224776506423950e-01,6.834938526153564453e+00,6.492398738861083984e+00,-6.823863983154296875e+00,3.408520936965942383e+00,-1.864098608493804932e-01,5.535041809082031250e+00,1.494214534759521484e+00,5.014803886413574219e+00,5.937544345855712891e+00,4.294305801391601562e+00,1.471969962120056152e+00,-3.102210462093353271e-01,-6.766747683286666870e-02
-3.599085807800292969e+00,-3.721294403076171875e+00,-1.925925016403198242e+00,-9.691836833953857422e-01,-1.156060504913330078e+01,-4.387152194976806641e+00,-1.391264677047729492e+00,5.399944782257080078e-01,6.543999195098876953e+00,6.514623165130615234e+00,-6.744086265563964844e+00,3.779939174652099609e+00,-8.608616590499877930e-01,5.559301853179931641e+00,9.917887300252914429e-02,3.909259319305419922e+00,5.787204265594482422e+00,3.807418107986450195e+00,1.257544636726379395e+00,-4.287043809890747070e-01,-6.740550696849822998e-02
-3.566306591033935547e+00,-3.818312883377075195e+00,-1.784099102020263672e+00,-1.618270516395568848e+00,-1.090976715087890625e+01,-4.055855751037597656e+00,-1.375964999198913574e+00,1.211134672164916992e+00,6.158100128173828125e+00,6.536848068237304688e+00,-6.504752635955810547e+00,4.050917625427246094e+00,-1.360886216163635254e+00,5.617525577545166016e+00,-1.140671372413635254e+00,2.708321094512939453e+00,5.619405269622802734e+00,3.106252193450927734e+00,1.044719457626342773e+00,-5.509096980094909668e-01,-6.735787540674209595e-02
-3.731373548507690430e+00,-4.545950889587402344e+00,-1.823607683181762695e+00,-2.167712926864624023e+00,-1.036206817626953125e+01,-3.683375597000122070e+00,-1.495494484901428223e+00,1.667043566703796387e+00,5.671180725097656250e+00,6.521160125732421875e+00,-6.163723945617675781e+00,4.110553741455078125e+00,-1.700696229934692383e+00,5.627229690551757812e+00,-2.202466726303100586e+00,1.398361682891845703e+00,5.370131969451904297e+00,2.197950601577758789e+00,7.438838481903076172e-01,-6.526440978050231934e-01,-6.766747683286666870e-02
-4.084920883178710938e+00,-5.905363559722900391e+00,-2.096116065979003906e+00,-2.620304346084594727e+00,-9.985079765319824219e+00,-3.363976240158081055e+00,-1.739334821701049805e+00,1.804876446723937988e+00,5.094352722167968750e+00,6.438797473907470703e+00,-5.776231288909912109e+00,3.886656522750854492e+00,-1.926805615425109863e+00,5.507547378540039062e+00,-3.107442855834960938e+00,-4.276400804519653320e-02,5.013195991516113281e+00,1.117036223411560059e+00,2.686276137828826904e-01,-7.128162384033203125e-01,-6.842957437038421631e-02
-4.541489124298095703e+00,-7.734853267669677734e+00,-2.593519687652587891e+00,-2.970457315444946289e+00,-9.775246620178222656e+00,-3.145247220993041992e+00,-2.066367626190185547e+00,1.570560574531555176e+00,4.446810245513916016e+00,6.266229152679443359e+00,-5.387862205505371094e+00,3.346792221069335938e+00,-2.111569166183471680e+00,5.197020053863525391e+00,-3.922574996948242188e+00,-1.638904452323913574e+00,4.562176227569580078e+00,-8.530253171920776367e-02,-4.626589119434356689e-01,-7.190195918083190918e-01,-6.954890489578247070e-02
-4.972301959991455078e+00,-9.759534835815429688e+00,-3.260101556777954102e+00,-3.207928180694580078e+00,-9.686334609985351562e+00,-3.040001153945922852e+00,-2.420175075531005859e+00,9.630354642868041992e-01,3.743706464767456055e+00,5.983843803405761719e+00,-5.042450428009033203e+00,2.501423597335815430e+00,-2.338970661163330078e+00,4.658449172973632812e+00,-4.740974426269531250e+00,-3.410501003265380859e+00,4.065569400787353516e+00,-1.359067320823669434e+00,-1.513983368873596191e+00,-6.731150150299072266e-01,-7.081113010644912720e-02
-5.247413635253906250e+00,-1.166409873962402344e+01,-4.014818191528320312e+00,-3.330854177474975586e+00,-9.656105041503906250e+00,-3.029018878936767578e+00,-2.754857778549194336e+00,2.577169425785541534e-02,2.982010602951049805e+00,5.558959007263183594e+00,-4.775939464569091797e+00,1.388215184211730957e+00,-2.689116954803466797e+00,3.883748292922973633e+00,-5.662285804748535156e+00,-5.364367961883544922e+00,3.581571578979492188e+00,-2.663783550262451172e+00,-2.941352367401123047e+00,-5.930922627449035645e-01,-7.207335531711578369e-02
-5.273168563842773438e+00,-1.315979957580566406e+01,-4.777638912200927734e+00,-3.350410699844360352e+00,-9.634765625000000000e+00,-3.082099676132202148e+00,-3.046509981155395508e+00,-1.163832306861877441e+00,2.141518831253051758e+00,4.954968929290771484e+00,-4.621643543243408203e+00,6.889596581459045410e-02,-3.230487346649169922e+00,2.893942356109619141e+00,-6.763286113739013672e+00,-7.488580226898193359e+00,3.161589622497558594e+00,-3.981594324111938477e+00,-4.768768310546875000e+00,-5.068661570549011230e-01,-7.307361066341400146e-02
-5.020300388336181641e+00,-1.402834510803222656e+01,-5.487781524658203125e+00,-3.287085056304931641e+00,-9.611648559570312500e+00,-3.158975124359130859e+00,-3.294175148010253906e+00,-2.496570587158203125e+00,1.193944931030273438e+00,4.137882232666015625e+00,-4.602356910705566406e+00,-1.378065586090087891e+00,-3.996675014495849609e+00,1.742403745651245117e+00,-8.086445808410644531e+00,-9.742255210876464844e+00,2.835691452026367188e+00,-5.300595760345458984e+00,-6.962627887725830078e+00,-4.442126750946044922e-01,-7.347847521305084229e-02
-4.521587371826171875e+00,-1.413344860076904297e+01,-6.099658966064453125e+00,-3.160434007644653320e+00,-9.577861785888671875e+00,-3.211140632629394531e+00,-3.513153314590454102e+00,-3.839911222457885742e+00,1.291872113943099976e-01,3.110314607620239258e+00,-4.712818622589111328e+00,-2.850137233734130859e+00,-4.982511520385742188e+00,5.116158127784729004e-01,-9.613798141479492188e+00,-1.204533100128173828e+01,2.617456197738647461e+00,-6.602931022644042969e+00,-9.425319671630859375e+00,-4.243620634078979492e-01,-7.331176847219467163e-02
-3.855466365814208984e+00,-1.341967010498046875e+01,-6.588958263397216797e+00,-2.971388578414916992e+00,-9.549409866333007812e+00,-3.179109096527099609e+00,-3.718744039535522461e+00,-5.044358730316162109e+00,-1.030529975891113281e+00,1.938939571380615234e+00,-4.928481578826904297e+00,-4.228046417236328125e+00,-6.138899326324462891e+00,-6.900601387023925781e-01,-1.128490066528320312e+01,-1.428878593444824219e+01,2.504943609237670898e+00,-7.846934795379638672e+00,-1.196802043914794922e+01,-4.435923397541046143e-01,-7.271637767553329468e-02
-3.117933273315429688e+00,-1.190779972076416016e+01,-6.935418605804443359e+00,-2.692011117935180664e+00,-9.536962509155273438e+00,-2.990581274032592773e+00,-3.915728807449340820e+00,-5.959357261657714844e+00,-2.219543218612670898e+00,7.636424899101257324e-01,-5.194115638732910156e+00,-5.386243343353271484e+00,-7.383146286010742188e+00,-1.726768493652343750e+00,-1.298867321014404297e+01,-1.634486007690429688e+01,2.492334365844726562e+00,-8.959991455078125000e+00,-1.435550308227539062e+01,-4.739885926246643066e-01,-7.202572375535964966e-02
-2.401472806930541992e+00,-9.692545890808105469e+00,-7.128909587860107422e+00,-2.273876190185546875e+00,-9.538740158081054688e+00,-2.566850900650024414e+00,-4.096457481384277344e+00,-6.453435420989990234e+00,-3.336831569671630859e+00,-2.220905125141143799e-01,-5.441339492797851562e+00,-6.210687160491943359e+00,-8.604136466979980469e+00,-2.461036205291748047e+00,-1.459933567047119141e+01,-1.808238792419433594e+01,2.568959236145019531e+00,-9.839722633361816406e+00,-1.630453300476074219e+01,-4.646836221218109131e-01,-7.145415246486663818e-02
-1.779837846755981445e+00,-6.954086303710937500e+00,-7.164366245269775391e+00,-1.663902163505554199e+00,-9.549409866333007812e+00,-1.853007197380065918e+00,-4.247542858123779297e+00,-6.440712451934814453e+00,-4.274303436279296875e+00,-8.169293999671936035e-01,-5.602648735046386719e+00,-6.621862888336181641e+00,-9.686877250671386719e+00,-2.769946098327636719e+00,-1.597803592681884766e+01,-1.938553237915039062e+01,2.715419530868530273e+00,-1.038136959075927734e+01,-1.757988548278808594e+01,-3.586069047451019287e-01,-7.145415246486663818e-02
-1.303368091583251953e+00,-3.960375547409057617e+00,-7.048879146575927734e+00,-8.322887420654296875e-01,-9.561858177185058594e+00,-8.325766921043395996e-01,-4.359422206878662109e+00,-5.896802425384521484e+00,-4.938009262084960938e+00,-8.666082620620727539e-01,-5.632455825805664062e+00,-6.591521263122558594e+00,-1.052412796020507812e+01,-2.571014642715454102e+00,-1.701369476318359375e+01,-2.017764091491699219e+01,2.904556989669799805e+00,-1.049803256988525391e+01,-1.802793693542480469e+01,-1.086132898926734924e-01,-7.200191169977188110e-02
-1.002501487731933594e+00,-1.049823403358459473e+00,-6.802710056304931641e+00,2.060640752315521240e-01,-9.577861785888671875e+00,4.468508660793304443e-01,-4.433052539825439453e+00,-4.866236209869384766e+00,-5.279458999633789062e+00,-3.136041760444641113e-01,-5.512350559234619141e+00,-6.148958206176757812e+00,-1.103965759277343750e+01,-1.846450805664062500e+00,-1.762300109863281250e+01,-2.042634582519531250e+01,3.096604108810424805e+00,-1.014447307586669922e+01,-1.761668968200683594e+01,3.051478862762451172e-01,-7.290690392255783081e-02
-8.830913901329040527e-01,1.420680999755859375e+00,-6.460301876068115234e+00,1.382243037223815918e+00,-9.595643997192382812e+00,1.867216825485229492e+00,-4.476083278656005859e+00,-3.457159996032714844e+00,-5.300673484802246094e+00,7.858672738075256348e-01,-5.254606723785400391e+00,-5.369503498077392578e+00,-1.118695163726806641e+01,-6.625655293464660645e-01,-1.776675224304199219e+01,-2.014357185363769531e+01,3.249853849411010742e+00,-9.332596778869628906e+00,-1.644054985046386719e+01,8.640666007995605469e-01,-7.390715926885604858e-02
-9.334309101104736328e-01,3.140447616577148438e+00,-6.057111263275146484e+00,2.582634687423706055e+00,-9.611648559570312500e+00,3.261957645416259766e+00,-4.496164321899414062e+00,-1.815888047218322754e+00,-5.047111511230468750e+00,2.280154943466186523e+00,-4.890784740447998047e+00,-4.351503372192382812e+00,-1.095308971405029297e+01,8.609589934349060059e-01,-1.744331359863281250e+01,-1.937701606750488281e+01,3.327448606491088867e+00,-8.121925354003906250e+00,-1.468034172058105469e+01,1.516655445098876953e+00,-7.459780573844909668e-02
-1.112546086311340332e+00,3.924679756164550781e+00,-5.623528957366943359e+00,3.682450532913208008e+00,-9.604536056518554688e+00,4.451697349548339844e+00,-4.487557888031005859e+00,-9.933817386627197266e-02,-4.590497970581054688e+00,3.975772380828857422e+00,-4.457704544067382812e+00,-3.191214084625244141e+00,-1.035099315643310547e+01,2.565624475479125977e+00,-1.667391967773437500e+01,-1.818459510803222656e+01,3.319689273834228516e+00,-6.626739501953125000e+00,-1.256009006500244141e+01,2.185372829437255859e+00,-7.476451992988586426e-02
-1.353707671165466309e+00,3.758362531661987305e+00,-5.167660236358642578e+00,4.576458454132080078e+00,-9.528071403503417969e+00,5.290006160736083984e+00,-4.426359176635742188e+00,1.554656744003295898e+00,-3.997506856918334961e+00,5.689692974090576172e+00,-3.978160619735717773e+00,-1.963964700698852539e+00,-9.407793998718261719e+00,4.297784805297851562e+00,-1.549614429473876953e+01,-1.662252426147460938e+01,3.246943950653076172e+00,-4.952989101409912109e+00,-1.029422283172607422e+01,2.787714958190917969e+00,-7.424057275056838989e-02
-1.571455478668212891e+00,2.810123205184936523e+00,-4.676334381103515625e+00,5.211576461791992188e+00,-9.328907966613769531e+00,5.699093341827392578e+00,-4.271448612213134766e+00,3.041131734848022461e+00,-3.313596963882446289e+00,7.304255485534667969e+00,-3.460042715072631836e+00,-7.136978507041931152e-01,-8.153210639953613281e+00,5.939373970031738281e+00,-1.394428920745849609e+01,-1.472827816009521484e+01,3.165469408035278320e+00,-3.216145038604736328e+00,-8.045956611633300781e+00,3.252343177795410156e+00,-7.324031740427017212e-02
-1.679158687591552734e+00,1.382566571235656738e+00,-4.116122245788574219e+00,5.596186161041259766e+00,-8.951919555664062500e+00,5.689941406250000000e+00,-3.979796648025512695e+00,4.301772594451904297e+00,-2.559982776641845703e+00,8.778933525085449219e+00,-2.899844169616699219e+00,5.344765186309814453e-01,-6.624711036682128906e+00,7.428935050964355469e+00,-1.205756092071533203e+01,-1.253592681884765625e+01,3.155770063400268555e+00,-1.509062051773071289e+00,-5.916104316711425781e+00,3.529631376266479492e+00,-7.207335531711578369e-02
-1.601893305778503418e+00,-1.593330204486846924e-01,-3.451566457748413086e+00,5.795475006103515625e+00,-8.372211456298828125e+00,5.356814384460449219e+00,-3.531321763992309570e+00,5.315374851226806641e+00,-1.738684773445129395e+00,1.013987255096435547e+01,-2.296688079833984375e+00,1.762772202491760254e+00,-4.870102882385253906e+00,8.756762504577636719e+00,-9.881696701049804688e+00,-1.007783699035644531e+01,3.302230358123779297e+00,1.004052385687828064e-01,-3.954272031784057617e+00,3.602210283279418945e+00,-7.133507728576660156e-02
-1.304538726806640625e+00,-1.477166295051574707e+00,-2.663419723510742188e+00,5.901638507843017578e+00,-7.604010105133056641e+00,4.845226287841796875e+00,-2.936542749404907227e+00,6.089359283447265625e+00,-8.486927747726440430e-01,1.144459533691406250e+01,-1.658465027809143066e+00,2.946079015731811523e+00,-2.950111865997314453e+00,9.955204010009765625e+00,-7.480406284332275391e+00,-7.411924839019775391e+00,3.672745466232299805e+00,1.562258720397949219e+00,-2.179662227630615234e+00,3.483106613159179688e+00,-7.112073898315429688e-02
-7.941191196441650391e-01,-2.337627172470092773e+00,-1.761812210083007812e+00,6.006870746612548828e+00,-6.705996513366699219e+00,4.315334796905517578e+00,-2.244227647781372070e+00,6.644932270050048828e+00,9.180957078933715820e-02,1.274670505523681641e+01,-1.014105200767517090e+00,4.045686244964599609e+00,-9.448451399803161621e-01,1.105822277069091797e+01,-4.936997890472412109e+00,-4.619956493377685547e+00,4.292533874511718750e+00,2.843166112899780273e+00,-5.970748066902160645e-01,3.214503049850463867e+00,-7.157322764396667480e-02
-1.209739595651626587e-01,-2.643697261810302734e+00,-7.953699231147766113e-01,6.185672283172607422e+00,-5.768861293792724609e+00,3.899841070175170898e+00,-1.522269129753112793e+00,7.019201278686523438e+00,1.044434428215026855e+00,1.407626724243164062e+01,-3.969223797321319580e-01,5.022881984710693359e+00,1.052669167518615723e+00,1.209816551208496094e+01,-2.351118087768554688e+00,-1.800732970237731934e+00,5.143167018890380859e+00,3.921699762344360352e+00,7.950899004936218262e-01,2.860293626785278320e+00,-7.240677624940872192e-02
6.364607214927673340e-01,-2.433490514755249023e+00,1.649940907955169678e-01,6.472499847412109375e+00,-4.886851787567138672e+00,3.685688018798828125e+00,-8.347351551055908203e-01,7.257758617401123047e+00,1.957661151885986328e+00,1.543328475952148438e+01,1.615228354930877686e-01,5.847325801849365234e+00,2.954571485519409180e+00,1.308958911895751953e+01,1.792218983173370361e-01,9.452418088912963867e-01,6.163538932800292969e+00,4.799049854278564453e+00,2.014434099197387695e+00,2.499260663986206055e+00,-7.319268584251403809e-02
1.390383243560791016e+00,-1.838675379753112793e+00,1.042288661003112793e+00,6.877597332000732422e+00,-4.138210773468017578e+00,3.706737279891967773e+00,-2.160502374172210693e-01,7.423157691955566406e+00,2.777948856353759766e+00,1.680599021911621094e+01,6.515870094299316406e-01,6.523202419281005859e+00,4.692383289337158203e+00,1.405028247833251953e+01,2.577245712280273438e+00,3.546422719955444336e+00,7.269265174865722656e+00,5.508548736572265625e+00,3.105763435363769531e+00,2.209565877914428711e+00,-7.357373833656311035e-02
2.065869808197021484e+00,-1.034808635711669922e+00,1.779783368110656738e+00,7.389789104461669922e+00,-3.544276952743530273e+00,3.952006578445434570e+00,3.433480262756347656e-01,7.586436748504638672e+00,3.477011919021606445e+00,1.817477226257324219e+01,1.082913637161254883e+00,7.086083889007568359e+00,6.232510566711425781e+00,1.499965476989746094e+01,4.805382251739501953e+00,5.975553989410400391e+00,8.375961303710937500e+00,6.107337474822998047e+00,4.141086101531982422e+00,2.053862571716308594e+00,-7.350229471921920776e-02
2.614922285079956055e+00,-1.778127253055572510e-01,2.362282514572143555e+00,7.985794067382812500e+00,-3.080155134201049805e+00,4.382143020629882812e+00,8.845778107643127441e-01,7.815451622009277344e+00,4.049798965454101562e+00,1.952917480468750000e+01,1.487063169479370117e+00,7.596653461456298828e+00,7.568493843078613281e+00,1.596681785583496094e+01,6.850563526153564453e+00,8.237747192382812500e+00,9.413791656494140625e+00,6.678745746612548828e+00,5.205211639404296875e+00,2.061926841735839844e+00,-7.333558052778244019e-02
3.016467809677124023e+00,6.237440705299377441e-01,2.812073230743408203e+00,8.628362655639648438e+00,-2.685384750366210938e+00,4.941320896148681641e+00,1.458319664001464844e+00,8.156852722167968750e+00,4.519545078277587891e+00,2.083912849426269531e+01,1.887705922126770020e+00,8.109314918518066406e+00,8.718420982360839844e+00,1.697764968872070312e+01,8.720956802368164062e+00,1.035855197906494141e+01,1.033716964721679688e+01,7.300152778625488281e+00,6.368549346923828125e+00,2.221972465515136719e+00,-7.407386600971221924e-02
3.269336462020874023e+00,1.330592513084411621e+00,3.179807662963867188e+00,9.258824348449707031e+00,-2.281723022460937500e+00,5.561815738677978516e+00,2.095173120498657227e+00,8.610641479492187500e+00,4.912515640258789062e+00,2.205364608764648438e+01,2.296238899230957031e+00,8.655456542968750000e+00,9.693921089172363281e+00,1.802406120300292969e+01,1.040839481353759766e+01,1.235500526428222656e+01,1.112281703948974609e+01,8.017984390258789062e+00,7.658302307128906250e+00,2.479410171508789062e+00,-7.640779018402099609e-02
3.387575864791870117e+00,1.961212038993835449e+00,3.518163681030273438e+00,9.795228958129882812e+00,-1.808709859848022461e+00,6.166752338409423828e+00,2.779838323593139648e+00,9.119563102722167969e+00,5.244873523712158203e+00,2.308382797241210938e+01,2.692498207092285156e+00,9.212060928344726562e+00,1.049628639221191406e+01,1.906077003479003906e+01,1.189327430725097656e+01,1.420496082305908203e+01,1.175715541839599609e+01,8.821527481079101562e+00,9.031264305114746094e+00,2.750494956970214844e+00,-8.086130023002624512e-02
3.382893085479736328e+00,2.565267086029052734e+00,3.855506896972656250e+00,1.014258766174316406e+01,-1.243228077888488770e+00,6.674679756164550781e+00,3.449203729629516602e+00,9.580773353576660156e+00,5.501465797424316406e+00,2.381332206726074219e+01,3.034403562545776367e+00,9.715306282043457031e+00,1.110096740722656250e+01,1.997779655456542969e+01,1.312822437286376953e+01,1.584709548950195312e+01,1.222951316833496094e+01,9.640546798706054688e+00,1.037862396240234375e+01,2.946519851684570312e+00,-8.710098266601562500e-02
3.265824317932128906e+00,3.192421913146972656e+00,4.188797473907470703e+00,1.020591354370117188e+01,-6.119511127471923828e-01,7.009637355804443359e+00,4.010514259338378906e+00,9.870222091674804688e+00,5.643905162811279297e+00,2.412969779968261719e+01,3.271107196807861328e+00,1.008044719696044922e+01,1.147566318511962891e+01,2.063604927062988281e+01,1.405280303955078125e+01,1.719112396240234375e+01,1.252340412139892578e+01,1.035599803924560547e+01,1.155476284027099609e+01,3.002349615097045898e+00,-9.348355233669281006e-02
3.050417900085449219e+00,3.858845949172973633e+00,4.485619068145751953e+00,9.931192398071289062e+00,1.754760928452014923e-02,7.118544101715087891e+00,4.370059490203857422e+00,9.882945060729980469e+00,5.618649959564208984e+00,2.395843696594238281e+01,3.359651803970336914e+00,1.023110675811767578e+01,1.159323978424072266e+01,2.089158630371093750e+01,1.462127208709716797e+01,1.815187454223632812e+01,1.262912654876708984e+01,1.083931446075439453e+01,1.240766429901123047e+01,2.902476310729980469e+00,-9.715114533901214600e-02
2.755404710769653320e+00,4.534509658813476562e+00,4.701396942138671875e+00,9.328668594360351562e+00,5.599123239517211914e-01,6.985842227935791016e+00,4.470464229583740234e+00,9.570170402526855469e+00,5.387312412261962891e+00,2.330084609985351562e+01,3.286010742187500000e+00,1.013275909423828125e+01,1.144594573974609375e+01,2.064736938476562500e+01,1.480749416351318359e+01,1.865439414978027344e+01,1.255347156524658203e+01,1.099287986755371094e+01,1.283811473846435547e+01,2.687221050262451172e+00,-9.443617612123489380e-02
2.413563966751098633e+00,5.132790088653564453e+00,4.798648834228515625e+00,8.485879898071289062e+00,9.297872185707092285e-01,6.645393848419189453e+00,4.303122997283935547e+00,8.956283569335937500e+00,4.942821502685546875e+00,2.224451637268066406e+01,3.066840648651123047e+00,9.804237365722656250e+00,1.106220531463623047e+01,1.988075637817382812e+01,1.461963844299316406e+01,1.866802215576171875e+01,1.232165718078613281e+01,1.078812503814697266e+01,1.282051277160644531e+01,2.451495170593261719e+00,-8.136142790317535400e-02
2.071723222732543945e+00,5.545118331909179688e+00,4.766231536865234375e+00,7.556484222412109375e+00,1.072046875953674316e+00,6.172243595123291016e+00,3.917759656906127930e+00,8.140949249267578125e+00,4.322555065155029297e+00,2.094240760803222656e+01,2.753865957260131836e+00,9.315639495849609375e+00,1.049111843109130859e+01,1.866775894165039062e+01,1.409200763702392578e+01,1.820127487182617188e+01,1.198896980285644531e+01,1.027504825592041016e+01,1.242526626586914062e+01,2.319364547729492188e+00,-5.473562702536582947e-02
1.781392812728881836e+00,5.665235996246337891e+00,4.615288257598876953e+00,6.727664470672607422e+00,9.724650979042053223e-01,5.662486076354980469e+00,3.394698143005371094e+00,7.261999607086181641e+00,3.599246978759765625e+00,1.957362556457519531e+01,2.410207271575927734e+00,8.766359329223632812e+00,9.799869537353515625e+00,1.715555572509765625e+01,1.328504276275634766e+01,1.729673767089843750e+01,1.161942386627197266e+01,9.575073242187500000e+00,1.179479122161865234e+01,2.411793947219848633e+00,-1.279641874134540558e-02
1.588229417800903320e+00,5.433084964752197266e+00,4.382288932800292969e+00,6.171703338623046875e+00,6.559375524520874023e-01,5.213130474090576172e+00,2.829562664031982422e+00,6.467869758605957031e+00,2.865836858749389648e+00,1.829896926879882812e+01,2.104245901107788086e+00,8.258928298950195312e+00,9.060814857482910156e+00,1.553822612762451172e+01,1.225918579101562500e+01,1.602084732055664062e+01,1.127509689331054688e+01,8.845336914062500000e+00,1.112111186981201172e+01,2.811907768249511719e+00,4.405133426189422607e-02
1.523841619491577148e+00,4.859059333801269531e+00,4.109780311584472656e+00,6.004076957702636719e+00,1.882591247558593750e-01,4.889155387878417969e+00,2.305545091629028320e+00,5.872007369995117188e+00,2.211223125457763672e+00,1.721518707275390625e+01,1.891212701797485352e+00,7.876001834869384766e+00,8.332097053527832031e+00,1.400984954833984375e+01,1.108140945434570312e+01,1.445196247100830078e+01,1.099672603607177734e+01,8.235834121704101562e+00,1.059144878387451172e+01,3.542658329010009766e+00,1.129973903298377991e-01
1.592912197113037109e+00,4.032093048095703125e+00,3.844363212585449219e+00,6.266691684722900391e+00,-3.434361219406127930e-01,4.722591876983642578e+00,1.884801030158996582e+00,5.538027763366699219e+00,1.701068639755249023e+00,1.635626602172851562e+01,1.804421305656433105e+00,7.656289577484130859e+00,7.658937454223632812e+00,1.271922016143798828e+01,9.817056655883789062e+00,1.267866230010986328e+01,1.079497909545898438e+01,7.859656810760498047e+00,1.034021949768066406e+01,4.551317691802978516e+00,1.887785196304321289e-01
1.780222177505493164e+00,3.100023269653320312e+00,3.628585338592529297e+00,6.923228740692138672e+00,-8.484576344490051270e-01,4.706118583679199219e+00,1.607492446899414062e+00,5.468050956726074219e+00,1.373761773109436035e+00,1.568298625946044922e+01,1.849132061004638672e+00,7.600838184356689453e+00,7.072345256805419922e+00,1.175367450714111328e+01,8.523299217224121094e+00,1.079123115539550781e+01,1.065433883666992188e+01,7.766802787780761719e+00,1.043623065948486328e+01,5.716920375823974609e+00,2.641309499740600586e-01
2.055333614349365234e+00,2.234942674636840820e+00,3.504994153976440430e+00,7.882424831390380859e+00,-1.241449832916259766e+00,4.815025329589843750e+00,1.496569037437438965e+00,5.619667530059814453e+00,1.233343005180358887e+00,1.512736701965332031e+01,2.003427743911743164e+00,7.677214622497558594e+00,6.592993736267089844e+00,1.112776756286621094e+01,7.254045486450195312e+00,8.868026733398437500e+00,1.054667568206787109e+01,7.946558475494384766e+00,1.086348152160644531e+01,6.868876457214355469e+00,3.309336304664611816e-01
2.383126020431518555e+00,1.591618180274963379e+00,3.511072397232055664e+00,9.030666351318359375e+00,-1.460173964500427246e+00,5.017281055450439453e+00,1.561593174934387207e+00,5.923959732055664062e+00,1.265669703483581543e+00,1.462273502349853516e+01,2.224351167678833008e+00,7.831013202667236328e+00,6.229926586151123047e+00,1.078812885284423828e+01,6.041965484619140625e+00,6.984001636505126953e+00,1.044871234893798828e+01,8.339402198791503906e+00,1.154196166992187500e+01,7.818603992462158203e+00,3.804938197135925293e-01
2.734332323074340820e+00,1.276308417320251465e+00,3.682276487350463867e+00,1.025433921813964844e+01,-1.469065189361572266e+00,5.293666839599609375e+00,1.803520917892456055e+00,6.303530693054199219e+00,1.444476246833801270e+00,1.412463951110839844e+01,2.461931467056274414e+00,8.000505447387695312e+00,5.985728740692138672e+00,1.064580345153808594e+01,4.903394222259521484e+00,5.180038928985595703e+00,1.035656833648681641e+01,8.859622001647949219e+00,1.233725547790527344e+01,8.396753311157226562e+00,4.056430459022521973e-01
3.098416090011596680e+00,1.330592513084411621e+00,4.041906356811523438e+00,1.145938682556152344e+01,-1.259232282638549805e+00,5.635945796966552734e+00,2.210877656936645508e+00,6.688402652740478516e+00,1.740466713905334473e+00,1.362000656127929688e+01,2.672334671020507812e+00,8.132332801818847656e+00,5.850062847137451172e+00,1.058434486389160156e+01,3.835064888000488281e+00,3.478284358978271484e+00,1.028673362731933594e+01,9.428648948669433594e+00,1.311174774169921875e+01,8.484840393066406250e+00,4.016182124614715576e-01
3.481230735778808594e+00,1.735990762710571289e+00,4.599079608917236328e+00,1.257503414154052734e+01,-8.520141243934631348e-01,6.045032978057861328e+00,2.754019975662231445e+00,7.027683258056640625e+00,2.129396200180053711e+00,1.313367652893066406e+01,2.824000358581542969e+00,8.182552337646484375e+00,5.806133270263671875e+00,1.049862670898437500e+01,2.817374944686889648e+00,1.878736972808837891e+00,1.027509403228759766e+01,9.981011390686035156e+00,1.374062156677246094e+01,8.041302680969238281e+00,3.672047257423400879e-01
3.906190156936645508e+00,2.422049522399902344e+00,5.332522392272949219e+00,1.355471801757812500e+01,-2.758628129959106445e-01,6.515437602996826172e+00,3.391829490661621094e+00,7.292746543884277344e+00,2.591060638427734375e+00,1.270356273651123047e+01,2.912544965744018555e+00,8.133378982543945312e+00,5.830682277679443359e+00,1.029807758331298828e+01,1.827454924583435059e+00,3.711763620376586914e-01,1.035753822326660156e+01,1.048099327087402344e+01,1.413426876068115234e+01,7.107704162597656250e+00,3.052127957344055176e-01
4.406073570251464844e+00,3.292905092239379883e+00,6.203738689422607422e+00,1.436956882476806641e+01,4.265439510345458984e-01,7.029771327972412109e+00,4.081275939941406250e+00,7.475110530853271484e+00,3.113337516784667969e+00,1.237280559539794922e+01,2.954625606536865234e+00,7.986904144287109375e+00,5.891408443450927734e+00,9.930943489074707031e+00,8.457026481628417969e-01,-1.049507856369018555e+00,1.056122493743896484e+01,1.092026329040527344e+01,1.424628162384033203e+01,5.803146839141845703e+00,2.222393900156021118e-01
5.014831066131591797e+00,4.236524581909179688e+00,7.155998229980468750e+00,1.500654888153076172e+01,1.208971738815307617e+00,7.555087089538574219e+00,4.785066127777099609e+00,7.588557243347167969e+00,3.688145160675048828e+00,1.217539787292480469e+01,2.981802701950073242e+00,7.768238067626953125e+00,5.957303524017333984e+00,9.381052017211914062e+00,-1.344161033630371094e-01,-2.378205299377441406e+00,1.089488220214843750e+01,1.130358314514160156e+01,1.407026100158691406e+01,4.297601699829101562e+00,1.278344839811325073e-01
5.741827964782714844e+00,5.136254787445068359e+00,8.127505302429199219e+00,1.546938419342041016e+01,2.034077405929565430e+00,8.049286842346191406e+00,5.480249881744384766e+00,7.665956020355224609e+00,4.306391716003417969e+00,1.212702655792236328e+01,3.031773567199707031e+00,7.517138481140136719e+00,6.001233100891113281e+00,8.675895690917968750e+00,-1.108000755310058594e+00,-3.599585056304931641e+00,1.134493255615234375e+01,1.164523792266845703e+01,1.364140987396240234e+01,2.777169227600097656e+00,3.261986374855041504e-02
6.569503784179687500e+00,5.889302253723144531e+00,9.061531066894531250e+00,1.577576828002929688e+01,2.862739562988281250e+00,8.468441009521484375e+00,6.157265186309814453e+00,7.746535301208496094e+00,4.959995269775390625e+00,1.222115421295166016e+01,3.136975049972534180e+00,7.282778739929199219e+00,5.997356891632080078e+00,7.867231369018554688e+00,-2.057082414627075195e+00,-4.693205356597900391e+00,1.188033676147460938e+01,1.195356082916259766e+01,1.302213668823242188e+01,1.409338116645812988e+00,-5.337813869118690491e-02
7.439324378967285156e+00,6.420593738555908203e+00,9.913498878479003906e+00,1.594898223876953125e+01,3.664727926254272461e+00,8.781434059143066406e+00,6.815155506134033203e+00,7.871644973754882812e+00,5.627741813659667969e+00,1.243163585662841797e+01,3.316694498062133789e+00,7.110147953033447266e+00,5.925002098083496094e+00,7.032689094543457031e+00,-2.968592882156372070e+00,-5.643734931945800781e+00,1.246423816680908203e+01,1.223212242126464844e+01,1.229885101318359375e+01,3.113511800765991211e-01,-1.225861683487892151e-01
8.262317657470703125e+00,6.712803840637207031e+00,1.065909767150878906e+01,1.601230812072753906e+01,4.413369178771972656e+00,8.980943679809570312e+00,7.439578056335449219e+00,8.072032928466796875e+00,6.282355785369873047e+00,1.270879173278808594e+01,3.573561668395996094e+00,7.022263050079345703e+00,5.772539615631103516e+00,6.249901294708251953e+00,-3.829463720321655273e+00,-6.451174259185791016e+00,1.305298805236816406e+01,1.247139930725097656e+01,1.156276416778564453e+01,-4.677852690219879150e-01,-1.708841323852539062e-01
8.930780410766601562e+00,6.814442157745361328e+00,1.129123687744140625e+01,1.597971343994140625e+01,5.090880393981933594e+00,9.079784393310546875e+00,8.003757476806640625e+00,8.362542152404785156e+00,6.887469291687011719e+00,1.298725509643554688e+01,3.894426584243774414e+00,7.021216869354248047e+00,5.538678169250488281e+00,5.583561420440673828e+00,-4.631527423858642578e+00,-7.127447128295898438e+00,1.360682106018066406e+01,1.265829753875732422e+01,1.090828704833984375e+01,-9.466812610626220703e-01,-1.979147940874099731e-01
9.351057052612304688e+00,6.851401805877685547e+00,1.182105731964111328e+01,1.585026931762695312e+01,5.686592578887939453e+00,9.115475654602050781e+00,8.462751388549804688e+00,8.736811637878417969e+00,7.402674674987792969e+00,1.319250679016113281e+01,4.257372379302978516e+00,7.076667785644531250e+00,5.238921642303466797e+00,5.077337265014648438e+00,-5.374784469604492188e+00,-7.691291809082031250e+00,1.409275913238525391e+01,1.277734184265136719e+01,1.036902332305908203e+01,-1.197295188903808594e+00,-2.063931375741958618e-01
9.458760261535644531e+00,6.985379219055175781e+00,1.227186107635498047e+01,1.561652278900146484e+01,6.204061508178710938e+00,9.132864952087402344e+00,8.767790794372558594e+00,9.173635482788085938e+00,7.795645236968994141e+00,1.325787353515625000e+01,4.643988132476806641e+00,7.137350082397460938e+00,4.897819519042968750e+00,4.749019622802734375e+00,-6.046165466308593750e+00,-8.166556358337402344e+00,1.448849201202392578e+01,1.281543540954589844e+01,9.956173896789550781e+00,-1.319500565528869629e+00,-2.009393721818923950e-01
9.241012573242187500e+00,7.368833065032958984e+00,1.267099952697753906e+01,1.527288913726806641e+01,6.652179241180419922e+00,9.176793098449707031e+00,8.880626678466796875e+00,9.643327713012695312e+00,8.048196792602539062e+00,1.314152050018310547e+01,5.029727458953857422e+00,7.145720481872558594e+00,4.569638252258300781e+00,4.593755722045898438e+00,-6.619534969329833984e+00,-8.553241729736328125e+00,1.478335285186767578e+01,1.276900863647460938e+01,9.626535415649414062e+00,-1.409448623657226562e+00,-1.867929250001907349e-01
8.736445426940917969e+00,8.071061134338378906e+00,1.303873443603515625e+01,1.482774734497070312e+01,7.043393135070800781e+00,9.275633811950683594e+00,8.791696548461914062e+00,1.012044143676757812e+01,8.158308982849121094e+00,1.283691120147705078e+01,5.400563240051269531e+00,7.054696559906005859e+00,4.308643341064453125e+00,4.596990585327148438e+00,-7.050787448883056641e+00,-8.834312438964843750e+00,1.498412895202636719e+01,1.264758396148681641e+01,9.308096885681152344e+00,-1.532274246215820312e+00,-1.686454713344573975e-01
8.021156311035156250e+00,9.030850410461425781e+00,1.337303829193115234e+01,1.431741809844970703e+01,7.379481315612792969e+00,9.432129859924316406e+00,8.521080970764160156e+00,1.059013366699218750e+01,8.140125274658203125e+00,1.238064956665039062e+01,5.748605251312255859e+00,6.842308044433593750e+00,4.180730342864990234e+00,4.736081123352050781e+00,-7.281115055084228516e+00,-8.960368156433105469e+00,1.510440158843994141e+01,1.246901893615722656e+01,8.925652503967285156e+00,-1.710929751396179199e+00,-1.499502509832382202e-01
7.196991920471191406e+00,1.004492378234863281e+01,1.364959907531738281e+01,1.379870700836181641e+01,7.656887531280517578e+00,9.622488021850585938e+00,8.109899520874023438e+00,1.104922389984130859e+01,8.008798599243164062e+00,1.184333419799804688e+01,6.068593502044677734e+00,6.521110057830810547e+00,4.233704090118408203e+00,4.993236541748046875e+00,-7.238643646240234375e+00,-8.871788024902343750e+00,1.516356754302978516e+01,1.225950241088867188e+01,8.445595741271972656e+00,-1.921222209930419922e+00,-1.326601505279541016e-01
6.373999118804931641e+00,1.081991672515869141e+01,1.382586765289306641e+01,1.333959674835205078e+01,7.856050968170166016e+00,9.801864624023437500e+00,7.611700534820556641e+00,1.150301170349121094e+01,7.792614459991455078e+00,1.131386184692382812e+01,6.360527992248535156e+00,6.140275478363037109e+00,4.497282981872558594e+00,5.352283477783203125e+00,-6.858030796051025391e+00,-8.493620872497558594e+00,1.517326641082763672e+01,1.204165267944335938e+01,7.895130157470703125e+00,-2.110423326492309570e+00,-1.175848990678787231e-01
5.649343490600585938e+00,1.105437755584716797e+01,1.384714221954345703e+01,1.299596309661865234e+01,7.959189414978027344e+00,9.912601470947265625e+00,7.078120708465576172e+00,1.195361995697021484e+01,7.507736206054687500e+00,1.086936664581298828e+01,6.627038478851318359e+00,5.765718460083007812e+00,4.967590332031250000e+00,5.801901340484619141e+00,-6.096805095672607422e+00,-7.769650936126708984e+00,1.512670993804931641e+01,1.183094596862792969e+01,7.365467548370361328e+00,-2.212778091430664062e+00,-1.045577898621559143e-01
5.100291252136230469e+00,1.054272079467773438e+01,1.366985988616943359e+01,1.279387950897216797e+01,7.955632686614990234e+00,9.902534484863281250e+00,6.545496940612792969e+00,1.238938331604003906e+01,7.180429458618164062e+00,1.055299091339111328e+01,6.875138759613037109e+00,5.466491699218750000e+00,5.608448982238769531e+00,6.324298858642578125e+00,-4.948432445526123047e+00,-6.672623634338378906e+00,1.499576854705810547e+01,1.162857246398925781e+01,6.992623329162597656e+00,-2.183622360229492188e+00,-9.300723671913146973e-02
4.777181625366210938e+00,9.250297546386718750e+00,1.327173423767089844e+01,1.271937942504882812e+01,7.850716590881347656e+00,9.735971450805664062e+00,6.042516708374023438e+00,1.277319526672363281e+01,6.838979721069335938e+00,1.035558319091796875e+01,7.114472866058349609e+00,5.286536693572998047e+00,6.357840061187744141e+00,6.888746738433837891e+00,-3.448851108551025391e+00,-5.221277236938476562e+00,1.473485565185546875e+01,1.141072273254394531e+01,6.906213283538818359e+00,-2.008688926696777344e+00,-8.231405168771743774e-02
4.690550804138183594e+00,7.334183692932128906e+00,1.266188240051269531e+01,1.271006679534912109e+01,7.662222385406494141e+00,9.400098800659179688e+00,5.586391925811767578e+00,1.304462051391601562e+01,6.515713214874267578e+00,1.021308326721191406e+01,7.354682922363281250e+00,5.230039596557617188e+00,7.133071899414062500e+00,7.451577663421630859e+00,-1.681370139122009277e+00,-3.488860130310058594e+00,1.429062557220458984e+01,1.113335132598876953e+01,7.184646129608154297e+00,-1.710929751396179199e+00,-7.190664857625961304e-02
4.816985130310058594e+00,5.099295616149902344e+00,1.187981414794921875e+01,1.267747306823730469e+01,7.415046215057373047e+00,8.914135932922363281e+00,5.190510272979736328e+00,1.312307834625244141e+01,6.240937232971191406e+00,1.001828956604003906e+01,7.598400115966796875e+00,5.256195545196533203e+00,7.846285343170166016e+00,7.951332092285156250e+00,2.298613637685775757e-01,-1.603131771087646484e+00,1.362234020233154297e+01,1.073693656921386719e+01,7.813520431518554688e+00,-1.351137399673461914e+00,-6.159450858831405640e-02
5.095608711242675781e+00,2.918691396713256836e+00,1.098529815673828125e+01,1.253312778472900391e+01,7.126970767974853516e+00,8.322926521301269531e+00,4.865389823913574219e+00,1.293223285675048828e+01,6.032834529876708984e+00,9.649620056152343750e+00,7.839487075805664062e+00,5.284444332122802734e+00,8.421249389648437500e+00,8.318466186523437500e+00,2.134558916091918945e+00,2.706723213195800781e-01,1.271545124053955078e+01,1.016671848297119141e+01,8.672821998596191406e+00,-1.006233096122741699e+00,-5.149671062827110291e-02
5.443302631378173828e+00,1.129625797271728516e+00,1.005025959014892578e+01,1.220905017852783203e+01,6.799773693084716797e+00,7.691449642181396484e+00,4.611031055450439453e+00,1.241588973999023438e+01,5.894436359405517578e+00,9.007717132568359375e+00,8.062164306640625000e+00,5.217484474182128906e+00,8.808864593505859375e+00,8.480198860168457031e+00,3.888971328735351562e+00,1.965613365173339844e+00,1.159614562988281250e+01,9.384603500366210938e+00,9.586530685424804688e+00,-7.543784379959106445e-01,-4.216101020574569702e-02
5.771095275878906250e+00,-2.882017195224761963e-02,9.159795761108398438e+00,1.168847656250000000e+01,6.424563884735107422e+00,7.092918872833251953e+00,4.427433490753173828e+00,1.156556701660156250e+01,5.815639972686767578e+00,8.049438476562500000e+00,8.244513511657714844e+00,4.971616268157958984e+00,8.998796463012695312e+00,8.394480705261230469e+00,5.380385398864746094e+00,3.342007637023925781e+00,1.033522987365722656e+01,8.403685569763183594e+00,1.035142040252685547e+01,-6.600880622863769531e-01,-3.415897861123085022e-02
6.001720428466796875e+00,-4.596280753612518311e-01,8.401026725769042969e+00,1.100958919525146484e+01,5.985337734222412109e+00,6.596889019012451172e+00,4.308860301971435547e+00,1.043321704864501953e+01,5.785334110260009766e+00,6.814003944396972656e+00,8.375138282775878906e+00,4.503942966461181641e+00,9.040142059326171875e+00,8.061310768127441406e+00,6.563062191009521484e+00,4.335124015808105469e+00,9.044246673583984375e+00,7.297771930694580078e+00,1.082667732238769531e+01,-7.624427676200866699e-01,-2.837179787456989288e-02
6.081326961517333984e+00,-1.928274780511856079e-01,7.860062599182128906e+00,1.025433921813964844e+01,5.471424579620361328e+00,6.257355690002441406e+00,4.261048316955566406e+00,9.125924110412597656e+00,5.806548118591308594e+00,5.420381069183349609e+00,8.463683128356933594e+00,3.831205368041992188e+00,9.032389640808105469e+00,7.548617362976074219e+00,7.464771270751953125e+00,4.967106819152832031e+00,7.849286079406738281e+00,6.204953193664550781e+00,1.098189544677734375e+01,-1.067025542259216309e+00,-2.525195851922035217e-02
5.992354869842529297e+00,6.422237753868103027e-01,7.611867427825927734e+00,9.536338806152343750e+00,4.891716957092285156e+00,6.100859165191650391e+00,4.303122997283935547e+00,7.794246673583984375e+00,5.910599708557128906e+00,4.050290584564208984e+00,8.546091079711914062e+00,3.030825138092041016e+00,9.116374015808105469e+00,6.989021301269531250e+00,8.201494216918945312e+00,5.367419719696044922e+00,6.873531341552734375e+00,5.306174755096435547e+00,1.090668678283691406e+01,-1.546541929244995117e+00,-2.477564662694931030e-02
5.744169235229492188e+00,1.858418822288513184e+00,7.698988914489746094e+00,8.959890365600585938e+00,4.274665832519531250e+00,6.117332458496093750e+00,4.468551635742187500e+00,6.592979907989501953e+00,6.153048992156982422e+00,2.905062437057495117e+00,8.675840377807617188e+00,2.224167823791503906e+00,9.425174713134765625e+00,6.560428619384765625e+00,8.928415298461914062e+00,5.720035552978515625e+00,6.203306198120117188e+00,4.783574104309082031e+00,1.078187179565429688e+01,-2.147022962570190430e+00,-2.639510668814182281e-02
5.374232292175292969e+00,3.249015808105468750e+00,8.114336013793945312e+00,8.593905448913574219e+00,3.670062541961669922e+00,6.262846946716308594e+00,4.793672084808349609e+00,5.650414466857910156e+00,6.585417747497558594e+00,2.144191741943359375e+00,8.907283782958984375e+00,1.542013764381408691e+00,1.005698871612548828e+01,6.442363739013671875e+00,9.803988456726074219e+00,6.225962638854980469e+00,5.870618820190429688e+00,4.769289016723632812e+00,1.081707572937011719e+01,-2.789066076278686523e+00,-2.903863415122032166e-02
4.937565803527832031e+00,4.611893653869628906e+00,8.795100212097167969e+00,8.450491905212402344e+00,3.136589288711547852e+00,6.470593452453613281e+00,5.294739723205566406e+00,5.033347129821777344e+00,7.230939865112304688e+00,1.847425937652587891e+00,9.266722679138183594e+00,1.096311926841735840e+00,1.101827621459960938e+01,6.764212131500244141e+00,1.092785739898681641e+01,7.035105228424072266e+00,5.842490673065185547e+00,5.295461177825927734e+00,1.117231750488281250e+01,-3.396370649337768555e+00,-3.151545301079750061e-02
4.505582332611083984e+00,5.776114463806152344e+00,9.617691040039062500e+00,8.475636482238769531e+00,2.734705924987792969e+00,6.665527820587158203e+00,5.951674461364746094e+00,4.738596916198730469e+00,8.048196792602539062e+00,1.978159666061401367e+00,9.734869003295898438e+00,9.498371481895446777e-01,1.221084117889404297e+01,7.569642543792724609e+00,1.230329036712646484e+01,8.207084655761718750e+00,6.031627655029296875e+00,6.271617412567138672e+00,1.191160583496093750e+01,-3.896358013153076172e+00,-3.275386244058609009e-02
4.155546665191650391e+00,6.610010623931884766e+00,1.043116378784179688e+01,8.566899299621582031e+00,2.514203548431396484e+00,6.787247180938720703e+00,6.692757606506347656e+00,4.694066524505615234e+00,8.927076339721679688e+00,2.396507978439331055e+00,1.023983764648437500e+01,1.105728149414062500e+00,1.344604396820068359e+01,8.782639503479003906e+00,1.381920814514160156e+01,9.689093589782714844e+00,6.316788673400878906e+00,7.494193553924560547e+00,1.297413158416748047e+01,-4.242503166198730469e+00,-3.222991898655891418e-02
3.956529855728149414e+00,7.040818691253662109e+00,1.108558845520019531e+01,8.597630500793457031e+00,2.510647058486938477e+00,6.799144744873046875e+00,7.403241157531738281e+00,4.783127784729003906e+00,9.698874473571777344e+00,2.890681743621826172e+00,1.067379379272460938e+01,1.508533835411071777e+00,1.447839450836181641e+01,1.023176670074462891e+01,1.527468395233154297e+01,1.131589603424072266e+01,6.569941997528076172e+00,8.695342063903808594e+00,1.420307636260986328e+01,-4.420537948608398438e+00,-3.001507185399532318e-02
3.955359220504760742e+00,7.062763214111328125e+00,1.146446704864501953e+01,8.447698593139648438e+00,2.740040540695190430e+00,6.697559356689453125e+00,7.945426940917968750e+00,4.873249053955078125e+00,1.017872238159179688e+01,3.239741086959838867e+00,1.092014122009277344e+01,2.058860540390014648e+00,1.507144737243652344e+01,1.168412876129150391e+01,1.643775749206542969e+01,1.286263656616210938e+01,6.686334133148193359e+00,9.601262092590332031e+00,1.540001869201660156e+01,-4.454656124114990234e+00,-2.679997123777866364e-02
4.152034759521484375e+00,6.735903739929199219e+00,1.150397491455078125e+01,8.032357215881347656e+00,3.182823657989501953e+00,6.499879360198974609e+00,8.195960998535156250e+00,4.845682621002197266e+00,1.021205902099609375e+01,3.264580488204956055e+00,1.089121055603027344e+01,2.635343313217163086e+00,1.505723476409912109e+01,1.289712619781494141e+01,1.709280395507812500e+01,1.409934711456298828e+01,6.599040031433105469e+00,1.000481986999511719e+01,1.637293243408203125e+01,-4.388280868530273438e+00,-2.356105297803878784e-02
4.503240585327148438e+00,6.178047657012939453e+00,1.119499778747558594e+01,7.321807384490966797e+00,3.789205074310302734e+00,6.229900360107421875e+00,8.073562622070312500e+00,4.613487243652343750e+00,9.718068122863769531e+00,2.874993801116943359e+00,1.054930496215820312e+01,3.110340118408203125e+00,1.437244606018066406e+01,1.367182731628417969e+01,1.710914039611816406e+01,1.482842731475830078e+01,6.287690639495849609e+00,9.803636550903320312e+00,1.699060630798339844e+01,-4.276000976562500000e+00,-2.115568146109580994e-02
4.916493415832519531e+00,5.543962955474853516e+00,1.057704162597656250e+01,6.342123508453369141e+00,4.486277103424072266e+00,5.906840324401855469e+00,7.561976432800292969e+00,4.137433528900146484e+00,8.707861900329589844e+00,2.081439495086669922e+00,9.913712501525878906e+00,3.377133369445800781e+00,1.307134819030761719e+01,1.389178371429443359e+01,1.645572662353515625e+01,1.494255828857421875e+01,5.766835689544677734e+00,9.021520614624023438e+00,1.718742942810058594e+01,-4.162480354309082031e+00,-2.015542797744274139e-02
5.284089088439941406e+00,4.991882324218750000e+00,9.715955734252929688e+00,5.167807102203369141e+00,5.176236152648925781e+00,5.531614780426025391e+00,6.710926055908203125e+00,3.419641971588134766e+00,7.284480571746826172e+00,9.819679856300354004e-01,9.051935195922851562e+00,3.364578485488891602e+00,1.129994392395019531e+01,1.353920650482177734e+01,1.521424388885498047e+01,1.443152141571044922e+01,5.077211856842041016e+00,7.781088352203369141e+00,1.697140502929687500e+01,-4.072532176971435547e+00,-2.048884518444538116e-02
5.504178524017333984e+00,4.648852825164794922e+00,8.685691833496093750e+00,3.908746242523193359e+00,5.761278629302978516e+00,5.092326164245605469e+00,5.624641418457031250e+00,2.495101213455200195e+00,5.616629600524902344e+00,-2.639253437519073486e-01,8.058656692504882812e+00,3.046519041061401367e+00,9.253331184387207031e+00,1.268040466308593750e+01,1.354314136505126953e+01,1.337708091735839844e+01,4.270225524902343750e+00,6.271617412567138672e+00,1.638893508911132812e+01,-4.003675460815429688e+00,-2.165580913424491882e-02
5.517055988311767578e+00,4.572624206542968750e+00,7.566280364990234375e+00,2.683210611343383789e+00,6.157827377319335938e+00,4.570671081542968750e+00,4.434127330780029297e+00,1.423185348510742188e+00,3.901298761367797852e+00,-1.475827813148498535e+00,7.025928020477294922e+00,2.444926023483276367e+00,7.129195690155029297e+00,1.144152927398681641e+01,1.163681030273437500e+01,1.193084430694580078e+01,3.392434358596801758e+00,4.699053287506103516e+00,1.551683235168457031e+01,-3.936679363250732422e+00,-2.282277122139930725e-02
5.306332111358642578e+00,4.728546619415283203e+00,6.430660247802734375e+00,1.598294973373413086e+00,6.307199954986572266e+00,3.950176239013671875e+00,3.274212360382080078e+00,2.759914398193359375e-01,2.324366092681884766e+00,-2.495551586151123047e+00,6.030896186828613281e+00,1.623621106147766113e+00,5.091627597808837891e+00,9.984315872192382812e+00,9.681472778320312500e+00,1.026826953887939453e+01,2.485544919967651367e+00,3.246723413467407227e+00,1.443990421295166016e+01,-3.851073741912841797e+00,-2.327526733279228210e-02
4.897762298583984375e+00,4.978022575378417969e+00,5.347717761993408203e+00,7.322248816490173340e-01,6.189835548400878906e+00,3.226265430450439453e+00,2.255820751190185547e+00,-8.796845078468322754e-01,1.033322095870971680e+00,-3.197592258453369141e+00,5.123532295227050781e+00,6.767662763595581055e-01,3.245283603668212891e+00,8.464025497436523438e+00,7.827414989471435547e+00,8.563107490539550781e+00,1.577685594558715820e+00,2.046765565872192383e+00,1.324776363372802734e+01,-3.733830928802490234e+00,-2.251316979527473450e-02
4.340515136718750000e+00,5.113155364990234375e+00,4.375197410583496094e+00,1.175945550203323364e-01,5.814626216888427734e+00,2.408090829849243164e+00,1.452582240104675293e+00,-1.983407974243164062e+00,1.029218435287475586e-01,-3.521812200546264648e+00,4.325753211975097656e+00,-2.889209985733032227e-01,1.640553474426269531e+00,7.019750595092773438e+00,6.159579753875732422e+00,6.948228836059570312e+00,6.843753457069396973e-01,1.176557898521423340e+00,1.202041816711425781e+01,-3.588053226470947266e+00,-2.058410830795764923e-02
3.682589054107666016e+00,4.914498329162597656e+00,3.557672500610351562e+00,-2.567712068557739258e-01,5.215357303619384766e+00,1.519446849822998047e+00,8.931839466094970703e-01,-2.985347270965576172e+00,-4.385488927364349365e-01,-3.469518661499023438e+00,3.641066074371337891e+00,-1.174047112464904785e+00,2.709769904613494873e-01,5.746912002563476562e+00,4.699203014373779297e+00,5.495179176330566406e+00,-1.808068007230758667e-01,6.551476716995239258e-01,1.082347679138183594e+01,-3.429248332977294922e+00,-1.786913350224494934e-02
2.968469619750976562e+00,4.221509933471679688e+00,2.922494888305664062e+00,-4.346415102481842041e-01,4.456047058105468750e+00,6.051777601242065430e-01,5.613698959350585938e-01,-3.848393201828002930e+00,-6.345289945602416992e-01,-3.091697931289672852e+00,3.047553777694702148e+00,-1.894912362098693848e+00,-9.047914743423461914e-01,4.706968784332275391e+00,3.410346746444702148e+00,4.222695350646972656e+00,-1.007191538810729980e+00,4.551546871662139893e-01,9.693742752075195312e+00,-3.279748201370239258e+00,-1.503508165478706360e-02
2.239131689071655273e+00,3.001849889755249023e+00,2.473717212677001953e+00,-4.774793684482574463e-01,3.618493556976318359e+00,-2.697384059429168701e-01,4.064596295356750488e-01,-4.536497592926025391e+00,-5.638145208358764648e-01,-2.483785629272460938e+00,2.513655424118041992e+00,-2.391880273818969727e+00,-1.950062513351440430e+00,3.927416086196899414e+00,2.219502449035644531e+00,3.098412990570068359e+00,-1.775380134582519531e+00,5.134859681129455566e-01,8.634417533874511719e+00,-3.151959896087646484e+00,-1.262971013784408569e-02
1.548426032066345215e+00,1.379101634025573730e+00,2.205260992050170898e+00,-4.374352693557739258e-01,2.807613849639892578e+00,-1.022935032844543457e+00,3.548228740692138672e-01,-5.013611316680908203e+00,-3.274261653423309326e-01,-1.752983570098876953e+00,2.000797748565673828e+00,-2.631471157073974609e+00,-2.930731058120727539e+00,3.405018568038940430e+00,1.040092825889587402e+00,2.067820787429809570e+00,-2.451425075531005859e+00,7.480015754699707031e-01,7.616697311401367188e+00,-3.043401956558227539e+00,-1.105788256973028183e-02
9.759600162506103516e-01,-3.937941789627075195e-01,2.104969978332519531e+00,-3.405844271183013916e-01,2.128324270248413086e+00,-1.557402610778808594e+00,3.290044963359832764e-01,-5.241565704345703125e+00,-2.436418645083904266e-02,-9.934200644493103027e-01,1.470406174659729004e+00,-2.604268789291381836e+00,-3.897186756134033203e+00,3.118751287460327148e+00,-2.062914669513702393e-01,1.076408147811889648e+00,-2.988769054412841797e+00,1.076561450958251953e+00,6.592576026916503906e+00,-2.936084508895874023e+00,-1.031959988176822662e-02
6.177297234535217285e-01,-1.998062729835510254e+00,2.165752410888671875e+00,-1.738892346620559692e-01,1.676650166511535645e+00,-1.782537937164306641e+00,2.658928930759429932e-01,-5.188553333282470703e+00,2.675855159759521484e-01,-2.678473591804504395e-01,8.970574140548706055e-01,-2.328059196472167969e+00,-4.873979091644287109e+00,3.024946212768554688e+00,-1.558855295181274414e+00,9.180919826030731201e-02,-3.328246355056762695e+00,1.426549196243286133e+00,5.525249481201171875e+00,-2.804574251174926758e+00,-1.015289127826690674e-02
5.709022283554077148e-01,-3.142648935317993164e+00,2.387608766555786133e+00,1.017631664872169495e-01,1.521942853927612305e+00,-1.635193347930908203e+00,1.262823790311813354e-01,-4.843970775604248047e+00,4.938718080520629883e-01,4.067391753196716309e-01,2.798746526241302490e-01,-1.850969910621643066e+00,-5.852063179016113281e+00,3.073466062545776367e+00,-3.012698173522949219e+00,-8.927897214889526367e-01,-3.422330141067504883e+00,1.747966527938842773e+00,4.413117885589599609e+00,-2.630261182785034180e+00,-1.015289127826690674e-02
8.986946344375610352e-01,-3.647375583648681641e+00,2.776616811752319336e+00,5.357294678688049316e-01,1.681984901428222656e+00,-1.103471279144287109e+00,-8.887080848217010498e-02,-4.226903915405273438e+00,6.312599182128906250e-01,1.056486248970031738e+00,-3.548417389392852783e-01,-1.241007089614868164e+00,-6.790093898773193359e+00,3.204469680786132812e+00,-4.515546798706054688e+00,-1.863760948181152344e+00,-3.239012241363525391e+00,2.017004728317260742e+00,3.305787086486816406e+00,-2.410663843154907227e+00,-9.890919551253318787e-03
1.606960415840148926e+00,-3.483368396759033203e+00,3.331763982772827148e+00,1.159672379493713379e+00,2.122989654541015625e+00,-2.331310212612152100e-01,-3.451421558856964111e-01,-3.398845911026000977e+00,6.777294278144836426e-01,1.728458046913146973e+00,-9.536142349243164062e-01,-5.881480574607849121e-01,-7.620884418487548828e+00,3.361350774765014648e+00,-5.979190826416015625e+00,-2.787035226821899414e+00,-2.786052703857421875e+00,2.233663797378540039e+00,2.288066625595092773e+00,-2.166253089904785156e+00,-9.247899986803531647e-03
2.633653163909912109e+00,-2.761505126953125000e+00,4.035828113555908203e+00,1.968004465103149414e+00,2.763157844543457031e+00,8.733267188072204590e-01,-5.784638524055480957e-01,-2.458401441574096680e+00,6.514640450477600098e-01,2.463182210922241211e+00,-1.450691819190979004e+00,1.449105050414800644e-02,-8.275955200195312500e+00,3.498823642730712891e+00,-7.302350997924804688e+00,-3.625136852264404297e+00,-2.110977649688720703e+00,2.412228822708129883e+00,1.467169404029846191e+00,-1.932388186454772949e+00,-8.176199160516262054e-03
3.859362840652465820e+00,-1.680443048477172852e+00,4.855379581451416016e+00,2.911368846893310547e+00,3.497572898864746094e+00,2.079539537429809570e+00,-7.113806605339050293e-01,-1.520077347755432129e+00,5.817597508430480957e-01,3.276346445083618164e+00,-1.781200289726257324e+00,4.842565953731536865e-01,-8.706209182739257812e+00,3.592628717422485352e+00,-8.395183563232421875e+00,-4.349106788635253906e+00,-1.295262336730957031e+00,2.574127912521362305e+00,9.295058250427246094e-01,-1.745668292045593262e+00,-6.890158634632825851e-03
5.144777297973632812e+00,-4.596280753612518311e-01,5.727608680725097656e+00,3.901296138763427734e+00,4.228431701660156250e+00,3.247314691543579102e+00,-6.712187528610229492e-01,-6.983811855316162109e-01,5.009432435035705566e-01,4.137882232666015625e+00,-1.905688881874084473e+00,7.604661583900451660e-01,-8.897433280944824219e+00,3.629827499389648438e+00,-9.205414772033691406e+00,-4.945316791534423828e+00,-4.407494068145751953e-01,2.734836578369140625e+00,7.070794701576232910e-01,-1.634008646011352539e+00,-5.675564985722303391e-03
6.361121654510498047e+00,7.126776576042175293e-01,6.586668491363525391e+00,4.826035499572753906e+00,4.879269123077392578e+00,4.265914916992187500e+00,-4.130349457263946533e-01,-8.343438059091567993e-02,4.423512518405914307e-01,4.974578857421875000e+00,-1.823280930519104004e+00,8.180098533630371094e-01,-8.885804176330566406e+00,3.605567455291748047e+00,-9.737946510314941406e+00,-5.422285556793212891e+00,3.507176637649536133e-01,2.899116516113281250e+00,7.486844062805175781e-01,-1.601751446723937988e+00,-4.699126817286014557e-03
7.420593261718750000e+00,1.714046120643615723e+00,7.361645698547363281e+00,5.577560901641845703e+00,5.409186363220214844e+00,5.069446563720703125e+00,6.412701308727264404e-02,2.728106677532196045e-01,4.282083809375762939e-01,5.681849002838134766e+00,-1.573427081108093262e+00,6.537488102912902832e-01,-8.755307197570800781e+00,3.506910324096679688e+00,-1.005811882019042969e+01,-5.817487716674804688e+00,9.976643919944763184e-01,3.050301790237426758e+00,9.375067949295043945e-01,-1.635249257087707520e+00,-4.032291006296873093e-03
8.281048774719238281e+00,2.476333618164062500e+00,7.991757869720458984e+00,6.063677787780761719e+00,5.807513236999511719e+00,5.642352104187011719e+00,7.105427980422973633e-01,3.502091467380523682e-01,4.585145711898803711e-01,6.144646644592285156e+00,-1.232398509979248047e+00,2.854693830013275146e-01,-8.622225761413574219e+00,3.290188074111938477e+00,-1.028191184997558594e+01,-6.199062347412109375e+00,1.442864656448364258e+00,3.157440900802612305e+00,1.110327243804931641e+00,-1.705346822738647461e+00,-3.555979812517762184e-03
8.935462951660156250e+00,2.975285530090332031e+00,8.429391860961914062e+00,6.219197750091552734e+00,6.074249744415283203e+00,6.000188827514648438e+00,1.424851298332214355e+00,1.614840924739837646e-01,5.100350975990295410e-01,6.258385181427001953e+00,-8.966300487518310547e-01,-2.585797905921936035e-01,-8.608013153076171875e+00,2.892325162887573242e+00,-1.054164409637451172e+01,-6.645368576049804688e+00,1.654310464859008789e+00,3.175297260284423828e+00,1.111927390098571777e+00,-1.779166221618652344e+00,-3.127299714833498001e-03
9.389689445495605469e+00,3.201661586761474609e+00,8.640105247497558594e+00,6.011527061462402344e+00,6.212953090667724609e+00,6.179564952850341797e+00,2.077960729598999023e+00,-2.636774182319641113e-01,5.403413176536560059e-01,5.956389904022216797e+00,-6.555430293083190918e-01,-9.480574727058410645e-01,-8.805697441101074219e+00,2.243775844573974609e+00,-1.095166015625000000e+01,-7.227951049804687500e+00,1.621332764625549316e+00,3.059825181961059570e+00,8.366948366165161133e-01,-1.831274032592773438e+00,-2.460463903844356537e-03
9.637875556945800781e+00,3.154307365417480469e+00,8.600596427917480469e+00,5.436940670013427734e+00,6.209396362304687500e+00,6.211596488952636719e+00,2.541735410690307617e+00,-8.849857449531555176e-01,5.029636621475219727e-01,5.226895332336425781e+00,-5.740117430686950684e-01,-1.743206262588500977e+00,-9.251455307006835938e+00,1.297638058662414551e+00,-1.156750106811523438e+01,-7.984286785125732422e+00,1.344901204109191895e+00,2.777692317962646484e+00,2.654272317886352539e-01,-1.846162080764770508e+00,-1.460210070945322514e-03
9.665971755981445312e+00,2.845927476882934570e+00,8.303774833679199219e+00,4.524307727813720703e+00,6.044019699096679688e+00,6.117332458496093750e+00,2.723420381546020508e+00,-1.646247506141662598e+00,3.686061799526214600e-01,4.115657806396484375e+00,-6.695699095726013184e-01,-2.592760086059570312e+00,-9.909111022949218750e+00,6.523282080888748169e-02,-1.236139774322509766e+01,-8.885416030883789062e+00,8.347153067588806152e-01,2.321755886077880859e+00,-5.378678441047668457e-01,-1.821348786354064941e+00,-7.460700544470455498e-06
9.451735496520996094e+00,2.308861494064331055e+00,7.759771347045898438e+00,3.331366300582885742e+00,5.699039936065673828e+00,5.904094696044921875e+00,2.596240997314453125e+00,-2.479606389999389648e+00,1.453505158424377441e-01,2.720727920532226562e+00,-9.115335941314697266e-01,-3.428712606430053711e+00,-1.067917442321777344e+01,-1.374190568923950195e+00,-1.322063446044921875e+01,-9.839352607727050781e+00,1.101737469434738159e-01,1.707491755485534668e+00,-1.440374612808227539e+00,-1.761176586151123047e+00,1.802522223442792892e-03
8.989314079284667969e+00,1.595083117485046387e+00,7.006068229675292969e+00,1.944723010063171387e+00,5.174458026885986328e+00,5.572797775268554688e+00,2.206096410751342773e+00,-3.307664155960083008e+00,-1.203338131308555603e-01,1.179376006126403809e+00,-1.223631739616394043e+00,-4.172595024108886719e+00,-1.141435241699218750e+01,-2.879924535751342773e+00,-1.397532653808593750e+01,-1.069789600372314453e+01,-7.976855635643005371e-01,9.789458513259887695e-01,-2.296475887298583984e+00,-1.679913163185119629e+00,3.850660752505064011e-03
8.300950050354003906e+00,7.692716717720031738e-01,6.109525680541992188e+00,4.668163359165191650e-01,4.496946334838867188e+00,5.127103328704833984e+00,1.671560287475585938e+00,-4.053022384643554688e+00,-3.516711294651031494e-01,-3.619756996631622314e-01,-1.510306119918823242e+00,-4.755355358123779297e+00,-1.196993541717529297e+01,-4.282149314880371094e+00,-1.445395088195800781e+01,-1.130773353576660156e+01,-1.840365886688232422e+00,1.908782571554183960e-01,-2.984557390213012695e+00,-1.599890351295471191e+00,5.946430377662181854e-03
7.444006919860839844e+00,-1.096688434481620789e-01,5.162331104278564453e+00,-9.943276047706604004e-01,3.725188255310058594e+00,4.579823017120361328e+00,1.143717885017395020e+00,-4.654185771942138672e+00,-4.718857109546661377e-01,-1.773900985717773438e+00,-1.670738577842712402e+00,-5.133051395416259766e+00,-1.223739051818847656e+01,-5.428835868835449219e+00,-1.453072738647460938e+01,-1.155984592437744141e+01,-2.956761121749877930e+00,-6.079032421112060547e-01,-3.434210538864135742e+00,-1.549643516540527344e+00,7.851675152778625488e-03
6.500433444976806641e+00,-1.011708974838256836e+00,4.266801834106445312e+00,-2.342789411544799805e+00,2.924978017807006836e+00,3.954752206802368164e+00,7.803480625152587891e-01,-5.083588123321533203e+00,-4.304672479629516602e-01,-2.971422672271728516e+00,-1.627781271934509277e+00,-5.307774543762207031e+00,-1.216761970520019531e+01,-6.239118099212646484e+00,-1.416971683502197266e+01,-1.142016220092773438e+01,-4.078976154327392578e+00,-1.375733494758605957e+00,-3.653436422348022461e+00,-1.564531445503234863e+00,9.399686940014362335e-03
5.554517745971679688e+00,-1.938003778457641602e+00,3.521202802658081055e+00,-3.512449502944946289e+00,2.172780513763427734e+00,3.284837245941162109e+00,7.019366621971130371e-01,-5.348651409149169922e+00,-2.264055013656616211e-01,-3.916628360748291016e+00,-1.341983556747436523e+00,-5.320329666137695312e+00,-1.177225112915039062e+01,-6.680649280548095703e+00,-1.341992568969726562e+01,-1.095000743865966797e+01,-5.138145446777343750e+00,-2.089994192123413086e+00,-3.698241710662841797e+00,-1.676811575889587402e+00,1.049520354717969894e-02
4.670649051666259766e+00,-2.912807703018188477e+00,2.994421005249023438e+00,-4.469782829284667969e+00,1.521942853927612305e+00,2.607600927352905273e+00,9.754202365875244141e-01,-5.487544536590576172e+00,9.989122301340103149e-02,-4.616054058074951172e+00,-8.142220973968505859e-01,-5.241860866546630859e+00,-1.110425949096679688e+01,-6.805183410644531250e+00,-1.240550231933593750e+01,-1.027543830871582031e+01,-6.074132919311523438e+00,-2.729257345199584961e+00,-3.651836395263671875e+00,-1.906334161758422852e+00,1.123348530381917953e-02
3.879264354705810547e+00,-3.939585924148559570e+00,2.724951744079589844e+00,-5.211064338684082031e+00,1.002695322036743164e+00,1.954159379005432129e+00,1.603667497634887695e+00,-5.547978878021240234e+00,4.797289073467254639e-01,-5.095847606658935547e+00,-8.307091146707534790e-02,-5.139328479766845703e+00,-1.022824764251708984e+01,-6.690353393554687500e+00,-1.126203060150146484e+01,-9.551467895507812500e+00,-6.840381622314453125e+00,-3.275666713714599609e+00,-3.597429990768432617e+00,-2.254960536956787109e+00,1.173361204564571381e-02
3.180364131927490234e+00,-4.968673706054687500e+00,2.707730054855346680e+00,-5.753056526184082031e+00,6.185944080352783203e-01,1.351052880287170410e+00,2.530260562896728516e+00,-5.563882827758789062e+00,8.474441170692443848e-01,-5.388690948486328125e+00,7.892257571220397949e-01,-5.053536415100097656e+00,-9.186852455139160156e+00,-6.413789749145507812e+00,-1.010712432861328125e+01,-8.897339820861816406e+00,-7.401003837585449219e+00,-3.695890188217163086e+00,-3.594229459762573242e+00,-2.698497533798217773e+00,1.230518613010644913e-02
2.561070680618286133e+00,-5.869559288024902344e+00,2.905273199081420898e+00,-6.119040966033935547e+00,3.465229272842407227e-01,8.138397336006164551e-01,3.653838396072387695e+00,-5.541617393493652344e+00,1.166669368743896484e+00,-5.518117427825927734e+00,1.729903578758239746e+00,-4.981345176696777344e+00,-8.002039909362792969e+00,-6.040186882019042969e+00,-9.002857208251953125e+00,-8.370971679687500000e+00,-7.734661579132080078e+00,-3.956595182418823242e+00,-3.675839185714721680e+00,-3.193522214889526367e+00,1.321017742156982422e-02
2.015530347824096680e+00,-6.442429542541503906e+00,3.257811784744262695e+00,-6.330436706542968750e+00,1.473594903945922852e-01,3.544172644615173340e-01,4.843396186828613281e+00,-5.462098598480224609e+00,1.431343555450439453e+00,-5.493278026580810547e+00,2.654801130294799805e+00,-4.878812789916992188e+00,-6.676393508911132812e+00,-5.598655700683593750e+00,-7.959030628204345703e+00,-7.958734989166259766e+00,-7.832625389099121094e+00,-4.030402183532714844e+00,-3.856660604476928711e+00,-3.682343482971191406e+00,1.473437342792749405e-02
1.562474370002746582e+00,-6.468994140625000000e+00,3.686328649520874023e+00,-6.406799793243408203e+00,-2.157377824187278748e-02,-2.629938721656799316e-02,5.953586578369140625e+00,-5.290337562561035156e+00,1.663691043853759766e+00,-5.329861164093017578e+00,3.486770391464233398e+00,-4.690487861633300781e+00,-5.224125385284423828e+00,-5.116691589355468750e+00,-6.959309577941894531e+00,-7.602712154388427734e+00,-7.705563545227050781e+00,-3.914930105209350586e+00,-4.136693477630615234e+00,-4.108511447906494141e+00,1.692540571093559265e-02
1.246388792991638184e+00,-5.796795368194580078e+00,4.105728149414062500e+00,-6.369549274444580078e+00,-1.993982642889022827e-01,-3.301405608654022217e-01,6.844799041748046875e+00,-5.000888347625732422e+00,1.885936498641967773e+00,-5.055319786071777344e+00,4.153047084808349609e+00,-4.370336055755615234e+00,-3.685290098190307617e+00,-4.626640319824218750e+00,-5.979190826416015625e+00,-7.226247787475585938e+00,-7.389364719390869141e+00,-3.650653600692749023e+00,-4.511137962341308594e+00,-4.423019409179687500e+00,1.968801021575927734e-02
1.124637246131896973e+00,-4.418902873992919922e+00,4.428888797760009766e+00,-6.249417304992675781e+00,-4.127876460552215576e-01,-5.726643800735473633e-01,7.404197216033935547e+00,-4.594811439514160156e+00,2.106161594390869141e+00,-4.718026638031005859e+00,4.593140602111816406e+00,-3.911032915115356445e+00,-2.133534193038940430e+00,-4.175405502319335938e+00,-5.007239818572998047e+00,-6.773127555847167969e+00,-6.943194866180419922e+00,-3.310189485549926758e+00,-4.946389675140380859e+00,-4.592370033264160156e+00,2.280784957110881805e-02
1.239364624023437500e+00,-2.522424221038818359e+00,4.574766635894775391e+00,-6.089240550994873047e+00,-6.688549518585205078e-01,-7.804111838340759277e-01,7.570582389831542969e+00,-4.102854251861572266e+00,2.311233520507812500e+00,-4.379426002502441406e+00,4.770230293273925781e+00,-3.346058845520019531e+00,-6.618854403495788574e-01,-3.819592952728271484e+00,-4.051623821258544922e+00,-6.212689876556396484e+00,-6.443677902221679688e+00,-2.975677251815795898e+00,-5.384841442108154297e+00,-4.597952842712402344e+00,2.590387314558029175e-02
1.599936366081237793e+00,-4.723328649997711182e-01,4.488657951354980469e+00,-5.931858062744140625e+00,-9.569305777549743652e-01,-9.909036159515380859e-01,7.349691867828369141e+00,-3.572727441787719727e+00,2.471856355667114258e+00,-4.095733642578125000e+00,4.679932117462158203e+00,-2.738188505172729492e+00,6.456724405288696289e-01,-3.596401453018188477e+00,-3.112343549728393555e+00,-5.531306743621826172e+00,-5.968410015106201172e+00,-2.713781833648681641e+00,-5.740083217620849609e+00,-4.433565139770507812e+00,2.866647951304912567e-02
2.161866188049316406e+00,1.273998379707336426e+00,4.153341293334960938e+00,-5.810794353485107422e+00,-1.243228077888488770e+00,-1.241664052009582520e+00,6.820893287658691406e+00,-3.048962354660034180e+00,2.567826032638549805e+00,-3.900940179824829102e+00,4.354683876037597656e+00,-2.155428171157836914e+00,1.740041494369506836e+00,-3.512300491333007812e+00,-2.179597139358520508e+00,-4.717053413391113281e+00,-5.568796634674072266e+00,-2.548311471939086914e+00,-5.898502349853515625e+00,-4.108511447906494141e+00,3.080987930297851562e-02
2.837352752685546875e+00,2.296156644821166992e+00,3.601233243942260742e+00,-5.731637477874755859e+00,-1.483291149139404297e+00,-1.555572271347045898e+00,6.120928287506103516e+00,-2.554884433746337891e+00,2.601162672042846680e+00,-3.787201881408691406e+00,3.864619493484497070e+00,-1.644858956336975098e+00,2.612177371978759766e+00,-3.533325672149658203e+00,-1.217447280883789062e+00,-3.746082305908203125e+00,-5.258417129516601562e+00,-2.444743633270263672e+00,-5.746484279632568359e+00,-3.647604942321777344e+00,3.228644281625747681e-02
3.512839317321777344e+00,2.340045928955078125e+00,2.917429685592651367e+00,-5.667380809783935547e+00,-1.629107117652893066e+00,-1.924391508102416992e+00,5.415225505828857422e+00,-2.083071708679199219e+00,2.602173089981079102e+00,-3.712683439254760742e+00,3.300037622451782227e+00,-1.223220825195312500e+00,3.291797399520874023e+00,-3.593166828155517578e+00,-1.915896981954574585e-01,-2.589434146881103516e+00,-5.004294395446777344e+00,-2.332842826843261719e+00,-5.208820343017578125e+00,-3.084964275360107422e+00,3.319143503904342651e-02
4.078281402587890625e+00,1.403356313705444336e+00,2.215391397476196289e+00,-5.558423519134521484e+00,-1.648667812347412109e+00,-2.306023359298706055e+00,4.852958679199218750e+00,-1.603837370872497559e+00,2.622377157211303711e+00,-3.619862556457519531e+00,2.753865957260131836e+00,-8.821438550949096680e-01,3.817663192749023438e+00,-3.615809440612792969e+00,9.159445166587829590e-01,-1.238591790199279785e+00,-4.742411613464355469e+00,-2.123326301574707031e+00,-4.272709846496582031e+00,-2.465873241424560547e+00,3.369156271219253540e-02
