AF3,F7,F3,FC5,T7,P7,O1,O2,P8,T8,FC6,F4,F8,AF4
-6.201637908816337585e-02,-2.308999001979827881e-01,5.676658079028129578e-02,-1.489895433187484741e-01,1.937774755060672760e-02,1.486495696008205414e-02,-3.700007498264312744e-02,1.331871598958969116e-01,1.475210487842559814e-01,-6.422089785337448120e-02,1.301739644259214401e-02,-2.058515399694442749e-01,-5.624988675117492676e-02,-1.155118271708488464e-02
3.634070158004760742e-01,3.469523489475250244e-01,4.030714035034179688e-01,4.979362189769744873e-01,7.853114008903503418e-01,7.560080289840698242e-01,6.837369799613952637e-01,4.431649744510650635e-01,8.023236393928527832e-01,5.120987296104431152e-01,9.141360521316528320e-01,7.724363803863525391e-01,9.115964770317077637e-01,5.175703167915344238e-01
1.006981372833251953e+00,7.741521596908569336e-01,1.157859325408935547e+00,9.679074883460998535e-01,1.382273793220520020e+00,1.422524929046630859e+00,9.221553206443786621e-01,9.213689565658569336e-01,1.348421931266784668e+00,9.624627232551574707e-01,1.357532620429992676e+00,1.255472302436828613e+00,1.139625668525695801e+00,1.064709901809692383e+00
1.082111954689025879e+00,1.000233888626098633e+00,1.319339990615844727e+00,1.423663258552551270e+00,1.410211801528930664e+00,1.532795429229736328e+00,1.267093062400817871e+00,1.167445898056030273e+00,1.438821434974670410e+00,1.137998461723327637e+00,1.624701738357543945e+00,1.292371153831481934e+00,1.442503094673156738e+00,1.053957104682922363e+00
9.815432429313659668e-01,9.931784272193908691e-01,1.241709470748901367e+00,1.162242293357849121e+00,1.469572305679321289e+00,1.465570926666259766e+00,9.730049967765808105e-01,1.193221688270568848e+00,1.490146636962890625e+00,9.233734011650085449e-01,1.551281809806823730e+00,1.042152643203735352e+00,1.539319872856140137e+00,7.939907312393188477e-01
6.967228055000305176e-01,7.008724808692932129e-01,1.132655978202819824e+00,8.376487493515014648e-01,1.158156871795654297e+00,8.804479837417602539e-01,9.696531295776367188e-01,1.038803100585937500e+00,1.090661764144897461e+00,6.674869656562805176e-01,1.096641898155212402e+00,7.388974428176879883e-01,1.024289131164550781e+00,3.630582690238952637e-01
2.186992019414901733e-01,3.247097432613372803e-01,5.535720586776733398e-01,3.027871549129486084e-01,2.978921532630920410e-01,5.138213634490966797e-01,4.035029411315917969e-01,5.827741622924804688e-01,3.057589828968048096e-01,1.129684820771217346e-01,7.641662955284118652e-01,2.668581604957580566e-01,5.533765554428100586e-01,-5.720962071791291237e-04
-6.970185786485671997e-02,-1.602614372968673706e-01,1.367769390344619751e-01,-2.401172518730163574e-01,-1.407702863216400146e-01,-2.100334465503692627e-01,-5.339912022463977337e-04,2.533099651336669922e-01,1.416345685720443726e-01,-3.219791054725646973e-01,-1.349727902561426163e-02,-2.871944308280944824e-01,-3.456151112914085388e-02,-5.016948580741882324e-01
-3.976706564426422119e-01,-3.106578290462493896e-01,-2.498731464147567749e-01,-6.083033680915832520e-01,-4.687548279762268066e-01,-4.585218131542205811e-01,-3.903372883796691895e-01,-3.215284049510955811e-01,-5.061669945716857910e-01,-4.684488773345947266e-01,-4.791189134120941162e-01,-6.166415214538574219e-01,-2.073121666908264160e-01,-1.729429513216018677e-01
-4.198240637779235840e-01,-5.471748113632202148e-01,-5.041075944900512695e-01,-5.835466980934143066e-01,-7.255215644836425781e-01,-4.350268244743347168e-01,-5.159843564033508301e-01,-3.867038190364837646e-01,-5.110710859298706055e-01,-1.110520958900451660e-01,-6.653152108192443848e-01,-2.482720464468002319e-01,-5.476880669593811035e-01,-2.343673557043075562e-01
-1.621011495590209961e-01,-1.251820176839828491e-01,-4.320707321166992188e-01,-3.236263394355773926e-01,-9.790612012147903442e-02,-6.942464411258697510e-02,-1.953962147235870361e-01,-4.021043777465820312e-01,-2.670198678970336914e-01,4.150579273700714111e-01,-2.580255568027496338e-01,1.625274568796157837e-01,-4.919918179512023926e-01,2.907333076000213623e-01
5.116009339690208435e-02,1.160280033946037292e-01,-9.331934899091720581e-02,1.965655982494354248e-01,3.076891899108886719e-01,5.282606482505798340e-01,-1.091566979885101318e-01,-4.680179357528686523e-01,1.670148968696594238e-02,8.303362131118774414e-01,3.317489102482795715e-02,6.864334940910339355e-01,-2.034194320440292358e-01,5.883643627166748047e-01
3.046999275684356689e-01,5.628099441528320312e-01,7.157485932111740112e-02,5.867334008216857910e-01,6.278834342956542969e-01,9.008067250251770020e-01,5.488616824150085449e-01,-1.928468644618988037e-01,5.006688237190246582e-01,9.794279932975769043e-01,5.353120565414428711e-01,1.217359185218811035e+00,3.798830509185791016e-01,9.559583067893981934e-01
7.340645194053649902e-01,6.400356292724609375e-01,4.321324527263641357e-01,1.064553618431091309e+00,1.085582375526428223e+00,1.346387386322021484e+00,5.648922920227050781e-01,4.142996072769165039e-01,9.410623311996459961e-01,1.085251331329345703e+00,8.852822780609130859e-01,1.011647582054138184e+00,7.232770323753356934e-01,9.095523357391357422e-01
7.450925707817077637e-01,8.621760010719299316e-01,7.306620478630065918e-01,1.039740562438964844e+00,1.215153813362121582e+00,1.044329285621643066e+00,8.018375635147094727e-01,5.825513005256652832e-01,1.057535648345947266e+00,6.070274710655212402e-01,1.125645279884338379e+00,8.854914307594299316e-01,1.137166380882263184e+00,6.805796027183532715e-01
5.815014839172363281e-01,6.322805881500244141e-01,8.089890480041503906e-01,7.752693295478820801e-01,1.024720907211303711e+00,4.938325583934783936e-01,7.282858490943908691e-01,8.493841886520385742e-01,1.082961440086364746e+00,7.113330066204071045e-02,9.194494485855102539e-01,4.937433302402496338e-01,1.190185189247131348e+00,2.353773564100265503e-01
1.971967220306396484e-01,4.435801506042480469e-01,4.624448716640472412e-01,3.825339078903198242e-01,5.278061628341674805e-01,-1.846323758363723755e-01,2.575912475585937500e-01,8.938725590705871582e-01,3.384466767311096191e-01,-5.264105796813964844e-01,6.711260676383972168e-01,-2.854337394237518311e-01,5.278891921043395996e-01,-3.195383250713348389e-01
-4.093596041202545166e-01,6.145544350147247314e-02,2.423160374164581299e-01,-1.800313293933868408e-01,-1.412955224514007568e-01,-8.031651377677917480e-01,-1.781853735446929932e-01,5.489077568054199219e-01,-2.942514717578887939e-01,-9.446563720703125000e-01,-4.873508587479591370e-02,-9.515890479087829590e-01,3.179101347923278809e-01,-5.882413983345031738e-01
-7.727277278900146484e-01,-7.507048249244689941e-01,-1.074343547224998474e-01,-6.631419658660888672e-01,-7.936674356460571289e-01,-1.427078247070312500e+00,-6.738201379776000977e-01,3.051215112209320068e-01,-9.419538974761962891e-01,-1.081253647804260254e+00,-6.108961105346679688e-01,-1.389957904815673828e+00,-2.143650352954864502e-01,-1.048339605331420898e+00
-1.095453262329101562e+00,-1.128712773323059082e+00,-7.473673224449157715e-01,-1.051908493041992188e+00,-1.327084183692932129e+00,-1.669395208358764648e+00,-1.231076717376708984e+00,-2.579924166202545166e-01,-1.243872523307800293e+00,-1.079196572303771973e+00,-1.171807646751403809e+00,-1.007223129272460938e+00,-1.032982349395751953e+00,-1.067419528961181641e+00
-9.473776817321777344e-01,-1.261563539505004883e+00,-1.063191175460815430e+00,-1.087640285491943359e+00,-1.411565780639648438e+00,-1.585439562797546387e+00,-1.334824800491333008e+00,-6.068556308746337891e-01,-1.802144527435302734e+00,-2.615800201892852783e-01,-1.613917350769042969e+00,-7.777168750762939453e-01,-1.550483584403991699e+00,-6.020671725273132324e-01
-8.265160918235778809e-01,-1.277685761451721191e+00,-1.441332936286926270e+00,-1.055401682853698730e+00,-1.250064253807067871e+00,-9.952223896980285645e-01,-1.132720947265625000e+00,-1.108048558235168457e+00,-1.612109541893005371e+00,2.638799548149108887e-01,-1.565552592277526855e+00,-7.899276912212371826e-02,-1.539674639701843262e+00,3.130303323268890381e-02
-1.849886029958724976e-01,-6.315549015998840332e-01,-1.200112819671630859e+00,-4.667527079582214355e-01,-7.482703924179077148e-01,-2.567401528358459473e-01,-8.335038423538208008e-01,-1.368732690811157227e+00,-1.067548274993896484e+00,6.069766283035278320e-01,-9.858065843582153320e-01,4.077134132385253906e-01,-1.180829882621765137e+00,2.724641859531402588e-01
1.794646680355072021e-01,-3.214938640594482422e-01,-9.476458430290222168e-01,1.221589371562004089e-01,-3.657410666346549988e-02,2.898552715778350830e-01,-3.785930573940277100e-01,-1.114076733589172363e+00,-3.622344136238098145e-01,8.854749798774719238e-01,-3.302668035030364990e-01,6.398910284042358398e-01,-7.249929308891296387e-01,6.690058112144470215e-01
5.341674089431762695e-01,-6.259372085332870483e-02,-6.054334044456481934e-01,4.433124363422393799e-01,6.719659566879272461e-01,7.419026494026184082e-01,5.445037782192230225e-02,-9.814298152923583984e-01,1.476847678422927856e-01,8.279334902763366699e-01,3.715838491916656494e-01,9.038192629814147949e-01,-3.104910850524902344e-01,5.050228238105773926e-01
8.119611740112304688e-01,4.767192900180816650e-01,-7.828211411833763123e-03,1.064461827278137207e+00,9.368040561676025391e-01,8.359606266021728516e-01,4.377253055572509766e-01,-3.856579363346099854e-01,7.870493531227111816e-01,5.390706658363342285e-01,7.599472999572753906e-01,5.924415588378906250e-01,3.218522369861602783e-01,5.600983500480651855e-01
6.910868287086486816e-01,3.994652032852172852e-01,4.325927495956420898e-01,7.925068140029907227e-01,1.198193430900573730e+00,4.509799778461456299e-01,8.100075125694274902e-01,1.740145124495029449e-02,9.867734909057617188e-01,-8.659698069095611572e-02,1.147733330726623535e+00,1.820764839649200439e-01,7.020964026451110840e-01,-6.073581427335739136e-02
3.796739280223846436e-01,2.498900890350341797e-01,9.660704135894775391e-01,6.557689309120178223e-01,1.078416228294372559e+00,-9.908434003591537476e-02,6.865805983543395996e-01,5.935488343238830566e-01,8.607333302497863770e-01,-5.767169594764709473e-01,1.055381655693054199e+00,-4.002197384834289551e-01,9.222128987312316895e-01,-5.208591222763061523e-01
-1.070173457264900208e-02,3.532562404870986938e-02,9.069079756736755371e-01,-5.056419968605041504e-02,3.383044004440307617e-01,-5.681948065757751465e-01,3.373593091964721680e-01,7.299141883850097656e-01,3.939833641052246094e-01,-7.285689115524291992e-01,6.591959595680236816e-01,-8.109332919120788574e-01,7.400672435760498047e-01,-8.134661912918090820e-01
-5.745190382003784180e-01,-3.822451829910278320e-02,7.068296074867248535e-01,-5.225323438644409180e-01,-4.488664865493774414e-01,-8.125377297401428223e-01,-2.766159176826477051e-01,8.294996619224548340e-01,-1.343572139739990234e-01,-7.372351288795471191e-01,2.654251642525196075e-02,-1.121425032615661621e+00,4.509140551090240479e-01,-8.594499230384826660e-01
-9.369751214981079102e-01,-4.338686466217041016e-01,4.227015376091003418e-01,-7.783397436141967773e-01,-1.025700211524963379e+00,-1.122082829475402832e+00,-4.208074808120727539e-01,7.013481855392456055e-01,-6.200168728828430176e-01,-5.233914256095886230e-01,-8.686213493347167969e-01,-5.598745942115783691e-01,-3.564821183681488037e-02,-6.045947074890136719e-01
-8.109433054924011230e-01,-6.119542121887207031e-01,1.193935945630073547e-01,-1.149746656417846680e+00,-1.096799850463867188e+00,-7.643477916717529297e-01,-7.908467650413513184e-01,1.508318930864334106e-01,-8.063567280769348145e-01,-1.149306818842887878e-01,-1.325011134147644043e+00,-2.159179002046585083e-01,-5.932575464248657227e-01,-1.105546802282333374e-01
-8.498739600181579590e-01,-5.335851311683654785e-01,-5.589444041252136230e-01,-8.141409158706665039e-01,-1.107606172561645508e+00,-1.473974585533142090e-01,-6.388975381851196289e-01,5.560264736413955688e-02,-7.636351585388183594e-01,3.693251907825469971e-01,-1.128826618194580078e+00,1.157044544816017151e-01,-1.101662874221801758e+00,3.626483380794525146e-01
-4.953560829162597656e-01,-3.980187177658081055e-01,-5.723797082901000977e-01,-4.545030593872070312e-01,-9.571772813796997070e-01,6.882358789443969727e-01,-3.310006260871887207e-01,-3.516285121440887451e-01,-4.938873350620269775e-01,6.362419724464416504e-01,-1.059797525405883789e+00,8.646116852760314941e-01,-7.898794412612915039e-01,6.224802732467651367e-01
-6.622958183288574219e-02,-1.570386439561843872e-02,-7.748398184776306152e-01,9.332253783941268921e-02,-3.248846828937530518e-01,1.155181407928466797e+00,1.003862321376800537e-01,-9.221264719963073730e-01,-1.637021303176879883e-01,8.021196722984313965e-01,-7.085669636726379395e-01,9.501691460609436035e-01,-7.055361270904541016e-01,6.751847267150878906e-01
4.128663539886474609e-01,4.988155663013458252e-01,-4.406200349330902100e-01,4.931032061576843262e-01,3.329460322856903076e-01,1.517077445983886719e+00,5.491494536399841309e-01,-1.000195264816284180e+00,7.068880200386047363e-01,1.678679585456848145e-01,-2.622078061103820801e-01,6.083318591117858887e-01,-2.920137643814086914e-01,3.794675469398498535e-01
5.494402050971984863e-01,7.006699442863464355e-01,-3.413371741771697998e-01,8.301063776016235352e-01,5.302047133445739746e-01,1.137771844863891602e+00,8.927536606788635254e-01,-8.887595534324645996e-01,1.150746703147888184e+00,-3.503049910068511963e-01,3.847950994968414307e-01,1.338392049074172974e-01,2.803961336612701416e-01,1.290303468704223633e-01
5.607126951217651367e-01,1.026898145675659180e+00,2.241967767477035522e-01,5.637595653533935547e-01,8.352392911911010742e-01,1.025537490844726562e+00,1.105219006538391113e+00,-3.852018117904663086e-01,1.344166159629821777e+00,-9.231216311454772949e-01,6.969972252845764160e-01,-5.608527660369873047e-01,4.947446584701538086e-01,-5.397824048995971680e-01
3.245200514793395996e-01,1.009419798851013184e+00,7.343139648437500000e-01,2.894682884216308594e-01,5.676696300506591797e-01,8.017896860837936401e-02,8.931753635406494141e-01,-7.168918848037719727e-02,1.147391319274902344e+00,-1.156885147094726562e+00,9.418098330497741699e-01,-1.152509808540344238e+00,9.160159230232238770e-01,-9.512549042701721191e-01
-1.538712345063686371e-02,4.210987687110900879e-01,8.055474758148193359e-01,-3.752286732196807861e-02,2.149910479784011841e-01,-6.235227584838867188e-01,6.421079039573669434e-01,4.402789771556854248e-01,8.663938641548156738e-01,-1.244009017944335938e+00,6.200058460235595703e-01,-1.320637583732604980e+00,1.128745794296264648e+00,-1.092722892761230469e+00
-3.788538873195648193e-01,1.272325962781906128e-01,1.052551984786987305e+00,-8.848999142646789551e-01,-4.648002684116363525e-01,-1.072808504104614258e+00,-5.757266283035278320e-02,5.614916086196899414e-01,2.158533036708831787e-01,-9.688657522201538086e-01,-1.182904765009880066e-01,-1.025897860527038574e+00,8.286694288253784180e-01,-9.315559267997741699e-01
-6.970347762107849121e-01,-2.944303452968597412e-01,8.433796167373657227e-01,-9.575772881507873535e-01,-1.021101713180541992e+00,-1.100632905960083008e+00,-4.252640306949615479e-01,7.088908553123474121e-01,-3.224038183689117432e-01,-2.793625891208648682e-01,-3.697853982448577881e-01,-5.325019359588623047e-01,5.943660140037536621e-01,-4.242359995841979980e-01
-7.960906028747558594e-01,-7.188336849212646484e-01,4.615315794944763184e-01,-1.270232796669006348e+00,-1.296150207519531250e+00,-7.860869169235229492e-01,-7.897853255271911621e-01,8.435750007629394531e-01,-7.869150042533874512e-01,3.651526868343353271e-01,-9.505012631416320801e-01,-3.860539197921752930e-02,-7.477726321667432785e-03,2.553711235523223877e-01
-4.010558426380157471e-01,-7.633318901062011719e-01,-3.988998010754585266e-02,-1.007847666740417480e+00,-1.237299919128417969e+00,-2.475394457578659058e-01,-9.848995804786682129e-01,6.691741943359375000e-01,-1.165956616401672363e+00,9.305562973022460938e-01,-1.248819589614868164e+00,6.267489790916442871e-01,-5.783018469810485840e-01,6.157702803611755371e-01
2.771790027618408203e-01,-6.297467947006225586e-01,-4.242371618747711182e-01,-5.416161417961120605e-01,-9.898523092269897461e-01,3.607373535633087158e-01,-8.133307099342346191e-01,7.670469582080841064e-02,-9.898637533187866211e-01,1.041823625564575195e+00,-9.278312325477600098e-01,1.186283946037292480e+00,-1.016556501388549805e+00,7.854115366935729980e-01
4.709366858005523682e-01,-2.880749404430389404e-01,-8.217423558235168457e-01,-2.091621980071067810e-03,-1.589560806751251221e-01,7.719998359680175781e-01,-4.622896313667297363e-01,-2.725792527198791504e-01,-6.804223060607910156e-01,7.731405496597290039e-01,-4.212335646152496338e-01,1.306023359298706055e+00,-1.079792976379394531e+00,6.670335531234741211e-01
1.138202667236328125e+00,1.964274793863296509e-01,-9.006818532943725586e-01,4.578153192996978760e-01,5.500165224075317383e-01,1.003135204315185547e+00,-6.068029627203941345e-02,-6.215417385101318359e-01,9.779166430234909058e-02,2.090903967618942261e-01,2.377180457115173340e-01,7.993534803390502930e-01,-8.736886978149414062e-01,3.760780692100524902e-01
1.508149385452270508e+00,4.072428047657012939e-01,-7.338812947273254395e-01,1.202614307403564453e+00,1.262201666831970215e+00,8.905718326568603516e-01,5.975943803787231445e-01,-8.393279910087585449e-01,5.067418813705444336e-01,-1.000899523496627808e-01,1.090158581733703613e+00,4.463840723037719727e-01,-5.312346294522285461e-02,9.978667646646499634e-02
1.274648666381835938e+00,7.227528691291809082e-01,-5.471256375312805176e-01,1.271890640258789062e+00,1.647153735160827637e+00,4.515421092510223389e-01,7.968047261238098145e-01,-7.684909701347351074e-01,6.775044798851013184e-01,-3.529970943927764893e-01,1.672265648841857910e+00,-3.599215745925903320e-01,4.265760481357574463e-01,-1.196819990873336792e-01
1.096798896789550781e+00,7.114865183830261230e-01,2.555806003510951996e-02,1.338826537132263184e+00,1.781613826751708984e+00,1.523914933204650879e-01,1.023254752159118652e+00,-5.113182663917541504e-01,1.263217091560363770e+00,-2.531049251556396484e-01,1.883742332458496094e+00,-3.197844624519348145e-01,9.745970368385314941e-01,-4.387196898460388184e-01
3.697930574417114258e-01,6.160100698471069336e-01,5.540693998336791992e-01,8.618190884590148926e-01,1.203553438186645508e+00,-5.451687574386596680e-01,8.096292614936828613e-01,-9.455123543739318848e-02,1.266908526420593262e+00,-9.522088617086410522e-02,1.704187393188476562e+00,-4.343845546245574951e-01,1.154835104942321777e+00,-2.136520296335220337e-01
-4.041051864624023438e-02,1.094001717865467072e-02,9.050866961479187012e-01,4.007548987865447998e-01,7.265009880065917969e-01,-1.087937116622924805e+00,3.011970520019531250e-01,2.600006461143493652e-01,6.609636545181274414e-01,4.830404818058013916e-01,1.312705159187316895e+00,-1.460114568471908569e-01,1.260991454124450684e+00,2.828962728381156921e-02
-5.657370090484619141e-01,-4.317755103111267090e-01,7.967305183410644531e-01,-5.156703665852546692e-02,2.980457246303558350e-01,-1.080404639244079590e+00,-1.256085932254791260e-01,7.924523353576660156e-01,1.013563722372055054e-01,1.025367379188537598e+00,4.714118242263793945e-01,1.927304267883300781e-01,1.188798546791076660e+00,5.284799337387084961e-01
-6.945896148681640625e-01,-5.098418593406677246e-01,1.033519268035888672e+00,-1.591450124979019165e-01,-3.704971969127655029e-01,-7.331411838531494141e-01,-3.352178335189819336e-01,1.148514032363891602e+00,-3.541157543659210205e-01,1.293328523635864258e+00,-3.716043382883071899e-02,1.024161577224731445e+00,5.895048379898071289e-01,9.087019562721252441e-01
-6.954579353332519531e-01,-8.544635176658630371e-01,6.061738729476928711e-01,-2.719295918941497803e-01,-6.956770420074462891e-01,-1.900437772274017334e-01,-1.029748558998107910e+00,1.207697391510009766e+00,-1.114825367927551270e+00,1.338760018348693848e+00,-8.995348215103149414e-01,1.328092694282531738e+00,-1.251333393156528473e-02,1.206083655357360840e+00
-4.853151440620422363e-01,-6.354218125343322754e-01,-2.965269051492214203e-02,1.065978780388832092e-03,-2.983301579952239990e-01,4.914899766445159912e-01,-9.140963554382324219e-01,1.128192663192749023e+00,-1.054951071739196777e+00,8.289071917533874512e-01,-1.007288575172424316e+00,1.355023026466369629e+00,-4.770852327346801758e-01,1.213837742805480957e+00
-2.628587186336517334e-01,-2.700039148330688477e-01,-4.237992465496063232e-01,4.829015433788299561e-01,-1.305655092000961304e-01,1.017280220985412598e+00,-7.983233928680419922e-01,9.914561510086059570e-01,-8.738144040107727051e-01,4.960660934448242188e-01,-8.725482821464538574e-01,1.046371817588806152e+00,-8.469855189323425293e-01,4.070287942886352539e-01
2.299017608165740967e-01,1.007554493844509125e-02,-6.785513162612915039e-01,9.843510389328002930e-01,3.141503930091857910e-01,1.041613340377807617e+00,-2.019378989934921265e-01,4.150399863719940186e-01,-4.042596220970153809e-01,-2.436988949775695801e-01,-5.869272947311401367e-01,1.885246783494949341e-01,-9.379730224609375000e-01,3.586697205901145935e-02
4.068914949893951416e-01,1.829808056354522705e-01,-1.075031280517578125e+00,1.051013946533203125e+00,9.445171356201171875e-01,7.036088109016418457e-01,1.774998754262924194e-01,-1.016417220234870911e-01,-6.017172709107398987e-02,-6.175406575202941895e-01,-2.106193304061889648e-01,-3.779874444007873535e-01,-8.968945741653442383e-01,-4.024515151977539062e-01
2.832878530025482178e-01,6.821920275688171387e-01,-1.064816474914550781e+00,9.738008379936218262e-01,1.109283804893493652e+00,3.658526539802551270e-01,5.346896648406982422e-01,-5.040473341941833496e-01,6.339826583862304688e-01,-9.777221679687500000e-01,3.267137408256530762e-01,-1.132844805717468262e+00,-5.746315717697143555e-01,-9.112669825553894043e-01
3.073260188102722168e-01,8.381061553955078125e-01,-7.417883276939392090e-01,8.050764203071594238e-01,1.150425076484680176e+00,-3.011242151260375977e-01,7.636920809745788574e-01,-9.557501673698425293e-01,7.605313658714294434e-01,-1.016634821891784668e+00,7.123032212257385254e-01,-1.355499029159545898e+00,-7.670100033283233643e-02,-1.140136837959289551e+00
-1.903687119483947754e-01,6.059371829032897949e-01,-4.498999714851379395e-01,3.029482364654541016e-01,7.449732422828674316e-01,-9.113984107971191406e-01,6.884348392486572266e-01,-9.171227812767028809e-01,7.260258197784423828e-01,-7.472400665283203125e-01,7.095287442207336426e-01,-1.085630655288696289e+00,4.240320920944213867e-01,-7.971622943878173828e-01
-5.848037600517272949e-01,3.394447267055511475e-01,2.898824214935302734e-02,-3.973389863967895508e-01,-9.432700276374816895e-02,-1.647877931594848633e+00,1.683937758207321167e-01,-7.472386956214904785e-01,5.406066775321960449e-01,4.479438532143831253e-03,2.593468129634857178e-01,-9.571387767791748047e-01,5.528023838996887207e-01,-5.186780691146850586e-01
-9.702528119087219238e-01,-2.234312891960144043e-01,2.136059403419494629e-01,-8.983865380287170410e-01,-9.229658842086791992e-01,-1.488107085227966309e+00,-2.414343208074569702e-01,-5.088955163955688477e-01,-9.663268178701400757e-02,5.571894049644470215e-01,-2.093426436185836792e-01,-2.920099496841430664e-01,7.029246687889099121e-01,-8.191587775945663452e-02
-1.098438024520874023e+00,-6.522799730300903320e-01,6.011281013488769531e-01,-1.282327294349670410e+00,-1.463212370872497559e+00,-1.083145260810852051e+00,-6.930111646652221680e-01,-3.314291685819625854e-02,-6.464632749557495117e-01,4.225895404815673828e-01,-9.199739694595336914e-01,1.204907596111297607e-01,1.695479899644851685e-01,3.470718264579772949e-01
-7.998360395431518555e-01,-9.295350313186645508e-01,8.171241879463195801e-01,-1.505241274833679199e+00,-1.685961484909057617e+00,-5.078564882278442383e-01,-1.024511575698852539e+00,3.998087942600250244e-01,-1.205982804298400879e+00,4.189231097698211670e-01,-1.347219824790954590e+00,6.252331733703613281e-01,-3.091469705104827881e-01,3.022595942020416260e-01
-5.238028764724731445e-01,-1.080602049827575684e+00,4.109423756599426270e-01,-1.083676815032958984e+00,-1.593066215515136719e+00,2.773032784461975098e-01,-1.019563317298889160e+00,4.295372962951660156e-01,-1.353537201881408691e+00,9.134766459465026855e-02,-1.554442048072814941e+00,2.433441281318664551e-01,-7.212762832641601562e-01,1.211441904306411743e-01
-3.307265937328338623e-01,-6.196917295455932617e-01,8.290986716747283936e-02,-6.754536628723144531e-01,-1.229302167892456055e+00,5.950797200202941895e-01,-8.058531284332275391e-01,2.464594244956970215e-01,-1.338954329490661621e+00,-2.328341007232666016e-01,-1.484581947326660156e+00,-7.966737262904644012e-03,-1.132768392562866211e+00,-1.270049065351486206e-01
3.414447605609893799e-01,-5.473197102546691895e-01,-4.301127493381500244e-01,-2.964160144329071045e-01,-6.537062525749206543e-01,9.552863240242004395e-01,-6.473044157028198242e-01,2.309105694293975830e-01,-8.782157301902770996e-01,-6.513449549674987793e-01,-1.256628274917602539e+00,-2.838312387466430664e-01,-1.348614215850830078e+00,-7.695165872573852539e-01
7.299285531044006348e-01,-9.285859763622283936e-02,-7.697426080703735352e-01,3.306388556957244873e-01,2.487033978104591370e-02,7.377464175224304199e-01,2.838137373328208923e-02,-2.409790605306625366e-01,-2.311531454324722290e-01,-9.373205304145812988e-01,-6.114475131034851074e-01,-1.131054162979125977e+00,-1.287309169769287109e+00,-8.100109696388244629e-01
8.567623496055603027e-01,3.251246809959411621e-01,-6.406551003456115723e-01,7.223016619682312012e-01,8.826072812080383301e-01,3.217346966266632080e-01,5.417754054069519043e-01,-6.092797517776489258e-01,3.699890077114105225e-01,-9.146978855133056641e-01,2.193249166011810303e-01,-1.289098978042602539e+00,-1.178191184997558594e+00,-1.111769199371337891e+00
6.813033223152160645e-01,7.958416342735290527e-01,-5.880252718925476074e-01,6.293420791625976562e-01,9.166868925094604492e-01,-2.944186627864837646e-01,9.531422257423400879e-01,-9.126446247100830078e-01,1.110731244087219238e+00,-4.713993072509765625e-01,8.235136866569519043e-01,-1.035717487335205078e+00,-4.097332954406738281e-01,-7.320693731307983398e-01
2.680730819702148438e-01,7.001525163650512695e-01,-2.978964745998382568e-01,4.013414084911346436e-01,8.994410634040832520e-01,-6.152737140655517578e-01,9.166616201400756836e-01,-1.246589064598083496e+00,1.305033206939697266e+00,1.407162398099899292e-01,1.185017943382263184e+00,-8.352817893028259277e-01,1.976240873336791992e-01,-3.102700114250183105e-01
-8.193757385015487671e-02,7.048576474189758301e-01,1.595862209796905518e-01,-1.994792670011520386e-01,3.859246075153350830e-01,-8.506110906600952148e-01,1.063412666320800781e+00,-1.288565635681152344e+00,1.341669678688049316e+00,5.059223175048828125e-01,1.177049517631530762e+00,-7.826651632785797119e-02,7.960109710693359375e-01,2.229204922914505005e-01
-5.591667294502258301e-01,7.808461785316467285e-02,7.269240617752075195e-01,-4.116124212741851807e-01,-6.801041960716247559e-02,-7.146303057670593262e-01,5.852111577987670898e-01,-1.020388603210449219e+00,9.628672599792480469e-01,7.926693558692932129e-01,9.808750748634338379e-01,8.769027590751647949e-01,1.131046175956726074e+00,7.864027023315429688e-01
-6.340807080268859863e-01,-1.009796112775802612e-01,1.043503165245056152e+00,-8.389007449150085449e-01,-6.267372965812683105e-01,-2.330928146839141846e-01,3.913260251283645630e-02,-7.983362674713134766e-01,5.489444136619567871e-01,7.562394738197326660e-01,2.539876401424407959e-01,1.170470714569091797e+00,1.513100385665893555e+00,1.106524944305419922e+00
-5.272328853607177734e-01,-5.553429722785949707e-01,1.307810783386230469e+00,-9.799748659133911133e-01,-8.758093118667602539e-01,4.274173974990844727e-01,-4.062589704990386963e-01,-1.814322918653488159e-01,-1.483804434537887573e-01,3.118874430656433105e-01,-3.528054058551788330e-01,1.195266008377075195e+00,1.272680640220642090e+00,9.798252582550048828e-01
-6.444150209426879883e-01,-3.616488873958587646e-01,1.422112226486206055e+00,-9.000746607780456543e-01,-1.220810294151306152e+00,1.210140585899353027e+00,-5.534209609031677246e-01,4.795857071876525879e-01,-2.845759093761444092e-01,-1.035192236304283142e-01,-7.336453795433044434e-01,8.672400712966918945e-01,8.600984215736389160e-01,6.397894620895385742e-01
-1.980912238359451294e-01,-2.867053747177124023e-01,1.039646506309509277e+00,-4.100000262260437012e-01,-7.981804609298706055e-01,1.832732200622558594e+00,-3.871943056583404541e-01,1.152662634849548340e+00,-4.333650171756744385e-01,-7.299281358718872070e-01,-1.056237101554870605e+00,2.411494106054306030e-01,2.804420888423919678e-01,9.415195882320404053e-02
1.690673828125000000e-01,-1.509083062410354614e-02,7.340505123138427734e-01,1.708011031150817871e-01,-2.140020430088043213e-01,1.855856776237487793e+00,-2.022532671689987183e-01,1.180789709091186523e+00,-4.909541606903076172e-01,-9.510610699653625488e-01,-8.655250668525695801e-01,-1.935774832963943481e-01,-2.458173781633377075e-01,-2.816359400749206543e-01
7.279179692268371582e-01,4.209745526313781738e-01,8.041964471340179443e-02,1.029363751411437988e+00,4.777513444423675537e-01,1.363026738166809082e+00,1.513720303773880005e-01,1.172761678695678711e+00,-7.400992512702941895e-02,-9.847157597541809082e-01,-5.742430090904235840e-01,-7.820788025856018066e-01,-4.401277899742126465e-01,-5.881791114807128906e-01
6.105449199676513672e-01,8.625338673591613770e-01,-3.633750975131988525e-01,1.209082722663879395e+00,9.892049431800842285e-01,8.603364825248718262e-01,5.206569433212280273e-01,1.220098376274108887e+00,5.933308005332946777e-01,-7.531576156616210938e-01,3.256854834035038948e-04,-8.997736573219299316e-01,-3.479752242565155029e-01,-5.586252808570861816e-01
7.557301521301269531e-01,1.037933707237243652e+00,-1.002343654632568359e+00,8.982006907463073730e-01,1.382503986358642578e+00,4.830213636159896851e-02,8.620563745498657227e-01,8.226093053817749023e-01,1.055428504943847656e+00,-3.874863088130950928e-01,6.215597987174987793e-01,-7.924057841300964355e-01,-2.896003425121307373e-01,-2.601167857646942139e-01
4.290354549884796143e-01,1.122516274452209473e+00,-9.344470500946044922e-01,6.804887056350708008e-01,1.063928127288818359e+00,-3.971425592899322510e-01,1.119301199913024902e+00,3.307034969329833984e-01,1.378505229949951172e+00,2.562871277332305908e-01,1.092286229133605957e+00,-1.030701473355293274e-01,1.055739447474479675e-01,2.346588969230651855e-01
9.783592075109481812e-02,1.033554792404174805e+00,-1.082819223403930664e+00,2.318686097860336304e-01,6.073454022407531738e-01,-8.669931888580322266e-01,7.994624376296997070e-01,-1.377397626638412476e-01,1.160525798797607422e+00,6.552276611328125000e-01,1.146059036254882812e+00,3.131709098815917969e-01,5.905461907386779785e-01,6.760788559913635254e-01
-3.740265369415283203e-01,6.329278349876403809e-01,-7.043864727020263672e-01,-3.763376176357269287e-01,-2.104835771024227142e-02,-1.078590393066406250e+00,5.030548572540283203e-01,-2.901387214660644531e-01,6.233190894126892090e-01,7.795572876930236816e-01,8.307985067367553711e-01,8.159217834472656250e-01,9.211048483848571777e-01,6.271323561668395996e-01
-5.240688323974609375e-01,4.789317026734352112e-02,-1.152750626206398010e-01,-7.697921395301818848e-01,-7.455914020538330078e-01,-6.005378961563110352e-01,-4.272531867027282715e-01,-4.774099886417388916e-01,2.018131501972675323e-02,5.916136503219604492e-01,5.881229639053344727e-01,8.848029971122741699e-01,1.095447897911071777e+00,9.749613404273986816e-01
-5.016815662384033203e-01,-4.796207845211029053e-01,7.878527790307998657e-02,-9.990765452384948730e-01,-1.207550406455993652e+00,-2.636526226997375488e-01,-1.146671533584594727e+00,-4.392569661140441895e-01,-6.847741603851318359e-01,2.810210287570953369e-01,-1.928623765707015991e-01,7.355606555938720703e-01,1.159338712692260742e+00,3.714133203029632568e-01
-1.786176413297653198e-01,-7.366473674774169922e-01,3.945563137531280518e-01,-8.195360898971557617e-01,-1.193238973617553711e+00,3.125056326389312744e-01,-1.232968926429748535e+00,-2.450930774211883545e-01,-1.368892550468444824e+00,-3.683150410652160645e-01,-4.628387689590454102e-01,7.447560429573059082e-01,5.789945125579833984e-01,-2.300496958196163177e-02
1.477195173501968384e-01,-8.550681471824645996e-01,3.703776895999908447e-01,-4.669360220432281494e-01,-9.349648952484130859e-01,3.127102851867675781e-01,-1.442298412322998047e+00,2.254731059074401855e-01,-1.592111706733703613e+00,-4.917655587196350098e-01,-1.079550623893737793e+00,-1.802143007516860962e-01,-8.457930386066436768e-02,-3.675464391708374023e-01
6.292024254798889160e-01,-8.094732165336608887e-01,3.725243508815765381e-01,3.397671878337860107e-01,-5.426508784294128418e-01,6.000208854675292969e-01,-1.051064848899841309e+00,5.706840753555297852e-01,-1.872575879096984863e+00,-5.825731158256530762e-01,-8.141428828239440918e-01,-6.938512325286865234e-01,-7.364658117294311523e-01,-7.902346253395080566e-01
9.669280648231506348e-01,-7.376002073287963867e-01,-3.500388264656066895e-01,7.285842895507812500e-01,1.729634404182434082e-01,4.408281669020652771e-02,-6.661941409111022949e-01,5.786511301994323730e-01,-1.400222182273864746e+00,-3.495703935623168945e-01,-4.780460596084594727e-01,-6.267204880714416504e-01,-1.177031517028808594e+00,-7.976480722427368164e-01
1.086716890335083008e+00,-1.016768291592597961e-01,-5.248422622680664062e-01,1.126281380653381348e+00,9.180885553359985352e-01,-5.837229490280151367e-01,-2.925148308277130127e-01,8.747886419296264648e-01,-7.828200459480285645e-01,3.398513495922088623e-01,-1.961474865674972534e-02,-6.442881822586059570e-01,-1.399129509925842285e+00,-5.368419885635375977e-01
1.098582625389099121e+00,1.309084892272949219e-01,-8.919296264648437500e-01,1.205674648284912109e+00,1.510725975036621094e+00,-1.137595772743225098e+00,9.244372486136853695e-04,8.110163807868957520e-01,-3.183358609676361084e-01,8.617091774940490723e-01,6.219989061355590820e-01,-2.937748432159423828e-01,-1.625293374061584473e+00,-7.200506329536437988e-02
3.824584782123565674e-01,3.254960179328918457e-01,-1.157471418380737305e+00,8.454260826110839844e-01,1.471580505371093750e+00,-1.761047363281250000e+00,4.745393693447113037e-01,5.846307873725891113e-01,3.279131948947906494e-01,1.262774348258972168e+00,1.298392772674560547e+00,2.315569072961807251e-01,-1.310044050216674805e+00,4.810935854911804199e-01
2.574129104614257812e-01,3.564888238906860352e-01,-1.209392070770263672e+00,7.070298194885253906e-01,1.294609189033508301e+00,-1.640955448150634766e+00,5.270557403564453125e-01,-1.284943073987960815e-01,8.986303210258483887e-01,1.530630707740783691e+00,1.492457985877990723e+00,9.751792550086975098e-01,-8.755680322647094727e-01,9.162472486495971680e-01
-5.687512159347534180e-01,-1.225492358207702637e-02,-7.287778854370117188e-01,-6.578941643238067627e-02,9.154969453811645508e-01,-1.377577662467956543e+00,4.379584789276123047e-01,-4.718458652496337891e-01,6.379610896110534668e-01,1.182692050933837891e+00,1.588965535163879395e+00,1.382406949996948242e+00,-1.084078103303909302e-01,1.024789810180664062e+00
-1.008628368377685547e+00,-5.115163922309875488e-01,-3.125507533550262451e-01,-3.833473622798919678e-01,2.240953594446182251e-01,-8.669345378875732422e-01,5.522398278117179871e-02,-1.009304165840148926e+00,3.553728759288787842e-01,6.286305189132690430e-01,8.814402222633361816e-01,1.386234045028686523e+00,4.687550961971282959e-01,1.028588891029357910e+00
-1.293031454086303711e+00,-8.047055602073669434e-01,2.502801120281219482e-01,-4.906171262264251709e-01,-2.039355933666229248e-01,3.113758750259876251e-02,-3.063398003578186035e-01,-1.158049345016479492e+00,1.757007837295532227e-02,-7.163688540458679199e-02,2.567488551139831543e-01,9.145919680595397949e-01,6.748293042182922363e-01,3.187138736248016357e-01
-1.126094698905944824e+00,-1.069202661514282227e+00,8.895566463470458984e-01,-6.085665225982666016e-01,-5.966517925262451172e-01,7.272592782974243164e-01,-4.845628738403320312e-01,-1.072477221488952637e+00,-5.897669792175292969e-01,-5.796676278114318848e-01,-4.972954690456390381e-01,3.447282016277313232e-01,8.451424837112426758e-01,-3.749056160449981689e-02
-6.567889451980590820e-01,-1.089504003524780273e+00,1.158925056457519531e+00,-3.018333613872528076e-01,-6.859153509140014648e-01,1.181156516075134277e+00,-5.217967033386230469e-01,-8.819155693054199219e-01,-8.480316400527954102e-01,-7.507987618446350098e-01,-1.061421990394592285e+00,-4.007649421691894531e-01,4.696020781993865967e-01,-4.731429517269134521e-01
-2.193982005119323730e-01,-8.522354960441589355e-01,1.595005154609680176e+00,2.541735172271728516e-01,-5.515842437744140625e-01,1.270653843879699707e+00,-3.859581649303436279e-01,-6.802484989166259766e-01,-6.698623299598693848e-01,-7.968330979347229004e-01,-1.372976422309875488e+00,-8.342616558074951172e-01,3.019530773162841797e-01,-6.289948225021362305e-01
-9.519316256046295166e-02,-3.264344036579132080e-01,1.425368309020996094e+00,8.591997623443603516e-01,8.821067214012145996e-02,1.009822845458984375e+00,-4.034738615155220032e-02,8.819600194692611694e-02,-3.467251658439636230e-01,-6.086048483848571777e-01,-1.642977952957153320e+00,-1.098266363143920898e+00,-2.312582135200500488e-01,-6.375465989112854004e-01
4.650858938694000244e-01,6.353956460952758789e-02,8.934837579727172852e-01,1.090565681457519531e+00,6.021419167518615723e-01,5.249651670455932617e-01,3.869760930538177490e-01,4.022630155086517334e-01,3.267216086387634277e-01,-7.865969091653823853e-02,-1.156367659568786621e+00,-9.916355609893798828e-01,-6.024807691574096680e-01,-3.411065638065338135e-01
3.758349120616912842e-01,5.718799829483032227e-01,5.218932032585144043e-01,1.058397531509399414e+00,9.282115101814270020e-01,-6.661303341388702393e-02,9.162723422050476074e-01,8.264634609222412109e-01,9.311040639877319336e-01,3.643886446952819824e-01,-8.387004733085632324e-01,-6.418458819389343262e-01,-8.033419847488403320e-01,7.504460960626602173e-02
1.255937218666076660e-01,1.156867742538452148e+00,1.140807420015335083e-01,9.351785182952880859e-01,9.019678831100463867e-01,-3.691702187061309814e-01,1.247475504875183105e+00,8.247707486152648926e-01,1.260702967643737793e+00,5.553870797157287598e-01,-1.582229137420654297e-01,-1.904747784137725830e-01,-8.099890351295471191e-01,3.378441333770751953e-01
-2.510567009449005127e-01,1.050520062446594238e+00,-3.154149055480957031e-01,4.512701034545898438e-01,6.773928999900817871e-01,-5.440311431884765625e-01,1.387488245964050293e+00,8.965756893157958984e-01,1.614874243736267090e+00,3.186722695827484131e-01,3.275593519210815430e-01,3.635013699531555176e-01,-5.918930768966674805e-01,3.972384929656982422e-01
-4.537394940853118896e-01,1.041844129562377930e+00,-6.789356470108032227e-01,-5.773096084594726562e-01,1.533113569021224976e-01,-3.602644801139831543e-01,1.266998410224914551e+00,3.205433189868927002e-01,1.580963969230651855e+00,-5.195560306310653687e-02,6.246916651725769043e-01,3.969776928424835205e-01,8.651301264762878418e-02,4.201790690422058105e-01
-7.542158365249633789e-01,4.861515164375305176e-01,-5.452214479446411133e-01,-8.284364342689514160e-01,-5.647563338279724121e-01,3.954829275608062744e-02,6.909903883934020996e-01,-6.331879645586013794e-02,1.300731897354125977e+00,-4.964966177940368652e-01,3.405901491641998291e-01,2.651139795780181885e-01,4.649308323860168457e-01,1.644709259271621704e-01
-8.352285027503967285e-01,3.024809062480926514e-01,-6.855887174606323242e-01,-1.470895051956176758e+00,-1.307277560234069824e+00,7.377213835716247559e-01,2.932819426059722900e-01,-3.039991557598114014e-01,7.644971013069152832e-01,-1.093552231788635254e+00,1.201317608356475830e-01,-4.235106408596038818e-01,1.107980608940124512e+00,-5.780537128448486328e-01
-5.069503188133239746e-01,-4.093850031495094299e-03,-3.121021687984466553e-01,-1.414858222007751465e+00,-1.735383391380310059e+00,1.372822403907775879e+00,-2.835705578327178955e-01,-7.835204005241394043e-01,8.311318606138229370e-02,-1.242367506027221680e+00,-5.040032267570495605e-01,-8.583341836929321289e-01,1.318418860435485840e+00,-9.472027420997619629e-01
-2.005821317434310913e-01,-3.381567895412445068e-01,1.936407536268234253e-01,-1.351090550422668457e+00,-1.820264101028442383e+00,1.528925657272338867e+00,-9.312936067581176758e-01,-1.059920430183410645e+00,-6.918763518333435059e-01,-9.680414199829101562e-01,-8.986017704010009766e-01,-1.387215614318847656e+00,1.258601427078247070e+00,-1.123785257339477539e+00
4.481168091297149658e-01,-2.699205279350280762e-01,3.220455944538116455e-01,-6.309875845909118652e-01,-1.411136150360107422e+00,1.214053273200988770e+00,-9.593674540519714355e-01,-9.255452752113342285e-01,-1.053720951080322266e+00,-6.731663942337036133e-01,-1.217802405357360840e+00,-1.270108103752136230e+00,5.513123869895935059e-01,-1.065979123115539551e+00
8.019759058952331543e-01,-1.647114157676696777e-01,5.713003873825073242e-01,-3.240456283092498779e-01,-9.942824840545654297e-01,8.742833137512207031e-01,-7.998080253601074219e-01,-6.883423924446105957e-01,-1.043977379798889160e+00,-5.628575012087821960e-02,-1.300994038581848145e+00,-1.071326971054077148e+00,2.365345060825347900e-01,-6.859036684036254883e-01
1.018198013305664062e+00,1.872187703847885132e-01,6.070898175239562988e-01,4.832508563995361328e-01,-7.599593698978424072e-02,-7.214302197098731995e-03,-4.042932689189910889e-01,-2.984189391136169434e-01,-9.809030890464782715e-01,4.527468979358673096e-01,-8.516066670417785645e-01,-6.714915037155151367e-01,-3.016932904720306396e-01,-2.813811004161834717e-01
1.010454893112182617e+00,5.506513714790344238e-01,3.154707849025726318e-01,4.860947728157043457e-01,5.734829306602478027e-01,-6.374951004981994629e-01,-8.139957487583160400e-02,-7.029155269265174866e-03,-3.056772649288177490e-01,6.791095733642578125e-01,-5.706709250807762146e-02,1.088892742991447449e-01,-6.902432441711425781e-01,3.944698572158813477e-01
8.087334632873535156e-01,6.238268613815307617e-01,-2.322841137647628784e-01,4.485840499401092529e-01,9.082025289535522461e-01,-1.229169130325317383e+00,3.314206004142761230e-02,4.307202100753784180e-01,-1.559866033494472504e-02,9.630761742591857910e-01,4.872623980045318604e-01,8.100816607475280762e-01,-1.018614053726196289e+00,7.077521681785583496e-01
5.853238701820373535e-01,8.358803987503051758e-01,-6.246806383132934570e-01,1.932722032070159912e-01,1.050644993782043457e+00,-1.234307646751403809e+00,3.621121346950531006e-01,6.936234831809997559e-01,3.366651833057403564e-01,6.820859909057617188e-01,1.354707598686218262e+00,1.264092445373535156e+00,-1.308878779411315918e+00,8.884151577949523926e-01
-1.452770829200744629e-01,7.116402387619018555e-01,-1.038547158241271973e+00,-4.113451242446899414e-01,7.799116969108581543e-01,-1.143031716346740723e+00,5.477425456047058105e-01,6.198801994323730469e-01,6.946085095405578613e-01,-8.629468269646167755e-03,1.776966691017150879e+00,1.341466546058654785e+00,-6.607867479324340820e-01,7.732595801353454590e-01
-3.373498618602752686e-01,1.900321543216705322e-01,-1.371119737625122070e+00,-5.238070487976074219e-01,5.317792892456054688e-01,-6.340619325637817383e-01,1.864364296197891235e-01,6.149582266807556152e-01,5.942865610122680664e-01,-3.625094890594482422e-01,1.683452606201171875e+00,9.829618930816650391e-01,-1.324899792671203613e-01,2.827483415603637695e-01
-7.737013101577758789e-01,-7.084190845489501953e-02,-1.155778408050537109e+00,-8.376512527465820312e-01,-8.066191524267196655e-02,-3.395316004753112793e-02,-2.631351649761199951e-01,3.185061812400817871e-01,3.509965837001800537e-01,-8.694224953651428223e-01,1.499079704284667969e+00,4.672012031078338623e-01,3.599531948566436768e-01,3.278570249676704407e-02
-7.583443522453308105e-01,-6.068131923675537109e-01,-9.366139173507690430e-01,-1.131794214248657227e+00,-4.559145867824554443e-01,5.308856368064880371e-01,-5.021173357963562012e-01,-3.708737194538116455e-01,-3.357527554035186768e-01,-8.091105222702026367e-01,1.001455664634704590e+00,2.249953895807266235e-02,9.221073389053344727e-01,-2.882653176784515381e-01
-4.750212132930755615e-01,-1.186711907386779785e+00,-5.016159415245056152e-01,-4.826205372810363770e-01,-7.448483109474182129e-01,6.735600233078002930e-01,-1.131268143653869629e+00,-5.906908512115478516e-01,-9.292016029357910156e-01,-5.237264633178710938e-01,1.572617292404174805e-01,-4.374893903732299805e-01,1.172250509262084961e+00,-2.705249786376953125e-01
-7.059095054864883423e-02,-9.517621994018554688e-01,2.420765608549118042e-01,-3.317425772547721863e-02,-6.713253855705261230e-01,7.500892281532287598e-01,-1.066008090972900391e+00,-6.491267681121826172e-01,-1.345952630043029785e+00,-2.001798525452613831e-02,-5.031123161315917969e-01,-5.855276584625244141e-01,1.164511322975158691e+00,-1.051464378833770752e-01
3.314958512783050537e-01,-8.115996122360229492e-01,7.805749773979187012e-01,4.346893131732940674e-01,-2.625598907470703125e-01,3.711704015731811523e-01,-9.060343503952026367e-01,-6.649356484413146973e-01,-1.308342933654785156e+00,4.567203819751739502e-01,-6.956332325935363770e-01,-3.098989427089691162e-01,8.448469638824462891e-01,6.542718410491943359e-02
8.272814750671386719e-01,-6.205772757530212402e-01,1.036683797836303711e+00,1.157751560211181641e+00,4.686787724494934082e-01,-2.540057338774204254e-02,-4.883002936840057373e-01,-4.299531579017639160e-01,-1.140178799629211426e+00,6.895390152931213379e-01,-9.540494084358215332e-01,2.850295901298522949e-01,3.549495935440063477e-01,7.262924313545227051e-01
6.529892086982727051e-01,-5.028587579727172852e-02,9.231513142585754395e-01,1.557403683662414551e+00,7.946903109550476074e-01,-9.028839468955993652e-01,-1.398294977843761444e-02,-3.099703229963779449e-03,-6.178650259971618652e-01,6.897327899932861328e-01,-6.509339213371276855e-01,7.390918731689453125e-01,-2.490944862365722656e-01,1.071091055870056152e+00
6.668096780776977539e-01,2.250124365091323853e-01,8.643234968185424805e-01,1.426606774330139160e+00,1.372802734375000000e+00,-1.128815412521362305e+00,7.585705518722534180e-01,2.871856987476348877e-01,6.934379041194915771e-02,3.912377357482910156e-01,-6.704450398683547974e-02,1.218876123428344727e+00,-4.411161839962005615e-01,1.032200694084167480e+00
4.284658730030059814e-01,4.008172154426574707e-01,5.677759647369384766e-01,9.632772803306579590e-01,1.533608317375183105e+00,-1.064162731170654297e+00,1.097541689872741699e+00,8.277431726455688477e-01,7.290747165679931641e-01,9.441202133893966675e-02,1.543417572975158691e-01,1.242759585380554199e+00,-9.584720730781555176e-01,1.085139989852905273e+00
-1.651291400194168091e-01,5.505523681640625000e-01,3.132910281419754028e-02,5.072910189628601074e-01,1.204802751541137695e+00,-7.186350822448730469e-01,1.009657740592956543e+00,1.176077008247375488e+00,1.140098810195922852e+00,-3.727357685565948486e-01,8.653206825256347656e-01,8.240342140197753906e-01,-8.686959743499755859e-01,5.928120613098144531e-01
-5.217125415802001953e-01,5.161668658256530762e-01,-4.770539999008178711e-01,-1.439606100320816040e-01,5.815115571022033691e-01,-2.163390666246414185e-01,9.820569157600402832e-01,1.303007602691650391e+00,1.382490515708923340e+00,-6.306685209274291992e-01,1.021509051322937012e+00,1.252305209636688232e-01,-7.400720715522766113e-01,-1.471832245588302612e-01
-7.616181373596191406e-01,6.918557733297348022e-02,-9.426574707031250000e-01,-4.488788247108459473e-01,-1.452953070402145386e-01,4.740602970123291016e-01,5.433433055877685547e-01,1.331391811370849609e+00,1.076158881187438965e+00,-5.391361117362976074e-01,9.575696587562561035e-01,-4.966604411602020264e-01,-8.535774052143096924e-02,-7.521963119506835938e-01
-5.711916089057922363e-01,-1.664963960647583008e-01,-7.630819678306579590e-01,-9.161673188209533691e-01,-8.533759713172912598e-01,9.744348526000976562e-01,1.110684573650360107e-01,1.082332730293273926e+00,3.804361522197723389e-01,-5.824821591377258301e-01,4.737119078636169434e-01,-1.001638531684875488e+00,1.457397788763046265e-01,-8.205627202987670898e-01
-4.166315495967864990e-01,-5.674872398376464844e-01,-7.991230487823486328e-01,-8.529596328735351562e-01,-1.126644253730773926e+00,1.164596438407897949e+00,-3.890070021152496338e-01,4.458837211132049561e-01,-4.792635887861251831e-02,1.140710487961769104e-01,-3.089829161763191223e-02,-1.178816318511962891e+00,6.696758270263671875e-01,-8.539167046546936035e-01
1.725854724645614624e-02,-6.976736783981323242e-01,-3.084806799888610840e-01,-6.170348525047302246e-01,-1.093493938446044922e+00,1.257860660552978516e+00,-8.352681994438171387e-01,1.082895770668983459e-01,-7.117213010787963867e-01,5.789775252342224121e-01,-7.347549200057983398e-01,-1.152339696884155273e+00,6.721422672271728516e-01,-5.080025196075439453e-01
3.571770787239074707e-01,-6.499701142311096191e-01,2.385398298501968384e-01,2.695972323417663574e-01,-8.590381741523742676e-01,5.111977458000183105e-01,-7.242478132247924805e-01,-5.993180871009826660e-01,-8.984281420707702637e-01,1.171149373054504395e+00,-9.488275647163391113e-01,-5.738914608955383301e-01,4.783721268177032471e-01,-3.948639146983623505e-03
7.798548340797424316e-01,-4.209739267826080322e-01,5.740870833396911621e-01,5.285431742668151855e-01,-1.563413143157958984e-01,-3.689416125416755676e-02,-1.827651262283325195e-01,-7.241348624229431152e-01,-1.027109742164611816e+00,1.120492696762084961e+00,-1.240703344345092773e+00,-7.335889153182506561e-03,2.277345359325408936e-01,2.858836948871612549e-01
9.028183817863464355e-01,-9.919903241097927094e-03,8.502978086471557617e-01,9.692193269729614258e-01,3.832050859928131104e-01,-7.933278679847717285e-01,-1.603548228740692139e-01,-9.631748795509338379e-01,-7.672603130340576172e-01,1.004343509674072266e+00,-8.964204788208007812e-01,6.828635334968566895e-01,-1.942536234855651855e-01,4.263894259929656982e-01
7.594298720359802246e-01,4.471458792686462402e-01,8.789358139038085938e-01,8.733861446380615234e-01,9.676540493965148926e-01,-1.291088938713073730e+00,7.762223482131958008e-02,-1.052922368049621582e+00,-2.258911132812500000e-01,5.613120794296264648e-01,-3.553959131240844727e-01,9.499414563179016113e-01,-8.350004553794860840e-01,4.277523458003997803e-01
2.096116393804550171e-01,6.910734176635742188e-01,8.176037073135375977e-01,5.910391807556152344e-01,1.390834212303161621e+00,-1.181820511817932129e+00,6.191496253013610840e-01,-6.094934940338134766e-01,3.425204157829284668e-01,1.337396055459976196e-01,2.632668912410736084e-01,8.404014110565185547e-01,-1.450238227844238281e+00,2.336494326591491699e-01
-3.316214084625244141e-01,7.668185234069824219e-01,5.401924848556518555e-01,1.555565893650054932e-01,1.273586750030517578e+00,-6.375141143798828125e-01,9.176102280616760254e-01,-3.611069917678833008e-01,8.993550539016723633e-01,-3.670966625213623047e-01,6.404901146888732910e-01,5.936855673789978027e-01,-1.507259011268615723e+00,-2.721573710441589355e-01
-7.103696465492248535e-01,8.133432269096374512e-01,1.057730764150619507e-01,-3.288598954677581787e-01,8.071665167808532715e-01,-3.720308244228363037e-01,7.291560769081115723e-01,5.649663507938385010e-02,1.193048954010009766e+00,-8.212466239929199219e-01,1.069387793540954590e+00,9.054793417453765869e-02,-1.426561594009399414e+00,-6.022429466247558594e-01
-1.182543396949768066e+00,4.001899957656860352e-01,-4.643986821174621582e-01,-7.910753488540649414e-01,4.054263234138488770e-01,4.233629107475280762e-01,6.363154649734497070e-01,1.935809403657913208e-01,1.137330293655395508e+00,-5.250862240791320801e-01,1.248407006263732910e+00,-8.185513615608215332e-01,-8.350835442543029785e-01,-7.078445553779602051e-01
-1.296685576438903809e+00,-3.969446115661412477e-04,-8.357912302017211914e-01,-9.125708937644958496e-01,-3.336076736450195312e-01,9.918320775032043457e-01,-1.334593296051025391e-01,4.261986613273620605e-01,7.023714780807495117e-01,-2.480642646551132202e-01,8.317504525184631348e-01,-8.892056345939636230e-01,-3.596785366535186768e-01,-7.395325303077697754e-01
-8.088575601577758789e-01,-3.356903791427612305e-01,-7.658748626708984375e-01,-1.016861200332641602e+00,-7.994803786277770996e-01,1.139897704124450684e+00,-5.501080751419067383e-01,2.140347659587860107e-01,7.111722975969314575e-02,1.923396438360214233e-01,2.377240806818008423e-01,-8.970111608505249023e-01,2.488085925579071045e-01,-6.097800731658935547e-01
-7.016921043395996094e-01,-9.273841381072998047e-01,-6.846522688865661621e-01,-5.762792825698852539e-01,-1.179526329040527344e+00,1.059723258018493652e+00,-7.359968423843383789e-01,-8.510195463895797729e-02,-2.846435904502868652e-01,5.249913334846496582e-01,-5.420404672622680664e-01,-6.796205639839172363e-01,1.067807674407958984e+00,-1.779865175485610962e-01
-6.306585669517517090e-02,-7.398116588592529297e-01,-4.974728524684906006e-01,5.769465118646621704e-02,-7.494293451309204102e-01,6.650032997131347656e-01,-9.377382397651672363e-01,-2.976251840591430664e-01,-7.626106142997741699e-01,4.636952579021453857e-01,-1.162238717079162598e+00,-3.653298690915107727e-02,1.169372916221618652e+00,3.423802554607391357e-01
3.127532303333282471e-01,-6.550613641738891602e-01,1.376244723796844482e-01,5.869830846786499023e-01,-4.966505169868469238e-01,-2.055978775024414062e-02,-8.065520524978637695e-01,-8.209284543991088867e-01,-1.019662618637084961e+00,3.588259518146514893e-01,-1.407158017158508301e+00,4.317252337932586670e-01,1.454882264137268066e+00,7.181923389434814453e-01
7.804878950119018555e-01,-4.630390182137489319e-02,4.283832013607025146e-01,9.169924259185791016e-01,9.708237648010253906e-02,-4.240802228450775146e-01,-4.421549439430236816e-01,-1.022101759910583496e+00,-8.454358577728271484e-01,-2.092095613479614258e-01,-1.561453938484191895e+00,9.020999073982238770e-01,1.051982283592224121e+00,7.322403788566589355e-01
6.804003119468688965e-01,2.067455947399139404e-01,9.295384883880615234e-01,1.258027911186218262e+00,7.262967824935913086e-01,-7.646185159683227539e-01,-5.133303627371788025e-02,-1.431504249572753906e+00,-1.941403746604919434e-01,-8.100050687789916992e-01,-1.270458698272705078e+00,5.833034515380859375e-01,6.449859142303466797e-01,6.667163968086242676e-01
4.250114262104034424e-01,7.114580273628234863e-01,9.493823647499084473e-01,8.076527118682861328e-01,8.312882184982299805e-01,-7.105938792228698730e-01,7.442056536674499512e-01,-1.243833065032958984e+00,2.080212384462356567e-01,-1.248684644699096680e+00,-7.376601099967956543e-01,2.764646112918853760e-01,1.783422529697418213e-01,7.871193438768386841e-02
1.523031592369079590e-01,6.757015585899353027e-01,7.751989960670471191e-01,2.288590967655181885e-01,7.682138681411743164e-01,-2.450629174709320068e-01,8.447928428649902344e-01,-5.988670587539672852e-01,7.040110826492309570e-01,-1.378087759017944336e+00,-8.752185106277465820e-02,-1.594276577234268188e-01,-8.642189949750900269e-02,-4.059375226497650146e-01
-2.242936044931411743e-01,7.275835871696472168e-01,5.021348595619201660e-01,-5.953144654631614685e-02,4.558752775192260742e-01,2.022422850131988525e-01,9.450691342353820801e-01,-1.231086328625679016e-01,9.436877965927124023e-01,-1.293841838836669922e+00,3.746607303619384766e-01,-8.218113780021667480e-01,-3.602344691753387451e-01,-8.301384449005126953e-01
-3.903623521327972412e-01,6.517032980918884277e-01,-2.252200501970946789e-04,-9.472954273223876953e-01,-2.704921662807464600e-01,5.671874880790710449e-01,8.388079404830932617e-01,4.296580255031585693e-01,1.079997777938842773e+00,-9.879556298255920410e-01,9.205754399299621582e-01,-1.350349426269531250e+00,-4.872054755687713623e-01,-1.044047117233276367e+00
-4.495839774608612061e-01,2.750612795352935791e-01,-6.488839983940124512e-01,-1.328987717628479004e+00,-9.620085358619689941e-01,1.333612680435180664e+00,3.028068542480468750e-01,9.001076817512512207e-01,1.160148620605468750e+00,-3.517582416534423828e-01,1.021534204483032227e+00,-1.384768605232238770e+00,5.627311021089553833e-02,-8.448467254638671875e-01
-2.044074684381484985e-01,2.039044909179210663e-02,-1.118682146072387695e+00,-1.360169887542724609e+00,-1.358734488487243652e+00,1.249542713165283203e+00,-2.281081527471542358e-01,1.136158108711242676e+00,3.834157586097717285e-01,3.700695335865020752e-01,7.061814069747924805e-01,-9.907662868499755859e-01,4.993764460086822510e-01,-4.174060225486755371e-01
2.951884269714355469e-01,-4.387657642364501953e-01,-1.393720626831054688e+00,-1.019807934761047363e+00,-1.795212745666503906e+00,9.912453293800354004e-01,-8.944026827812194824e-01,1.273503780364990234e+00,-3.773824572563171387e-01,8.811585903167724609e-01,1.480478942394256592e-01,-6.239154934883117676e-01,8.414211869239807129e-01,4.478449374437332153e-02
6.233435869216918945e-01,-7.696238756179809570e-01,-1.180271267890930176e+00,-5.199464559555053711e-01,-1.573861002922058105e+00,7.345464080572128296e-02,-1.009301662445068359e+00,1.187401056289672852e+00,-9.755914211273193359e-01,7.930076718330383301e-01,-4.763439595699310303e-01,1.388784945011138916e-01,1.173399329185485840e+00,3.688333034515380859e-01
9.651628136634826660e-01,-7.003039121627807617e-01,-9.061153531074523926e-01,-4.460527002811431885e-02,-1.153677105903625488e+00,-4.129607379436492920e-01,-9.400453567504882812e-01,8.332207202911376953e-01,-1.159292936325073242e+00,5.955412387847900391e-01,-5.862804055213928223e-01,6.996735334396362305e-01,1.180696964263916016e+00,8.123573064804077148e-01
1.400116086006164551e+00,-4.100174307823181152e-01,-3.629722297191619873e-01,3.914996385574340820e-01,-3.111138939857482910e-01,-1.075629234313964844e+00,-8.600640892982482910e-01,4.970163404941558838e-01,-1.451802849769592285e+00,2.694009542465209961e-01,-7.590830326080322266e-01,1.067645430564880371e+00,1.107357382774353027e+00,5.447410941123962402e-01
9.926546812057495117e-01,7.629345357418060303e-02,-3.402468189597129822e-02,6.622870564460754395e-01,3.112818002700805664e-01,-1.454779505729675293e+00,-4.390004873275756836e-01,-3.307733684778213501e-02,-1.011730551719665527e+00,-2.331712096929550171e-01,-5.295017361640930176e-01,1.235024213790893555e+00,6.429072022438049316e-01,2.711609005928039551e-01
8.733623027801513672e-01,4.341491162776947021e-01,4.381390810012817383e-01,5.579516291618347168e-01,8.686712384223937988e-01,-1.369713783264160156e+00,4.034070298075675964e-02,-3.857193589210510254e-01,-5.558047890663146973e-01,-4.633746743202209473e-01,-2.848179042339324951e-01,7.591447830200195312e-01,-3.323106765747070312e-01,-5.270560458302497864e-02
1.561469137668609619e-01,5.469623804092407227e-01,5.348645448684692383e-01,2.997673153877258301e-01,9.738047122955322266e-01,-1.043088078498840332e+00,5.611843466758728027e-01,-5.182287693023681641e-01,-1.941372901201248169e-01,-6.990824937820434570e-01,6.558781862258911133e-01,3.226464092731475830e-01,-9.752745628356933594e-01,-3.712650239467620850e-01
-4.744497239589691162e-01,6.118625402450561523e-01,8.556824326515197754e-01,-2.669093012809753418e-01,1.072027683258056641e+00,-5.921969413757324219e-01,7.114211916923522949e-01,-5.987781286239624023e-01,4.288984537124633789e-01,-3.558628857135772705e-01,1.204888939857482910e+00,-1.322646290063858032e-01,-1.293787240982055664e+00,-6.466321349143981934e-01
-8.624916076660156250e-01,4.398413598537445068e-01,5.704327821731567383e-01,-6.757783293724060059e-01,7.768238782882690430e-01,1.570856869220733643e-01,4.351973533630371094e-01,-5.398066639900207520e-01,6.583417654037475586e-01,1.225009411573410034e-01,1.787581562995910645e+00,-3.789033889770507812e-01,-1.554162979125976562e+00,-3.654868602752685547e-01
-9.897411465644836426e-01,5.180731043219566345e-02,2.487941980361938477e-01,-9.571162462234497070e-01,3.101136684417724609e-01,4.585125744342803955e-01,2.295764535665512085e-01,1.300239115953445435e-01,5.688583850860595703e-01,8.371036052703857422e-01,1.783208966255187988e+00,-3.344244360923767090e-01,-1.542203903198242188e+00,1.291096210479736328e-01
-9.277769327163696289e-01,-5.617816448211669922e-01,-1.455283463001251221e-01,-8.129695653915405273e-01,-1.424220502376556396e-01,6.693741679191589355e-01,-6.613157689571380615e-02,4.861542284488677979e-01,5.189936161041259766e-01,1.015263795852661133e+00,1.527961730957031250e+00,9.998193383216857910e-02,-9.963636398315429688e-01,4.437297880649566650e-01
-4.797012507915496826e-01,-9.890518188476562500e-01,-3.376251757144927979e-01,-5.076041817665100098e-01,-4.326713681221008301e-01,6.215876936912536621e-01,-4.507480263710021973e-01,8.197788000106811523e-01,-2.854277193546295166e-01,7.796439528465270996e-01,1.002997636795043945e+00,5.799522995948791504e-01,-5.892953276634216309e-01,8.334106206893920898e-01
-3.367622792720794678e-01,-1.371062517166137695e+00,-6.775680184364318848e-01,1.478648781776428223e-01,-6.453632712364196777e-01,-6.488933414220809937e-02,-5.040227174758911133e-01,8.231069445610046387e-01,-5.911203026771545410e-01,6.138685941696166992e-01,1.550382524728775024e-01,1.072708845138549805e+00,-3.553675860166549683e-02,1.141211271286010742e+00
1.604426205158233643e-01,-1.251649141311645508e+00,-5.527961254119873047e-01,7.074921727180480957e-01,-2.100322395563125610e-01,-5.614449381828308105e-01,-7.951229214668273926e-01,6.602714657783508301e-01,-7.845191359519958496e-01,1.635125130414962769e-01,-4.818457663059234619e-01,1.335854887962341309e+00,4.270064830780029297e-01,1.340253710746765137e+00
3.787774741649627686e-01,-8.792455792427062988e-01,-2.324118465185165405e-01,1.308117747306823730e+00,5.251610279083251953e-01,-9.036815166473388672e-01,-5.401629209518432617e-01,3.745702207088470459e-01,-9.733979105949401855e-01,-4.397689700126647949e-01,-1.291174173355102539e+00,1.283640623092651367e+00,7.067540884017944336e-01,9.411488771438598633e-01
5.109145045280456543e-01,-2.546054720878601074e-01,1.720924079418182373e-01,1.629789113998413086e+00,1.245068550109863281e+00,-1.015367150306701660e+00,-1.680016666650772095e-01,1.601870357990264893e-01,-6.754516959190368652e-01,-6.848224997520446777e-01,-1.306558132171630859e+00,8.311458230018615723e-01,7.872217893600463867e-01,4.754262864589691162e-01
4.576029777526855469e-01,-6.252170074731111526e-03,8.192587494850158691e-01,1.508431911468505859e+00,1.479084134101867676e+00,-9.663359522819519043e-01,6.320685148239135742e-01,-4.257373809814453125e-01,-1.851793974637985229e-01,-7.965071797370910645e-01,-1.403256297111511230e+00,1.089115291833877563e-01,3.667168021202087402e-01,-1.220184788107872009e-01
1.799923740327358246e-02,4.360785186290740967e-01,1.171844840049743652e+00,1.065162062644958496e+00,1.676172137260437012e+00,-1.320168972015380859e-01,9.112353324890136719e-01,-7.700698971748352051e-01,4.669413268566131592e-01,-5.965673327445983887e-01,-8.166092634201049805e-01,-4.643717706203460693e-01,-3.096536733210086823e-02,-6.313657164573669434e-01
-2.187867760658264160e-01,7.451465725898742676e-01,1.358408927917480469e+00,7.376821041107177734e-01,1.459427118301391602e+00,5.427820086479187012e-01,1.188037157058715820e+00,-1.076313972473144531e+00,1.202126622200012207e+00,-2.406847178936004639e-01,-2.741604149341583252e-01,-1.177791595458984375e+00,-3.158857524394989014e-01,-9.788510203361511230e-01
-7.367230057716369629e-01,6.420980691909790039e-01,1.168261766433715820e+00,1.131353005766868591e-01,8.936124444007873535e-01,1.362182855606079102e+00,1.422061681747436523e+00,-1.003067135810852051e+00,1.496383070945739746e+00,4.486364424228668213e-01,4.939438700675964355e-01,-1.357991218566894531e+00,-7.195471525192260742e-01,-6.500039100646972656e-01
-8.491903543472290039e-01,5.442559719085693359e-01,1.063883304595947266e+00,-3.108003139495849609e-01,1.757091581821441650e-01,1.631291866302490234e+00,1.090397953987121582e+00,-8.671693205833435059e-01,1.842316031455993652e+00,8.397837877273559570e-01,5.559102892875671387e-01,-1.058189511299133301e+00,-5.923302173614501953e-01,-3.817246258258819580e-01
-7.921420335769653320e-01,2.315376996994018555e-01,4.833137989044189453e-01,-6.775543689727783203e-01,-6.615254282951354980e-01,1.807894349098205566e+00,7.086924314498901367e-01,-3.384587168693542480e-01,1.320197343826293945e+00,1.025651693344116211e+00,6.922885179519653320e-01,-6.803829073905944824e-01,-5.285987257957458496e-01,7.896497845649719238e-02
-4.403447508811950684e-01,-2.299409061670303345e-01,-2.726836204528808594e-01,-7.154272198677062988e-01,-1.127870082855224609e+00,1.390505790710449219e+00,1.816757209599018097e-02,-6.643582135438919067e-02,8.347054719924926758e-01,1.054130911827087402e+00,2.892566323280334473e-01,4.360027238726615906e-02,-1.229983717203140259e-01,2.896673083305358887e-01
-6.679488718509674072e-02,-3.077276349067687988e-01,-6.442028880119323730e-01,-4.180898368358612061e-01,-1.169293045997619629e+00,9.448407888412475586e-01,-4.333492815494537354e-01,4.676688909530639648e-01,4.044142961502075195e-01,5.602898001670837402e-01,-5.865069478750228882e-02,6.415690183639526367e-01,3.551631569862365723e-01,3.357495069503784180e-01
5.339646339416503906e-01,-4.922865629196166992e-01,-1.041597247123718262e+00,7.392390072345733643e-02,-1.288441777229309082e+00,8.364519476890563965e-02,-6.398316621780395508e-01,8.165660500526428223e-01,-2.396875321865081787e-01,-3.178204642608761787e-03,-8.413639068603515625e-01,5.956943035125732422e-01,1.113124132156372070e+00,3.753179609775543213e-01
6.788710951805114746e-01,-2.335289120674133301e-01,-1.303140282630920410e+00,4.108972549438476562e-01,-9.126892089843750000e-01,-3.273344039916992188e-01,-8.762486577033996582e-01,1.022482872009277344e+00,-8.560395836830139160e-01,-3.434695005416870117e-01,-1.202325463294982910e+00,5.691134929656982422e-01,1.293907642364501953e+00,-2.080784440040588379e-01
8.018958568572998047e-01,2.090723961591720581e-01,-1.227844595909118652e+00,5.657165646553039551e-01,-1.719583123922348022e-01,-7.864575386047363281e-01,-6.338629126548767090e-01,8.048552870750427246e-01,-8.101460933685302734e-01,-4.260268211364746094e-01,-1.442068099975585938e+00,1.626240164041519165e-01,1.485435009002685547e+00,-6.670686602592468262e-01
6.330557465553283691e-01,4.942077696323394775e-01,-8.383699059486389160e-01,7.411189675331115723e-01,4.345595836639404297e-01,-8.140699863433837891e-01,-1.594491153955459595e-01,6.202075481414794922e-01,-8.326184749603271484e-01,-4.076097011566162109e-01,-1.167753458023071289e+00,-2.446820586919784546e-01,1.326690435409545898e+00,-9.690576195716857910e-01
1.402537524700164795e-01,8.825583457946777344e-01,-5.964888334274291992e-01,2.547912895679473877e-01,7.509858608245849609e-01,-5.409356951713562012e-01,6.924381107091903687e-02,9.563861042261123657e-02,-3.519449234008789062e-01,-2.510252594947814941e-01,-6.207768917083740234e-01,-1.017096042633056641e+00,9.327373504638671875e-01,-1.140769243240356445e+00
-2.673661708831787109e-01,1.205151557922363281e+00,-1.150229647755622864e-01,-1.744954884052276611e-01,8.484188914299011230e-01,1.440438330173492432e-01,3.942363858222961426e-01,-3.767323791980743408e-01,2.733072265982627869e-02,2.142781168222427368e-01,-1.120283231139183044e-01,-9.745899438858032227e-01,2.068041563034057617e-01,-9.231085181236267090e-01
-8.511325716972351074e-01,1.185384511947631836e+00,3.070916533470153809e-01,-6.924417018890380859e-01,5.505844354629516602e-01,3.940744698047637939e-01,3.240441083908081055e-01,-9.566191434860229492e-01,3.920009136199951172e-01,6.320233941078186035e-01,6.322699189186096191e-01,-9.591030478477478027e-01,-4.118417501449584961e-01,-5.492613315582275391e-01
-9.320902824401855469e-01,8.975040912628173828e-01,4.280151128768920898e-01,-1.342408776283264160e+00,2.860206961631774902e-01,8.705696463584899902e-01,4.196141064167022705e-01,-9.186188578605651855e-01,6.217110753059387207e-01,7.803217768669128418e-01,1.061107158660888672e+00,-6.404935121536254883e-01,-7.532105445861816406e-01,-1.067946851253509521e-01
-9.278277158737182617e-01,5.943617820739746094e-01,4.285576343536376953e-01,-1.525998115539550781e+00,-4.189580678939819336e-01,4.585877060890197754e-01,-1.664098538458347321e-02,-1.336466670036315918e+00,6.101190447807312012e-01,6.530357003211975098e-01,1.350640654563903809e+00,1.437761038541793823e-01,-1.096071720123291016e+00,5.457385182380676270e-01
-5.469249486923217773e-01,-1.056736707687377930e-01,1.286241859197616577e-01,-1.377289891242980957e+00,-8.758479952812194824e-01,3.561134934425354004e-01,-6.395148038864135742e-01,-7.643553018569946289e-01,-7.326155900955200195e-02,3.756615146994590759e-02,1.241461277008056641e+00,6.475834250450134277e-01,-9.283188581466674805e-01,7.521483302116394043e-01
-1.311174333095550537e-01,-5.144950747489929199e-01,-2.868321239948272705e-01,-9.447165727615356445e-01,-1.444445848464965820e+00,-6.146722435951232910e-01,-9.276998043060302734e-01,-6.737990379333496094e-01,-2.768340706825256348e-01,-4.737861156463623047e-01,6.430405974388122559e-01,1.138066530227661133e+00,-5.397990942001342773e-01,8.710761666297912598e-01
3.786177635192871094e-01,-9.778668880462646484e-01,-6.236236095428466797e-01,-3.151654005050659180e-01,-1.285666942596435547e+00,-1.106763124465942383e+00,-1.244830489158630371e+00,3.490572422742843628e-02,-9.244385361671447754e-01,-1.118329882621765137e+00,-1.257155239582061768e-01,9.955786466598510742e-01,-1.217201054096221924e-01,5.245388746261596680e-01
8.228854537010192871e-01,-1.184393405914306641e+00,-7.454264163970947266e-01,2.719118893146514893e-01,-6.834172606468200684e-01,-1.654353976249694824e+00,-1.332880854606628418e+00,3.643745779991149902e-01,-1.351394653320312500e+00,-1.405659556388854980e+00,-9.266807436943054199e-01,7.438876628875732422e-01,4.424536824226379395e-01,1.551636904478073120e-01
9.845703244209289551e-01,-7.932795286178588867e-01,-7.277102470397949219e-01,7.496156692504882812e-01,-4.446165263652801514e-02,-1.910385489463806152e+00,-9.618374705314636230e-01,7.446835041046142578e-01,-1.673294663429260254e+00,-1.279666781425476074e+00,-1.271084547042846680e+00,-4.937430843710899353e-03,8.525045514106750488e-01,-9.785398095846176147e-02
8.271197080612182617e-01,-6.074196696281433105e-01,-6.857504844665527344e-01,8.297885656356811523e-01,5.770464539527893066e-01,-1.498495101928710938e+00,-3.889473974704742432e-01,6.152607202529907227e-01,-1.402751207351684570e+00,-1.059679150581359863e+00,-1.129552841186523438e+00,-5.055555105209350586e-01,8.807806372642517090e-01,-5.741533637046813965e-01
8.339140415191650391e-01,-1.482160240411758423e-01,1.105000600218772888e-01,9.741284847259521484e-01,9.409949183464050293e-01,-9.187003374099731445e-01,3.055467009544372559e-01,6.594720482826232910e-01,-7.166784405708312988e-01,-5.551946163177490234e-01,-9.560938477516174316e-01,-1.171577453613281250e+00,9.196465611457824707e-01,-4.620591998100280762e-01
2.108310759067535400e-01,1.603809744119644165e-01,5.280218720436096191e-01,3.140524029731750488e-01,9.699386954307556152e-01,-7.084285467863082886e-02,8.315920233726501465e-01,4.828491508960723877e-01,-1.262942701578140259e-01,1.897757053375244141e-01,-5.680087208747863770e-01,-8.800835013389587402e-01,5.813372731208801270e-01,-7.632017135620117188e-02
-7.634333521127700806e-02,2.836638987064361572e-01,7.824876308441162109e-01,1.299939211457967758e-02,7.329030632972717285e-01,6.086733937263488770e-01,1.054246068000793457e+00,3.600348532199859619e-02,5.434886813163757324e-01,6.987388134002685547e-01,-2.764827013015747070e-02,-7.429090142250061035e-01,-7.660254091024398804e-02,3.798361420631408691e-01
-2.115460634231567383e-01,2.994313836097717285e-01,1.344432711601257324e+00,-6.094848513603210449e-01,3.158603012561798096e-01,1.017923235893249512e+00,1.040541768074035645e+00,-4.423978924751281738e-01,1.227575898170471191e+00,4.877482950687408447e-01,7.211619019508361816e-01,-2.791045010089874268e-01,-6.618754267692565918e-01,8.226068615913391113e-01
-3.521195650100708008e-01,1.777906268835067749e-01,1.414162993431091309e+00,-1.119137048721313477e+00,-4.556958079338073730e-01,1.084140896797180176e+00,9.357652664184570312e-01,-6.997183561325073242e-01,1.261641740798950195e+00,3.234127461910247803e-01,1.258234500885009766e+00,3.684530556201934814e-01,-8.271403312683105469e-01,9.527535438537597656e-01
-2.857073247432708740e-01,-6.425878405570983887e-01,1.127968788146972656e+00,-1.082256913185119629e+00,-1.012414932250976562e+00,1.003404855728149414e+00,5.519774556159973145e-01,-6.982460021972656250e-01,1.290248870849609375e+00,5.416943132877349854e-02,1.376209974288940430e+00,7.993248701095581055e-01,-1.187213778495788574e+00,9.863879084587097168e-01
3.606979846954345703e-01,-7.147978544235229492e-01,1.042729496955871582e+00,-7.026062607765197754e-01,-1.342644095420837402e+00,3.246908187866210938e-01,1.986770480871200562e-01,-3.921009004116058350e-01,9.748883843421936035e-01,-5.601844787597656250e-01,1.318886399269104004e+00,9.760134816169738770e-01,-9.839646220207214355e-01,5.643115639686584473e-01
6.061916351318359375e-01,-1.059764266014099121e+00,3.310576081275939941e-01,-2.803495526313781738e-01,-1.579821348190307617e+00,-3.221604526042938232e-01,-2.302650958299636841e-01,-3.628599345684051514e-01,3.647323846817016602e-01,-6.195836663246154785e-01,5.849086046218872070e-01,8.835717439651489258e-01,-5.611867308616638184e-01,2.306836098432540894e-01
7.883777618408203125e-01,-9.201179742813110352e-01,-2.723561525344848633e-01,2.186403125524520874e-01,-1.152962684631347656e+00,-6.332093477249145508e-01,-4.201908111572265625e-01,7.804686576128005981e-02,-1.526437792927026749e-02,-6.599790453910827637e-01,2.295170351862907410e-02,3.726466000080108643e-01,1.994615048170089722e-01,-3.253259062767028809e-01
8.407056927680969238e-01,-7.061640620231628418e-01,-4.922569394111633301e-01,6.762863397598266602e-01,-4.811258912086486816e-01,-7.264800071716308594e-01,-2.611957490444183350e-01,7.449735999107360840e-01,-3.721712827682495117e-01,-3.508825302124023438e-01,-3.235967755317687988e-01,-1.911798417568206787e-01,4.007373154163360596e-01,-7.140673398971557617e-01
8.268524408340454102e-01,-2.452172040939331055e-01,-7.671213150024414062e-01,8.340675830841064453e-01,9.994927048683166504e-02,-2.699421346187591553e-01,-1.143005043268203735e-01,1.199184894561767578e+00,-5.320893526077270508e-01,2.165217399597167969e-01,-7.038249373435974121e-01,-7.068108320236206055e-01,7.464494705200195312e-01,-6.609405279159545898e-01
2.007690966129302979e-01,1.841170787811279297e-01,-9.573901891708374023e-01,7.423970103263854980e-01,9.229313135147094727e-01,1.598434895277023315e-01,1.061412915587425232e-01,1.411790609359741211e+00,-4.878194332122802734e-01,8.118574023246765137e-01,-6.827977299690246582e-01,-7.302706241607666016e-01,1.096742272377014160e+00,-7.038475275039672852e-01
-5.347627401351928711e-01,7.186024188995361328e-01,-7.582185268402099609e-01,4.112885594367980957e-01,1.250687718391418457e+00,9.078025221824645996e-01,5.549642443656921387e-01,1.233462572097778320e+00,-6.229092553257942200e-02,1.269496560096740723e+00,-2.613911330699920654e-01,-6.726899147033691406e-01,7.627413868904113770e-01,-1.189469173550605774e-01
-8.100838065147399902e-01,1.083669066429138184e+00,-4.741958677768707275e-01,-2.954126000404357910e-01,1.225627422332763672e+00,1.422527790069580078e+00,9.089934229850769043e-01,1.133560538291931152e+00,5.476132035255432129e-01,1.440143704414367676e+00,6.334505230188369751e-02,-5.313637852668762207e-02,1.770922392606735229e-01,3.450315296649932861e-01
-1.096438765525817871e+00,1.177801847457885742e+00,1.534096002578735352e-01,-7.802836298942565918e-01,1.171538114547729492e+00,1.359210848808288574e+00,1.025171160697937012e+00,6.869645118713378906e-01,8.995512127876281738e-01,1.027054667472839355e+00,9.284856915473937988e-01,7.445418834686279297e-01,-2.021264284849166870e-01,7.267962694168090820e-01
-1.180426239967346191e+00,1.161442637443542480e+00,3.582226336002349854e-01,-9.637659192085266113e-01,5.719619393348693848e-01,1.366796851158142090e+00,8.512580990791320801e-01,1.475880593061447144e-01,1.071189522743225098e+00,4.165108203887939453e-01,1.062023639678955078e+00,1.202921152114868164e+00,-8.511446714401245117e-01,9.698793292045593262e-01
-9.342042207717895508e-01,7.128849625587463379e-01,5.104216933250427246e-01,-8.562905192375183105e-01,1.532959751784801483e-02,7.107529044151306152e-01,2.220157682895660400e-01,-3.973459899425506592e-01,8.949722647666931152e-01,-2.172505706548690796e-01,1.201941728591918945e+00,1.562229871749877930e+00,-1.343382000923156738e+00,7.460641860961914062e-01
-6.879587769508361816e-01,1.985336393117904663e-01,6.994811892509460449e-01,-5.607181191444396973e-01,-2.601481080055236816e-01,1.679832488298416138e-01,-2.628854215145111084e-01,-7.079743146896362305e-01,5.110897421836853027e-01,-6.491066217422485352e-01,1.027350306510925293e+00,1.530772686004638672e+00,-1.250075817108154297e+00,5.415268540382385254e-01
-6.834089010953903198e-02,-2.602636814117431641e-01,4.197705090045928955e-01,-2.180919945240020752e-01,-6.249826550483703613e-01,-6.447710394859313965e-01,-8.486950397491455078e-01,-1.134372830390930176e+00,1.012715045362710953e-02,-6.951735615730285645e-01,3.974398076534271240e-01,8.860371708869934082e-01,-1.213822960853576660e+00,-9.225017577409744263e-02
3.248574733734130859e-01,-5.768194198608398438e-01,-8.748779445886611938e-02,6.898584961891174316e-01,-2.228257954120635986e-01,-1.240321397781372070e+00,-1.074200391769409180e+00,-9.408731460571289062e-01,-6.307845711708068848e-01,-6.223602294921875000e-01,-2.634017467498779297e-01,-1.363939954899251461e-03,-7.577731013298034668e-01,-5.001629590988159180e-01
6.751912236213684082e-01,-3.927679657936096191e-01,-4.051348268985748291e-01,1.234867453575134277e+00,3.613235801458358765e-02,-1.159745931625366211e+00,-1.366123437881469727e+00,-7.606366872787475586e-01,-1.290833830833435059e+00,-3.686248958110809326e-01,-1.018087625503540039e+00,-5.668510198593139648e-01,-1.737489253282546997e-01,-7.189779877662658691e-01
5.658448338508605957e-01,-9.343609958887100220e-02,-8.881927132606506348e-01,1.495406508445739746e+00,5.817304253578186035e-01,-1.026410341262817383e+00,-1.196320056915283203e+00,-3.328531086444854736e-01,-1.426993966102600098e+00,2.799266278743743896e-01,-1.700272560119628906e+00,-1.071219444274902344e+00,6.646513342857360840e-01,-6.697044968605041504e-01
5.394872426986694336e-01,2.232074588537216187e-01,-1.059525370597839355e+00,1.403396010398864746e+00,1.124602675437927246e+00,-3.859239518642425537e-01,-6.127753853797912598e-01,-3.676663339138031006e-02,-1.539259076118469238e+00,7.053936719894409180e-01,-1.940145730972290039e+00,-1.095924377441406250e+00,1.000831604003906250e+00,-3.168711066246032715e-01
5.945466458797454834e-03,4.754686355590820312e-01,-9.405317902565002441e-01,1.126468300819396973e+00,1.425761103630065918e+00,3.427086472511291504e-01,-1.164967641234397888e-01,1.649859100580215454e-01,-1.052645087242126465e+00,9.336076974868774414e-01,-1.731477141380310059e+00,-9.330171942710876465e-01,1.001754999160766602e+00,1.158169955015182495e-01
-4.256432056427001953e-01,7.573876976966857910e-01,-6.889815330505371094e-01,6.508057117462158203e-01,1.419597268104553223e+00,6.588470935821533203e-01,3.259805738925933838e-01,4.048254787921905518e-01,-2.851601243019104004e-01,6.668757200241088867e-01,-1.258764863014221191e+00,-4.482235908508300781e-01,1.138588309288024902e+00,6.212878823280334473e-01
-5.983465313911437988e-01,6.284522414207458496e-01,-9.156966209411621094e-02,1.318518370389938354e-01,1.051456212997436523e+00,1.039900541305541992e+00,6.149365305900573730e-01,5.571364760398864746e-01,1.062671169638633728e-01,1.603430509567260742e-01,-5.032361149787902832e-01,-4.275689274072647095e-02,7.390252947807312012e-01,7.231696844100952148e-01
-6.849890947341918945e-01,5.527273416519165039e-01,3.121857643127441406e-01,-3.832954168319702148e-01,2.869099676609039307e-01,6.163612604141235352e-01,9.057114720344543457e-01,1.712102293968200684e-01,7.784433364868164062e-01,-3.283793330192565918e-01,1.095858886837959290e-01,3.660147190093994141e-01,3.161753118038177490e-01,5.084210038185119629e-01
-4.946337342262268066e-01,1.807718873023986816e-01,6.437929272651672363e-01,-7.586571574211120605e-01,-4.932906329631805420e-01,3.532332777976989746e-01,5.543079376220703125e-01,-3.694775402545928955e-01,8.919257521629333496e-01,-5.238642096519470215e-01,3.055227994918823242e-01,4.065675139427185059e-01,-2.960170805454254150e-02,2.308049201965332031e-01
-6.921063363552093506e-02,-4.728823006153106689e-01,1.003867387771606445e+00,-7.455041408538818359e-01,-1.099977850914001465e+00,-4.843849539756774902e-01,2.864859700202941895e-01,-5.412231087684631348e-01,8.112174868583679199e-01,-6.787004470825195312e-01,7.542883753776550293e-01,2.710665762424468994e-01,-2.830179333686828613e-01,-4.443981945514678955e-01
3.181204199790954590e-01,-5.987310409545898438e-01,7.817100882530212402e-01,-4.344717860221862793e-01,-1.632184743881225586e+00,-7.482895255088806152e-01,-3.160444498062133789e-01,-9.259073734283447266e-01,5.759191513061523438e-01,-6.159294843673706055e-01,7.280326485633850098e-01,-2.576529979705810547e-01,-4.369833171367645264e-01,-8.317936062812805176e-01
6.563457846641540527e-01,-1.043824315071105957e+00,8.288053870201110840e-01,-4.768143408000469208e-03,-1.611597537994384766e+00,-9.508896470069885254e-01,-4.269458353519439697e-01,-8.945752382278442383e-01,-2.066664583981037140e-02,-4.019468724727630615e-01,2.222805321216583252e-01,-9.324985742568969727e-01,-2.286168783903121948e-01,-1.333754897117614746e+00
8.083603382110595703e-01,-1.013179063796997070e+00,2.398931980133056641e-01,5.848476290702819824e-01,-1.325781941413879395e+00,-1.084023714065551758e+00,-5.691300630569458008e-01,-1.247787833213806152e+00,-5.301952958106994629e-01,3.974332213401794434e-01,-2.826570272445678711e-01,-1.335725784301757812e+00,8.141431212425231934e-02,-1.396987199783325195e+00
7.300661802291870117e-01,-7.633680701255798340e-01,-8.547952771186828613e-02,7.215792536735534668e-01,-7.385558485984802246e-01,-7.693825364112854004e-01,-5.465264916419982910e-01,-6.617835164070129395e-01,-9.704831242561340332e-01,9.045263528823852539e-01,-7.615895867347717285e-01,-1.496394157409667969e+00,5.537104010581970215e-01,-9.329774975776672363e-01
7.620453834533691406e-01,-4.192576706409454346e-01,-6.578920483589172363e-01,6.090672612190246582e-01,-7.574034854769706726e-03,-6.659255176782608032e-02,-3.048752844333648682e-01,-5.137878060340881348e-01,-1.103595376014709473e+00,9.268836975097656250e-01,-9.019576311111450195e-01,-1.072270035743713379e+00,8.065290451049804688e-01,-4.203146696090698242e-01
2.098225206136703491e-01,1.361198276281356812e-01,-8.795364499092102051e-01,3.762080967426300049e-01,5.861496925354003906e-01,6.464154124259948730e-01,1.132945120334625244e-01,1.954257935285568237e-01,-7.863421440124511719e-01,6.977241635322570801e-01,-6.142126321792602539e-01,-5.225502848625183105e-01,1.238917708396911621e+00,1.299150735139846802e-01
-3.659065663814544678e-01,5.575643777847290039e-01,-8.966678977012634277e-01,-4.096050560474395752e-01,4.472823441028594971e-01,8.883827328681945801e-01,6.407837271690368652e-01,7.745662927627563477e-01,-2.339462190866470337e-01,6.176199913024902344e-01,-4.699509143829345703e-01,3.818870186805725098e-01,1.157539844512939453e+00,5.935829877853393555e-01
-8.017320036888122559e-01,7.368931174278259277e-01,-8.205926418304443359e-01,-9.434615969657897949e-01,5.182254910469055176e-01,1.026641607284545898e+00,9.453639388084411621e-01,9.606238603591918945e-01,2.364995628595352173e-01,-1.877957880496978760e-01,3.468039929866790771e-01,8.030845522880554199e-01,8.795391917228698730e-01,7.259290814399719238e-01
-7.985288500785827637e-01,7.256870269775390625e-01,-3.406521379947662354e-01,-1.483933329582214355e+00,2.639813721179962158e-01,8.966147899627685547e-01,1.076721072196960449e+00,1.367392063140869141e+00,8.941286802291870117e-01,-7.832778692245483398e-01,1.013033032417297363e+00,1.365298032760620117e+00,4.065960347652435303e-01,5.560682415962219238e-01
-6.669381856918334961e-01,5.071110725402832031e-01,-5.325376242399215698e-02,-1.718465566635131836e+00,-3.271425366401672363e-01,3.044933676719665527e-01,7.942271828651428223e-01,9.689898490905761719e-01,1.201982617378234863e+00,-1.123155474662780762e+00,1.322572112083435059e+00,1.167533516883850098e+00,-3.790321648120880127e-01,3.201024234294891357e-01
-4.000438749790191650e-01,1.272496283054351807e-01,5.640385746955871582e-01,-1.340309619903564453e+00,-8.802949190139770508e-01,-3.569580912590026855e-01,3.211490809917449951e-01,8.592000007629394531e-01,1.288219332695007324e+00,-1.285751938819885254e+00,1.462572455406188965e+00,8.373454213142395020e-01,-1.011950135231018066e+00,3.862563520669937134e-02
2.647019028663635254e-01,-2.720826268196105957e-01,9.029473662376403809e-01,-1.059016346931457520e+00,-1.262338638305664062e+00,-8.730521798133850098e-01,8.539417386054992676e-02,5.033643841743469238e-01,6.744792461395263672e-01,-8.457095026969909668e-01,1.356536626815795898e+00,3.586397767066955566e-01,-1.438363194465637207e+00,-5.395107269287109375e-01
8.156992793083190918e-01,-6.035966277122497559e-01,9.809898734092712402e-01,-4.692054688930511475e-01,-1.163540601730346680e+00,-1.301583528518676758e+00,-5.837649703025817871e-01,-8.627199381589889526e-02,3.735813796520233154e-01,-3.267570137977600098e-01,1.189508080482482910e+00,-2.676577270030975342e-01,-1.607573390007019043e+00,-6.333450078964233398e-01
9.087948799133300781e-01,-8.140106797218322754e-01,9.254771471023559570e-01,1.271789614111185074e-02,-7.253392934799194336e-01,-1.140675187110900879e+00,-8.068951368331909180e-01,-4.182742238044738770e-01,-2.527492940425872803e-01,6.216548010706901550e-02,4.782317876815795898e-01,-6.181985735893249512e-01,-1.474244236946105957e+00,-2.779403328895568848e-01
9.953142404556274414e-01,-6.451570987701416016e-01,5.824091434478759766e-01,5.896810293197631836e-01,-3.037847578525543213e-01,-7.280987501144409180e-01,-7.870038151741027832e-01,-6.903674602508544922e-01,-8.919759392738342285e-01,2.377077937126159668e-01,-3.854827880859375000e-01,-6.118945479393005371e-01,-9.977830052375793457e-01,1.821856647729873657e-01
1.009883403778076172e+00,-1.880428642034530640e-01,1.121149286627769470e-01,9.051212668418884277e-01,4.360141754150390625e-01,-6.678541004657745361e-02,-7.177615761756896973e-01,-7.570939660072326660e-01,-1.295809030532836914e+00,4.127314388751983643e-01,-8.418948054313659668e-01,-3.732151091098785400e-01,-5.620090961456298828e-01,8.384165167808532715e-01
2.634471654891967773e-01,2.146682739257812500e-01,-2.597787678241729736e-01,9.721008539199829102e-01,1.088601469993591309e+00,6.826310753822326660e-01,-3.786233961582183838e-01,-5.504511594772338867e-01,-8.515705466270446777e-01,2.749840319156646729e-01,-1.239887952804565430e+00,3.102088570594787598e-01,-5.314235389232635498e-02,1.093724608421325684e+00
-1.306169331073760986e-01,4.734600782394409180e-01,-7.731947898864746094e-01,4.829177558422088623e-01,1.340121865272521973e+00,9.413810968399047852e-01,1.733861565589904785e-01,-1.171411052346229553e-01,-7.562687993049621582e-01,-1.292230188846588135e-01,-1.177201747894287109e+00,8.870986104011535645e-01,4.706231951713562012e-01,1.408389687538146973e+00
-4.466645717620849609e-01,6.118424534797668457e-01,-8.603291511535644531e-01,2.401039190590381622e-02,1.243137836456298828e+00,1.016338109970092773e+00,6.536791920661926270e-01,2.051996141672134399e-01,1.401568204164505005e-01,-7.180358767509460449e-01,-5.255735516548156738e-01,1.139163374900817871e+00,4.486280083656311035e-01,1.182604908943176270e+00
-5.558404326438903809e-01,7.502740025520324707e-01,-7.567804455757141113e-01,-5.035790801048278809e-01,1.018437027931213379e+00,1.181775808334350586e+00,9.115711450576782227e-01,5.180307626724243164e-01,4.180848896503448486e-01,-1.013960838317871094e+00,3.992569446563720703e-02,1.300773024559020996e+00,3.989243209362030029e-01,5.002195239067077637e-01
-5.602118372917175293e-01,5.243139266967773438e-01,-5.896602869033813477e-01,-7.427595257759094238e-01,2.474904060363769531e-01,6.054646372795104980e-01,8.182033300399780273e-01,8.430061936378479004e-01,1.005044698715209961e+00,-7.970308661460876465e-01,5.531455874443054199e-01,9.595769643783569336e-01,2.903783135116100311e-02,2.896932065486907959e-01
-4.413779973983764648e-01,9.645418077707290649e-02,2.305566519498825073e-02,-7.472522258758544922e-01,-5.686883926391601562e-01,5.052912980318069458e-03,6.027308106422424316e-01,8.111474514007568359e-01,1.455585598945617676e+00,-4.317538142204284668e-01,1.219666719436645508e+00,2.319009006023406982e-01,-2.438025921583175659e-01,-4.284902513027191162e-01
-1.450603902339935303e-01,-7.615166902542114258e-02,5.147886276245117188e-01,-5.280472040176391602e-01,-9.466676712036132812e-01,-4.347667694091796875e-01,1.310166865587234497e-01,5.934401154518127441e-01,1.167058229446411133e+00,7.796709891408681870e-03,1.252685189247131348e+00,-4.371477067470550537e-01,-6.258569359779357910e-01,-7.349748015403747559e-01
5.742926523089408875e-02,-5.718237161636352539e-01,7.689194083213806152e-01,3.484981954097747803e-01,-1.193903446197509766e+00,-6.729287505149841309e-01,-3.913864791393280029e-01,3.782919943332672119e-01,7.027879357337951660e-01,7.618759274482727051e-01,1.086793541908264160e+00,-9.322962164878845215e-01,-8.218047618865966797e-01,-7.649510502815246582e-01
3.594073653221130371e-01,-8.817418813705444336e-01,6.984347701072692871e-01,6.262962818145751953e-01,-1.017341971397399902e+00,-5.130169987678527832e-01,-6.301368474960327148e-01,-3.556900098919868469e-02,1.340236663818359375e-01,1.086196064949035645e+00,5.743659138679504395e-01,-9.544467926025390625e-01,-7.036895155906677246e-01,-5.763503909111022949e-01
4.337373673915863037e-01,-7.269741892814636230e-01,6.882469654083251953e-01,1.174625992774963379e+00,-6.954793334007263184e-01,-2.748070657253265381e-01,-8.597586750984191895e-01,-5.278886556625366211e-01,-3.354654908180236816e-01,1.181915283203125000e+00,1.921365410089492798e-02,-8.089029192924499512e-01,-6.931327581405639648e-01,-1.033901274204254150e-01
1.419600546360015869e-01,-6.102846860885620117e-01,2.205423712730407715e-01,1.196475625038146973e+00,-3.447291627526283264e-02,4.290921092033386230e-01,-9.004921317100524902e-01,-7.880383133888244629e-01,-8.096087574958801270e-01,1.098140954971313477e+00,-5.674862861633300781e-01,-3.990843892097473145e-01,1.367337852716445923e-01,2.971652448177337646e-01
-1.312176883220672607e-01,3.217369318008422852e-02,-1.758732646703720093e-01,1.162039279937744141e+00,6.480138301849365234e-01,1.187070965766906738e+00,-6.576486229896545410e-01,-9.814729094505310059e-01,-9.365671277046203613e-01,7.090741991996765137e-01,-1.174816608428955078e+00,2.606394588947296143e-01,7.156449556350708008e-01,4.644643366336822510e-01
-5.786309242248535156e-01,3.976514339447021484e-01,-9.363669753074645996e-01,6.196392178535461426e-01,1.164671659469604492e+00,1.241101861000061035e+00,1.226825453341007233e-02,-9.149568676948547363e-01,-9.259392619132995605e-01,8.562210947275161743e-02,-9.563798308372497559e-01,9.416387677192687988e-01,1.309061169624328613e+00,3.733618855476379395e-01
-1.025741100311279297e+00,9.893295764923095703e-01,-1.202078819274902344e+00,1.048695445060729980e-01,1.459893584251403809e+00,1.052995324134826660e+00,4.196817278861999512e-01,-5.163751840591430664e-01,-4.197992086410522461e-01,-4.680881202220916748e-01,-7.570474147796630859e-01,1.110262989997863770e+00,1.351189970970153809e+00,3.119365572929382324e-01
-1.291524410247802734e+00,9.698487520217895508e-01,-1.299571514129638672e+00,-4.930163025856018066e-01,1.117667913436889648e+00,1.028873205184936523e+00,6.159608960151672363e-01,-1.385772973299026489e-01,3.249052166938781738e-02,-4.715304970741271973e-01,-4.946630001068115234e-01,9.929120540618896484e-01,1.728528976440429688e+00,-2.126943320035934448e-01
-1.145248770713806152e+00,8.168823719024658203e-01,-1.249387621879577637e+00,-8.619123697280883789e-01,4.888786673545837402e-01,3.075910806655883789e-01,6.607404947280883789e-01,2.749856710433959961e-01,6.662344932556152344e-01,-4.513134658336639404e-01,2.509360313415527344e-01,4.519509971141815186e-01,1.222466111183166504e+00,-6.760373711585998535e-01
