AF3,F7,F3,FC5,T7,P7,O1,O2,P8,T8,FC6,F4,F8,AF4
4.235679507255554199e-01,-4.428588449954986572e-01,-7.009808421134948730e-01,-2.783080041408538818e-01,-1.020910125225782394e-02,-6.784073710441589355e-01,3.248766958713531494e-01,1.037002801895141602e+00,-2.100437581539154053e-01,-6.391021013259887695e-01,-2.333178743720054626e-02,4.690891504287719727e-02,8.284921050071716309e-01,-1.525927335023880005e-01
1.090321987867355347e-01,-3.202770948410034180e-01,-7.761754989624023438e-01,-3.328736126422882080e-01,5.612675845623016357e-02,-5.125796794891357422e-01,3.807066082954406738e-01,1.150510549545288086e+00,-3.179748058319091797e-01,-6.359855532646179199e-01,2.714850381016731262e-02,6.848856061697006226e-02,7.358593344688415527e-01,-2.345090061426162720e-01
2.642157673835754395e-01,-2.742976546287536621e-01,-6.193985342979431152e-01,-3.221730887889862061e-01,-1.888500899076461792e-01,-3.538975119590759277e-01,3.749744296073913574e-01,8.906132578849792480e-01,-3.734816610813140869e-01,-5.982356071472167969e-01,9.796797484159469604e-02,-3.378076851367950439e-02,5.287036299705505371e-01,-4.476698115468025208e-02
4.328668713569641113e-01,-5.220690965652465820e-01,-7.858436107635498047e-01,-5.439800620079040527e-01,-6.708968896418809891e-03,-5.874641537666320801e-01,5.641273856163024902e-01,1.006677150726318359e+00,-2.387323230504989624e-01,-4.389233589172363281e-01,1.701503098011016846e-01,-1.419837623834609985e-01,4.730564653873443604e-01,-2.831489965319633484e-02
4.773922264575958252e-01,-3.458445668220520020e-01,-5.710158348083496094e-01,-5.569599270820617676e-01,-7.235042750835418701e-02,-4.091213047504425049e-01,4.867358803749084473e-01,1.001502156257629395e+00,-3.262297511100769043e-01,-5.906786918640136719e-01,3.363649547100067139e-01,1.444434821605682373e-01,5.335789918899536133e-01,-4.007216915488243103e-02
5.075669884681701660e-01,-2.065250277519226074e-01,-6.395969390869140625e-01,-4.960194230079650879e-01,-1.633434444665908813e-01,-5.621606707572937012e-01,7.193898558616638184e-01,1.018261671066284180e+00,-2.265022993087768555e-01,-5.821819305419921875e-01,1.120211035013198853e-01,-6.242229044437408447e-02,4.344806671142578125e-01,1.394284963607788086e-01
4.450649321079254150e-01,-2.579646408557891846e-01,-7.289464473724365234e-01,-2.337415367364883423e-01,-9.418449550867080688e-02,-3.958793878555297852e-01,7.155985236167907715e-01,8.368409872055053711e-01,-3.072747290134429932e-01,-7.114368081092834473e-01,1.630218774080276489e-01,-1.633625924587249756e-01,2.932847440242767334e-01,1.194312870502471924e-01
3.417556583881378174e-01,-3.019484579563140869e-01,-6.985001564025878906e-01,-5.244105458259582520e-01,-2.861973643302917480e-01,-4.451894462108612061e-01,8.358475565910339355e-01,7.916710972785949707e-01,-3.450418114662170410e-01,-6.521986126899719238e-01,1.827334165573120117e-01,-1.680538505315780640e-01,1.491631120443344116e-01,3.085145354270935059e-01
5.066158175468444824e-01,-1.929807960987091064e-01,-7.840360999107360840e-01,-6.464173197746276855e-01,7.819245755672454834e-02,-3.895068764686584473e-01,8.237971067428588867e-01,8.169558644294738770e-01,-5.085760951042175293e-01,-7.103265523910522461e-01,1.670347601175308228e-01,-1.729536987841129303e-02,3.695169985294342041e-01,2.482644319534301758e-01
6.243499517440795898e-01,-7.464542984962463379e-02,-7.671512961387634277e-01,-6.556872725486755371e-01,2.638409733772277832e-01,-3.876309692859649658e-01,7.928609251976013184e-01,7.401767373085021973e-01,-3.659631609916687012e-01,-4.150021672248840332e-01,6.913564354181289673e-02,9.001878090202808380e-03,1.004894301295280457e-01,2.991128563880920410e-01
4.220708012580871582e-01,-1.838486492633819580e-01,-4.743413925170898438e-01,-7.676480412483215332e-01,6.030897423624992371e-02,-2.269908636808395386e-01,8.241427540779113770e-01,6.881293058395385742e-01,-3.579581081867218018e-01,-7.592197656631469727e-01,2.502733170986175537e-01,-8.337128907442092896e-02,4.574712365865707397e-02,3.958398401737213135e-01
5.417045950889587402e-01,-1.887892000377178192e-02,-6.943042874336242676e-01,-7.593145370483398438e-01,-1.438737958669662476e-01,-1.998629271984100342e-01,1.202152490615844727e+00,7.589114904403686523e-01,-6.166867613792419434e-01,-6.027606725692749023e-01,2.231113761663436890e-01,4.929951205849647522e-02,6.228724122047424316e-02,5.245655775070190430e-01
7.037632465362548828e-01,-3.371156752109527588e-02,-6.347257494926452637e-01,-8.082533478736877441e-01,5.818961188197135925e-02,-2.253310382366180420e-01,1.044844746589660645e+00,6.091768741607666016e-01,-3.935177922248840332e-01,-6.164348125457763672e-01,3.325157165527343750e-01,-2.389493584632873535e-02,-3.284781053662300110e-02,7.003158926963806152e-01
5.228075981140136719e-01,-1.138139367103576660e-01,-4.934440255165100098e-01,-8.842896223068237305e-01,1.889660060405731201e-01,-2.935765683650970459e-01,9.253966212272644043e-01,6.448544263839721680e-01,-5.397794842720031738e-01,-5.119639635086059570e-01,2.655744850635528564e-01,4.596038907766342163e-02,-1.691730022430419922e-01,3.601060807704925537e-01
5.817683935165405273e-01,2.364470437169075012e-02,-4.435228705406188965e-01,-5.725195407867431641e-01,1.497160196304321289e-01,-2.172269374132156372e-01,8.420702815055847168e-01,4.962049424648284912e-01,-6.400902271270751953e-01,-4.300564229488372803e-01,3.633283376693725586e-01,8.743023127317428589e-02,-6.820593029260635376e-02,3.605084717273712158e-01
5.418340563774108887e-01,3.210961222648620605e-01,-5.495582818984985352e-01,-6.203613281250000000e-01,1.041063442826271057e-01,-1.461586952209472656e-01,9.508197903633117676e-01,4.419954419136047363e-01,-5.364603996276855469e-01,-4.843943119049072266e-01,2.995906174182891846e-01,2.157300859689712524e-01,-1.755392551422119141e-01,5.028910040855407715e-01
6.760344505310058594e-01,1.213054880499839783e-01,-5.310339927673339844e-01,-6.831009387969970703e-01,1.486426740884780884e-01,-1.753896027803421021e-01,9.541369676589965820e-01,2.856671512126922607e-01,-6.647134423255920410e-01,-4.528258740901947021e-01,1.177937313914299011e-01,3.561988472938537598e-01,-7.102540135383605957e-02,3.704024255275726318e-01
5.498932600021362305e-01,2.570176720619201660e-01,-2.237236499786376953e-01,-8.079707622528076172e-01,9.240815788507461548e-02,-3.803785145282745361e-01,9.203649759292602539e-01,2.007599622011184692e-01,-6.258491873741149902e-01,-4.485948383808135986e-01,1.634796559810638428e-01,2.777507305145263672e-01,-4.898598492145538330e-01,3.705346286296844482e-01
4.569315612316131592e-01,1.277219951152801514e-01,-3.337253034114837646e-01,-5.361912846565246582e-01,-5.090082436800003052e-02,-1.896456629037857056e-01,7.848515510559082031e-01,1.443385034799575806e-01,-7.809318900108337402e-01,-3.382352590560913086e-01,-3.987006098031997681e-02,4.336696565151214600e-01,-3.055083155632019043e-01,3.062393367290496826e-01
5.155836343765258789e-01,3.815559297800064087e-02,-3.245350718498229980e-01,-5.682737827301025391e-01,1.480402201414108276e-01,-4.341765865683555603e-02,7.313155531883239746e-01,1.595693230628967285e-01,-5.371360182762145996e-01,-1.895776540040969849e-01,-2.532873675227165222e-02,4.204491078853607178e-01,-3.038557767868041992e-01,1.615163236856460571e-01
6.760374307632446289e-01,2.188444882631301880e-01,-4.175550043582916260e-01,-6.284173130989074707e-01,-1.735452376306056976e-02,-2.088030129671096802e-01,5.162909626960754395e-01,2.254128605127334595e-01,-5.386537313461303711e-01,-3.733953535556793213e-01,-1.270017120987176895e-02,6.296127438545227051e-01,-4.586894214153289795e-01,1.379831433296203613e-01
2.367948144674301147e-01,2.377030402421951294e-01,-2.922060191631317139e-01,-6.220511794090270996e-01,2.170005589723587036e-01,-3.097876608371734619e-01,6.414113640785217285e-01,1.887886673212051392e-01,-5.708532333374023438e-01,-1.961019933223724365e-01,-3.741698339581489563e-02,5.253558158874511719e-01,-6.102253198623657227e-01,1.049602851271629333e-01
3.370987176895141602e-01,1.027647852897644043e-01,-2.142169177532196045e-01,-6.245071291923522949e-01,8.809670805931091309e-02,-3.512030243873596191e-01,4.786052405834197998e-01,-3.228894667699933052e-03,-6.209006309509277344e-01,2.455546259880065918e-01,-2.032978385686874390e-01,5.841621160507202148e-01,-4.681740999221801758e-01,3.848720788955688477e-01
7.796214520931243896e-02,3.382241129875183105e-01,2.841551089659333229e-03,-5.659604072570800781e-01,1.042621806263923645e-01,-2.408342957496643066e-01,4.932947754859924316e-01,5.817432701587677002e-02,-5.359977483749389648e-01,6.186705455183982849e-02,-1.148910671472549438e-01,6.929917931556701660e-01,-5.854082703590393066e-01,4.316525161266326904e-01
3.243772685527801514e-02,1.921399980783462524e-01,2.845246531069278717e-02,-5.435908436775207520e-01,7.477650791406631470e-02,-3.730049431324005127e-01,4.671320617198944092e-01,-1.819974035024642944e-01,-4.496117532253265381e-01,1.502378284931182861e-01,-2.474572211503982544e-01,7.218936681747436523e-01,-4.754589796066284180e-01,5.822825804352760315e-02
2.050748467445373535e-01,3.881657868623733521e-02,5.165123194456100464e-02,-6.519317030906677246e-01,6.245506182312965393e-02,-2.540466785430908203e-01,2.290147840976715088e-01,-1.275991648435592651e-01,-5.465826988220214844e-01,2.467857301235198975e-01,-1.420843601226806641e-01,7.861972451210021973e-01,-6.487126350402832031e-01,2.019867897033691406e-01
-2.212847024202346802e-02,-7.769019901752471924e-02,-3.688026219606399536e-02,-5.738270878791809082e-01,1.855256408452987671e-01,-2.072478979825973511e-01,1.536596268415451050e-01,-1.286363601684570312e-01,-3.988770544528961182e-01,4.594593048095703125e-01,-1.905153691768646240e-01,6.972451210021972656e-01,-4.701345264911651611e-01,1.870987191796302795e-02
-9.280838817358016968e-02,1.989633142948150635e-01,-6.045662984251976013e-02,-8.026103377342224121e-01,1.900855218991637230e-03,-1.808530986309051514e-01,2.001255452632904053e-01,-1.719310879707336426e-02,-2.731698155403137207e-01,2.905505299568176270e-01,-3.054033219814300537e-01,6.900988221168518066e-01,-5.207563042640686035e-01,2.291307598352432251e-01
-1.659760773181915283e-01,2.481666207313537598e-01,2.054828964173793793e-02,-5.902576446533203125e-01,1.842748932540416718e-02,-1.974172890186309814e-01,4.519830644130706787e-02,3.522620722651481628e-02,-4.760209918022155762e-01,4.377170503139495850e-01,-3.342681527137756348e-01,6.733037233352661133e-01,-3.613460361957550049e-01,7.420019060373306274e-02
-2.380958646535873413e-01,-2.523319125175476074e-01,2.998653054237365723e-01,-7.453906536102294922e-01,1.262303739786148071e-01,3.854892216622829437e-03,2.399841137230396271e-02,-5.254044011235237122e-02,-3.389835059642791748e-01,3.638361394405364990e-01,-2.667317986488342285e-01,8.427556157112121582e-01,-3.403034508228302002e-01,1.676138937473297119e-01
-1.812791228294372559e-01,-1.005458012223243713e-01,2.943886518478393555e-01,-6.518813967704772949e-01,-6.553472485393285751e-03,-3.216493427753448486e-01,2.192564606666564941e-01,-1.437216550111770630e-01,-3.207771480083465576e-01,4.236744344234466553e-01,-3.521882295608520508e-01,6.483533382415771484e-01,-2.537145912647247314e-01,5.258113145828247070e-02
-2.854401767253875732e-01,-1.822219043970108032e-01,4.769442081451416016e-01,-7.664295434951782227e-01,4.139324277639389038e-02,-2.066791355609893799e-01,2.708051167428493500e-02,-9.055985510349273682e-02,-7.460483163595199585e-02,4.413133561611175537e-01,-3.053419478237628937e-02,7.378768920898437500e-01,-3.219471871852874756e-01,1.068707462400197983e-02
-6.437404751777648926e-01,-2.035236060619354248e-01,4.140148162841796875e-01,-8.090813755989074707e-01,-1.880482584238052368e-02,5.502605438232421875e-02,-4.862038791179656982e-02,-1.621544063091278076e-01,-5.935752764344215393e-02,5.376419425010681152e-01,-5.031530857086181641e-01,6.994376182556152344e-01,-2.843292355537414551e-01,1.475621312856674194e-01
-5.035273432731628418e-01,-2.836776152253150940e-02,6.560518145561218262e-01,-7.844400405883789062e-01,-1.043695956468582153e-01,-2.016764432191848755e-01,3.878257423639297485e-02,-6.134836003184318542e-02,-1.872922293841838837e-02,4.195036590099334717e-01,-3.764832019805908203e-01,7.329497933387756348e-01,-2.556770145893096924e-01,7.972239702939987183e-02
-6.244279146194458008e-01,-2.569628655910491943e-01,3.162711560726165771e-01,-6.801379919052124023e-01,-1.707776635885238647e-01,1.514490395784378052e-01,-1.442745178937911987e-01,-7.788208127021789551e-02,5.081927031278610229e-02,6.320054531097412109e-01,-2.425643205642700195e-01,6.809743642807006836e-01,-1.394485682249069214e-01,1.413400620222091675e-01
-3.596396744251251221e-01,-4.118953347206115723e-01,5.586558580398559570e-01,-6.695503592491149902e-01,-1.410193890333175659e-01,-1.449711769819259644e-01,8.520763367414474487e-02,1.185365207493305206e-02,1.840439289808273315e-01,3.400221467018127441e-01,-3.979834020137786865e-01,6.273033618927001953e-01,-2.096151709556579590e-01,1.018930152058601379e-01
-5.905724167823791504e-01,-3.858641684055328369e-01,4.275087714195251465e-01,-6.533201336860656738e-01,-2.164510935544967651e-01,-9.151700139045715332e-02,-6.886017508804798126e-03,-3.508161753416061401e-02,3.215623795986175537e-01,7.045440077781677246e-01,-3.593636751174926758e-01,5.756679177284240723e-01,-1.544413864612579346e-01,9.049589931964874268e-02
-5.403346419334411621e-01,-4.469838440418243408e-01,7.070916295051574707e-01,-5.908361077308654785e-01,-1.406446695327758789e-01,-7.037673145532608032e-02,-1.293678674846887589e-02,-6.073013320565223694e-02,3.095317780971527100e-01,5.778580904006958008e-01,-3.201596736907958984e-01,7.164089083671569824e-01,1.462012678384780884e-01,1.827520132064819336e-01
-6.215378046035766602e-01,-5.720448493957519531e-01,6.638407707214355469e-01,-4.696767628192901611e-01,-2.336456775665283203e-01,1.099868584424257278e-02,-1.471734195947647095e-01,-6.832364946603775024e-02,3.321354389190673828e-01,5.480619072914123535e-01,-5.729036331176757812e-01,5.931946039199829102e-01,-1.477119177579879761e-01,1.021142378449440002e-01
-7.590633630752563477e-01,-7.154250741004943848e-01,6.803689599037170410e-01,-3.322124183177947998e-01,-2.630421221256256104e-01,9.075547009706497192e-02,-3.576068207621574402e-02,-5.496903508901596069e-02,4.225426316261291504e-01,5.758923292160034180e-01,-3.195762932300567627e-01,5.183454155921936035e-01,-1.256600171327590942e-01,1.278945244848728180e-03
-5.735239982604980469e-01,-7.464354634284973145e-01,7.076795697212219238e-01,-3.511409163475036621e-01,-3.363720476627349854e-01,-1.637337207794189453e-01,-1.211549788713455200e-01,-1.555750221014022827e-01,5.920841693878173828e-01,5.581942796707153320e-01,-4.610752463340759277e-01,4.439814984798431396e-01,-2.553037405014038086e-01,3.031597658991813660e-02
-5.399036407470703125e-01,-6.892087459564208984e-01,6.876887083053588867e-01,-2.598760426044464111e-01,-1.993042081594467163e-01,9.541097283363342285e-02,7.682303339242935181e-02,-6.088707968592643738e-02,3.963105678558349609e-01,5.275925397872924805e-01,-6.932597160339355469e-01,4.342768192291259766e-01,7.207871973514556885e-02,-8.215627819299697876e-02
-5.166361331939697266e-01,-7.440924644470214844e-01,7.075108289718627930e-01,-1.152299866080284119e-01,-4.858476519584655762e-01,-1.859580725431442261e-01,-8.750305324792861938e-02,-1.294709146022796631e-01,4.147805869579315186e-01,4.983550012111663818e-01,-7.049931883811950684e-01,4.559346437454223633e-01,1.774001866579055786e-02,-2.958270907402038574e-01
-5.909160375595092773e-01,-6.912414431571960449e-01,6.277653574943542480e-01,-2.745068967342376709e-01,-4.441544711589813232e-01,-1.963969767093658447e-01,-4.260478913784027100e-02,-2.394837886095046997e-01,4.704160690307617188e-01,4.605605304241180420e-01,-7.991294264793395996e-01,4.895583689212799072e-01,1.368099600076675415e-01,-1.695513278245925903e-01
-5.664043426513671875e-01,-8.568272590637207031e-01,4.045673310756683350e-01,-9.832066297531127930e-02,-2.747530937194824219e-01,1.896788179874420166e-01,1.587934046983718872e-01,-4.637048766016960144e-02,5.331934094429016113e-01,7.223358750343322754e-01,-6.849381327629089355e-01,2.702600955963134766e-01,-1.225083842873573303e-01,-2.304055243730545044e-01
-5.789580941200256348e-01,-9.626148939132690430e-01,7.102955579757690430e-01,-5.696744844317436218e-02,-4.330476820468902588e-01,1.246752068400382996e-01,-9.541554749011993408e-02,-1.616977006196975708e-01,6.009228825569152832e-01,7.026665806770324707e-01,-7.484732270240783691e-01,2.588619887828826904e-01,-3.522347891703248024e-03,-2.342930585145950317e-01
-5.198166370391845703e-01,-9.052568674087524414e-01,2.584894001483917236e-01,-1.336256712675094604e-01,-3.504980504512786865e-01,-1.611530333757400513e-01,-9.902127832174301147e-02,-2.459229379892349243e-01,5.339522957801818848e-01,5.517392158508300781e-01,-9.425333142280578613e-01,3.178372085094451904e-01,-2.182029336690902710e-01,-4.149225056171417236e-01
-6.293797492980957031e-01,-7.777407169342041016e-01,3.999908268451690674e-01,3.534319996833801270e-02,-2.289732694625854492e-01,-4.858113825321197510e-02,4.714422859251499176e-03,-1.258759051561355591e-01,3.566649556159973145e-01,6.820948123931884766e-01,-9.094275832176208496e-01,2.893948853015899658e-01,3.781796991825103760e-02,-2.157448530197143555e-01
-5.350295901298522949e-01,-9.298943281173706055e-01,2.672259211540222168e-01,1.608810573816299438e-01,-2.179002165794372559e-01,-1.648251414299011230e-01,1.039054393768310547e-01,-2.623943090438842773e-01,3.596177101135253906e-01,5.873641967773437500e-01,-9.508147835731506348e-01,2.364751100540161133e-01,1.012099385261535645e-01,-2.320296913385391235e-01
-4.839708507061004639e-01,-9.913299083709716797e-01,2.717307507991790771e-01,1.767316907644271851e-01,-7.121650874614715576e-02,-1.734412014484405518e-01,1.112827211618423462e-01,-1.142430007457733154e-01,4.399950802326202393e-01,6.499562859535217285e-01,-1.049242019653320312e+00,3.012088835239410400e-01,-9.266826510429382324e-02,-3.095465004444122314e-01
-5.911728143692016602e-01,-8.179305791854858398e-01,8.281532675027847290e-02,3.481774330139160156e-01,-1.748177707195281982e-01,-2.290378361940383911e-01,1.168809011578559875e-01,-1.472730636596679688e-01,5.696067214012145996e-01,4.845844507217407227e-01,-9.039152860641479492e-01,7.804773002862930298e-02,5.870978906750679016e-02,-3.523671329021453857e-01
-5.451529622077941895e-01,-8.658423423767089844e-01,2.306778281927108765e-01,3.525678515434265137e-01,-2.234416827559471130e-02,-2.488553673028945923e-01,3.687033802270889282e-02,3.417779505252838135e-02,5.827499032020568848e-01,4.789040088653564453e-01,-1.125488638877868652e+00,-5.311337113380432129e-02,-1.755426824092864990e-02,-3.739994764328002930e-01
-6.137923598289489746e-01,-8.993213772773742676e-01,-1.172006502747535706e-02,5.313189029693603516e-01,1.014093682169914246e-01,-8.391080051660537720e-02,-1.308028697967529297e-01,-1.397742182016372681e-01,1.892037540674209595e-01,5.301145315170288086e-01,-9.788551926612854004e-01,1.854899227619171143e-01,-2.576659619808197021e-01,-3.527723848819732666e-01
-5.582348108291625977e-01,-6.143935322761535645e-01,6.139502674341201782e-02,3.769966661930084229e-01,3.168824613094329834e-01,-4.073077440261840820e-01,8.394418656826019287e-02,4.200708866119384766e-02,3.524678051471710205e-01,5.140187740325927734e-01,-9.734669923782348633e-01,1.760084927082061768e-01,-9.663812071084976196e-02,-4.378365874290466309e-01
-4.720686972141265869e-01,-8.394806981086730957e-01,1.029072403907775879e-01,5.706377029418945312e-01,3.279628455638885498e-01,-2.571943998336791992e-01,-1.168566420674324036e-01,-2.507181763648986816e-01,5.685151219367980957e-01,4.839823544025421143e-01,-1.263614654541015625e+00,1.869807392358779907e-01,-1.341340690851211548e-01,-3.797164559364318848e-01
-5.813272595405578613e-01,-7.339093685150146484e-01,7.927504926919937134e-02,4.712398052215576172e-01,1.389287263154983521e-01,-2.069589793682098389e-01,-3.541574999690055847e-02,-2.805637419223785400e-01,3.960606753826141357e-01,3.493270874023437500e-01,-1.005589842796325684e+00,-9.650737978518009186e-03,6.055274978280067444e-02,-3.103386163711547852e-01
-6.287805438041687012e-01,-7.133994698524475098e-01,-1.448770165443420410e-01,4.926862120628356934e-01,2.807839512825012207e-01,-1.964972615242004395e-01,-3.593068197369575500e-02,-2.707903981208801270e-01,3.372214734554290771e-01,3.789566755294799805e-01,-1.177499651908874512e+00,1.199551373720169067e-01,1.034948527812957764e-01,-3.312598466873168945e-01
-6.533523201942443848e-01,-7.722117900848388672e-01,3.251739218831062317e-02,6.906933188438415527e-01,5.898278355598449707e-01,-2.320761978626251221e-01,-1.482307463884353638e-01,-1.411303412169218063e-02,2.621376514434814453e-01,3.058431446552276611e-01,-1.028543949127197266e+00,6.112825125455856323e-02,7.257138192653656006e-02,-3.951394855976104736e-01
-4.991259574890136719e-01,-6.221796274185180664e-01,2.950508520007133484e-02,7.155169844627380371e-01,6.274578571319580078e-01,-5.112695693969726562e-01,-2.046919465065002441e-01,-9.000945091247558594e-02,4.438147246837615967e-01,4.480118751525878906e-01,-9.964825510978698730e-01,2.635759115219116211e-01,7.562398910522460938e-02,-4.434106945991516113e-01
-6.606409549713134766e-01,-6.891943812370300293e-01,-2.180239260196685791e-01,7.089542150497436523e-01,4.005591273307800293e-01,-5.802884697914123535e-01,-1.997021771967411041e-02,-1.142617389559745789e-01,5.102589726448059082e-01,6.596224308013916016e-01,-1.222020506858825684e+00,1.090991646051406860e-01,-3.036052286624908447e-01,-4.306661486625671387e-01
-5.379616022109985352e-01,-6.308503746986389160e-01,-1.815558224916458130e-01,8.092530965805053711e-01,7.076460719108581543e-01,-5.684555768966674805e-01,3.755933046340942383e-02,-2.601719833910465240e-02,3.448729217052459717e-01,6.322749257087707520e-01,-9.717540740966796875e-01,4.505376890301704407e-02,-6.354163587093353271e-02,-8.068037033081054688e-01
-5.678917765617370605e-01,-9.211996793746948242e-01,-5.646911635994911194e-02,5.220556855201721191e-01,7.241532206535339355e-01,-6.109545826911926270e-01,3.630062192678451538e-02,-8.484509587287902832e-02,3.197468221187591553e-01,5.226957798004150391e-01,-1.030356764793395996e+00,-9.985138894990086555e-04,-3.106585517525672913e-02,-4.797298014163970947e-01
-3.720472455024719238e-01,-9.218440055847167969e-01,-9.658783674240112305e-02,8.379359245300292969e-01,5.395269393920898438e-01,-6.605896353721618652e-01,-5.542938411235809326e-02,1.318041980266571045e-01,5.252249836921691895e-01,4.948464035987854004e-01,-9.001396298408508301e-01,-1.242996752262115479e-01,-3.636433184146881104e-02,-5.197973847389221191e-01
-5.013424754142761230e-01,-7.248754501342773438e-01,-1.272490173578262329e-01,5.577672123908996582e-01,8.764388561248779297e-01,-7.403191328048706055e-01,-1.646413803100585938e-01,-1.037472859025001526e-02,4.321561455726623535e-01,3.835664093494415283e-01,-9.962580204010009766e-01,-1.139196082949638367e-01,9.080255776643753052e-02,-6.482338905334472656e-01
-5.176838636398315430e-01,-8.177717924118041992e-01,-1.812943667173385620e-01,6.391031146049499512e-01,6.447967886924743652e-01,-5.776370167732238770e-01,-8.561337739229202271e-02,1.008622646331787109e-01,2.968746125698089600e-01,4.423675537109375000e-01,-9.251803755760192871e-01,-1.526504307985305786e-01,-4.015538841485977173e-02,-4.480038881301879883e-01
-3.873172998428344727e-01,-8.200524449348449707e-01,-3.715853095054626465e-01,6.776642799377441406e-01,6.115897893905639648e-01,-5.609579086303710938e-01,1.111164018511772156e-01,2.296062707901000977e-01,3.010644018650054932e-01,3.901467919349670410e-01,-7.927634119987487793e-01,-1.414573341608047485e-01,4.359601065516471863e-02,-3.824601173400878906e-01
-3.155352473258972168e-01,-7.226207256317138672e-01,-1.279302537441253662e-01,6.677242517471313477e-01,7.822279930114746094e-01,-4.687597751617431641e-01,4.430681467056274414e-02,1.701514571905136108e-01,2.997764945030212402e-01,4.042479097843170166e-01,-8.979776501655578613e-01,-2.905240654945373535e-01,1.159011572599411011e-01,-6.138561367988586426e-01
-3.096409142017364502e-01,-1.031766057014465332e+00,-3.240269124507904053e-01,3.398470580577850342e-01,6.839151382446289062e-01,-6.606329083442687988e-01,9.720374643802642822e-02,1.048769950866699219e-01,2.592820227146148682e-01,4.046384692192077637e-01,-7.480501532554626465e-01,1.187033765017986298e-02,1.097207218408584595e-01,-5.247510671615600586e-01
-1.605565696954727173e-01,-6.908426880836486816e-01,-4.380460381507873535e-01,2.825129628181457520e-01,6.611293554306030273e-01,-4.689970612525939941e-01,2.832986116409301758e-01,2.977445721626281738e-01,3.123736679553985596e-01,-2.241335576400160789e-03,-7.126334309577941895e-01,-1.324311494827270508e-01,1.778572499752044678e-01,-4.049201905727386475e-01
-9.478061646223068237e-02,-5.641226172447204590e-01,-4.519061148166656494e-01,2.902957201004028320e-01,7.164456844329833984e-01,-5.524481534957885742e-01,-9.747278876602649689e-03,1.748967468738555908e-01,3.724741935729980469e-01,2.865415811538696289e-01,-6.494917869567871094e-01,-4.024885892868041992e-01,3.021863102912902832e-02,-3.536565899848937988e-01
-1.364878565073013306e-01,-5.600813031196594238e-01,-1.229593064635992050e-02,2.866349816322326660e-01,6.158185601234436035e-01,-5.578514337539672852e-01,2.994182407855987549e-01,1.849518716335296631e-01,1.970605850219726562e-01,2.097992002964019775e-01,-4.042715132236480713e-01,-3.854122161865234375e-01,1.063173785805702209e-01,-2.082549035549163818e-01
-3.405756354331970215e-01,-7.939968109130859375e-01,-3.425393402576446533e-01,2.162677049636840820e-01,8.151284456253051758e-01,-7.605130672454833984e-01,1.232254803180694580e-01,3.127010464668273926e-01,1.765145063400268555e-01,2.614322006702423096e-01,-3.685496747493743896e-01,-2.650260627269744873e-01,1.677797921001911163e-02,-1.364724934101104736e-01
1.421282142400741577e-01,-4.068278074264526367e-01,-1.778439730405807495e-01,1.379153281450271606e-01,8.290079832077026367e-01,-3.297137618064880371e-01,3.984728455543518066e-01,1.743689924478530884e-01,-1.003968417644500732e-01,7.751355320215225220e-02,-3.564274907112121582e-01,-4.414010941982269287e-01,2.812374532222747803e-01,-1.080683991312980652e-01
1.003826484084129333e-01,-4.997394680976867676e-01,-4.728005826473236084e-01,2.236461788415908813e-01,6.248159408569335938e-01,-4.735607206821441650e-01,2.794876396656036377e-01,1.076374202966690063e-01,2.763543426990509033e-01,1.415814179927110672e-02,-3.754799365997314453e-01,-3.739385902881622314e-01,1.944731622934341431e-01,-1.392015963792800903e-01
-2.313220873475074768e-02,-2.983147501945495605e-01,-2.420371025800704956e-01,1.228418499231338501e-01,8.992240428924560547e-01,-2.811160683631896973e-01,4.152956306934356689e-01,6.040868535637855530e-02,1.642834544181823730e-01,-1.154029667377471924e-01,-7.517978549003601074e-02,-3.872119188308715820e-01,2.467805594205856323e-01,8.347121626138687134e-02
6.498856097459793091e-02,-4.084214866161346436e-01,-4.244538247585296631e-01,-1.940747536718845367e-02,7.054524421691894531e-01,-2.307726293802261353e-01,3.920034468173980713e-01,2.589297294616699219e-01,9.054952114820480347e-02,-4.163151234388351440e-02,-1.577263623476028442e-01,-3.363776504993438721e-01,-4.208206757903099060e-02,1.349589079618453979e-01
-5.915501341223716736e-02,-2.810086607933044434e-01,-2.378311902284622192e-01,1.986368298530578613e-01,6.557868719100952148e-01,-9.294208139181137085e-02,3.536440730094909668e-01,7.264084368944168091e-02,7.485429942607879639e-02,-1.598921865224838257e-01,-7.797111570835113525e-02,-4.656898081302642822e-01,-1.190962269902229309e-01,-7.275049388408660889e-02
2.183392792940139771e-01,-3.005524277687072754e-01,-2.760833501815795898e-01,3.650999665260314941e-01,7.086830139160156250e-01,7.684995234012603760e-02,5.197289586067199707e-01,2.314861305058002472e-02,8.359558135271072388e-02,-7.756057381629943848e-02,1.228907331824302673e-01,-1.541550308465957642e-01,-1.617942899465560913e-01,1.354530751705169678e-01
2.234878242015838623e-01,-2.809069752693176270e-01,-2.867331802845001221e-01,1.473915129899978638e-01,7.740120291709899902e-01,2.111086696386337280e-01,5.938749313354492188e-01,-1.277637947350740433e-02,5.679357796907424927e-02,-8.232394605875015259e-02,1.616307199001312256e-01,-1.948187500238418579e-01,-9.019704908132553101e-02,-9.864457696676254272e-02
1.672662496566772461e-01,-1.993969827890396118e-01,-3.929201364517211914e-01,-6.954852491617202759e-02,4.879349768161773682e-01,-4.121522232890129089e-02,4.295280873775482178e-01,-4.215944558382034302e-02,5.506114661693572998e-02,6.112741306424140930e-02,3.090269565582275391e-01,-1.519469916820526123e-01,-1.037942245602607727e-01,-2.058331295847892761e-02
3.542185425758361816e-01,-1.135586798191070557e-01,-4.343956112861633301e-01,1.079565361142158508e-01,6.065567731857299805e-01,6.875681877136230469e-02,5.021610260009765625e-01,-1.684431135654449463e-01,3.567523555830121040e-03,-7.387532293796539307e-02,4.179871827363967896e-02,-2.830192446708679199e-01,-2.081556171178817749e-01,2.016055434942245483e-01
5.686089396476745605e-01,-1.044425219297409058e-01,-4.330558180809020996e-01,1.215980350971221924e-01,5.131960511207580566e-01,1.265665739774703979e-01,5.254915952682495117e-01,-2.694694697856903076e-01,-4.951775819063186646e-02,-5.542522296309471130e-02,-1.203543227165937424e-02,-5.505244806408882141e-02,-3.146075904369354248e-01,-6.254287809133529663e-02
3.231079578399658203e-01,-8.724649250507354736e-02,-3.443666100502014160e-01,-7.544564455747604370e-02,6.315674781799316406e-01,1.780841052532196045e-01,5.648068785667419434e-01,-2.657538093626499176e-02,-3.341379761695861816e-01,-1.584262400865554810e-01,-1.521916687488555908e-01,-1.478407829999923706e-01,-1.441135704517364502e-01,-6.976267695426940918e-02
6.586743593215942383e-01,9.147924184799194336e-02,-6.806020140647888184e-01,6.641684472560882568e-02,5.207910537719726562e-01,1.374912261962890625e-01,3.375180959701538086e-01,-3.735777139663696289e-01,-5.457364916801452637e-01,2.793216891586780548e-02,4.180921986699104309e-02,-3.968679811805486679e-03,-3.609742224216461182e-01,-2.487173676490783691e-02
3.293937146663665771e-01,2.173850834369659424e-01,-2.735866308212280273e-01,1.974686235189437866e-01,6.434019207954406738e-01,1.915202140808105469e-01,3.118730187416076660e-01,-2.983999848365783691e-01,-3.632526993751525879e-01,3.577824309468269348e-02,3.775034099817276001e-02,1.842796653509140015e-01,-4.870666563510894775e-01,-1.283573955297470093e-01
5.169794559478759766e-01,1.584540158510208130e-01,-3.486947715282440186e-01,7.615231722593307495e-02,5.177414417266845703e-01,1.880689859390258789e-01,2.380067408084869385e-01,-3.612596988677978516e-01,-3.968445658683776855e-01,2.054679095745086670e-01,1.511762440204620361e-01,-8.225151896476745605e-02,-5.523391366004943848e-01,5.805984884500503540e-02
6.103971004486083984e-01,2.021546512842178345e-01,-4.479094147682189941e-01,-1.550937537103891373e-02,3.683246970176696777e-01,1.513279378414154053e-01,3.601398468017578125e-01,-2.699726223945617676e-01,-5.865020155906677246e-01,2.171092778444290161e-01,6.130029913038015366e-03,3.239236772060394287e-01,-5.580789446830749512e-01,-1.517860591411590576e-01
5.655677914619445801e-01,3.619138598442077637e-01,-4.494926631450653076e-01,-5.344589054584503174e-02,5.647299885749816895e-01,2.007466554641723633e-01,3.477738499641418457e-01,-4.076052606105804443e-01,-4.466341137886047363e-01,2.678261995315551758e-01,-1.337156444787979126e-01,1.080829426646232605e-01,-6.351392865180969238e-01,-1.218096315860748291e-01
5.770615339279174805e-01,4.158629477024078369e-01,-3.604106605052947998e-01,-2.786667644977569580e-02,4.453039765357971191e-01,1.509677916765213013e-01,2.814788818359375000e-01,-5.130831599235534668e-01,-4.972551763057708740e-01,1.392197757959365845e-01,2.058616876602172852e-01,2.027565985918045044e-01,-5.859315395355224609e-01,5.379121378064155579e-02
4.404680728912353516e-01,3.225160241127014160e-01,-4.073940217494964600e-01,-1.574297398328781128e-01,5.230946540832519531e-01,3.833051323890686035e-01,2.888225615024566650e-01,-5.435447096824645996e-01,-8.276247382164001465e-01,2.775873839855194092e-01,1.377836912870407104e-01,3.830764889717102051e-01,-6.617286801338195801e-01,-8.923069387674331665e-02
4.707909226417541504e-01,4.128203094005584717e-01,-2.931384146213531494e-01,-1.269387751817703247e-01,4.563071727752685547e-01,2.616805136203765869e-01,2.910964190959930420e-01,-3.375447094440460205e-01,-6.291677951812744141e-01,2.706554830074310303e-01,6.775443255901336670e-02,2.334825396537780762e-01,-5.558234453201293945e-01,-1.250195503234863281e-01
1.560457348823547363e-01,4.280352890491485596e-01,-4.611132740974426270e-01,-1.072227582335472107e-01,3.642169833183288574e-01,4.383237063884735107e-01,1.664008051156997681e-01,-4.338808953762054443e-01,-7.148310542106628418e-01,2.140778005123138428e-01,-2.142003774642944336e-01,4.290007948875427246e-01,-5.831629633903503418e-01,-1.280793696641921997e-01
3.278208971023559570e-01,5.216086506843566895e-01,-2.420048713684082031e-01,-5.483822152018547058e-02,4.152926206588745117e-01,3.538793325424194336e-01,1.148773208260536194e-01,-5.384715199470520020e-01,-4.086419343948364258e-01,4.149881005287170410e-01,2.967956662178039551e-01,2.619431018829345703e-01,-4.301390051841735840e-01,-1.585729122161865234e-01
2.489442080259323120e-01,5.150675773620605469e-01,-8.671606332063674927e-02,-2.730366885662078857e-01,6.124047636985778809e-01,4.586465358734130859e-01,1.392110884189605713e-01,-6.188263893127441406e-01,-5.336399078369140625e-01,5.032473802566528320e-01,4.822196066379547119e-02,6.821175813674926758e-01,-4.989483356475830078e-01,-2.544422447681427002e-01
2.760829031467437744e-01,7.648048400878906250e-01,2.292680088430643082e-03,-3.776989877223968506e-02,3.626442849636077881e-01,3.648422956466674805e-01,-4.272467643022537231e-02,-6.726325154304504395e-01,-5.238996744155883789e-01,4.156052768230438232e-01,6.053045019507408142e-02,4.107340276241302490e-01,-4.476529061794281006e-01,-3.613237142562866211e-01
2.235962301492691040e-01,6.041058301925659180e-01,-1.209293007850646973e-01,-3.448714315891265869e-01,4.428061842918395996e-01,3.749124109745025635e-01,1.061127036809921265e-01,-7.356445193290710449e-01,-5.028124451637268066e-01,3.003726005554199219e-01,1.542458832263946533e-01,5.681519508361816406e-01,-4.232665002346038818e-01,-4.573610126972198486e-01
1.631814688444137573e-01,4.261628091335296631e-01,-2.326738089323043823e-01,3.159460425376892090e-02,2.785586416721343994e-01,3.249678909778594971e-01,5.534608662128448486e-02,-6.837514042854309082e-01,-6.199685335159301758e-01,4.636489450931549072e-01,7.644914835691452026e-02,5.950636863708496094e-01,-2.028411775827407837e-01,-2.965069413185119629e-01
7.313980720937252045e-03,7.326695322990417480e-01,-6.720598787069320679e-02,-1.920093446969985962e-01,2.185538411140441895e-01,5.208345055580139160e-01,-5.354475229978561401e-02,-5.695089697837829590e-01,-7.055233716964721680e-01,5.723322629928588867e-01,3.199319168925285339e-02,7.261687517166137695e-01,-4.805352687835693359e-01,-6.033244132995605469e-01
-5.783044174313545227e-02,4.674833714962005615e-01,7.025852799415588379e-02,-2.807882130146026611e-01,1.620112508535385132e-01,5.127811431884765625e-01,-8.669297397136688232e-02,-7.333652973175048828e-01,-4.621282517910003662e-01,5.847144126892089844e-01,1.887241452932357788e-01,8.123433589935302734e-01,-3.752939701080322266e-01,-5.648874044418334961e-01
6.312344968318939209e-02,7.331377863883972168e-01,1.431056410074234009e-01,-2.596454620361328125e-01,4.536225646734237671e-02,3.012367188930511475e-01,-2.290530055761337280e-01,-5.966099500656127930e-01,-3.868292868137359619e-01,4.550020694732666016e-01,1.434200257062911987e-01,9.391174316406250000e-01,-2.170134633779525757e-01,-6.157478094100952148e-01
-1.685278415679931641e-01,4.390001296997070312e-01,2.680368721485137939e-01,-1.688919514417648315e-01,-1.147601380944252014e-02,1.992407739162445068e-01,-1.310270726680755615e-01,-5.122076869010925293e-01,-3.909596800804138184e-01,6.197695136070251465e-01,8.995137363672256470e-02,7.946981787681579590e-01,-3.788826763629913330e-01,-6.920902132987976074e-01
-3.567816913127899170e-01,3.501767218112945557e-01,3.875622749328613281e-01,-3.627250492572784424e-01,-2.053648382425308228e-01,5.816517472267150879e-01,-3.856900036334991455e-01,-1.862221360206604004e-01,-8.735968917608261108e-02,3.665573596954345703e-01,2.582108378410339355e-01,9.956781864166259766e-01,-2.629027068614959717e-01,-5.181221365928649902e-01
-2.931980490684509277e-01,4.039789736270904541e-01,1.590280234813690186e-01,-2.000714689493179321e-01,-2.458267658948898315e-01,4.376334846019744873e-01,-3.505412936210632324e-01,-4.390889406204223633e-01,-2.897242009639739990e-01,7.070438861846923828e-01,1.598855406045913696e-01,8.782346248626708984e-01,-1.141171678900718689e-01,-6.426506042480468750e-01
-2.940461933612823486e-01,2.329438328742980957e-01,1.845488250255584717e-01,-2.559914290904998779e-01,-2.460247576236724854e-01,3.460575938224792480e-01,-3.354060649871826172e-01,-4.841350018978118896e-01,-1.749549359083175659e-01,6.172825098037719727e-01,1.595669239759445190e-01,7.574005126953125000e-01,-3.359126672148704529e-02,-6.681692600250244141e-01
-1.445675045251846313e-01,1.862797886133193970e-01,2.933460175991058350e-01,-2.510524690151214600e-01,-3.632583320140838623e-01,5.718625783920288086e-01,-4.065381884574890137e-01,-4.657567143440246582e-01,3.273979574441909790e-02,7.437652349472045898e-01,7.830955833196640015e-02,9.989518523216247559e-01,-1.370968222618103027e-01,-6.885645985603332520e-01
-2.199950218200683594e-01,1.271027177572250366e-01,4.213003814220428467e-01,-3.111447393894195557e-01,-3.629632890224456787e-01,2.996614575386047363e-01,-2.442687898874282837e-01,-5.716868638992309570e-01,-1.351232677698135376e-01,6.007221341133117676e-01,-5.738217756152153015e-02,7.710350155830383301e-01,-1.999141648411750793e-03,-6.275067329406738281e-01
-3.919389843940734863e-01,-7.200776040554046631e-02,4.759078621864318848e-01,-3.868684768676757812e-01,-5.465636849403381348e-01,4.191665649414062500e-01,-2.660505473613739014e-01,-3.493086993694305420e-01,6.076617911458015442e-02,5.020915865898132324e-01,1.533625274896621704e-02,9.353892803192138672e-01,6.145842745900154114e-02,-6.760101914405822754e-01
-4.361217617988586426e-01,-1.796283125877380371e-01,4.277136027812957764e-01,-4.941981136798858643e-01,-4.334785342216491699e-01,2.630344033241271973e-01,-2.170280218124389648e-01,-3.468165397644042969e-01,-6.040839850902557373e-02,5.720052123069763184e-01,-4.823424294590950012e-02,9.111052155494689941e-01,7.150664180517196655e-02,-7.053012847900390625e-01
-3.395161330699920654e-01,-6.575748324394226074e-02,4.713509380817413330e-01,-2.793688476085662842e-01,-3.158655166625976562e-01,3.313703536987304688e-01,-3.908994197845458984e-01,-2.836062312126159668e-01,1.285900473594665527e-01,5.087362527847290039e-01,-1.822644472122192383e-01,8.008258938789367676e-01,9.380780160427093506e-02,-5.029823780059814453e-01
-3.521869182586669922e-01,1.563475877046585083e-01,5.402759909629821777e-01,-2.277766764163970947e-01,-5.743943452835083008e-01,2.544250488281250000e-01,-2.020313888788223267e-01,-3.274160027503967285e-01,1.589308977127075195e-01,5.032556056976318359e-01,-5.967404693365097046e-02,8.746454715728759766e-01,1.735587418079376221e-01,-6.593866348266601562e-01
-2.475194633007049561e-01,-5.832497403025627136e-02,5.941224098205566406e-01,-2.624420523643493652e-01,-5.069440007209777832e-01,3.452859222888946533e-01,-1.885102391242980957e-01,-2.434444129467010498e-01,1.453624013811349869e-02,3.956962525844573975e-01,-1.324018537998199463e-01,6.818675994873046875e-01,1.946790218353271484e-01,-5.304700136184692383e-01
-3.257211148738861084e-01,8.740230649709701538e-02,5.083287954330444336e-01,-6.218807771801948547e-02,-2.998522520065307617e-01,4.156833291053771973e-01,-6.828057020902633667e-02,-1.364610642194747925e-01,2.146111577749252319e-01,4.756269454956054688e-01,6.855986267328262329e-02,6.332092285156250000e-01,1.356474459171295166e-01,-5.515484213829040527e-01
-3.690964579582214355e-01,1.826521754264831543e-01,5.142067074775695801e-01,-1.550496816635131836e-01,-4.737192392349243164e-01,2.353285104036331177e-01,-1.582826673984527588e-01,-1.669981330633163452e-01,1.831403002142906189e-02,2.320152372121810913e-01,5.262286588549613953e-02,6.688371300697326660e-01,2.163561731576919556e-01,-6.085900664329528809e-01
-5.243501067161560059e-01,8.629743009805679321e-03,5.394446849822998047e-01,-1.286260783672332764e-01,-6.089847087860107422e-01,3.484335839748382568e-01,-3.794507309794425964e-02,-3.025238513946533203e-01,3.937367498874664307e-01,1.083951909095048904e-02,1.202320214360952377e-02,6.299877166748046875e-01,2.600388824939727783e-01,-6.273435354232788086e-01
-5.065399408340454102e-01,-7.830078899860382080e-02,5.156281590461730957e-01,3.072555921971797943e-02,-5.293357968330383301e-01,5.783186554908752441e-01,1.246170476078987122e-01,-1.648126393556594849e-01,2.557770907878875732e-01,3.113048970699310303e-01,6.655769050121307373e-02,6.375169754028320312e-01,1.607342362403869629e-01,-5.101619362831115723e-01
-4.497760534286499023e-01,2.422760426998138428e-02,2.462619841098785400e-01,-8.400793373584747314e-02,-6.782240867614746094e-01,3.674033284187316895e-01,-2.602154612541198730e-01,-1.404727697372436523e-01,4.431323409080505371e-01,9.489578753709793091e-02,-1.790043860673904419e-01,5.833078026771545410e-01,1.195517405867576599e-01,-4.868821501731872559e-01
-4.497017264366149902e-01,-1.604251712560653687e-01,4.415688812732696533e-01,4.408410936594009399e-02,-4.735161364078521729e-01,4.040551781654357910e-01,-5.694659426808357239e-03,-2.605491876602172852e-01,4.868414103984832764e-01,2.417227774858474731e-01,-2.896100878715515137e-01,5.182507634162902832e-01,3.442373573780059814e-01,-4.401771128177642822e-01
-5.610318779945373535e-01,-2.660981714725494385e-01,4.297973215579986572e-01,3.186551332473754883e-01,-6.172091960906982422e-01,2.260382175445556641e-01,1.798427850008010864e-02,-2.053286433219909668e-01,4.051777720451354980e-01,1.225452795624732971e-01,-2.010217607021331787e-01,5.252857208251953125e-01,1.025733947753906250e-01,-9.192450642585754395e-01
-5.808652043342590332e-01,-9.713916480541229248e-02,4.115369319915771484e-01,1.410674005746841431e-01,-6.963719129562377930e-01,2.420154362916946411e-01,7.167311012744903564e-02,-1.671719923615455627e-02,4.412271678447723389e-01,-4.582611098885536194e-02,-1.351605504751205444e-01,5.689968466758728027e-01,2.998762130737304688e-01,-6.368306279182434082e-01
-5.802147984504699707e-01,-2.342150211334228516e-01,5.221964120864868164e-01,2.121313959360122681e-01,-3.880514502525329590e-01,2.016007155179977417e-01,3.474597260355949402e-02,-2.731797695159912109e-01,4.503119885921478271e-01,1.046872287988662720e-01,-1.454635560512542725e-01,6.022812724113464355e-01,2.241537906229496002e-02,-5.956519842147827148e-01
-7.998540997505187988e-01,-3.449419438838958740e-01,3.590713143348693848e-01,4.122095406055450439e-01,-5.129900574684143066e-01,2.171775251626968384e-01,1.246715784072875977e-01,-3.521862924098968506e-01,3.966890871524810791e-01,1.492612808942794800e-01,-3.157609701156616211e-01,3.889997005462646484e-01,2.197888791561126709e-01,-6.188114285469055176e-01
-3.786380589008331299e-01,-1.039410009980201721e-01,1.845618188381195068e-01,4.576666355133056641e-01,-6.442719101905822754e-01,1.259007584303617477e-02,1.895151138305664062e-01,-1.042863950133323669e-01,5.190826654434204102e-01,6.267363578081130981e-02,-2.898292541503906250e-01,4.687606990337371826e-01,5.612219101749360561e-04,-7.584095597267150879e-01
-5.006037354469299316e-01,-1.504753381013870239e-01,2.406010478734970093e-01,4.672613441944122314e-01,-4.881418049335479736e-01,-1.380394697189331055e-01,-3.685859730467200279e-03,-1.420242637395858765e-01,5.698820948600769043e-01,-3.592173755168914795e-02,-4.757818281650543213e-01,6.264348030090332031e-01,2.731194198131561279e-01,-6.726521849632263184e-01
-5.437570810317993164e-01,-2.517577707767486572e-01,7.731364667415618896e-02,3.296338021755218506e-01,-5.127629041671752930e-01,1.529879570007324219e-01,2.902094274759292603e-03,-1.197923999279737473e-02,4.707773923873901367e-01,5.288713611662387848e-03,-5.941554903984069824e-01,4.315877854824066162e-01,-1.324642077088356018e-02,-7.189466357231140137e-01
-4.266164898872375488e-01,-8.116267621517181396e-02,1.575533598661422729e-01,5.722401738166809082e-01,-3.217496573925018311e-01,-2.489371448755264282e-01,-3.655565157532691956e-02,-8.524820208549499512e-02,3.489293456077575684e-01,2.373804003000259399e-01,-5.026100873947143555e-01,6.500688195228576660e-01,-6.861845497041940689e-03,-8.317691683769226074e-01
-5.493217706680297852e-01,-2.531580626964569092e-01,-3.878328017890453339e-03,5.184920430183410645e-01,-2.303954660892486572e-01,-2.711244523525238037e-01,3.278822824358940125e-02,4.160660505294799805e-02,5.318615436553955078e-01,-9.010773152112960815e-03,-5.915207862854003906e-01,2.882023155689239502e-01,1.808456629514694214e-01,-8.169893026351928711e-01
-5.586625933647155762e-01,-2.217645645141601562e-01,3.826671466231346130e-02,6.506901383399963379e-01,-1.086634621024131775e-01,-4.159308969974517822e-01,2.236167341470718384e-02,-5.575644318014383316e-03,5.083948373794555664e-01,1.093513071537017822e-01,-4.421123564243316650e-01,4.494140744209289551e-01,-1.432958897203207016e-02,-9.031888842582702637e-01
-6.679860353469848633e-01,-2.553275525569915771e-01,9.070751816034317017e-02,3.495505452156066895e-01,-2.357154339551925659e-01,-3.715234696865081787e-01,-1.056262571364641190e-02,1.673851907253265381e-01,3.713332414627075195e-01,1.064914390444755554e-01,-4.666945636272430420e-01,3.968629837036132812e-01,1.257390826940536499e-01,-6.791843175888061523e-01
-4.872038364410400391e-01,-3.821836113929748535e-01,1.829082518815994263e-01,5.488988161087036133e-01,1.604508236050605774e-02,-3.459673225879669189e-01,6.340170651674270630e-02,2.614400386810302734e-01,2.669652700424194336e-01,-2.261276245117187500e-01,-5.066015124320983887e-01,5.164602398872375488e-01,3.367552161216735840e-01,-8.408595919609069824e-01
-5.432359576225280762e-01,-2.369302958250045776e-01,-1.165123432874679565e-01,4.776259362697601318e-01,6.102258339524269104e-02,-6.968491077423095703e-01,8.019078522920608521e-02,7.665928453207015991e-02,5.410639047622680664e-01,2.987000159919261932e-02,-7.091812491416931152e-01,2.257823050022125244e-01,1.887107193470001221e-01,-6.534036993980407715e-01
-5.523000955581665039e-01,-2.476542294025421143e-01,-1.200162321329116821e-01,5.603756904602050781e-01,3.956079855561256409e-02,-5.301889777183532715e-01,2.049650102853775024e-01,5.979359745979309082e-01,5.501601696014404297e-01,-3.815788403153419495e-02,-5.889682173728942871e-01,2.751485109329223633e-01,3.685091808438301086e-02,-9.082548022270202637e-01
-9.243311285972595215e-01,-3.466069400310516357e-01,6.814523041248321533e-02,6.232080459594726562e-01,1.701427847146987915e-01,-6.443601250648498535e-01,3.914445638656616211e-01,3.635940253734588623e-01,3.937608599662780762e-01,-1.291545778512954712e-01,-3.585067987442016602e-01,3.855223953723907471e-01,1.755599975585937500e-01,-5.131613016128540039e-01
-7.392191886901855469e-01,-2.238820046186447144e-01,4.200356453657150269e-02,3.465318083763122559e-01,1.328350305557250977e-01,-7.441594004631042480e-01,2.611137628555297852e-01,2.159200459718704224e-01,5.019389986991882324e-01,-3.251618519425392151e-02,-5.667945146560668945e-01,1.970683038234710693e-01,1.443847119808197021e-01,-5.007778406143188477e-01
-6.505845785140991211e-01,-2.895047068595886230e-01,-1.117873191833496094e-01,4.642608761787414551e-01,2.682792842388153076e-01,-6.121208071708679199e-01,2.778902053833007812e-01,2.013671696186065674e-01,3.879174590110778809e-01,-8.144681900739669800e-02,-1.181594282388687134e-01,1.243544816970825195e-01,1.728320568799972534e-01,-4.629850983619689941e-01
-6.806708574295043945e-01,-2.369660586118698120e-01,4.918876662850379944e-02,2.809118032455444336e-01,-1.773451082408428192e-02,-4.431211948394775391e-01,1.302458494901657104e-01,4.730862379074096680e-01,6.182494759559631348e-01,-1.367671880871057510e-02,-2.764154672622680664e-01,2.197956144809722900e-01,3.580550253391265869e-01,-4.317383170127868652e-01
-6.387663483619689941e-01,-2.757824063301086426e-01,1.425389498472213745e-01,4.126082956790924072e-01,1.733259707689285278e-01,-7.526074051856994629e-01,1.656560748815536499e-01,1.152681261301040649e-01,5.593359470367431641e-01,-2.242822051048278809e-01,-2.294825315475463867e-01,1.194513663649559021e-01,2.857844531536102295e-01,-3.824594616889953613e-01
-7.172056436538696289e-01,-3.121474981307983398e-01,-1.044794917106628418e-01,3.386996686458587646e-01,2.170073539018630981e-01,-4.782476127147674561e-01,3.979020118713378906e-01,4.213031232357025146e-01,6.991091966629028320e-01,-1.618088632822036743e-01,-2.851682603359222412e-01,1.525574773550033569e-01,1.670396029949188232e-01,-3.412291407585144043e-01
-5.675724744796752930e-01,-1.728226244449615479e-01,2.104344815015792847e-01,2.756822407245635986e-01,3.236869871616363525e-01,-5.716790556907653809e-01,1.864281147718429565e-01,3.832407593727111816e-01,4.799288809299468994e-01,-2.713177204132080078e-01,-2.874144911766052246e-01,-2.949746251106262207e-01,1.918036341667175293e-01,-1.384913176298141479e-01
-4.708873629570007324e-01,-3.027414083480834961e-01,2.452747225761413574e-01,2.319359034299850464e-01,1.315832734107971191e-01,-6.892241239547729492e-01,3.377079367637634277e-01,3.663443922996520996e-01,5.423427820205688477e-01,-1.419572681188583374e-01,-8.748904615640640259e-02,-5.176839977502822876e-02,2.204833365976810455e-02,-7.420908659696578979e-02
-5.753947496414184570e-01,-4.389230906963348389e-01,2.390116453170776367e-01,2.339010983705520630e-01,3.338240981101989746e-01,-4.758871495723724365e-01,3.202385604381561279e-01,3.269914686679840088e-01,6.040728688240051270e-01,2.507882751524448395e-02,-8.140430599451065063e-02,-1.518939435482025146e-01,6.967319548130035400e-02,-1.909896135330200195e-01
-5.753164887428283691e-01,-1.868133544921875000e-01,2.645091116428375244e-01,2.339215278625488281e-01,3.028833866119384766e-01,-3.829478025436401367e-01,3.844375312328338623e-01,4.473025202751159668e-01,5.294727683067321777e-01,-1.288135647773742676e-01,2.102177403867244720e-02,-3.860962688922882080e-01,5.265635997056961060e-02,-1.109633818268775940e-01
-5.209533572196960449e-01,-1.672257184982299805e-01,1.777305603027343750e-01,2.613541185855865479e-01,2.719532549381256104e-01,-6.277192831039428711e-01,4.024240970611572266e-01,2.713499069213867188e-01,5.713589191436767578e-01,-2.397690862417221069e-01,6.031507626175880432e-02,-1.146843433380126953e-01,-2.051167190074920654e-03,-8.925866335630416870e-02
-3.464894890785217285e-01,-3.156056702136993408e-01,1.939697861671447754e-01,2.106194198131561279e-01,2.978776097297668457e-01,-4.970020055770874023e-01,3.533948659896850586e-01,3.901965916156768799e-01,3.410619795322418213e-01,-2.632965147495269775e-01,-2.777376445010304451e-03,-2.719532251358032227e-01,3.431361168622970581e-02,-1.209149137139320374e-01
-3.637626171112060547e-01,-2.975435554981231689e-01,1.342245340347290039e-01,1.868949085474014282e-01,3.504455983638763428e-01,-4.901000261306762695e-01,3.067622184753417969e-01,2.979301512241363525e-01,6.367532014846801758e-01,-2.658346891403198242e-01,9.781248867511749268e-02,-3.918500840663909912e-01,-7.113661617040634155e-02,5.811851099133491516e-02
-5.430957674980163574e-01,-1.708475649356842041e-01,1.996905952692031860e-01,1.047123298048973083e-01,1.418749690055847168e-01,-4.908471107482910156e-01,3.390175104141235352e-01,1.676649749279022217e-01,4.896387159824371338e-01,-3.975781202316284180e-01,2.757263183593750000e-02,-3.270367383956909180e-01,-1.440243870019912720e-01,3.424531221389770508e-01
-3.755689859390258789e-01,-6.955580413341522217e-02,1.188206002116203308e-01,1.448640823364257812e-01,3.875026404857635498e-01,-2.024364024400711060e-01,5.329824686050415039e-01,3.009942471981048584e-01,5.039144158363342285e-01,-3.869437277317047119e-01,1.695524603128433228e-01,-4.045166671276092529e-01,-3.323712348937988281e-01,-8.132900111377239227e-03
-2.498047053813934326e-01,-8.854121714830398560e-02,3.306376338005065918e-01,2.711579501628875732e-01,2.770619690418243408e-01,-3.762408792972564697e-01,3.700452446937561035e-01,4.268127977848052979e-01,4.456524252891540527e-01,-4.489960968494415283e-01,7.949454709887504578e-03,-3.309277594089508057e-01,-5.718526244163513184e-01,3.699840307235717773e-01
-9.436389803886413574e-02,-2.844051718711853027e-01,1.009119898080825806e-01,1.704638004302978516e-01,1.827193498611450195e-01,-3.246540129184722900e-01,5.702205300331115723e-01,5.943479016423225403e-02,3.660592734813690186e-01,-3.484654426574707031e-01,1.829645931720733643e-01,-4.996992945671081543e-01,-2.962495088577270508e-01,4.712310731410980225e-01
-1.405157148838043213e-01,-2.538865804672241211e-01,7.488277554512023926e-02,-2.705224230885505676e-02,6.489296257495880127e-02,-2.163334339857101440e-01,6.887187957763671875e-01,-1.869367659091949463e-01,3.266256153583526611e-01,-2.795417308807373047e-01,1.637905240058898926e-01,-3.465176224708557129e-01,-5.393284559249877930e-01,4.803727269172668457e-01
-9.874626994132995605e-02,-1.176845431327819824e-01,9.500179439783096313e-02,3.428363800048828125e-02,4.086266160011291504e-01,-9.456431120634078979e-02,5.127962827682495117e-01,3.241540864109992981e-02,2.294774651527404785e-01,-3.402082324028015137e-01,2.570146918296813965e-01,-5.539411902427673340e-01,-5.716914534568786621e-01,4.749549925327301025e-01
-8.946990966796875000e-02,1.122898161411285400e-01,9.695098549127578735e-02,2.160448394715785980e-02,1.444553136825561523e-01,-9.914791584014892578e-02,7.002967000007629395e-01,-3.825046122074127197e-02,4.149526357650756836e-01,-6.111518144607543945e-01,1.731497049331665039e-01,-4.810402095317840576e-01,-4.219229817390441895e-01,5.943928956985473633e-01
1.297248806804418564e-02,-1.700925230979919434e-01,1.909448206424713135e-01,-3.828738629817962646e-02,2.308213859796524048e-01,-9.824562817811965942e-02,7.649484872817993164e-01,-9.779582917690277100e-02,2.383373677730560303e-01,-4.900664091110229492e-01,5.396796762943267822e-02,-5.016127824783325195e-01,-3.773734271526336670e-01,7.050499320030212402e-01
-2.517175674438476562e-01,9.070877730846405029e-02,2.835559844970703125e-01,1.120323836803436279e-01,2.420237660408020020e-01,-2.013880610466003418e-01,6.796657443046569824e-01,-1.113412678241729736e-01,2.725778520107269287e-02,-4.259349107742309570e-01,2.567288279533386230e-01,-5.536549091339111328e-01,-7.137583494186401367e-01,6.314522027969360352e-01
-2.017651200294494629e-01,2.056219279766082764e-01,-8.527922630310058594e-02,8.881685324013233185e-03,4.101014733314514160e-01,2.086276374757289886e-02,5.919555425643920898e-01,-2.960231602191925049e-01,1.795125454664230347e-01,-2.590776085853576660e-01,2.108880877494812012e-01,-5.189830660820007324e-01,-6.629934310913085938e-01,6.475611329078674316e-01
1.628786474466323853e-01,2.479231506586074829e-01,1.009712293744087219e-01,7.332457602024078369e-02,3.964250087738037109e-01,3.719882965087890625e-01,5.270940065383911133e-01,-3.747392296791076660e-01,8.491022884845733643e-02,-4.372222721576690674e-01,1.670858114957809448e-01,-3.133594095706939697e-01,-6.526884436607360840e-01,6.216371655464172363e-01
-6.231423933058977127e-03,3.377200365066528320e-01,1.952983140945434570e-01,9.634252637624740601e-02,2.405396550893783569e-01,1.099364310503005981e-01,5.644927620887756348e-01,-3.962079584598541260e-01,1.502415351569652557e-02,-3.771513104438781738e-01,1.895482838153839111e-01,-2.529624998569488525e-01,-7.555003762245178223e-01,5.275474786758422852e-01
-8.302982151508331299e-02,1.569844335317611694e-01,3.285142481327056885e-01,2.106904685497283936e-01,1.617234647274017334e-01,2.505734860897064209e-01,5.638122558593750000e-01,-5.170570611953735352e-01,5.040014907717704773e-02,-3.222663998603820801e-01,9.789329022169113159e-02,-2.910113036632537842e-01,-9.644790291786193848e-01,5.199131965637207031e-01
-4.305608198046684265e-02,3.413775861263275146e-01,1.174722760915756226e-01,1.050728261470794678e-01,5.487337112426757812e-01,2.498347908258438110e-01,4.083658456802368164e-01,-5.433964729309082031e-01,-6.771425902843475342e-02,-1.485771089792251587e-01,2.831912636756896973e-01,-1.515024751424789429e-01,-9.322282075881958008e-01,5.793785452842712402e-01
6.766651570796966553e-02,5.424874424934387207e-01,1.873288899660110474e-01,1.325935274362564087e-01,2.476422935724258423e-01,2.082250863313674927e-01,3.468927145004272461e-01,-5.720883011817932129e-01,1.193566918373107910e-01,-4.609051719307899475e-02,2.517109513282775879e-01,6.202977895736694336e-02,-1.091068267822265625e+00,4.820788800716400146e-01
-1.165496557950973511e-01,4.168402850627899170e-01,2.726956903934478760e-01,8.732229471206665039e-02,3.229995816946029663e-02,2.498893588781356812e-01,1.049746945500373840e-01,-6.350370645523071289e-01,-6.905336678028106689e-02,-2.644880115985870361e-01,3.208933770656585693e-02,-1.850073933601379395e-01,-8.402072787284851074e-01,4.482643604278564453e-01
-3.917910903692245483e-02,2.657477259635925293e-01,2.565706074237823486e-01,1.275674998760223389e-01,4.530793726444244385e-01,3.823273479938507080e-01,3.388037085533142090e-01,-5.915861129760742188e-01,5.074883624911308289e-02,2.834647521376609802e-02,8.458732813596725464e-02,-8.640591055154800415e-02,-1.007363677024841309e+00,4.180195927619934082e-01
-2.788699269294738770e-01,5.449830293655395508e-01,3.626500964164733887e-01,2.696075737476348877e-01,-1.128485775552690029e-03,2.179733961820602417e-01,1.697663217782974243e-01,-7.009567022323608398e-01,-3.728324314579367638e-03,6.345183402299880981e-02,3.707227110862731934e-02,-7.145139575004577637e-02,-8.922285437583923340e-01,2.993291020393371582e-01
-1.415861845016479492e-01,4.711183011531829834e-01,2.450377345085144043e-01,4.357264935970306396e-01,3.128157556056976318e-01,2.598451673984527588e-01,-1.414164155721664429e-01,-6.493666768074035645e-01,-1.047663688659667969e-01,2.244980484247207642e-01,1.355661302804946899e-01,1.152892708778381348e-01,-1.143091320991516113e+00,4.057395160198211670e-01
-1.818198710680007935e-01,3.380773663520812988e-01,5.132712721824645996e-01,1.385793834924697876e-01,4.036018550395965576e-01,3.496503829956054688e-01,-1.641903221607208252e-01,-7.380772829055786133e-01,1.460758894681930542e-01,2.412514984607696533e-01,-4.885575734078884125e-03,3.123421594500541687e-02,-1.087021231651306152e+00,2.865024507045745850e-01
-1.588045656681060791e-01,4.499136805534362793e-01,3.368244171142578125e-01,1.409749835729598999e-01,2.717333137989044189e-01,3.562644422054290771e-01,-5.309674143791198730e-02,-9.774100780487060547e-01,-1.028978526592254639e-01,5.079188346862792969e-01,-3.999388590455055237e-02,1.473207212984561920e-02,-1.003340125083923340e+00,2.177405357360839844e-01
-3.807928264141082764e-01,5.678297877311706543e-01,4.719142019748687744e-01,9.758808463811874390e-02,1.090373918414115906e-01,3.863905966281890869e-01,-2.831408977508544922e-01,-8.952192664146423340e-01,-1.403834074735641479e-01,4.415291845798492432e-01,-1.169757619500160217e-01,2.287572473287582397e-01,-1.022221922874450684e+00,1.844485402107238770e-01
-1.159942448139190674e-01,4.579398930072784424e-01,4.664940237998962402e-01,1.519301682710647583e-01,2.086085528135299683e-01,2.602124214172363281e-01,-1.288865208625793457e-01,-8.755297660827636719e-01,5.716566927731037140e-03,4.440261721611022949e-01,-9.827250242233276367e-02,2.106551676988601685e-01,-9.332025647163391113e-01,3.582470715045928955e-01
-1.958801448345184326e-01,4.942775070667266846e-01,5.480815768241882324e-01,1.442899834364652634e-02,1.821602433919906616e-01,2.851503789424896240e-01,-3.609708845615386963e-01,-9.504967927932739258e-01,1.405799537897109985e-01,7.309453487396240234e-01,-1.346112787723541260e-02,1.192460879683494568e-01,-9.422063827514648438e-01,1.998999863862991333e-01
-2.419189661741256714e-01,3.533487617969512939e-01,4.877803623676300049e-01,-6.324568763375282288e-03,2.526005506515502930e-01,3.514741063117980957e-01,-5.853121280670166016e-01,-7.692079544067382812e-01,-2.599742263555526733e-02,5.940820574760437012e-01,-2.271971255540847778e-01,4.171726107597351074e-02,-8.009662628173828125e-01,1.630773991346359253e-01
-5.377891659736633301e-01,3.566092252731323242e-01,5.613093972206115723e-01,9.665479511022567749e-02,-1.996306143701076508e-02,4.291170537471771240e-01,-5.608373284339904785e-01,-9.036400914192199707e-01,1.324978023767471313e-01,6.822254657745361328e-01,3.613050654530525208e-02,2.017181813716888428e-01,-7.087231874465942383e-01,2.036491781473159790e-01
-4.646742343902587891e-01,2.143017351627349854e-01,5.700137019157409668e-01,-5.708572454750537872e-03,4.740672931075096130e-02,4.087200164794921875e-01,-6.242779493331909180e-01,-7.082867622375488281e-01,1.815208196640014648e-01,7.059698104858398438e-01,5.975462123751640320e-02,4.963316768407821655e-02,-7.032704949378967285e-01,2.341258525848388672e-01
-5.987485051155090332e-01,2.837717533111572266e-01,7.911855578422546387e-01,-1.651045313337817788e-04,-2.315544895827770233e-02,5.818088650703430176e-01,-5.531880855560302734e-01,-9.646733403205871582e-01,5.593729391694068909e-02,6.496495604515075684e-01,-6.617634743452072144e-02,9.377630800008773804e-02,-6.272708773612976074e-01,4.012454152107238770e-01
-4.460725784301757812e-01,1.919970661401748657e-01,6.289015412330627441e-01,-5.416876822710037231e-02,2.588117495179176331e-03,6.136286258697509766e-01,-7.141696214675903320e-01,-6.855928301811218262e-01,1.585746109485626221e-01,7.531188726425170898e-01,1.260109543800354004e-01,-3.345065191388130188e-02,-5.530884265899658203e-01,1.411379724740982056e-01
-5.145516395568847656e-01,3.538021445274353027e-01,7.263180613517761230e-01,7.584181614220142365e-03,-6.283589452505111694e-02,4.805041253566741943e-01,-5.094507932662963867e-01,-8.588688969612121582e-01,7.695566117763519287e-02,5.443198680877685547e-01,5.134212970733642578e-02,6.612746976315975189e-03,-4.764551222324371338e-01,8.953747153282165527e-02
-4.406670629978179932e-01,8.415764570236206055e-02,7.921814322471618652e-01,2.203683704137802124e-01,3.370775654911994934e-02,5.082830190658569336e-01,-8.483892083168029785e-01,-9.354074001312255859e-01,3.289873898029327393e-01,5.453526377677917480e-01,5.399331077933311462e-02,2.169527858495712280e-02,-3.930611014366149902e-01,1.896273344755172729e-01
-5.541922450065612793e-01,2.210168838500976562e-01,8.805518150329589844e-01,1.423462629318237305e-01,-2.981034219264984131e-01,7.183794975280761719e-01,-6.174011826515197754e-01,-7.367382645606994629e-01,4.932797253131866455e-01,6.519500017166137695e-01,3.109348565340042114e-02,-1.628667712211608887e-01,-2.416022717952728271e-01,8.859571814537048340e-02
-6.296327710151672363e-01,5.550918355584144592e-02,7.899287939071655273e-01,2.917809784412384033e-01,-3.116214573383331299e-01,7.454390525817871094e-01,-7.207207083702087402e-01,-1.015831351280212402e+00,3.855040371417999268e-01,6.963339447975158691e-01,1.731522940099239349e-02,7.510914932936429977e-03,-3.589769899845123291e-01,2.260515242815017700e-01
-6.981152296066284180e-01,8.868064731359481812e-02,8.303448557853698730e-01,5.833822861313819885e-02,-2.302770167589187622e-01,8.213878870010375977e-01,-7.962256073951721191e-01,-7.808577418327331543e-01,5.127843022346496582e-01,5.821967124938964844e-01,1.414812952280044556e-01,1.255277823656797409e-02,-2.569485008716583252e-01,8.048507571220397949e-02
-5.233866572380065918e-01,1.692674681544303894e-02,8.369170427322387695e-01,1.979162096977233887e-01,-4.532536864280700684e-01,7.016161680221557617e-01,-9.080617427825927734e-01,-8.209892511367797852e-01,4.542351663112640381e-01,6.120342612266540527e-01,4.961186274886131287e-02,-1.820939332246780396e-01,-2.792401015758514404e-01,-1.195829287171363831e-01
-3.579486310482025146e-01,-9.544532746076583862e-02,7.907177805900573730e-01,4.029830992221832275e-01,-4.503287076950073242e-01,7.608380317687988281e-01,-7.493139505386352539e-01,-8.927187919616699219e-01,3.764258623123168945e-01,5.262114405632019043e-01,7.824146002531051636e-02,-5.929553881287574768e-02,-2.386688441038131714e-01,-2.775331493467092514e-03
-5.266227126121520996e-01,-1.718444824218750000e-01,7.893716692924499512e-01,4.482068419456481934e-01,-3.181061446666717529e-01,6.789160966873168945e-01,-7.423708438873291016e-01,-9.174786210060119629e-01,5.285943150520324707e-01,5.075882673263549805e-01,-2.880061231553554535e-02,-5.379651859402656555e-02,-2.378698587417602539e-01,-3.783247247338294983e-02
-5.757844448089599609e-01,-1.905204802751541138e-01,8.018794655799865723e-01,4.626416563987731934e-01,-3.190369606018066406e-01,7.585358023643493652e-01,-8.754792213439941406e-01,-9.032561779022216797e-01,5.757965445518493652e-01,3.940754532814025879e-01,4.970758035778999329e-02,-3.528868034482002258e-02,-1.165880188345909119e-01,2.728475630283355713e-02
-4.557388126850128174e-01,-1.215606555342674255e-01,7.498975396156311035e-01,6.304644942283630371e-01,-4.844692349433898926e-01,7.648290395736694336e-01,-8.519141674041748047e-01,-5.259010195732116699e-01,4.147708117961883545e-01,5.382821559906005859e-01,1.462440751492977142e-02,-1.014500334858894348e-01,-1.100235655903816223e-01,-1.697401143610477448e-02
-3.358384072780609131e-01,-2.461511194705963135e-01,7.682089805603027344e-01,5.317782163619995117e-01,-7.120695710182189941e-01,6.211147308349609375e-01,-8.761692047119140625e-01,-5.231066942214965820e-01,4.886974096298217773e-01,7.107694149017333984e-01,-7.435711473226547241e-02,-2.853531241416931152e-01,1.311774253845214844e-01,-1.751390546560287476e-01
-3.597978353500366211e-01,-5.722753703594207764e-03,6.885452270507812500e-01,6.084722280502319336e-01,-5.293864011764526367e-01,8.499768972396850586e-01,-8.626940250396728516e-01,-7.367674112319946289e-01,2.429363578557968140e-01,4.539280235767364502e-01,-2.095883935689926147e-01,-3.482803404331207275e-01,4.622046370059251785e-03,-1.500185430049896240e-01
-4.831869006156921387e-01,-2.083893418312072754e-01,5.077344775199890137e-01,6.874616146087646484e-01,-4.805610775947570801e-01,7.121387720108032227e-01,-9.333582520484924316e-01,-5.751758813858032227e-01,4.845961928367614746e-01,4.082506597042083740e-01,-4.491101503372192383e-01,-1.738027334213256836e-01,-7.937846332788467407e-02,-1.887498050928115845e-01
-1.291494071483612061e-01,-1.276462674140930176e-01,4.671493470668792725e-01,6.731991171836853027e-01,-3.839286267757415771e-01,7.770615816116333008e-01,-8.030080199241638184e-01,-4.697809219360351562e-01,3.642941713333129883e-01,4.795584678649902344e-01,-4.054092168807983398e-01,-1.598009467124938965e-01,-8.293236047029495239e-02,-1.808535754680633545e-01
-3.040796816349029541e-01,-2.674183249473571777e-01,2.383136153221130371e-01,5.544642806053161621e-01,-2.447721511125564575e-01,6.999714970588684082e-01,-6.739505529403686523e-01,-7.402510046958923340e-01,3.544019460678100586e-01,1.205963417887687683e-01,-2.101404070854187012e-01,-3.368623852729797363e-01,-1.564710959792137146e-02,-1.542873382568359375e-01
-1.954977661371231079e-01,-2.020768970251083374e-01,3.479650318622589111e-01,5.808673501014709473e-01,-4.702672064304351807e-01,7.636305093765258789e-01,-7.771453261375427246e-01,-4.636251628398895264e-01,3.784418106079101562e-01,2.910321056842803955e-01,-2.895678579807281494e-01,-2.946379780769348145e-01,8.058796636760234833e-03,7.193301618099212646e-02
-3.166079223155975342e-01,-2.005617320537567139e-01,1.709570884704589844e-01,7.375764250755310059e-01,-1.724187433719635010e-01,5.886687040328979492e-01,-7.967689633369445801e-01,-6.899781227111816406e-01,4.272018969058990479e-01,2.466554343700408936e-01,-4.266996085643768311e-01,-2.720883488655090332e-01,1.304011493921279907e-01,-1.740070283412933350e-01
-2.290669381618499756e-01,-1.671242862939834595e-01,-2.409788966178894043e-02,7.740575671195983887e-01,-3.889347016811370850e-01,6.436806917190551758e-01,-7.940278053283691406e-01,-4.412088990211486816e-01,3.564597666263580322e-01,7.289779186248779297e-02,-3.474698960781097412e-01,-2.183998674154281616e-01,5.020749941468238831e-02,-2.118021994829177856e-01
-3.009223639965057373e-01,-1.046567559242248535e-01,1.335799843072891235e-01,8.078838586807250977e-01,-3.002349138259887695e-01,6.403240561485290527e-01,-6.391507983207702637e-01,-5.879656672477722168e-01,2.931983172893524170e-01,3.551753163337707520e-01,-2.281921207904815674e-01,-3.213342726230621338e-01,2.056794464588165283e-01,-3.371228575706481934e-01
-2.921007275581359863e-01,-2.346584200859069824e-01,1.082131862640380859e-01,1.042085051536560059e+00,-1.869346797466278076e-01,5.257034301757812500e-01,-6.671013236045837402e-01,-4.074828624725341797e-01,3.965037763118743896e-01,-2.232701703906059265e-02,-4.835270047187805176e-01,-2.564726173877716064e-01,1.555443406105041504e-01,-2.794300317764282227e-01
-2.958022952079772949e-01,-1.317374259233474731e-01,-8.095382153987884521e-02,1.102208852767944336e+00,-2.254079729318618774e-01,6.926155686378479004e-01,-6.158897876739501953e-01,-5.685093998908996582e-01,1.703805923461914062e-01,1.377750188112258911e-01,-4.197650253772735596e-01,-3.104726672172546387e-01,2.214599698781967163e-01,-2.812567651271820068e-01
-3.192863464355468750e-01,-1.780828684568405151e-01,-7.017397880554199219e-02,1.040929675102233887e+00,-5.462333932518959045e-02,6.101539731025695801e-01,-7.496409416198730469e-01,-5.728505253791809082e-01,3.939278721809387207e-01,4.464070126414299011e-02,-2.971998453140258789e-01,-2.122178524732589722e-01,5.307177305221557617e-01,-3.649726510047912598e-01
-2.649839818477630615e-01,-3.149229101836681366e-03,-1.093799099326133728e-01,1.004808783531188965e+00,-1.105036139488220215e-01,5.387287735939025879e-01,-4.031352698802947998e-01,-6.213733553886413574e-01,3.042430579662322998e-01,2.169884555041790009e-02,-3.870734274387359619e-01,-4.110724627971649170e-01,2.609616816043853760e-01,-4.498840570449829102e-01
-3.952561914920806885e-01,1.248480007052421570e-01,-2.148109823465347290e-01,9.095899462699890137e-01,-1.846922487020492554e-01,5.031213164329528809e-01,-6.829889416694641113e-01,-5.115786790847778320e-01,1.169516071677207947e-01,3.116435557603836060e-02,-3.843674361705780029e-01,-2.617569267749786377e-01,2.466417551040649414e-01,-5.083361268043518066e-01
-3.685970306396484375e-01,1.031718701124191284e-01,-2.002917677164077759e-01,1.185257911682128906e+00,-4.393829032778739929e-03,3.252354860305786133e-01,-6.459558606147766113e-01,-4.324186146259307861e-01,8.942981064319610596e-02,-1.353412419557571411e-01,-3.964011669158935547e-01,-4.051817655563354492e-01,2.088145464658737183e-01,-5.691222548484802246e-01
-2.630837559700012207e-01,8.733565360307693481e-02,-2.454102635383605957e-01,1.176742911338806152e+00,8.011806756258010864e-02,4.074983000755310059e-01,-4.180818200111389160e-01,-3.527366816997528076e-01,5.954047292470932007e-02,-3.034397400915622711e-02,-2.588591277599334717e-01,-4.774370789527893066e-01,3.971904516220092773e-01,-5.069467425346374512e-01
-3.715465962886810303e-01,1.745287925004959106e-01,-1.371595859527587891e-01,1.129415631294250488e+00,-1.544586718082427979e-01,3.283330798149108887e-01,-6.565263867378234863e-01,-2.604297101497650146e-01,1.896202564239501953e-01,-1.664549484848976135e-02,-4.343836903572082520e-01,-2.610414028167724609e-01,2.375176995992660522e-01,-6.239978075027465820e-01
-1.617334336042404175e-01,1.857280433177947998e-01,-1.927529573440551758e-01,9.939296841621398926e-01,-6.962049007415771484e-02,1.089035123586654663e-01,-7.505581974983215332e-01,-3.224360942840576172e-01,8.100133389234542847e-02,-3.045860119163990021e-02,-2.380367964506149292e-01,-3.097667396068572998e-01,2.521384954452514648e-01,-4.359362721443176270e-01
-7.317277602851390839e-03,7.542243227362632751e-03,-3.960619568824768066e-01,8.811920285224914551e-01,-8.873948827385902405e-03,4.073130339384078979e-02,-6.624872684478759766e-01,-8.721510320901870728e-02,2.250922471284866333e-01,6.213943660259246826e-02,-9.590502083301544189e-02,-3.424248397350311279e-01,4.009788036346435547e-01,-6.703723669052124023e-01
3.296429524198174477e-03,-2.148175984621047974e-02,-3.586024343967437744e-01,9.875410199165344238e-01,-1.338071674108505249e-01,2.726610600948333740e-01,-7.544939517974853516e-01,-1.502187997102737427e-01,1.158320456743240356e-01,-1.426840573549270630e-02,-2.598610818386077881e-01,-3.912451863288879395e-01,4.768458008766174316e-01,-5.981395840644836426e-01
2.663671970367431641e-03,6.964036077260971069e-02,-4.273116886615753174e-01,9.936650395393371582e-01,-6.682000309228897095e-02,6.684134900569915771e-02,-4.964161813259124756e-01,-2.047693580389022827e-01,1.713320612907409668e-01,5.437517911195755005e-02,-1.272841095924377441e-01,-3.871994018554687500e-01,6.574968695640563965e-01,-4.181241691112518311e-01
-1.337349116802215576e-01,-3.949946723878383636e-03,-4.828518629074096680e-01,8.990326523780822754e-01,1.138475462794303894e-01,1.221237238496541977e-02,-6.551204323768615723e-01,-4.342764616012573242e-02,5.059091001749038696e-02,-1.492739319801330566e-01,1.989570558071136475e-01,-1.421068161725997925e-01,6.394463777542114258e-01,-3.842225372791290283e-01
-8.871012926101684570e-02,9.801932424306869507e-02,-4.499678909778594971e-01,7.887663245201110840e-01,-2.625898271799087524e-02,-1.462100297212600708e-01,-5.009500980377197266e-01,-5.806718021631240845e-02,1.309365034103393555e-01,-4.171269387006759644e-02,-4.971341043710708618e-02,-5.392475724220275879e-01,6.188915967941284180e-01,-3.748323917388916016e-01
-6.093512102961540222e-02,3.318421915173530579e-02,-4.776977300643920898e-01,7.518959045410156250e-01,-4.825592413544654846e-02,1.944502741098403931e-01,-5.061898231506347656e-01,1.505468934774398804e-01,2.145730704069137573e-01,-2.935067117214202881e-01,-1.953119412064552307e-02,-5.408974885940551758e-01,4.342759549617767334e-01,-3.340800106525421143e-01
1.230648458003997803e-01,3.400579094886779785e-02,-3.790863156318664551e-01,6.909718513488769531e-01,5.906271561980247498e-02,-7.232950627803802490e-02,-5.083312392234802246e-01,4.188725650310516357e-01,-1.101142466068267822e-01,-3.537470698356628418e-01,1.101462617516517639e-01,-6.836693882942199707e-01,5.491657853126525879e-01,-1.117962822318077087e-01
2.149114310741424561e-01,8.567357063293457031e-02,-4.066995978355407715e-01,5.594983100891113281e-01,-4.577748477458953857e-02,-1.295374333858489990e-01,-4.605132341384887695e-01,2.350246459245681763e-01,8.672176301479339600e-02,-4.072291553020477295e-01,1.963145285844802856e-01,-5.186012983322143555e-01,6.170518994331359863e-01,-2.712046802043914795e-01
2.368914633989334106e-01,1.230715364217758179e-01,-4.977174997329711914e-01,4.714358150959014893e-01,-7.130905985832214355e-02,1.207846328616142273e-01,-3.936543166637420654e-01,2.195681631565093994e-01,-2.952667884528636932e-02,-3.211557567119598389e-01,2.858141064643859863e-01,-6.282463669776916504e-01,7.210940718650817871e-01,-1.949771195650100708e-01
2.138641774654388428e-01,1.168819442391395569e-01,-5.070003867149353027e-01,5.646821260452270508e-01,6.575702130794525146e-02,2.936993539333343506e-01,-4.009528458118438721e-01,3.291992247104644775e-01,-1.645903736352920532e-01,-5.344418883323669434e-01,4.360701441764831543e-01,-6.099113225936889648e-01,6.778829693794250488e-01,1.476013939827680588e-02
2.443465888500213623e-01,1.756373792886734009e-01,-5.438764691352844238e-01,2.845312654972076416e-01,-1.000940129160881042e-01,2.269386351108551025e-01,-2.647641897201538086e-01,2.793502211570739746e-01,-1.431174427270889282e-01,-3.897101581096649170e-01,3.983782231807708740e-01,-6.795376539230346680e-01,5.814335942268371582e-01,1.526595279574394226e-02
2.530280947685241699e-01,8.951923251152038574e-02,-4.181752204895019531e-01,2.556837797164916992e-01,-8.446758240461349487e-02,2.727854847908020020e-01,-1.383282542228698730e-01,2.110296487808227539e-01,-1.268884837627410889e-01,-5.602521896362304688e-01,5.996089577674865723e-01,-7.297341227531433105e-01,6.530803442001342773e-01,2.396205365657806396e-01
3.780478537082672119e-01,3.833988904953002930e-01,-5.153847932815551758e-01,2.603873312473297119e-01,-3.369243117049336433e-03,3.403950631618499756e-01,9.069237112998962402e-02,4.615179896354675293e-01,4.136359691619873047e-02,-7.434929013252258301e-01,8.127660751342773438e-01,-5.369051098823547363e-01,4.972704350948333740e-01,1.409530341625213623e-01
5.124458074569702148e-01,2.991009652614593506e-01,-5.364568829536437988e-01,2.661598920822143555e-01,-1.477845851331949234e-02,3.293578624725341797e-01,4.843600094318389893e-02,4.351280033588409424e-01,-2.822436988353729248e-01,-9.131083488464355469e-01,5.431700348854064941e-01,-6.086108684539794922e-01,5.381058454513549805e-01,3.912202119827270508e-01
5.779417157173156738e-01,2.562972009181976318e-01,-6.302615404129028320e-01,2.419014871120452881e-01,-2.496306411921977997e-02,2.877086400985717773e-01,1.222940087318420410e-01,2.135808020830154419e-01,-3.148853778839111328e-01,-8.207391500473022461e-01,7.865366339683532715e-01,-6.610696911811828613e-01,7.273678779602050781e-01,2.324168235063552856e-01
6.714956760406494141e-01,4.378033876419067383e-01,-5.344451665878295898e-01,1.028702482581138611e-01,-1.108306348323822021e-01,3.546116948127746582e-01,2.587524056434631348e-02,2.416818290948867798e-01,-2.211041748523712158e-01,-9.879237413406372070e-01,6.801388263702392578e-01,-6.914855837821960449e-01,4.936245083808898926e-01,3.581102788448333740e-01
4.363718032836914062e-01,3.033948242664337158e-01,-5.321944355964660645e-01,1.345797032117843628e-01,-2.699843347072601318e-01,2.272708266973495483e-01,2.629837691783905029e-01,2.223214656114578247e-01,-4.690232574939727783e-01,-8.307987451553344727e-01,8.560914993286132812e-01,-5.737189650535583496e-01,3.043707013130187988e-01,2.943772971630096436e-01
5.584580898284912109e-01,5.161474943161010742e-01,-5.093749761581420898e-01,1.577685475349426270e-01,-4.996962845325469971e-02,4.746630489826202393e-01,1.631272733211517334e-01,1.051195189356803894e-01,-3.195689618587493896e-01,-5.908445119857788086e-01,8.406571149826049805e-01,-4.785768091678619385e-01,3.665366768836975098e-01,3.735164403915405273e-01
6.006014943122863770e-01,4.675863683223724365e-01,-3.289822340011596680e-01,8.786698803305625916e-03,-2.235754579305648804e-01,6.098628640174865723e-01,1.387158334255218506e-01,2.984596788883209229e-01,-3.010520339012145996e-01,-1.162017703056335449e+00,9.741283655166625977e-01,-4.992006421089172363e-01,2.958466410636901855e-01,5.012069344520568848e-01
7.024638056755065918e-01,6.632425785064697266e-01,-5.365573763847351074e-01,1.638261973857879639e-01,-1.065472811460494995e-01,5.056129693984985352e-01,2.255420237779617310e-01,2.734242379665374756e-01,-3.766840100288391113e-01,-9.273203015327453613e-01,7.442387342453002930e-01,-5.516202449798583984e-01,2.874657809734344482e-01,3.728318810462951660e-01
8.051555752754211426e-01,5.320946574211120605e-01,-6.601240038871765137e-01,4.985097050666809082e-02,-2.580255568027496338e-01,6.424776315689086914e-01,-7.406033575534820557e-02,-8.607957512140274048e-03,-4.256931543350219727e-01,-9.052142500877380371e-01,7.269610762596130371e-01,-6.197739243507385254e-01,3.913787603378295898e-01,4.020264744758605957e-01
6.887450218200683594e-01,5.074110627174377441e-01,-4.003862738609313965e-01,5.061864107847213745e-02,-1.731965392827987671e-01,6.522234082221984863e-01,9.567368775606155396e-02,-4.312919825315475464e-02,-5.261268019676208496e-01,-9.141989350318908691e-01,1.032935976982116699e+00,-3.719778060913085938e-01,1.618116945028305054e-01,2.166744917631149292e-01
8.404179811477661133e-01,5.906912684440612793e-01,-4.452510774135589600e-01,-6.560145318508148193e-02,-2.672806084156036377e-01,5.718452930450439453e-01,5.594527721405029297e-02,-5.674205720424652100e-02,-6.152462959289550781e-01,-7.249637246131896973e-01,9.343239665031433105e-01,-4.204575419425964355e-01,-7.949016988277435303e-02,4.008126556873321533e-01
9.669845104217529297e-01,7.292452454566955566e-01,-7.217059135437011719e-01,6.109942868351936340e-02,-1.251881271600723267e-01,6.625160574913024902e-01,8.277260512113571167e-02,3.811838105320930481e-02,-6.000315546989440918e-01,-6.906159520149230957e-01,7.272182703018188477e-01,-2.320684194564819336e-01,-2.760024368762969971e-01,4.791899025440216064e-01
8.406701683998107910e-01,8.611337542533874512e-01,-6.117288470268249512e-01,5.991639569401741028e-02,-2.725995182991027832e-01,5.985611677169799805e-01,1.234958022832870483e-01,-1.014681160449981689e-01,-7.749317884445190430e-01,-7.309858798980712891e-01,7.840244174003601074e-01,-2.434663474559783936e-01,-1.917293369770050049e-01,3.983068466186523438e-01
8.047567009925842285e-01,8.720541000366210938e-01,-4.245817661285400391e-01,-9.593978524208068848e-03,-4.088119268417358398e-01,5.341320633888244629e-01,8.545253425836563110e-03,-6.379134207963943481e-02,-5.813115239143371582e-01,-5.706807374954223633e-01,5.467125773429870605e-01,-3.239825069904327393e-01,-1.625107228755950928e-01,3.643808066844940186e-01
9.249826073646545410e-01,8.441686630249023438e-01,-5.349717736244201660e-01,-3.599005937576293945e-02,-3.195946812629699707e-01,5.726002454757690430e-01,-2.294359728693962097e-02,7.843876630067825317e-02,-8.421981334686279297e-01,-5.421087741851806641e-01,8.285383582115173340e-01,-3.030929863452911377e-01,-1.469080746173858643e-01,3.416661918163299561e-01
7.495141625404357910e-01,9.992356896400451660e-01,-7.381995320320129395e-01,-2.173862755298614502e-01,-2.295768857002258301e-01,5.038887858390808105e-01,-4.496885836124420166e-02,-3.460177481174468994e-01,-8.871157765388488770e-01,-5.137918591499328613e-01,9.661389589309692383e-01,4.561375826597213745e-02,-2.503406405448913574e-01,4.530072510242462158e-01
5.367777347564697266e-01,8.955036401748657227e-01,-2.859559953212738037e-01,-2.676847577095031738e-01,-3.216521441936492920e-01,3.809038400650024414e-01,-9.034155309200286865e-02,-1.828771382570266724e-01,-7.969879508018493652e-01,-5.294455885887145996e-01,6.088976263999938965e-01,6.571035087108612061e-02,-1.771362572908401489e-01,3.045465648174285889e-01
7.647087574005126953e-01,9.454973936080932617e-01,-3.943188786506652832e-01,-2.445650547742843628e-01,-3.042213618755340576e-01,8.059867024421691895e-01,1.300352811813354492e-01,-2.449505031108856201e-01,-6.323811411857604980e-01,-6.226524710655212402e-01,7.857806086540222168e-01,-1.299704909324645996e-01,-4.633379727602005005e-02,6.062178611755371094e-01
6.969478726387023926e-01,9.591455459594726562e-01,-3.325652182102203369e-01,-3.120854198932647705e-01,-4.675929844379425049e-01,6.584917902946472168e-01,2.285176329314708710e-02,-1.698470264673233032e-01,-8.174287080764770508e-01,-4.587188661098480225e-01,7.326474189758300781e-01,4.732486978173255920e-02,-2.112437486648559570e-01,3.032130300998687744e-01
7.614342570304870605e-01,8.754726648330688477e-01,-2.186559438705444336e-01,-2.997049391269683838e-01,-3.794066309928894043e-01,4.442109167575836182e-01,-1.382191330194473267e-01,-1.902062147855758667e-01,-8.719537854194641113e-01,-5.727746486663818359e-01,8.755103349685668945e-01,9.924173355102539062e-02,-6.708502024412155151e-02,4.332445263862609863e-01
3.448188006877899170e-01,1.115188598632812500e+00,-4.148921966552734375e-01,-2.045506536960601807e-01,-4.551252722740173340e-01,7.717036604881286621e-01,-3.888039290904998779e-01,-2.530035674571990967e-01,-9.575233459472656250e-01,-5.435254573822021484e-01,5.788978338241577148e-01,4.252563118934631348e-01,-6.635738909244537354e-02,2.435296177864074707e-01
5.189757347106933594e-01,9.902776479721069336e-01,-2.337876856327056885e-01,-4.000913798809051514e-01,-1.999715566635131836e-01,5.766224265098571777e-01,-3.495679423213005066e-02,-2.870144844055175781e-01,-6.569950580596923828e-01,-3.441882729530334473e-01,8.302638530731201172e-01,2.505642473697662354e-01,-6.249313428997993469e-02,2.592010200023651123e-01
1.955555081367492676e-01,1.051185965538024902e+00,-1.154392063617706299e-01,-3.715836107730865479e-01,-5.193505883216857910e-01,7.710211873054504395e-01,-3.015820384025573730e-01,-2.741149365901947021e-01,-6.971061825752258301e-01,-5.159720778465270996e-01,6.354190111160278320e-01,2.817294895648956299e-01,-2.355009317398071289e-01,1.980925947427749634e-01
1.854140758514404297e-01,8.308603763580322266e-01,4.866120591759681702e-02,-3.753750026226043701e-01,-4.779255986213684082e-01,6.777308583259582520e-01,-2.648965120315551758e-01,-2.139970660209655762e-01,-7.531538009643554688e-01,-3.639000654220581055e-01,7.245956063270568848e-01,3.560143113136291504e-01,-3.817264363169670105e-02,2.779476344585418701e-01
2.643999159336090088e-01,1.007173776626586914e+00,-5.173957441002130508e-03,-3.365021347999572754e-01,-6.156681776046752930e-01,5.628765225410461426e-01,-2.867455184459686279e-01,-1.937420070171356201e-01,-4.919338226318359375e-01,-3.559823632240295410e-01,6.040412187576293945e-01,4.251993894577026367e-01,6.354124099016189575e-02,5.907805263996124268e-02
1.335835605859756470e-01,8.602733612060546875e-01,8.968310058116912842e-02,-3.766614794731140137e-01,-7.902937531471252441e-01,6.181004643440246582e-01,-2.787551581859588623e-01,-2.882295548915863037e-01,-5.581457018852233887e-01,-2.303807735443115234e-01,5.392661094665527344e-01,4.425821006298065186e-01,7.911074161529541016e-02,1.703917384147644043e-01
3.631744161248207092e-02,9.294036626815795898e-01,1.485860943794250488e-01,-2.437909096479415894e-01,-6.620892882347106934e-01,5.863033533096313477e-01,-3.898705244064331055e-01,-4.170870184898376465e-01,-5.213782787322998047e-01,-1.791637986898422241e-01,5.424346923828125000e-01,5.173122882843017578e-01,2.685883343219757080e-01,3.757355213165283203e-01
1.567576825618743896e-01,5.811901092529296875e-01,2.070817053318023682e-01,-5.613636970520019531e-01,-7.273783683776855469e-01,4.630917012691497803e-01,-5.310553908348083496e-01,-2.264938950538635254e-01,-5.452476143836975098e-01,-3.770761191844940186e-02,5.678774714469909668e-01,4.211372435092926025e-01,1.539524048566818237e-01,-3.678537905216217041e-02
6.447620689868927002e-02,6.729437112808227539e-01,1.434156745672225952e-01,-5.342779755592346191e-01,-8.578752875328063965e-01,5.069659948348999023e-01,-4.745072424411773682e-01,-1.372283846139907837e-01,-4.327403604984283447e-01,-6.281924247741699219e-02,6.191231608390808105e-01,4.946815371513366699e-01,8.733441680669784546e-02,1.834627538919448853e-01
-6.161139905452728271e-02,6.131938099861145020e-01,3.732757270336151123e-01,-3.508493602275848389e-01,-9.448754191398620605e-01,4.792834222316741943e-01,-6.548871994018554688e-01,-1.822774112224578857e-01,-4.002060890197753906e-01,-1.235987842082977295e-01,5.404580235481262207e-01,5.418178439140319824e-01,8.858135342597961426e-02,1.836575120687484741e-01
4.569450393319129944e-02,5.117400288581848145e-01,3.071899414062500000e-01,-4.369387030601501465e-01,-8.661280870437622070e-01,4.957354962825775146e-01,-5.772323012351989746e-01,-1.741064935922622681e-01,-2.743760347366333008e-01,2.086728811264038086e-02,3.955135941505432129e-01,2.992375493049621582e-01,3.191602230072021484e-01,1.462425142526626587e-01
3.934597969055175781e-02,4.327252805233001709e-01,4.528650939464569092e-01,-5.759822726249694824e-01,-1.019318938255310059e+00,5.118461251258850098e-01,-5.808648467063903809e-01,-5.162687599658966064e-02,-1.002824679017066956e-01,-1.324905157089233398e-01,4.005248248577117920e-01,4.955492019653320312e-01,2.787365317344665527e-01,1.280052661895751953e-01
-1.017772853374481201e-01,2.168784141540527344e-01,2.621062994003295898e-01,-4.271680712699890137e-01,-7.563297748565673828e-01,3.896857500076293945e-01,-6.241836547851562500e-01,-2.512863278388977051e-02,-1.761643737554550171e-01,5.383551120758056641e-02,5.717393159866333008e-01,3.828538060188293457e-01,2.669160068035125732e-01,7.118408381938934326e-02
-9.578523784875869751e-02,4.198947548866271973e-01,4.553681910037994385e-01,-5.355660319328308105e-01,-9.770262837409973145e-01,4.653579294681549072e-01,-3.542701005935668945e-01,5.425117909908294678e-02,-2.521452307701110840e-01,-2.680881880223751068e-02,3.255949616432189941e-01,2.105363309383392334e-01,1.737852096557617188e-01,2.636398077011108398e-01
-2.216771095991134644e-01,2.166361920535564423e-02,3.462178111076354980e-01,-5.806071162223815918e-01,-1.111913442611694336e+00,4.733063876628875732e-01,-4.325157403945922852e-01,3.626130148768424988e-02,-6.957835704088211060e-02,-8.390749245882034302e-02,4.843847155570983887e-01,5.141247510910034180e-01,2.483661770820617676e-01,2.561202645301818848e-01
1.119905803352594376e-02,1.590501666069030762e-01,3.006072044372558594e-01,-4.511846303939819336e-01,-1.112379908561706543e+00,3.770306110382080078e-01,-4.554070234298706055e-01,2.277860343456268311e-01,2.569095045328140259e-02,-3.759519755840301514e-02,2.521869242191314697e-01,3.924545049667358398e-01,2.779753506183624268e-01,2.037933170795440674e-01
-3.855223953723907471e-02,7.302200794219970703e-02,5.231317281723022461e-01,-5.200001001358032227e-01,-1.253309726715087891e+00,5.923416018486022949e-01,-5.099388360977172852e-01,1.748877763748168945e-01,4.434524103999137878e-02,-2.762797176837921143e-01,1.030559986829757690e-01,2.600558102130889893e-01,3.579015135765075684e-01,1.229448989033699036e-01
-3.626681864261627197e-01,-3.364009410142898560e-02,2.779720723628997803e-01,-6.195895075798034668e-01,-1.204526424407958984e+00,2.664981186389923096e-01,-5.497891306877136230e-01,5.765250697731971741e-02,8.598300814628601074e-02,-2.939411103725433350e-01,4.114777147769927979e-01,1.804855018854141235e-01,3.282988667488098145e-01,1.985369622707366943e-01
-9.548070281744003296e-02,1.074718609452247620e-01,3.081004023551940918e-01,-3.382020592689514160e-01,-1.082642912864685059e+00,4.147951602935791016e-01,-4.827350080013275146e-01,7.346091326326131821e-03,-1.336185913532972336e-02,-2.195088714361190796e-01,3.370382785797119141e-01,-1.807243749499320984e-02,5.628107190132141113e-01,4.889733716845512390e-02
-1.925110965967178345e-01,-1.119345128536224365e-01,3.318729400634765625e-01,-3.472877442836761475e-01,-9.433818459510803223e-01,5.449949502944946289e-01,-3.235473334789276123e-01,9.416136890649795532e-02,2.019239962100982666e-01,-1.867398768663406372e-01,2.854100763797760010e-01,1.520036160945892334e-01,4.533323347568511963e-01,2.317929863929748535e-01
-4.446225762367248535e-01,-3.094514608383178711e-01,3.220099210739135742e-01,-3.787251412868499756e-01,-1.170773506164550781e+00,6.055406332015991211e-01,-3.175902366638183594e-01,2.998968958854675293e-02,4.499425739049911499e-02,-1.506035923957824707e-01,2.265898287296295166e-01,4.447054490447044373e-02,4.357896745204925537e-01,7.617995887994766235e-02
-2.904108762741088867e-01,-6.754385679960250854e-02,2.838304638862609863e-01,-2.571866214275360107e-01,-1.113622546195983887e+00,5.445485115051269531e-01,-4.193216860294342041e-01,6.281941384077072144e-02,2.965355217456817627e-01,-2.563937604427337646e-01,1.536575257778167725e-01,5.699681118130683899e-02,3.562037348747253418e-01,3.076605200767517090e-01
-3.666114509105682373e-01,7.523515075445175171e-02,3.779404759407043457e-01,-2.181342244148254395e-01,-1.018933534622192383e+00,5.277372002601623535e-01,-4.186464548110961914e-01,1.029202267527580261e-01,8.131244778633117676e-02,-3.314624130725860596e-01,-8.202636241912841797e-02,-1.408044397830963135e-01,4.178247749805450439e-01,2.530599534511566162e-01
-2.147883921861648560e-01,-2.174071073532104492e-01,2.127381116151809692e-01,-1.380141079425811768e-01,-1.063216686248779297e+00,5.309671163558959961e-01,-3.165532648563385010e-01,4.745493084192276001e-02,2.920669317245483398e-01,-3.471960127353668213e-01,9.941066801548004150e-02,8.637148141860961914e-02,3.623957335948944092e-01,-1.755460910499095917e-02
-3.453930914402008057e-01,-1.181602925062179565e-01,1.974240392446517944e-01,8.986192941665649414e-02,-9.983352422714233398e-01,3.005574047565460205e-01,-2.208064049482345581e-01,-3.105890937149524689e-02,4.770706593990325928e-02,-1.635513305664062500e-01,-7.683077361434698105e-03,-1.015478670597076416e-01,4.257536828517913818e-01,1.885249465703964233e-01
-2.294147014617919922e-01,-2.234641015529632568e-01,2.683862447738647461e-01,-8.180790394544601440e-02,-1.084800362586975098e+00,2.853201627731323242e-01,-1.745184659957885742e-01,1.533980518579483032e-01,2.467221468687057495e-01,-2.576676309108734131e-01,-1.798390001058578491e-01,-1.188229098916053772e-01,3.951379358768463135e-01,6.259832531213760376e-02
-2.182896733283996582e-01,-2.186866700649261475e-01,5.090929195284843445e-02,8.376459777355194092e-02,-8.949790000915527344e-01,2.220797091722488403e-01,-3.982346057891845703e-01,1.121097430586814880e-01,3.438803553581237793e-01,-5.387038588523864746e-01,-2.296511977910995483e-01,-4.290638491511344910e-02,3.210488855838775635e-01,9.842004626989364624e-02
8.317027986049652100e-02,-2.858709394931793213e-01,2.441957443952560425e-01,3.707563579082489014e-01,-8.690927028656005859e-01,1.338689476251602173e-01,-1.664717644453048706e-01,-1.346582919359207153e-01,4.228951930999755859e-01,-3.093817830085754395e-01,-3.489924669265747070e-01,-6.770467758178710938e-02,4.486213922500610352e-01,8.916771411895751953e-02
-2.676668763160705566e-01,-4.000710546970367432e-01,2.614428699016571045e-01,2.808424234390258789e-01,-8.491227626800537109e-01,2.372567057609558105e-01,-4.459001421928405762e-01,-9.763613343238830566e-02,2.706407904624938965e-01,-2.259619981050491333e-01,-3.719902336597442627e-01,-5.321798846125602722e-02,3.621709942817687988e-01,5.861386284232139587e-02
-2.306711673736572266e-01,-1.411385089159011841e-01,3.420045673847198486e-01,3.277989923954010010e-01,-6.547659039497375488e-01,2.115932404994964600e-01,-2.021301388740539551e-01,5.126082897186279297e-02,2.477093935012817383e-01,-2.471277117729187012e-01,-3.481217324733734131e-01,-9.691935777664184570e-02,4.456047117710113525e-01,1.413281112909317017e-01
-2.169170677661895752e-01,-3.438641726970672607e-01,-9.116403758525848389e-02,4.178733229637145996e-01,-8.377116918563842773e-01,3.835674375295639038e-02,-3.218880593776702881e-01,2.960998117923736572e-01,2.814698219299316406e-01,-2.670471072196960449e-01,-3.349377512931823730e-01,-1.721713989973068237e-01,4.019106328487396240e-01,-1.626286283135414124e-02
-2.423322945833206177e-01,-3.505246639251708984e-01,-5.882512778043746948e-03,3.647767305374145508e-01,-6.759396195411682129e-01,-2.260783500969409943e-02,-5.016906261444091797e-01,2.508798241615295410e-01,3.778216540813446045e-01,-4.050947129726409912e-01,-3.813456594944000244e-01,-1.446660906076431274e-01,2.988172173500061035e-01,-2.747667431831359863e-01
-2.245164960622787476e-01,-3.241077363491058350e-01,-6.277753040194511414e-03,3.242294788360595703e-01,-6.806795001029968262e-01,-6.793959438800811768e-02,-4.965020120143890381e-01,3.571579456329345703e-01,2.097283862531185150e-02,-2.022704482078552246e-01,-4.948287606239318848e-01,-2.251931130886077881e-01,2.887405753135681152e-01,2.695471234619617462e-02
-2.933042645454406738e-01,-3.950817883014678955e-01,-2.977633774280548096e-01,3.611918687820434570e-01,-5.073023438453674316e-01,-1.336177587509155273e-01,-3.684554994106292725e-01,1.885063201189041138e-01,1.023070812225341797e-01,-3.542472124099731445e-01,-5.073513388633728027e-01,-2.862628400325775146e-01,3.280480504035949707e-01,-3.517369180917739868e-02
-1.639928817749023438e-01,-3.408680260181427002e-01,-1.066633164882659912e-01,4.184606671333312988e-01,-3.441103994846343994e-01,-1.984750330448150635e-01,-3.366311192512512207e-01,2.209132760763168335e-01,1.981756240129470825e-01,-7.487043738365173340e-02,-2.588578462600708008e-01,-3.345102667808532715e-01,2.579642534255981445e-01,1.212965548038482666e-01
-1.757565438747406006e-01,-1.710448414087295532e-01,-1.629959940910339355e-01,2.765297889709472656e-01,-3.641678690910339355e-01,-1.538370847702026367e-01,-4.672391414642333984e-01,3.627116978168487549e-01,1.099679321050643921e-01,-3.020888268947601318e-01,-6.088932156562805176e-01,-2.105941325426101685e-01,4.193290770053863525e-01,-4.296985641121864319e-02
-3.555840551853179932e-01,-3.295760452747344971e-01,-3.337349891662597656e-01,4.619450867176055908e-01,-1.916125416755676270e-01,-2.023747712373733521e-01,-1.893112659454345703e-01,2.757156789302825928e-01,2.759714126586914062e-01,-3.719287514686584473e-01,-5.051683783531188965e-01,-3.681588470935821533e-01,4.350521862506866455e-01,-7.151959836483001709e-02
-1.700082868337631226e-01,-3.536466062068939209e-01,-2.671058475971221924e-01,5.132510066032409668e-01,-1.562756896018981934e-01,-3.521135151386260986e-01,-3.589822947978973389e-01,4.324008822441101074e-01,1.274933516979217529e-01,-4.122090935707092285e-01,-6.344578862190246582e-01,-3.566016554832458496e-01,4.451746642589569092e-01,-2.831848151981830597e-02
-2.487012296915054321e-01,-1.623662859201431274e-01,-2.486096024513244629e-01,3.349072337150573730e-01,-1.190049126744270325e-01,-2.096270322799682617e-01,-3.093597292900085449e-01,4.642146527767181396e-01,2.199628949165344238e-01,-3.613120019435882568e-01,-5.279037356376647949e-01,-3.959917724132537842e-01,4.863429069519042969e-01,1.273908615112304688e-01
-1.350564658641815186e-01,-3.833497166633605957e-01,-2.324929982423782349e-01,4.284980893135070801e-01,-1.268854290246963501e-01,-3.043623268604278564e-01,-1.599588096141815186e-01,4.415209889411926270e-01,2.216763794422149658e-01,-8.678783476352691650e-02,-4.011155664920806885e-01,-5.019505023956298828e-01,4.741535484790802002e-01,5.593417584896087646e-02
-2.413592338562011719e-01,-5.653503537178039551e-01,-3.378657996654510498e-01,3.272105455398559570e-01,9.895672649145126343e-02,-5.911744832992553711e-01,-3.425701707601547241e-02,3.370493650436401367e-01,1.591273397207260132e-01,-2.115646451711654663e-01,-4.043425917625427246e-01,-5.367247462272644043e-01,4.939825534820556641e-01,1.091351360082626343e-01
-1.121294498443603516e-01,-5.089458227157592773e-01,-3.012880384922027588e-01,4.778850674629211426e-01,-1.957057416439056396e-02,-3.576299548149108887e-01,-2.248305529356002808e-01,4.731082618236541748e-01,1.519290655851364136e-01,-3.711687326431274414e-01,-4.401890933513641357e-01,-3.955534696578979492e-01,5.365927815437316895e-01,2.917460799217224121e-01
-4.075608551502227783e-01,-3.058770596981048584e-01,-1.869965046644210815e-01,3.044790029525756836e-01,4.873150493949651718e-03,-2.470437735319137573e-01,-2.206393480300903320e-01,4.843564033508300781e-01,2.352936267852783203e-01,-2.155878096818923950e-01,-2.533160448074340820e-01,-4.333581626415252686e-01,6.597150564193725586e-01,1.594469249248504639e-01
-3.647541701793670654e-01,-3.269608914852142334e-01,-2.781712114810943604e-01,1.726799607276916504e-01,1.048147678375244141e-01,-4.421938359737396240e-01,-1.919804960489273071e-01,4.959482252597808838e-01,3.794032335281372070e-02,-4.006216824054718018e-01,-3.633319139480590820e-01,-4.694233834743499756e-01,7.438591122627258301e-01,1.510490775108337402e-01
-5.493030324578285217e-02,-3.128702938556671143e-01,-3.019792735576629639e-01,1.598106920719146729e-01,1.112527996301651001e-01,-3.224617540836334229e-01,-7.778168469667434692e-02,5.009008049964904785e-01,2.497836649417877197e-01,-4.339135587215423584e-01,-1.951177567243576050e-01,-5.849015116691589355e-01,5.223467946052551270e-01,3.971232771873474121e-01
-9.933750331401824951e-02,-4.447392225265502930e-01,-2.994555830955505371e-01,2.176000773906707764e-01,3.077993355691432953e-02,-4.714577496051788330e-01,-1.544424891471862793e-01,3.489035367965698242e-01,8.192089945077896118e-02,-3.576171398162841797e-01,-1.162367388606071472e-01,-5.531761050224304199e-01,5.037679672241210938e-01,4.145501852035522461e-01
-1.073139458894729614e-01,-3.179779648780822754e-01,-3.317912817001342773e-01,2.619835138320922852e-01,1.511000394821166992e-01,-4.942568838596343994e-01,-1.507600098848342896e-01,5.968009233474731445e-01,1.619738936424255371e-01,-4.355443716049194336e-01,-7.236927747726440430e-02,-6.314022541046142578e-01,4.881622791290283203e-01,2.825652062892913818e-01
-1.178379654884338379e-01,-3.014008402824401855e-01,-2.226653695106506348e-01,1.175202578306198120e-01,5.064816027879714966e-02,-3.857206404209136963e-01,-9.476999193429946899e-02,4.800246357917785645e-01,2.191932052373886108e-01,-4.117539823055267334e-01,-9.376851469278335571e-02,-5.574579834938049316e-01,4.078175425529479980e-01,5.773991942405700684e-01
1.024602279067039490e-01,-4.445007741451263428e-01,-1.370542198419570923e-01,1.399582922458648682e-01,1.466160714626312256e-01,-3.393310606479644775e-01,-1.366965621709823608e-01,2.922917604446411133e-01,2.637352347373962402e-01,-3.419756889343261719e-01,-1.194977462291717529e-01,-6.615013480186462402e-01,4.529551267623901367e-01,6.900808811187744141e-01
2.633170187473297119e-01,-5.237761735916137695e-01,-5.283619165420532227e-01,1.780313104391098022e-01,1.513507962226867676e-01,-3.918985128402709961e-01,-1.763625144958496094e-01,3.828525245189666748e-01,1.736294627189636230e-01,-3.571065664291381836e-01,1.522874925285577774e-02,-8.368749618530273438e-01,3.739524781703948975e-01,7.711924314498901367e-01
2.259821295738220215e-01,-5.499724149703979492e-01,-5.160234570503234863e-01,-2.715005073696374893e-03,-1.867440156638622284e-02,-1.353857666254043579e-01,-1.738354116678237915e-01,4.949527382850646973e-01,1.092473268508911133e-01,-4.566115736961364746e-01,5.756298452615737915e-02,-7.427406311035156250e-01,3.289630413055419922e-01,6.579354405403137207e-01
1.433370262384414673e-01,-5.434585809707641602e-01,-5.243040919303894043e-01,9.221579134464263916e-02,1.626885533332824707e-01,-1.597543656826019287e-01,-2.985065989196300507e-02,3.969485461711883545e-01,-6.528305262327194214e-02,-3.820199072360992432e-01,3.382686153054237366e-02,-7.505376338958740234e-01,4.175257980823516846e-01,7.152051329612731934e-01
5.253513455390930176e-01,-4.712446331977844238e-01,-2.846184670925140381e-01,-4.029054567217826843e-02,-1.255557388067245483e-01,-2.276313155889511108e-01,5.065278336405754089e-02,3.026899099349975586e-01,-1.329637970775365829e-02,-4.157205820083618164e-01,9.560520946979522705e-02,-1.092865586280822754e+00,6.912804394960403442e-02,7.559111118316650391e-01
5.640345811843872070e-01,-3.778445720672607422e-01,-3.895919024944305420e-01,-1.208405941724777222e-01,1.008075773715972900e-01,-2.686420083045959473e-01,-1.110907718539237976e-01,3.628422915935516357e-01,-2.638673484325408936e-01,-6.665782928466796875e-01,-1.318404972553253174e-01,-7.631645798683166504e-01,2.168779522180557251e-01,6.661879420280456543e-01
6.138142943382263184e-01,-2.408034801483154297e-01,-3.116555511951446533e-01,6.730059161782264709e-03,-4.423778038471937180e-03,9.535445272922515869e-02,1.254386752843856812e-01,3.194035589694976807e-01,-1.241866126656532288e-01,-4.996922314167022705e-01,5.791046842932701111e-02,-1.011311650276184082e+00,1.172444373369216919e-01,8.764054179191589355e-01
5.496184825897216797e-01,-2.995175719261169434e-01,-6.216779947280883789e-01,-1.265131495893001556e-02,2.341962158679962158e-01,-5.803464725613594055e-02,1.956887096166610718e-01,4.510689079761505127e-01,-4.056057631969451904e-01,-4.956582784652709961e-01,8.845283091068267822e-02,-9.367812275886535645e-01,2.229885756969451904e-01,1.005284190177917480e+00
6.489737033843994141e-01,-1.370702981948852539e-01,-5.811780691146850586e-01,-8.773215860128402710e-02,-9.182891994714736938e-02,7.460872828960418701e-02,1.039418503642082214e-01,2.475000768899917603e-01,-2.827677726745605469e-01,-6.628357768058776855e-01,2.237908691167831421e-01,-8.671562075614929199e-01,-1.048736833035945892e-02,7.577797770500183105e-01
6.761091351509094238e-01,-2.107932865619659424e-01,-6.483441591262817383e-01,-8.932880312204360962e-02,-3.391540050506591797e-02,4.543044418096542358e-02,1.800315529108047485e-01,3.090572953224182129e-01,-3.293300867080688477e-01,-3.975741863250732422e-01,3.135481104254722595e-02,-7.369592189788818359e-01,-2.989959530532360077e-02,8.206820487976074219e-01
5.589510798454284668e-01,-9.687738865613937378e-02,-4.364681839942932129e-01,-6.928770244121551514e-02,4.159268364310264587e-02,2.079517245292663574e-01,-7.858748733997344971e-02,-9.082002192735671997e-02,-4.384824335575103760e-01,-5.618732571601867676e-01,3.238564729690551758e-01,-8.119360804557800293e-01,-5.629194155335426331e-02,7.962526679039001465e-01
7.384991645812988281e-01,-8.205580711364746094e-02,-5.845820903778076172e-01,-1.211845278739929199e-01,1.527975350618362427e-01,2.622593045234680176e-01,2.716849446296691895e-01,2.757701575756072998e-01,-3.220060765743255615e-01,-5.650277733802795410e-01,1.433553695678710938e-01,-8.396084904670715332e-01,-6.831634789705276489e-02,9.314579963684082031e-01
7.815365791320800781e-01,-4.241276904940605164e-02,-5.981932878494262695e-01,-2.347859293222427368e-01,1.038853749632835388e-01,1.630297452211380005e-01,1.711528152227401733e-01,5.956429243087768555e-02,-6.213671565055847168e-01,-4.912481009960174561e-01,1.625616699457168579e-01,-7.081293463706970215e-01,-1.497412770986557007e-01,1.118718385696411133e+00
7.804846763610839844e-01,1.603248566389083862e-01,-5.624556541442871094e-01,-2.366871386766433716e-01,1.068143993616104126e-01,3.938304483890533447e-01,2.639459669589996338e-01,-3.537294268608093262e-02,-6.670774221420288086e-01,-3.929545283317565918e-01,2.788583040237426758e-01,-4.012135565280914307e-01,-2.271549403667449951e-01,8.682132959365844727e-01
9.587284326553344727e-01,3.545463383197784424e-01,-5.165241956710815430e-01,-6.054472178220748901e-02,2.026160359382629395e-01,4.789105653762817383e-01,1.086169406771659851e-01,-2.716848859563469887e-03,-8.759981393814086914e-01,-4.880069196224212646e-01,2.786164879798889160e-01,-4.998906552791595459e-01,-1.980792880058288574e-01,8.219126462936401367e-01
7.357631325721740723e-01,1.681874096393585205e-01,-5.032382607460021973e-01,-1.083104163408279419e-01,1.761988401412963867e-01,5.645207762718200684e-01,-1.266162842512130737e-01,-1.951146721839904785e-01,-7.160127162933349609e-01,-4.693185389041900635e-01,2.009845227003097534e-01,-5.409966707229614258e-01,-1.911392658948898315e-01,6.919762492179870605e-01
8.271538019180297852e-01,2.287274450063705444e-01,-3.744968175888061523e-01,-2.115580141544342041e-01,2.895862460136413574e-01,5.349071025848388672e-01,-3.895367681980133057e-02,-3.235404193401336670e-01,-7.364813685417175293e-01,-1.983457505702972412e-01,2.742475569248199463e-01,-3.567453324794769287e-01,-1.827257573604583740e-01,7.652202248573303223e-01
6.414176821708679199e-01,3.317051529884338379e-01,-4.852902293205261230e-01,-2.726056575775146484e-01,1.799370944499969482e-01,5.289767384529113770e-01,-1.232899501919746399e-01,-3.943205177783966064e-01,-6.038364768028259277e-01,-3.039578795433044434e-01,1.558549404144287109e-01,-3.364228308200836182e-01,-2.829774022102355957e-01,7.538725137710571289e-01
7.365379333496093750e-01,3.420597016811370850e-01,-5.081870555877685547e-01,-1.218491196632385254e-01,-1.130418851971626282e-02,6.232854127883911133e-01,-1.621541827917098999e-01,-3.733485043048858643e-01,-8.666157126426696777e-01,-2.272460907697677612e-01,4.558274522423744202e-02,-4.109696745872497559e-01,-2.703008353710174561e-01,7.422580718994140625e-01
6.862270832061767578e-01,4.618123173713684082e-01,-4.822809398174285889e-01,-2.014297842979431152e-01,2.058143764734268188e-01,3.780747354030609131e-01,-1.771951466798782349e-01,-5.239278078079223633e-01,-8.458847403526306152e-01,-2.431967258453369141e-01,1.061750650405883789e-01,-2.991148829460144043e-01,-1.981615871191024780e-01,5.437217354774475098e-01
5.843868851661682129e-01,3.435357213020324707e-01,-5.281893610954284668e-01,-2.338347770273685455e-02,1.777373105287551880e-01,4.665971100330352783e-01,-3.381372988224029541e-01,-5.819252729415893555e-01,-7.958722114562988281e-01,-5.952008441090583801e-02,-4.092349857091903687e-02,-4.677731916308403015e-02,-3.087268769741058350e-01,4.920090138912200928e-01
5.294076204299926758e-01,1.086864545941352844e-01,-4.730148017406463623e-01,-1.129183173179626465e-01,3.201325237751007080e-02,4.725064039230346680e-01,-2.799487709999084473e-01,-5.998916029930114746e-01,-7.247774600982666016e-01,-5.040752142667770386e-02,1.466662287712097168e-01,-1.948620378971099854e-01,-2.539397180080413818e-01,4.959012866020202637e-01
6.459360122680664062e-01,2.131232321262359619e-01,-4.831457138061523438e-01,-1.387385129928588867e-01,1.979802399873733521e-01,6.128937005996704102e-01,-4.805268049240112305e-01,-5.553334355354309082e-01,-8.856158852577209473e-01,1.430844366550445557e-01,1.537769734859466553e-01,1.375516653060913086e-01,-2.982217669486999512e-01,4.351865351200103760e-01
3.160154819488525391e-01,4.577391445636749268e-01,-2.748499810695648193e-01,-9.096670150756835938e-02,7.607683539390563965e-03,5.136669278144836426e-01,-5.033386349678039551e-01,-3.923190534114837646e-01,-8.111014366149902344e-01,1.133150234818458557e-01,2.607562951743602753e-02,-3.463021665811538696e-02,-1.323494762182235718e-01,3.228388726711273193e-01
5.517381429672241211e-01,4.366644918918609619e-01,-3.147518038749694824e-01,-2.756901085376739502e-01,2.079026959836483002e-02,4.046174585819244385e-01,-4.201074242591857910e-01,-4.367526173591613770e-01,-9.260499477386474609e-01,3.469237685203552246e-01,-1.220818981528282166e-01,-1.275951117277145386e-01,-9.756843745708465576e-02,2.673818767070770264e-01
6.834669709205627441e-01,1.907711029052734375e-01,-1.908912211656570435e-01,-3.868587911128997803e-01,7.389462739229202271e-02,6.708013415336608887e-01,-5.726326704025268555e-01,-3.922426402568817139e-01,-9.620343446731567383e-01,3.591033518314361572e-01,1.168198212981224060e-01,-2.522118948400020599e-02,-1.443195492029190063e-01,2.307462096214294434e-01
4.195722937583923340e-01,1.751972287893295288e-01,-4.547519981861114502e-01,-2.666747272014617920e-01,-8.328992128372192383e-02,5.170906782150268555e-01,-5.938791036605834961e-01,-3.910178542137145996e-01,-9.440878629684448242e-01,1.536114662885665894e-01,-1.411965675652027130e-02,5.906480923295021057e-02,-2.501783967018127441e-01,3.470633327960968018e-01
5.468097329139709473e-01,2.577956020832061768e-01,-5.296279788017272949e-01,-3.047873079776763916e-01,3.532031318172812462e-03,5.707225799560546875e-01,-4.449601769447326660e-01,-3.088572323322296143e-01,-5.909463763236999512e-01,4.050598442554473877e-01,-6.120955944061279297e-02,1.134526077657938004e-02,1.183957606554031372e-01,3.280835151672363281e-01
3.809925317764282227e-01,2.872666418552398682e-01,-2.611933052539825439e-01,-2.537777423858642578e-01,-1.061594486236572266e-01,5.580805540084838867e-01,-7.202096581459045410e-01,-2.813687622547149658e-01,-8.148762583732604980e-01,5.058523416519165039e-01,1.152842398732900620e-02,1.033070385456085205e-01,-1.488969326019287109e-01,2.854138910770416260e-01
3.005967736244201660e-01,3.065054118633270264e-01,-1.851541548967361450e-01,-5.036678910255432129e-01,-2.459339052438735962e-01,5.523203015327453613e-01,-7.039806246757507324e-01,-2.976465821266174316e-01,-7.932183146476745605e-01,2.543466687202453613e-01,-8.151495456695556641e-02,3.488290905952453613e-01,-9.699736535549163818e-02,3.711363375186920166e-01
1.828605532646179199e-01,2.455035895109176636e-01,-3.784625530242919922e-01,-4.872573316097259521e-01,-1.385679841041564941e-01,5.826131105422973633e-01,-7.369070649147033691e-01,-1.672656089067459106e-01,-5.982714295387268066e-01,1.720070838928222656e-01,-4.740907251834869385e-02,1.546605527400970459e-01,6.892815232276916504e-02,1.113775521516799927e-01
4.510425329208374023e-01,1.762051284313201904e-01,-5.920696631073951721e-02,-5.150706171989440918e-01,-2.145913541316986084e-01,5.819033384323120117e-01,-7.172410488128662109e-01,-2.246706001460552216e-02,-4.265867471694946289e-01,3.952218294143676758e-01,5.239958688616752625e-02,1.117250025272369385e-01,2.933510839939117432e-01,7.962574809789657593e-02
2.353658676147460938e-01,2.644340991973876953e-01,-1.482149362564086914e-01,-4.763055145740509033e-01,-3.007173240184783936e-01,4.668090939521789551e-01,-8.508145809173583984e-01,-9.152247011661529541e-02,-6.374970674514770508e-01,4.795703887939453125e-01,1.800058037042617798e-01,3.594928681850433350e-01,5.541236400604248047e-01,2.364597469568252563e-01
2.415545284748077393e-01,2.730501294136047363e-01,7.378678023815155029e-02,-2.788409292697906494e-01,-1.508521884679794312e-01,5.815551280975341797e-01,-6.381064653396606445e-01,-2.275337427854537964e-01,-6.466982960700988770e-01,3.482837080955505371e-01,7.853677123785018921e-02,1.419837325811386108e-01,3.493651449680328369e-01,-2.357951365411281586e-02
2.093098014593124390e-01,8.461126685142517090e-02,8.526395261287689209e-02,-5.101189613342285156e-01,-5.210087895393371582e-01,7.310512065887451172e-01,-7.986649870872497559e-01,-2.838546633720397949e-01,-4.905482232570648193e-01,4.219744503498077393e-01,2.555110156536102295e-01,4.719203710556030273e-01,4.770855903625488281e-01,2.455339999869465828e-03
1.579120606184005737e-01,5.076783522963523865e-02,1.890291869640350342e-01,-4.928044378757476807e-01,-2.834348380565643311e-01,6.846541166305541992e-01,-6.333565711975097656e-01,-1.156207323074340820e-01,-4.501617848873138428e-01,2.258855998516082764e-01,5.475558340549468994e-02,3.475642800331115723e-01,4.762468338012695312e-01,2.503721788525581360e-02
2.731728255748748779e-01,-1.676380634307861328e-01,1.117040961980819702e-01,-4.889222979545593262e-01,-4.967710971832275391e-01,8.328619003295898438e-01,-6.316783428192138672e-01,-2.162398248910903931e-01,-1.677349209785461426e-01,2.141759842634201050e-01,-8.086911588907241821e-02,3.567435741424560547e-01,5.349981188774108887e-01,-9.505310095846652985e-03
1.899665743112564087e-01,-2.129724472761154175e-01,1.473714858293533325e-01,-6.042777895927429199e-01,-4.885620176792144775e-01,8.299129009246826172e-01,-6.149004101753234863e-01,-1.331587433815002441e-01,-3.876989781856536865e-01,2.803923785686492920e-01,8.419012650847434998e-03,2.899081408977508545e-01,6.344317197799682617e-01,1.015087962150573730e-02
9.834817796945571899e-02,-1.903948634862899780e-01,9.621229022741317749e-03,-3.642340004444122314e-01,-5.877172350883483887e-01,7.971521615982055664e-01,-7.161755561828613281e-01,6.332896649837493896e-02,-1.805337518453598022e-01,3.078539669513702393e-01,1.105134785175323486e-01,2.138563543558120728e-01,5.177446603775024414e-01,3.359056264162063599e-02
8.645413070917129517e-02,-2.090892568230628967e-02,-1.547905243933200836e-02,-3.589823544025421143e-01,-7.737501859664916992e-01,6.300665140151977539e-01,-7.926109433174133301e-01,-8.237846195697784424e-02,-2.356518208980560303e-01,2.946781814098358154e-01,2.381729707121849060e-02,2.300448715686798096e-01,6.244704127311706543e-01,-1.449721306562423706e-01
1.233950033783912659e-01,-2.249806821346282959e-01,6.619492918252944946e-02,-3.930611014366149902e-01,-7.208609580993652344e-01,6.288715004920959473e-01,-5.539103746414184570e-01,-3.144363686442375183e-02,-2.570039629936218262e-01,8.025488257408142090e-02,-1.997577548027038574e-01,1.026690751314163208e-01,5.327103137969970703e-01,1.146066188812255859e-02
1.667691022157669067e-01,-2.036423981189727783e-01,-1.374964714050292969e-01,-3.229672908782958984e-01,-6.337227821350097656e-01,5.947871208190917969e-01,-7.340419292449951172e-01,-1.354498974978923798e-02,-3.112839758396148682e-01,2.522861659526824951e-01,-1.134833246469497681e-01,2.216669321060180664e-01,5.610569119453430176e-01,-1.487013995647430420e-01
1.715306788682937622e-01,-3.558880686759948730e-01,8.688452839851379395e-02,-1.933134496212005615e-01,-8.164589405059814453e-01,5.502060055732727051e-01,-5.828242301940917969e-01,-4.313927888870239258e-02,-2.866510450839996338e-01,1.755477041006088257e-01,-1.791768372058868408e-01,1.381960511207580566e-01,4.887887537479400635e-01,-1.916184425354003906e-01
2.631745040416717529e-01,-3.918724954128265381e-01,-5.212527886033058167e-02,-3.094623386859893799e-01,-8.540443181991577148e-01,4.221245348453521729e-01,-5.556125640869140625e-01,-2.246493240818381310e-03,-3.790914714336395264e-01,-4.955250024795532227e-02,-3.731678426265716553e-01,1.014109179377555847e-01,6.403221487998962402e-01,-3.645216524600982666e-01
1.058698669075965881e-01,-2.561658918857574463e-01,-3.459468781948089600e-01,-9.251762926578521729e-02,-7.412987947463989258e-01,5.479254722595214844e-01,-4.175274074077606201e-01,5.656051263213157654e-02,-5.200511813163757324e-01,1.854219138622283936e-01,-2.470644116401672363e-01,3.867181837558746338e-01,7.361466884613037109e-01,-1.835821270942687988e-01
1.100558713078498840e-01,-1.895155906677246094e-01,-2.831826806068420410e-01,1.180117856711149216e-02,-5.080407857894897461e-01,5.317406058311462402e-01,-5.377135872840881348e-01,1.711206585168838501e-01,-1.992121785879135132e-01,1.455687433481216431e-01,-3.461265265941619873e-01,2.746278345584869385e-01,7.119976282119750977e-01,-3.931696712970733643e-01
2.087106108665466309e-01,-1.766844540834426880e-01,-4.009558260440826416e-01,1.149297971278429031e-02,-6.887897253036499023e-01,4.607186019420623779e-01,-4.630877971649169922e-01,1.379864960908889771e-01,-2.415378540754318237e-01,2.864248119294643402e-02,-3.406806588172912598e-01,3.383845090866088867e-01,5.554671287536621094e-01,-4.285770952701568604e-01
3.041407465934753418e-01,-3.534955084323883057e-01,-5.022842288017272949e-01,-4.215633496642112732e-02,-7.842907309532165527e-01,6.261878609657287598e-01,-3.488368391990661621e-01,1.447200328111648560e-01,-3.898998200893402100e-01,-7.292041182518005371e-02,-2.201793789863586426e-01,1.542725265026092529e-01,7.674927711486816406e-01,-2.782034575939178467e-01
2.854976654052734375e-01,-2.382855564355850220e-01,-5.118480324745178223e-01,-6.930891424417495728e-02,-6.540223956108093262e-01,3.047828674316406250e-01,-2.363513112068176270e-01,3.502351045608520508e-01,-3.481023311614990234e-01,6.789215654134750366e-02,-3.544996976852416992e-01,-4.310705233365297318e-03,7.759152650833129883e-01,-4.163036048412322998e-01
2.749103605747222900e-01,-2.308849692344665527e-01,-6.454961299896240234e-01,1.639135479927062988e-01,-3.217515647411346436e-01,3.523083925247192383e-01,-3.410137891769409180e-01,5.681938305497169495e-02,-3.280066847801208496e-01,3.572174906730651855e-02,-4.356521964073181152e-01,1.961103230714797974e-01,7.103157639503479004e-01,-1.242641508579254150e-01
4.185494482517242432e-01,-2.653280794620513916e-01,-6.174541115760803223e-01,-3.953783307224512100e-03,-5.076447725296020508e-01,4.377958476543426514e-01,-3.074522018432617188e-01,2.351693063974380493e-01,-3.976981043815612793e-01,-1.510802209377288818e-01,-6.567311882972717285e-01,1.737543046474456787e-01,6.554896235466003418e-01,-5.111074447631835938e-01
2.438051700592041016e-01,-1.622811555862426758e-01,-5.923435688018798828e-01,1.662243753671646118e-01,-4.834887683391571045e-01,2.439125180244445801e-01,-4.464561641216278076e-01,1.846201270818710327e-01,-3.326102495193481445e-01,-1.840028166770935059e-01,-5.476713776588439941e-01,1.828545704483985901e-02,6.249970197677612305e-01,-5.010777115821838379e-01
2.361728847026824951e-01,-4.405772387981414795e-01,-5.314670801162719727e-01,2.107916958630084991e-02,-3.832128942012786865e-01,6.858595460653305054e-02,-2.125426381826400757e-01,2.902446687221527100e-01,-4.000887870788574219e-01,-1.874501407146453857e-01,-4.763716459274291992e-01,3.201768994331359863e-01,1.020279288291931152e+00,-6.384322643280029297e-01
1.377663463354110718e-01,-2.017171978950500488e-01,-5.713137984275817871e-01,2.195006608963012695e-01,-4.277586340904235840e-01,1.634311378002166748e-01,-1.528571248054504395e-01,3.335317969322204590e-01,-3.313353061676025391e-01,-1.825073510408401489e-01,-3.089137673377990723e-01,2.565164566040039062e-01,8.154807090759277344e-01,-5.406123399734497070e-01
