AF3,F7,F3,FC5,T7,P7,O1,O2,P8,T8,FC6,F4,F8,AF4
-3.263407051563262939e-01,5.762192606925964355e-01,-1.403119564056396484e-01,2.330211549997329712e-02,2.621091604232788086e-01,-2.158643752336502075e-01,-7.344835400581359863e-01,3.087561130523681641e-01,-3.174670934677124023e-01,-4.606459289789199829e-02,5.999688506126403809e-01,-4.987075030803680420e-01,-3.367434740066528320e-01,1.023698896169662476e-01
-3.152728080749511719e-01,6.089748144149780273e-01,2.045633457601070404e-02,-6.299322843551635742e-02,3.596037924289703369e-01,-4.756435006856918335e-02,-8.380856513977050781e-01,2.324562668800354004e-01,-2.406119555234909058e-01,7.018983364105224609e-02,5.501931905746459961e-01,-2.054057866334915161e-01,-5.440056324005126953e-01,3.061902523040771484e-02
-2.204332649707794189e-01,4.791388213634490967e-01,-1.349886506795883179e-01,-3.384486213326454163e-02,8.923870325088500977e-02,1.322719752788543701e-01,-6.152976751327514648e-01,1.135314777493476868e-01,-2.192765921354293823e-01,4.434757307171821594e-02,6.090564727783203125e-01,-4.355755448341369629e-01,-2.921314537525177002e-01,1.438661068677902222e-01
-2.763055562973022461e-01,2.763000428676605225e-01,-1.430875211954116821e-01,-1.106905192136764526e-02,1.665948033332824707e-01,-6.405479460954666138e-02,-9.340996742248535156e-01,1.085556810721755028e-03,-5.383340716361999512e-01,4.077877476811408997e-02,5.742854475975036621e-01,-5.666825771331787109e-01,-3.218294680118560791e-01,1.733168661594390869e-01
-3.927491232752799988e-02,3.530839085578918457e-01,-2.058336436748504639e-01,6.317600607872009277e-02,1.261777896434068680e-02,-4.021746292710304260e-02,-9.795016050338745117e-01,-5.457827448844909668e-02,-1.326868683099746704e-01,-3.137212693691253662e-01,5.683364868164062500e-01,-3.368423581123352051e-01,-9.185066074132919312e-02,2.219944000244140625e-01
-2.524033486843109131e-01,2.190783619880676270e-01,-1.463833302259445190e-01,-5.419745668768882751e-02,9.222148358821868896e-02,-8.194115944206714630e-03,-7.803820371627807617e-01,-2.284435182809829712e-01,-2.589387893676757812e-01,-6.434593349695205688e-02,5.033137202262878418e-01,-4.914421737194061279e-01,-2.860910892486572266e-01,2.938019931316375732e-01
-8.193138241767883301e-02,1.573392301797866821e-01,-2.806844413280487061e-01,3.003737144172191620e-02,1.426767259836196899e-01,1.577442735433578491e-01,-9.255144596099853516e-01,-2.255025506019592285e-02,-3.392359018325805664e-01,-1.739569008350372314e-01,5.979591608047485352e-01,-4.974742829799652100e-01,-3.894622623920440674e-01,1.687526553869247437e-01
-2.324435859918594360e-01,2.505116462707519531e-01,-2.371889203786849976e-01,4.652607720345258713e-03,-4.435677453875541687e-02,-1.839885264635086060e-01,-1.039219260215759277e+00,-1.699933260679244995e-01,-4.340888559818267822e-01,-2.304279804229736328e-01,5.115050077438354492e-01,-4.679108262062072754e-01,-1.155771315097808838e-02,2.836009263992309570e-01
1.086302548646926880e-01,1.351521611213684082e-01,-2.203824669122695923e-01,2.641391241922974586e-03,-7.276577502489089966e-02,-5.022014304995536804e-02,-1.046069860458374023e+00,-1.832647919654846191e-01,-6.630970239639282227e-01,-1.708196550607681274e-01,3.562176823616027832e-01,-4.026274979114532471e-01,3.506501019001007080e-02,1.713363379240036011e-01
-2.870022505521774292e-02,-1.853536628186702728e-02,-3.053708374500274658e-01,1.385993659496307373e-01,-2.663147151470184326e-01,-7.889442890882492065e-02,-1.041389942169189453e+00,-2.055921703577041626e-01,-3.931003510951995850e-01,-3.652817308902740479e-01,4.836720824241638184e-01,-4.197996258735656738e-01,1.101469248533248901e-01,2.937209606170654297e-01
8.327579498291015625e-02,-7.324603945016860962e-02,-2.623665034770965576e-01,-7.098940759897232056e-02,-3.343430757522583008e-01,1.369859427213668823e-01,-1.064376115798950195e+00,-3.600629866123199463e-01,-5.653612613677978516e-01,-4.891090989112854004e-01,5.001472234725952148e-01,-5.775802135467529297e-01,2.769922018051147461e-01,3.218181729316711426e-01
-2.540883421897888184e-02,2.592284604907035828e-02,-4.153324663639068604e-01,8.085866272449493408e-02,-3.555572032928466797e-01,-3.382642194628715515e-02,-1.130081415176391602e+00,-2.339365780353546143e-01,-5.391992926597595215e-01,-4.339841008186340332e-01,3.187662661075592041e-01,-5.454941391944885254e-01,-3.206997876986861229e-03,2.413994669914245605e-01
7.802732288837432861e-02,-2.629245258867740631e-02,-5.019994974136352539e-01,-8.323891460895538330e-02,-2.613081932067871094e-01,5.207122862339019775e-02,-9.487221837043762207e-01,-1.663492918014526367e-01,-8.183123469352722168e-01,-4.505237042903900146e-01,3.348750174045562744e-01,-5.755971074104309082e-01,1.945602595806121826e-01,4.251891076564788818e-01
1.257434114813804626e-02,3.405610099434852600e-02,-3.015780150890350342e-01,2.085063606500625610e-01,-5.701580643653869629e-01,7.755655795335769653e-02,-9.094929695129394531e-01,-4.212625026702880859e-01,-6.282160878181457520e-01,-5.657073259353637695e-01,2.477133125066757202e-01,-3.255132436752319336e-01,1.889279633760452271e-01,3.791619241237640381e-01
1.471656467765569687e-02,8.757509291172027588e-02,-3.009470701217651367e-01,-8.192016929388046265e-02,-3.043734133243560791e-01,5.545370653271675110e-02,-8.855806589126586914e-01,-2.073627859354019165e-01,-6.755388975143432617e-01,-5.540382266044616699e-01,2.531513869762420654e-01,-3.232442140579223633e-01,3.893990814685821533e-01,2.344095110893249512e-01
1.081118285655975342e-01,-6.020305305719375610e-02,-2.487024664878845215e-01,9.893575310707092285e-02,-5.715370774269104004e-01,1.629226952791213989e-01,-9.191463589668273926e-01,-3.503188788890838623e-01,-5.050238370895385742e-01,-6.723349690437316895e-01,2.668152451515197754e-01,-3.052741289138793945e-01,2.645867466926574707e-01,3.071843385696411133e-01
1.592528522014617920e-01,-7.811833918094635010e-02,-5.689259171485900879e-01,1.501071173697710037e-02,-5.229508876800537109e-01,3.155582845211029053e-01,-6.131885647773742676e-01,-2.211520522832870483e-01,-5.928751826286315918e-01,-3.771122395992279053e-01,1.536138057708740234e-01,-2.755435109138488770e-01,2.178230732679367065e-01,2.554803490638732910e-01
-4.438402131199836731e-02,-7.943426072597503662e-02,-2.113326489925384521e-01,-6.605077534914016724e-02,-6.150652766227722168e-01,3.176319003105163574e-01,-7.402470707893371582e-01,-2.390826493501663208e-01,-2.910024523735046387e-01,-5.589066743850708008e-01,4.460216313600540161e-02,-1.023906692862510681e-01,2.843464910984039307e-01,2.336954325437545776e-01
2.129016220569610596e-01,1.184353455901145935e-01,-1.480523347854614258e-01,4.193237051367759705e-02,-5.391333103179931641e-01,3.114829659461975098e-01,-7.407336235046386719e-01,-4.805770516395568848e-01,-5.028759241104125977e-01,-7.152861356735229492e-01,-3.879988566040992737e-02,-4.321783781051635742e-01,2.182940244674682617e-01,3.576772809028625488e-01
2.400274574756622314e-01,-5.073702707886695862e-02,-3.566505014896392822e-01,5.688072368502616882e-02,-3.646386265754699707e-01,1.595507115125656128e-01,-4.806893467903137207e-01,-3.961226642131805420e-01,-2.754983305931091309e-01,-6.668577194213867188e-01,-6.702087819576263428e-02,-1.408840250223875046e-02,1.502321511507034302e-01,2.951043546199798584e-01
3.324694931507110596e-01,-8.847141265869140625e-02,-3.256532549858093262e-01,-1.752900183200836182e-01,-4.237942397594451904e-01,1.082275882363319397e-01,-4.822564125061035156e-01,-5.065097808837890625e-01,-2.620730400085449219e-01,-6.358181834220886230e-01,9.969381242990493774e-02,-6.258304417133331299e-02,-2.077100612223148346e-02,2.252830862998962402e-01
2.366177588701248169e-01,-1.494648456573486328e-01,-2.844962477684020996e-01,-1.239143610000610352e-01,-4.180369973182678223e-01,2.829158604145050049e-01,-4.453470706939697266e-01,-3.931835889816284180e-01,-7.644312083721160889e-02,-5.820368528366088867e-01,2.104699611663818359e-01,-1.313459724187850952e-01,7.970160245895385742e-02,2.155212461948394775e-01
2.115346044301986694e-01,-2.110200226306915283e-01,-1.684594452381134033e-01,-7.700134813785552979e-02,-2.527834177017211914e-01,1.067247241735458374e-01,-3.895477354526519775e-01,-3.876775205135345459e-01,4.357911180704832077e-03,-4.049382209777832031e-01,1.409310251474380493e-01,-4.322439432144165039e-02,8.538652956485748291e-02,2.981064319610595703e-01
4.542770683765411377e-01,-1.885763853788375854e-01,-8.301831036806106567e-02,-7.274987548589706421e-02,-2.990191876888275146e-01,1.782843172550201416e-01,-2.007545977830886841e-01,-2.448427528142929077e-01,-5.609074607491493225e-02,-5.694220066070556641e-01,7.007709145545959473e-02,7.722105830907821655e-02,2.669535018503665924e-02,1.643241643905639648e-01
4.324740767478942871e-01,-1.217656955122947693e-01,-9.740775823593139648e-02,-1.192733645439147949e-01,-8.827169239521026611e-02,1.123533248901367188e-01,-4.796923100948333740e-01,-1.883921176195144653e-01,-1.682737469673156738e-01,-4.950979351997375488e-01,-5.313108116388320923e-02,2.329069972038269043e-01,5.222809850238263607e-04,1.634330451488494873e-01
2.841626405715942383e-01,-7.477498799562454224e-02,-6.051426380872726440e-02,-1.182767897844314575e-01,-1.264531314373016357e-01,-6.521288305521011353e-02,-2.265141755342483521e-01,-2.649229764938354492e-01,-7.261200249195098877e-02,-6.311754584312438965e-01,-3.869323804974555969e-02,1.756619811058044434e-01,-1.043729335069656372e-01,2.773249745368957520e-01
4.541039466857910156e-01,-1.621524244546890259e-01,-4.433042777236551046e-04,6.418892741203308105e-02,-1.762169748544692993e-01,-1.104504689574241638e-01,-1.484286189079284668e-01,-1.649295538663864136e-01,2.578894495964050293e-01,-3.284402787685394287e-01,1.938869804143905640e-01,1.679465174674987793e-01,5.257621780037879944e-02,1.856990158557891846e-01
4.699640572071075439e-01,-2.989131212234497070e-01,3.538727061823010445e-03,2.185154259204864502e-01,1.319952458143234253e-01,4.780250415205955505e-02,-1.535803973674774170e-01,1.165315359830856323e-01,-6.902463734149932861e-02,-4.550095796585083008e-01,1.453828364610671997e-01,1.432882994413375854e-01,-1.109694615006446838e-01,9.078016132116317749e-02
2.784948945045471191e-01,-3.676635324954986572e-01,-2.972298534587025642e-03,2.076054513454437256e-01,2.258216403424739838e-02,-1.178656220436096191e-01,-4.918285086750984192e-02,2.533328719437122345e-02,9.624561667442321777e-02,-4.400173425674438477e-01,-8.661369979381561279e-02,8.213124424219131470e-02,-3.663293644785881042e-02,7.946066558361053467e-02
3.417434692382812500e-01,-2.478066831827163696e-01,1.646580249071121216e-01,2.163000553846359253e-01,4.776430502533912659e-02,-8.166613429784774780e-02,2.964999899268150330e-02,1.322655230760574341e-01,2.636198326945304871e-02,-3.973751366138458252e-01,-1.815252304077148438e-01,3.083905279636383057e-01,-2.353614568710327148e-01,-1.582488566637039185e-01
5.145396590232849121e-01,-3.504368066787719727e-01,1.517421454191207886e-01,4.057913422584533691e-01,7.134140282869338989e-02,-2.394578158855438232e-01,2.451020479202270508e-02,1.443568915128707886e-01,9.495092928409576416e-02,-2.089859247207641602e-01,-9.677771478891372681e-02,3.747832477092742920e-01,-1.944342106580734253e-01,1.703150123357772827e-01
3.134824633598327637e-01,-2.059787213802337646e-01,4.509918689727783203e-01,2.329540550708770752e-01,1.043996959924697876e-01,-2.867704033851623535e-01,-3.114621154963970184e-02,1.178488135337829590e-01,5.141106992959976196e-02,-1.349347531795501709e-01,-1.527275145053863525e-01,2.084939032793045044e-01,-2.460182905197143555e-01,-9.056600928306579590e-02
3.993743956089019775e-01,-1.878505796194076538e-01,3.418561220169067383e-01,4.481270611286163330e-01,9.586707502603530884e-02,-3.733549118041992188e-01,1.801595687866210938e-01,4.605162888765335083e-02,2.482704073190689087e-02,-9.260951727628707886e-02,-6.002354994416236877e-02,6.131075024604797363e-01,-2.942517399787902832e-01,8.414183743298053741e-03
3.703028261661529541e-01,-8.589846640825271606e-02,3.717099726200103760e-01,4.711403250694274902e-01,-5.498195067048072815e-02,-2.824909687042236328e-01,4.933816492557525635e-01,2.727486789226531982e-01,1.873842179775238037e-01,-7.691791653633117676e-02,-3.179191350936889648e-01,3.771846294403076172e-01,-3.907551765441894531e-01,-6.205912679433822632e-02
3.336125612258911133e-01,-3.185133337974548340e-01,6.181601285934448242e-01,5.011861920356750488e-01,1.877400130033493042e-01,-1.851155161857604980e-01,1.439826637506484985e-01,2.560224831104278564e-01,1.209556031972169876e-02,-2.262881584465503693e-02,-1.886042207479476929e-01,5.331102013587951660e-01,-3.467581570148468018e-01,2.142030745744705200e-01
1.974675804376602173e-01,-2.864288091659545898e-01,6.962807774543762207e-01,8.560719490051269531e-01,2.051692456007003784e-01,-4.536183774471282959e-01,2.757024765014648438e-01,1.466892510652542114e-01,8.171483874320983887e-02,2.465890347957611084e-01,-1.984287798404693604e-01,2.895815074443817139e-01,-1.935065388679504395e-01,4.441520571708679199e-02
3.023026585578918457e-01,-2.974250018596649170e-01,5.783373713493347168e-01,7.126883268356323242e-01,2.458035498857498169e-01,-3.157467842102050781e-01,3.166982233524322510e-01,4.259338378906250000e-01,1.186320409178733826e-01,1.269496828317642212e-01,-4.034096002578735352e-01,3.688116669654846191e-01,-3.020956814289093018e-01,5.956617649644613266e-03
1.388224661350250244e-01,-3.704606592655181885e-01,7.721518874168395996e-01,8.300442099571228027e-01,1.404934078454971313e-01,-4.228006899356842041e-01,4.436855316162109375e-01,9.767768532037734985e-02,7.388187199831008911e-02,1.952410042285919189e-01,-3.614099919795989990e-01,5.447822809219360352e-01,-1.962046325206756592e-01,2.886798465624451637e-04
-2.671460388228297234e-03,-1.945276111364364624e-01,9.396286010742187500e-01,7.531909346580505371e-01,3.958496749401092529e-01,-3.418540954589843750e-01,3.072511851787567139e-01,2.263311743736267090e-01,1.597941517829895020e-01,2.162491977214813232e-01,-3.203139603137969971e-01,5.616993308067321777e-01,-1.645875722169876099e-01,1.536181271076202393e-01
-7.261385768651962280e-02,-8.897297829389572144e-02,8.167450428009033203e-01,6.891074180603027344e-01,3.343948423862457275e-01,-3.544698357582092285e-01,2.807484865188598633e-01,2.164836525917053223e-01,1.025071963667869568e-01,7.864027470350265503e-02,-3.848736584186553955e-01,6.626261472702026367e-01,1.833003200590610504e-02,-2.381611242890357971e-02
4.989391937851905823e-02,-1.165084019303321838e-01,7.506421208381652832e-01,8.745937347412109375e-01,4.719595015048980713e-01,-3.154900968074798584e-01,4.842143654823303223e-01,1.946635097265243530e-01,1.977420002222061157e-01,2.523361146450042725e-01,-2.954121232032775879e-01,2.832638621330261230e-01,-2.165867835283279419e-01,9.445609152317047119e-02
-5.742184072732925415e-02,-1.145069301128387451e-01,8.833395838737487793e-01,8.997903466224670410e-01,4.932155311107635498e-01,-1.264983117580413818e-01,4.958377182483673096e-01,2.401462346315383911e-01,2.600186765193939209e-01,3.651479482650756836e-01,-3.242948055267333984e-01,3.767260313034057617e-01,-6.993456929922103882e-02,-2.093115001916885376e-01
-2.867794930934906006e-01,8.844193816184997559e-02,7.831925749778747559e-01,1.072778582572937012e+00,5.133931040763854980e-01,-6.169237196445465088e-02,2.975786030292510986e-01,2.151803821325302124e-01,3.196749985218048096e-01,5.116878151893615723e-01,-3.646801412105560303e-01,4.707618653774261475e-01,-1.840877383947372437e-01,-1.202173307538032532e-01
-1.800629496574401855e-01,7.862088829278945923e-02,9.574671983718872070e-01,1.122488021850585938e+00,5.018064379692077637e-01,-2.952361702919006348e-01,3.471992611885070801e-01,2.638674974441528320e-01,1.401482499204576015e-03,3.358122110366821289e-01,-4.917876124382019043e-01,3.219264447689056396e-01,-2.093536406755447388e-01,-2.574923038482666016e-01
-3.547925055027008057e-01,-7.910098135471343994e-02,9.021371603012084961e-01,1.002403020858764648e+00,7.042259573936462402e-01,1.046711206436157227e-01,4.615460336208343506e-01,3.833148181438446045e-01,1.488847434520721436e-01,2.890900075435638428e-01,-3.977024257183074951e-01,1.912679076194763184e-01,-6.379704177379608154e-02,-4.934904724359512329e-02
-1.363279223442077637e-01,2.503167092800140381e-01,6.002635359764099121e-01,1.000652551651000977e+00,4.765941798686981201e-01,4.953274503350257874e-03,2.807166278362274170e-01,2.764063477516174316e-01,-1.262066215276718140e-01,2.622112631797790527e-01,-2.462947964668273926e-01,7.850481569766998291e-02,-8.900648355484008789e-02,-4.191158115863800049e-01
-3.414844870567321777e-01,8.258157409727573395e-03,7.161909341812133789e-01,1.050694584846496582e+00,6.032561659812927246e-01,-1.351490020751953125e-01,2.300228029489517212e-01,3.738176226615905762e-01,1.054552197456359863e-01,1.220190227031707764e-01,-3.518255949020385742e-01,4.133722558617591858e-02,-3.305242359638214111e-01,-5.036358237266540527e-01
-1.809771358966827393e-01,3.135908842086791992e-01,8.507350087165832520e-01,1.076412320137023926e+00,3.600597679615020752e-01,-9.914843365550041199e-03,1.028066948056221008e-01,4.993082582950592041e-01,-1.055539175868034363e-01,4.107008576393127441e-01,-3.526486754417419434e-01,2.171444240957498550e-03,1.089385896921157837e-02,-6.464508175849914551e-01
-2.980409562587738037e-01,2.443220317363739014e-01,8.870283365249633789e-01,1.020572781562805176e+00,3.126797974109649658e-01,-2.055392228066921234e-02,7.205361127853393555e-02,4.909492433071136475e-01,-2.972695231437683105e-01,2.508530318737030029e-01,-2.791397571563720703e-01,-6.334771215915679932e-02,-2.673883438110351562e-01,-6.713330745697021484e-01
-3.289982676506042480e-01,3.538088500499725342e-01,7.096816897392272949e-01,1.037488460540771484e+00,5.290488600730895996e-01,2.963461875915527344e-01,3.740159422159194946e-02,3.892776966094970703e-01,-1.332189738750457764e-01,7.434619963169097900e-02,-5.117370486259460449e-01,-6.720370799303054810e-02,3.287948668003082275e-03,-6.431191563606262207e-01
-1.983403116464614868e-01,2.341625392436981201e-01,8.003792166709899902e-01,1.243314027786254883e+00,4.536997079849243164e-01,5.921228975057601929e-02,5.892509594559669495e-02,5.781435966491699219e-01,-1.476540267467498779e-01,9.878759831190109253e-02,-1.539240777492523193e-01,-1.538778394460678101e-01,1.032023206353187561e-01,-5.544406771659851074e-01
-1.313432306051254272e-01,4.333572089672088623e-01,7.829605340957641602e-01,1.004400730133056641e+00,5.011782646179199219e-01,1.638965755701065063e-01,8.350030332803726196e-02,6.217557191848754883e-01,-2.698085010051727295e-01,-8.199442923069000244e-02,-1.571069359779357910e-01,-1.525120586156845093e-01,-1.669602692127227783e-01,-7.796925902366638184e-01
-1.625517010688781738e-01,5.211306810379028320e-01,5.331561565399169922e-01,8.969547152519226074e-01,3.407099843025207520e-01,8.063331246376037598e-02,1.138501241803169250e-01,6.176451444625854492e-01,-3.373816609382629395e-01,1.631707847118377686e-01,-3.525581359863281250e-01,-3.061970472335815430e-01,1.329361349344253540e-01,-6.641389727592468262e-01
-8.118120953440666199e-03,4.783036708831787109e-01,6.438277959823608398e-01,8.517534136772155762e-01,4.370827674865722656e-01,3.451984524726867676e-01,8.566572517156600952e-02,6.563386321067810059e-01,-3.552974164485931396e-01,6.930138170719146729e-02,-2.782582938671112061e-01,-1.811250858008861542e-02,-9.204286336898803711e-02,-8.752884864807128906e-01
4.266266524791717529e-02,5.119423866271972656e-01,8.299767374992370605e-01,1.000954270362854004e+00,3.844576478004455566e-01,4.616809189319610596e-01,5.376555398106575012e-02,8.102359175682067871e-01,-3.912556767463684082e-01,9.810166805982589722e-02,-1.084981602616608143e-03,-3.948714137077331543e-01,-2.388964034616947174e-02,-5.939407944679260254e-01
-2.045836895704269409e-01,4.767966568470001221e-01,8.289692997932434082e-01,7.437508106231689453e-01,5.613735914230346680e-01,5.471678376197814941e-01,1.127687375992536545e-02,8.982005715370178223e-01,-5.204699039459228516e-01,1.801485568284988403e-01,-1.251685768365859985e-01,-1.829294711351394653e-01,1.060445457696914673e-01,-7.292695045471191406e-01
-3.572704643011093140e-02,3.260605037212371826e-01,6.323428750038146973e-01,6.652544140815734863e-01,5.743766427040100098e-01,4.687144756317138672e-01,1.154101267457008362e-01,9.742873907089233398e-01,-3.422943055629730225e-01,8.429539948701858521e-02,-4.355613142251968384e-02,-2.688378095626831055e-01,4.195542633533477783e-02,-6.991590261459350586e-01
-6.009969487786293030e-02,4.748723506927490234e-01,6.300375461578369141e-01,8.304558396339416504e-01,4.385922253131866455e-01,4.825412929058074951e-01,1.364156305789947510e-01,7.841206789016723633e-01,-4.034225344657897949e-01,1.854765787720680237e-02,-1.257580965757369995e-01,-1.990465819835662842e-01,2.496221289038658142e-02,-6.409826874732971191e-01
-1.063518151640892029e-01,2.805729210376739502e-01,4.795271754264831543e-01,5.059921145439147949e-01,5.528566837310791016e-01,5.504347085952758789e-01,2.392121851444244385e-01,8.597816228866577148e-01,-2.705594599246978760e-01,-6.958194822072982788e-02,-1.955075412988662720e-01,-3.244043886661529541e-01,9.861224889755249023e-02,-8.246794939041137695e-01
-5.074296519160270691e-02,3.771907687187194824e-01,4.767623841762542725e-01,5.450965762138366699e-01,5.201605558395385742e-01,5.957826972007751465e-01,2.044254392385482788e-01,8.884000182151794434e-01,-2.781466245651245117e-01,2.735694497823715210e-02,1.943901628255844116e-01,-3.669665157794952393e-01,6.618275493383407593e-02,-7.882388234138488770e-01
1.630914360284805298e-01,3.833816051483154297e-01,5.844285488128662109e-01,5.527398586273193359e-01,6.331335902214050293e-01,3.415450453758239746e-01,-4.853631928563117981e-02,9.541832804679870605e-01,-4.778926372528076172e-01,-5.222439020872116089e-02,-1.105256900191307068e-01,-2.601754665374755859e-01,-4.434253275394439697e-02,-6.030189394950866699e-01
4.536541923880577087e-02,2.854006886482238770e-01,4.686016738414764404e-01,5.203629136085510254e-01,6.092292070388793945e-01,5.142574310302734375e-01,-6.932102888822555542e-02,9.315108656883239746e-01,-4.861473739147186279e-01,-1.084833666682243347e-01,2.004439085721969604e-01,-4.288908541202545166e-01,5.502375587821006775e-02,-4.776753187179565430e-01
1.063045188784599304e-01,5.777764916419982910e-01,4.982301890850067139e-01,6.971620321273803711e-01,5.416401624679565430e-01,5.981447100639343262e-01,2.372412942349910736e-02,9.949550628662109375e-01,-1.639288812875747681e-01,-2.110673934221267700e-01,2.576622962951660156e-01,-2.320242226123809814e-01,1.204935461282730103e-01,-4.345491528511047363e-01
1.204482093453407288e-01,4.894471466541290283e-01,5.454889535903930664e-01,4.479890167713165283e-01,5.530884265899658203e-01,4.188872575759887695e-01,1.247957348823547363e-01,9.659234881401062012e-01,-3.312975764274597168e-01,-2.405334115028381348e-01,1.691858917474746704e-01,-2.535748183727264404e-01,2.730819284915924072e-01,-4.117166697978973389e-01
2.591136097908020020e-01,3.685228228569030762e-01,3.958611488342285156e-01,2.372620999813079834e-01,5.229264497756958008e-01,7.734187841415405273e-01,-6.016586348414421082e-02,9.813785552978515625e-01,-2.879818975925445557e-01,-1.468834728002548218e-01,1.743594557046890259e-01,-3.192000389099121094e-01,-1.306638419628143311e-01,-3.485759198665618896e-01
2.672751545906066895e-01,3.392325043678283691e-01,4.711231291294097900e-01,5.235075950622558594e-01,4.990065693855285645e-01,5.517410039901733398e-01,1.603915169835090637e-02,9.656606912612915039e-01,-3.105039298534393311e-01,-4.812957718968391418e-02,1.233897581696510315e-01,-2.878002822399139404e-01,1.761660873889923096e-01,-4.068351686000823975e-01
2.928152680397033691e-01,2.606941461563110352e-01,5.269566774368286133e-01,5.304270386695861816e-01,8.644962310791015625e-01,3.327558040618896484e-01,-2.805426716804504395e-02,9.595016241073608398e-01,-2.674929797649383545e-01,-4.289507120847702026e-02,2.320033758878707886e-01,-5.508059263229370117e-01,1.670475155115127563e-01,-3.829322457313537598e-01
3.701503276824951172e-01,-8.135017938911914825e-03,2.418044209480285645e-01,4.185151457786560059e-01,3.951695859432220459e-01,3.957317471504211426e-01,1.052213609218597412e-01,9.335115551948547363e-01,-5.574209690093994141e-01,6.226643919944763184e-02,2.821897529065608978e-02,-4.925892055034637451e-01,5.199432000517845154e-02,-2.567573189735412598e-01
4.002300500869750977e-01,-3.888619318604469299e-02,2.407935112714767456e-01,2.560410499572753906e-01,3.266977667808532715e-01,4.189152121543884277e-01,-7.605058699846267700e-02,7.710616588592529297e-01,-3.532677292823791504e-01,-2.251013815402984619e-01,1.834213137626647949e-01,-2.102153003215789795e-01,1.442007124423980713e-01,-2.113784849643707275e-01
3.959378600120544434e-01,3.463159874081611633e-02,4.526165723800659180e-01,3.473367989063262939e-01,2.734014689922332764e-01,5.824934244155883789e-01,-1.423749923706054688e-01,8.270261287689208984e-01,-6.110091805458068848e-01,-7.920718938112258911e-02,2.227451466023921967e-02,-4.610868394374847412e-01,3.133738338947296143e-01,-7.114468514919281006e-02
3.063681423664093018e-01,3.155417367815971375e-02,4.484739899635314941e-01,3.475248217582702637e-01,1.700922250747680664e-01,5.129213333129882812e-01,-1.538661867380142212e-01,7.946469187736511230e-01,-6.212935447692871094e-01,-9.427972137928009033e-02,2.298628836870193481e-01,-2.817202508449554443e-01,4.411841332912445068e-01,-2.202159315347671509e-01
5.444925427436828613e-01,-9.187550842761993408e-02,4.612688124179840088e-01,3.227876722812652588e-01,1.519283503293991089e-01,3.809300363063812256e-01,-1.894396096467971802e-01,6.826952695846557617e-01,-5.619189143180847168e-01,-2.528283894062042236e-01,-4.574979841709136963e-02,-4.030158817768096924e-01,3.093198537826538086e-01,6.008364260196685791e-02
3.721915483474731445e-01,-2.278513461351394653e-01,3.411650955677032471e-01,3.310286998748779297e-01,3.759514540433883667e-02,3.020863831043243408e-01,-3.013383746147155762e-01,6.740140318870544434e-01,-4.553788900375366211e-01,-8.394688367843627930e-02,-1.558583602309226990e-02,-2.118106633424758911e-01,6.153180003166198730e-01,1.069559436291456223e-02
5.847583413124084473e-01,-1.809299141168594360e-01,2.540002465248107910e-01,4.550578594207763672e-01,4.516310244798660278e-02,3.298743963241577148e-01,-2.401930093765258789e-01,5.202984213829040527e-01,-7.904137969017028809e-01,-3.035044074058532715e-01,-1.256275326013565063e-01,-4.258690476417541504e-01,4.888332486152648926e-01,1.690757870674133301e-01
3.281111121177673340e-01,-1.152376309037208557e-01,3.546203970909118652e-01,1.912269145250320435e-01,-6.378071755170822144e-02,3.380675911903381348e-01,-3.213915228843688965e-01,3.317702710628509521e-01,-6.332550048828125000e-01,-1.514087617397308350e-01,-1.762967705726623535e-01,-5.249006152153015137e-01,4.267787337303161621e-01,3.777878731489181519e-02
5.203659534454345703e-01,-9.887514263391494751e-02,3.199302852153778076e-01,2.631602585315704346e-01,-3.035901188850402832e-01,3.239728212356567383e-01,-2.715981900691986084e-01,4.437367916107177734e-01,-6.562539935111999512e-01,-2.013677954673767090e-01,-3.061074912548065186e-01,-3.808512389659881592e-01,5.101184248924255371e-01,2.444002479314804077e-01
5.146621465682983398e-01,-1.524719446897506714e-01,2.197988778352737427e-01,2.099695950746536255e-01,-3.212772905826568604e-01,2.711687684059143066e-01,-4.042673707008361816e-01,3.823051154613494873e-01,-5.192906856536865234e-01,-3.338821530342102051e-01,-1.727211773395538330e-01,-4.038498699665069580e-01,6.234627366065979004e-01,3.190501630306243896e-01
4.138526618480682373e-01,-1.617274284362792969e-01,2.064992338418960571e-01,1.501387804746627808e-01,-4.544647336006164551e-01,3.132560253143310547e-01,-3.488992154598236084e-01,3.340347111225128174e-01,-7.682147026062011719e-01,-2.317509949207305908e-01,-4.738683104515075684e-01,-3.333959877490997314e-01,6.597807407379150391e-01,2.820089161396026611e-01
2.569343745708465576e-01,-5.337751656770706177e-02,1.058549955487251282e-01,2.899568527936935425e-02,-3.405110239982604980e-01,4.267626702785491943e-01,-3.927274048328399658e-01,6.638456135988235474e-02,-4.285641610622406006e-01,-9.270505607128143311e-02,-4.632338881492614746e-01,-3.989024162292480469e-01,7.408550381660461426e-01,4.109907746315002441e-01
3.716697990894317627e-01,-1.210459694266319275e-01,1.376844346523284912e-01,1.461392939090728760e-01,-4.864260554313659668e-01,5.815337896347045898e-01,-5.055403113365173340e-01,9.883992373943328857e-02,-5.745232105255126953e-01,-3.282005488872528076e-01,-3.974882364273071289e-01,-4.320437610149383545e-01,5.633639693260192871e-01,4.597471952438354492e-01
4.243837893009185791e-01,-8.025805652141571045e-02,1.343235373497009277e-01,1.785106509923934937e-01,-5.450617074966430664e-01,3.184633255004882812e-01,-4.350804984569549561e-01,1.640932708978652954e-01,-6.277937293052673340e-01,-3.449713587760925293e-01,-4.373676478862762451e-01,-4.250540435314178467e-01,6.826864480972290039e-01,5.712363123893737793e-01
3.015792071819305420e-01,-1.351718157529830933e-01,6.689906120300292969e-02,-1.203925930894911289e-03,-5.859387516975402832e-01,3.020653724670410156e-01,-6.076896190643310547e-01,-1.410702913999557495e-01,-7.573094367980957031e-01,-3.920939564704895020e-01,-4.437447488307952881e-01,-4.484783709049224854e-01,7.770116329193115234e-01,4.737468063831329346e-01
3.535429239273071289e-01,-2.463641390204429626e-02,9.770698100328445435e-02,1.998568512499332428e-02,-6.471506953239440918e-01,1.881693005561828613e-01,-6.410964131355285645e-01,-2.859313040971755981e-02,-4.967985153198242188e-01,-3.576529324054718018e-01,-6.473469138145446777e-01,-5.839182138442993164e-01,7.798842191696166992e-01,4.214744865894317627e-01
2.206186801195144653e-01,-2.305867820978164673e-01,2.933813631534576416e-02,-7.619876414537429810e-02,-4.992153346538543701e-01,2.621702551841735840e-01,-5.527646541595458984e-01,-1.237208694219589233e-01,-5.535814762115478516e-01,-2.564129829406738281e-01,-6.618089079856872559e-01,-2.096655070781707764e-01,6.390801668167114258e-01,4.406399130821228027e-01
4.926335811614990234e-01,7.979708164930343628e-02,-8.221839088946580887e-04,-1.504225581884384155e-01,-6.158881187438964844e-01,2.381564825773239136e-01,-5.625442862510681152e-01,-3.973462283611297607e-01,-4.639141857624053955e-01,-3.307501077651977539e-01,-4.207491576671600342e-01,-7.498773336410522461e-01,9.889261126518249512e-01,5.580031871795654297e-01
3.473905920982360840e-01,-1.909539476037025452e-02,9.399932809174060822e-03,-6.524728983640670776e-02,-8.552380800247192383e-01,2.257093936204910278e-01,-6.582082509994506836e-01,-1.705357879400253296e-01,-4.901342689990997314e-01,-2.404125481843948364e-01,-5.333400964736938477e-01,-4.613287150859832764e-01,7.644243240356445312e-01,5.818462371826171875e-01
4.223319292068481445e-01,-4.589291661977767944e-02,-1.463589370250701904e-01,-1.911869198083877563e-01,-8.246558904647827148e-01,1.786668449640274048e-01,-5.052784085273742676e-01,-4.641895890235900879e-01,-3.194558322429656982e-01,-4.247089624404907227e-01,-4.293411076068878174e-01,-5.763030052185058594e-01,6.738786101341247559e-01,4.563761055469512939e-01
3.747683465480804443e-01,-1.886535733938217163e-01,-1.177783012390136719e-01,-1.330861896276473999e-01,-8.109233975410461426e-01,2.994816303253173828e-01,-5.066925883293151855e-01,-2.604277133941650391e-01,-3.191935122013092041e-01,-4.599800109863281250e-01,-5.615739822387695312e-01,-3.848136663436889648e-01,7.942483425140380859e-01,4.193944633007049561e-01
3.334304094314575195e-01,1.353305764496326447e-02,-2.208974063396453857e-01,-2.062101066112518311e-01,-9.249218106269836426e-01,1.380255222320556641e-01,-5.013645887374877930e-01,-3.436595499515533447e-01,-2.926843762397766113e-01,-2.434437572956085205e-01,-5.000963211059570312e-01,-3.958664536476135254e-01,6.980961561203002930e-01,6.831985712051391602e-01
4.216248095035552979e-01,-1.188853308558464050e-01,-2.351315319538116455e-01,-3.261860609054565430e-01,-7.950131893157958984e-01,2.680640816688537598e-01,-5.545634627342224121e-01,-2.854379415512084961e-01,-3.053035140037536621e-01,-5.842319130897521973e-01,-5.973204374313354492e-01,-5.546182394027709961e-01,6.606680154800415039e-01,5.766175389289855957e-01
5.039023160934448242e-01,4.844902828335762024e-02,4.633426666259765625e-02,-1.267282962799072266e-01,-8.733435869216918945e-01,1.173019632697105408e-01,-3.383766114711761475e-01,-2.293420881032943726e-01,-3.182340264320373535e-01,-4.938895702362060547e-01,-8.094545006752014160e-01,-3.401387035846710205e-01,5.553128123283386230e-01,5.504026412963867188e-01
5.621443390846252441e-01,-2.273714542388916016e-01,-1.904006302356719971e-01,-3.289372026920318604e-01,-7.642505764961242676e-01,6.336472183465957642e-02,-2.999808490276336670e-01,-4.390962719917297363e-01,-3.064611554145812988e-02,-5.796712636947631836e-01,-5.499016642570495605e-01,-2.359284162521362305e-01,4.274738430976867676e-01,5.033947825431823730e-01
2.654949426651000977e-01,-8.844319730997085571e-02,1.090574786067008972e-01,-1.721685677766799927e-01,-8.499858975410461426e-01,1.707766503095626831e-01,-3.303669691085815430e-01,-4.017704725265502930e-01,-2.941766194999217987e-02,-6.015885472297668457e-01,-7.273939251899719238e-01,6.719410885125398636e-03,4.449886679649353027e-01,6.704711318016052246e-01
5.212201476097106934e-01,-1.458519697189331055e-01,9.749481081962585449e-02,-3.694279491901397705e-01,-8.109309673309326172e-01,-3.709869459271430969e-02,-1.053496226668357849e-01,-1.753100305795669556e-01,1.941761821508407593e-01,-4.508458971977233887e-01,-7.242894172668457031e-01,-2.912868857383728027e-01,3.880486786365509033e-01,5.155196189880371094e-01
6.222193837165832520e-01,-2.801937460899353027e-01,1.027119979262351990e-01,-2.896688878536224365e-01,-8.519129157066345215e-01,-1.061787679791450500e-01,-2.206154316663742065e-01,-2.410903424024581909e-01,-1.064176764339208603e-02,-4.604535400867462158e-01,-7.634820342063903809e-01,-2.658812701702117920e-01,3.091091513633728027e-01,7.532669305801391602e-01
3.780926465988159180e-01,-2.016226053237915039e-01,8.041499182581901550e-03,-9.636381268501281738e-02,-8.255515098571777344e-01,-5.087590590119361877e-02,-8.251947164535522461e-02,-1.737959235906600952e-01,1.169363260269165039e-01,-1.352740675210952759e-01,-7.377739548683166504e-01,-1.289740055799484253e-01,1.939107924699783325e-01,9.738381505012512207e-01
5.163590908050537109e-01,-2.017388939857482910e-01,-1.111554205417633057e-01,-9.149151295423507690e-02,-9.093552827835083008e-01,-2.368347346782684326e-01,-1.506013068137690425e-04,-8.141510188579559326e-02,3.911077380180358887e-01,-3.046329319477081299e-01,-6.298566460609436035e-01,-9.378799796104431152e-02,3.095665872097015381e-01,7.706863880157470703e-01
5.263933539390563965e-01,-3.938499465584754944e-02,2.374444156885147095e-01,-5.461589992046356201e-02,-7.472327351570129395e-01,-3.350708186626434326e-01,1.623846888542175293e-01,-1.238797679543495178e-01,3.099744319915771484e-01,-2.605864405632019043e-01,-6.269564628601074219e-01,9.221088141202926636e-02,-2.539791399613022804e-03,7.467948794364929199e-01
3.851431608200073242e-01,-2.246340066194534302e-01,2.622063755989074707e-01,-5.957174301147460938e-02,-5.591239333152770996e-01,-2.877549231052398682e-01,2.005623728036880493e-01,-2.963928580284118652e-01,3.375978469848632812e-01,5.995103716850280762e-02,-7.037273049354553223e-01,7.796048372983932495e-02,-2.186747640371322632e-02,6.931800842285156250e-01
3.426991105079650879e-01,-1.096971929073333740e-01,1.082141026854515076e-01,2.263366281986236572e-01,-6.675795912742614746e-01,-2.971072494983673096e-01,2.493488639593124390e-01,-3.322515785694122314e-01,3.742648661136627197e-01,-9.276010841131210327e-02,-5.449465513229370117e-01,8.930540084838867188e-02,6.709561496973037720e-02,7.754879593849182129e-01
5.033850669860839844e-01,-1.011511087417602539e-01,9.370841085910797119e-02,1.320214271545410156e-01,-6.101769208908081055e-01,-2.522131502628326416e-01,8.889193832874298096e-02,-2.190176993608474731e-01,6.601947546005249023e-01,-2.651031017303466797e-01,-6.302687525749206543e-01,7.076773792505264282e-02,-2.684463560581207275e-01,6.011738777160644531e-01
2.002901285886764526e-01,4.674892127513885498e-02,3.102111220359802246e-01,-2.145950868725776672e-02,-4.505384266376495361e-01,-2.078236490488052368e-01,1.708053946495056152e-01,-2.288533598184585571e-01,4.754978120326995850e-01,-1.015808209776878357e-01,-5.409469008445739746e-01,3.253351449966430664e-01,-1.959966272115707397e-01,6.479326486587524414e-01
2.628566324710845947e-01,-1.018729954957962036e-01,2.699545025825500488e-01,-1.045319065451622009e-01,-5.290374755859375000e-01,-4.378053247928619385e-01,3.420511484146118164e-01,-2.785060107707977295e-01,7.847399711608886719e-01,1.297728419303894043e-01,-6.074732542037963867e-01,3.724012151360511780e-02,-2.148389965295791626e-01,7.692110538482666016e-01
-1.725676655769348145e-02,-9.911151975393295288e-02,2.245766222476959229e-01,3.790552169084548950e-02,-4.228507876396179199e-01,-4.340116083621978760e-01,4.631357491016387939e-01,-4.749940335750579834e-01,9.239190220832824707e-01,7.856350392103195190e-02,-5.795157551765441895e-01,2.990928478538990021e-02,-3.385766446590423584e-01,9.326446056365966797e-01
1.904010772705078125e-02,2.180181629955768585e-02,4.129757881164550781e-01,3.919991552829742432e-01,-3.964679837226867676e-01,-4.052734076976776123e-01,3.204891979694366455e-01,-1.561666727066040039e-01,7.084491252899169922e-01,7.765813916921615601e-02,-4.964233040809631348e-01,1.606973260641098022e-01,-3.953897356986999512e-01,9.002884030342102051e-01
5.231683701276779175e-02,1.097830086946487427e-01,5.543714165687561035e-01,1.021487563848495483e-01,-1.863055974245071411e-01,-4.438174068927764893e-01,2.581185102462768555e-01,-2.762250006198883057e-01,8.581444621086120605e-01,1.337997913360595703e-01,-5.374878048896789551e-01,-9.539201855659484863e-03,-2.940569221973419189e-01,7.317961454391479492e-01
-1.637978106737136841e-01,-2.257376909255981445e-01,5.098169445991516113e-01,1.986940652132034302e-01,-5.259023904800415039e-01,-3.795206248760223389e-01,1.316844373941421509e-01,-3.673019111156463623e-01,8.686395287513732910e-01,1.151057407259941101e-01,-5.551575422286987305e-01,6.210413295775651932e-03,-3.904776573181152344e-01,7.497699856758117676e-01
-1.784896105527877808e-01,-7.509531825780868530e-02,4.969616830348968506e-01,4.373875558376312256e-01,-3.512095212936401367e-01,-5.551838278770446777e-01,2.277012020349502563e-01,-3.764375746250152588e-01,9.388810992240905762e-01,1.625189781188964844e-01,-4.725622832775115967e-01,5.173961073160171509e-02,-2.504658102989196777e-01,7.946013212203979492e-01
-6.112531572580337524e-02,-7.878992706537246704e-02,5.049200057983398438e-01,5.500091910362243652e-01,-5.157518386840820312e-01,-6.778095960617065430e-01,2.486398071050643921e-01,-2.487123757600784302e-01,7.720810770988464355e-01,6.611336022615432739e-02,-5.383973121643066406e-01,3.570968657732009888e-02,-4.133935272693634033e-01,6.677919626235961914e-01
-2.358007133007049561e-01,1.813972890377044678e-01,6.154766082763671875e-01,6.136085987091064453e-01,-2.744977474212646484e-01,-3.714306652545928955e-01,2.176140695810317993e-01,-1.620958000421524048e-01,6.475554704666137695e-01,1.102635562419891357e-01,-4.408080875873565674e-01,-6.412915885448455811e-02,-3.172589838504791260e-01,6.426118016242980957e-01
-2.286095470190048218e-01,-1.239797994494438171e-01,4.044205248355865479e-01,7.179312109947204590e-01,-3.526633083820343018e-01,-2.650357484817504883e-01,3.490949869155883789e-01,-3.200129568576812744e-01,6.389688253402709961e-01,7.637684047222137451e-02,-5.856838822364807129e-01,-3.006964921951293945e-01,-2.149307876825332642e-01,7.400991320610046387e-01
-8.384222537279129028e-02,2.196477353572845459e-01,5.270478129386901855e-01,6.408217549324035645e-01,-5.140295624732971191e-01,-6.036044955253601074e-01,1.359530091285705566e-01,-2.360230237245559692e-01,6.472443938255310059e-01,1.746820509433746338e-01,-5.136213898658752441e-01,-1.485065221786499023e-01,-1.814337223768234253e-01,6.464053988456726074e-01
-3.649049401283264160e-01,1.041820943355560303e-01,5.872089266777038574e-01,8.963794708251953125e-01,-2.620938420295715332e-01,-1.986559778451919556e-01,2.312007844448089600e-01,-2.681654691696166992e-01,7.331269979476928711e-01,-1.820991002023220062e-02,-6.056059598922729492e-01,-2.390517145395278931e-01,-2.784821987152099609e-01,4.701937437057495117e-01
-2.098456621170043945e-01,4.257396236062049866e-02,4.481379687786102295e-01,8.703150153160095215e-01,-2.709960639476776123e-01,-3.294113576412200928e-01,2.813330888748168945e-01,-1.532985121011734009e-01,5.482903122901916504e-01,1.446199715137481689e-01,-5.947487354278564453e-01,-3.508823812007904053e-01,-5.069516897201538086e-01,6.075514554977416992e-01
-3.343935012817382812e-01,1.418315470218658447e-01,3.763792812824249268e-01,8.918033242225646973e-01,-3.540262579917907715e-01,-1.803200393915176392e-01,1.774569898843765259e-01,-2.224355190992355347e-01,6.646685600280761719e-01,2.442000657320022583e-01,-6.005460023880004883e-01,-3.415004909038543701e-01,-1.135494634509086609e-01,2.964442074298858643e-01
-3.510537445545196533e-01,5.304662510752677917e-02,2.706868648529052734e-01,8.337243795394897461e-01,-4.051893651485443115e-01,-1.254500001668930054e-01,2.036595046520233154e-01,-1.176452189683914185e-01,5.949127674102783203e-01,-1.336766928434371948e-01,-6.087623834609985352e-01,-1.520155370235443115e-01,-1.697522997856140137e-01,3.373640179634094238e-01
-3.331498503684997559e-01,2.295180708169937134e-01,3.370312154293060303e-01,7.416145801544189453e-01,-3.415316343307495117e-01,-2.110096663236618042e-01,2.411431521177291870e-01,-2.548331320285797119e-01,5.824430584907531738e-01,-1.362928152084350586e-01,-3.560275137424468994e-01,-3.134999573230743408e-01,-1.882628053426742554e-01,5.587517023086547852e-01
-4.320539534091949463e-01,3.660804629325866699e-01,4.510286748409271240e-01,8.358173370361328125e-01,-1.312454342842102051e-01,-2.077040448784828186e-02,2.300452142953872681e-01,-1.912836432456970215e-01,6.361455321311950684e-01,8.456575870513916016e-02,-4.792189300060272217e-01,-3.913521468639373779e-01,-4.515280574560165405e-02,2.764573991298675537e-01
-5.411126613616943359e-01,3.883925080299377441e-01,2.528007626533508301e-01,9.571524858474731445e-01,-3.427725136280059814e-01,8.381852507591247559e-02,2.297816425561904907e-01,-1.870308965444564819e-01,4.953798651695251465e-01,1.634374074637889862e-02,-2.714881598949432373e-01,-2.602756321430206299e-01,-1.192325726151466370e-01,1.299631744623184204e-01
-4.082570672035217285e-01,3.814805150032043457e-01,1.729637086391448975e-01,8.837826848030090332e-01,-1.669463515281677246e-01,1.355484724044799805e-01,6.874502450227737427e-02,-2.559837102890014648e-01,6.151616573333740234e-01,4.317813739180564880e-02,-1.897479444742202759e-01,-4.578055441379547119e-01,-3.125657737255096436e-01,1.565486043691635132e-01
-4.294566512107849121e-01,4.926634728908538818e-01,2.058707177639007568e-01,8.550432920455932617e-01,-1.335966140031814575e-01,1.582806259393692017e-01,5.749592185020446777e-02,3.419920057058334351e-02,7.462644577026367188e-01,-6.436299532651901245e-02,-2.891568243503570557e-01,-5.818268060684204102e-01,-1.607660204172134399e-01,3.324406147003173828e-01
-3.891636729240417480e-01,3.348643779754638672e-01,2.278018891811370850e-01,8.943914175033569336e-01,-1.937844008207321167e-01,4.505635499954223633e-01,1.632031351327896118e-01,-3.579813539981842041e-01,6.684029102325439453e-01,-1.756210923194885254e-01,-1.350902859121561050e-02,-8.059906959533691406e-01,-2.607117593288421631e-01,4.568661376833915710e-02
-3.970169126987457275e-01,6.288521885871887207e-01,2.634812518954277039e-02,7.276527881622314453e-01,-1.410271972417831421e-01,2.749444842338562012e-01,-8.581827580928802490e-02,-2.076032757759094238e-01,5.141208171844482422e-01,-2.354026287794113159e-01,2.007648348808288574e-02,-5.153738260269165039e-01,-3.429496288299560547e-01,1.740668118000030518e-01
-4.658215343952178955e-01,6.519116163253784180e-01,-1.183967217803001404e-01,8.060058355331420898e-01,-1.178651750087738037e-01,3.830495178699493408e-01,-6.086726859211921692e-02,3.216135781258344650e-03,6.054514646530151367e-01,-1.305377483367919922e-01,1.198366507887840271e-01,-5.744295716285705566e-01,-4.155552089214324951e-01,-1.040760278701782227e-01
-2.543297410011291504e-01,6.183137893676757812e-01,3.115850873291492462e-02,6.104096174240112305e-01,-1.549288928508758545e-01,5.868411064147949219e-01,-4.792296886444091797e-02,-2.425627224147319794e-02,4.830506443977355957e-01,-1.432801187038421631e-01,-1.210801079869270325e-01,-8.281282186508178711e-01,-3.117298781871795654e-01,1.404810696840286255e-01
-9.406080096960067749e-02,4.911710321903228760e-01,-7.859843969345092773e-02,6.271818876266479492e-01,-2.442052066326141357e-01,3.675119578838348389e-01,-1.178104896098375320e-02,-3.180391713976860046e-02,5.552729964256286621e-01,-5.622389912605285645e-01,3.079132735729217529e-01,-8.391820192337036133e-01,-3.812947571277618408e-01,-1.692999303340911865e-01
-3.135382533073425293e-01,4.561682045459747314e-01,-8.635507524013519287e-02,6.142140030860900879e-01,-1.865116804838180542e-01,2.984811961650848389e-01,-4.153614118695259094e-02,-1.015590503811836243e-01,6.300790309906005859e-01,-3.924404084682464600e-01,2.281863689422607422e-01,-7.483277916908264160e-01,-9.639461338520050049e-02,-1.085314974188804626e-01
-1.722654253244400024e-01,4.638547301292419434e-01,-1.022611111402511597e-01,7.019749879837036133e-01,-1.480329036712646484e-01,5.127775669097900391e-01,6.699086725711822510e-02,1.252200175076723099e-02,6.048601865768432617e-01,-3.242815434932708740e-01,4.409240186214447021e-01,-8.441596627235412598e-01,-1.588330864906311035e-01,1.021932065486907959e-01
-1.783653348684310913e-01,4.244335293769836426e-01,-2.088923901319503784e-01,7.043443918228149414e-01,6.864010542631149292e-02,3.858069777488708496e-01,1.431058198213577271e-01,4.744863882660865784e-02,3.888082802295684814e-01,-5.146449804306030273e-01,4.473200142383575439e-01,-6.964586377143859863e-01,-2.207061350345611572e-01,-1.283818036317825317e-01
4.749886691570281982e-02,1.984685212373733521e-01,-1.638470441102981567e-01,6.128712296485900879e-01,-1.389586329460144043e-01,7.060829997062683105e-01,-1.128389239311218262e-01,2.497425824403762817e-01,3.465723693370819092e-01,-4.414995014667510986e-01,2.725561559200286865e-01,-7.660601735115051270e-01,-9.401826560497283936e-02,-1.035465076565742493e-01
1.292083412408828735e-02,4.064173102378845215e-01,-1.297190189361572266e-01,5.661849975585937500e-01,-1.492562144994735718e-01,7.128227949142456055e-01,1.236166879534721375e-01,3.366838991641998291e-01,2.502730190753936768e-01,-4.251044094562530518e-01,4.395573139190673828e-01,-6.652266383171081543e-01,-2.641189694404602051e-01,-9.559450298547744751e-02
2.242213040590286255e-01,9.174280613660812378e-02,-1.559938490390777588e-01,4.790234565734863281e-01,1.119064167141914368e-02,7.109387516975402832e-01,1.636127196252346039e-02,1.053065359592437744e-01,5.772756338119506836e-01,-5.737782716751098633e-01,5.708410739898681641e-01,-7.008073329925537109e-01,5.614133551716804504e-02,-1.502674520015716553e-01
1.995801478624343872e-01,2.569423317909240723e-01,-1.547205597162246704e-01,6.200679540634155273e-01,1.050829663872718811e-01,5.659884810447692871e-01,8.513998240232467651e-02,1.278495043516159058e-01,3.061662614345550537e-01,-8.347399830818176270e-01,4.953014850616455078e-01,-5.826107263565063477e-01,-3.704900667071342468e-02,-8.390162140130996704e-02
3.272404074668884277e-01,1.420832276344299316e-01,-3.280699849128723145e-01,4.618593156337738037e-01,-3.046344732865691185e-03,5.103963613510131836e-01,8.489891886711120605e-02,3.346463739871978760e-01,3.992822468280792236e-01,-5.931296944618225098e-01,5.602751374244689941e-01,-4.415841400623321533e-01,7.666227221488952637e-02,1.050335764884948730e-01
1.248142123222351074e-01,-1.368123590946197510e-01,-3.292502760887145996e-01,4.949902892112731934e-01,4.089856147766113281e-02,6.673543453216552734e-01,-1.844195835292339325e-02,2.284558266401290894e-01,2.441765367984771729e-01,-7.210251688957214355e-01,5.366223454475402832e-01,-5.463635325431823730e-01,-1.025339141488075256e-01,-1.094721350818872452e-02
3.658338487148284912e-01,-5.021376907825469971e-02,-9.724929928779602051e-02,7.855494618415832520e-01,-1.703434139490127563e-01,5.944545865058898926e-01,1.907563656568527222e-01,1.084477752447128296e-01,2.778311669826507568e-01,-7.915965914726257324e-01,6.064689159393310547e-01,-2.932843267917633057e-01,1.194551438093185425e-01,1.347879767417907715e-01
4.535093903541564941e-01,-1.787191331386566162e-01,-3.486057370901107788e-02,5.586209893226623535e-01,-6.934782117605209351e-02,7.157608866691589355e-01,7.770930975675582886e-02,2.801787257194519043e-01,3.661217093467712402e-01,-5.614472031593322754e-01,4.603477418422698975e-01,-3.598898947238922119e-01,-3.077919594943523407e-02,1.559086292982101440e-01
4.030049741268157959e-01,-1.699284017086029053e-01,-3.369301557540893555e-01,4.883252084255218506e-01,1.965058222413063049e-02,7.116604447364807129e-01,6.450690329074859619e-02,1.552868485450744629e-01,4.223862290382385254e-02,-5.589537620544433594e-01,5.590478777885437012e-01,-4.019494652748107910e-01,-1.762036234140396118e-02,1.346196681261062622e-01
4.034119844436645508e-01,-1.732060760259628296e-01,-3.781478106975555420e-01,4.351518452167510986e-01,-1.037144958972930908e-01,6.166202425956726074e-01,1.291135102510452271e-01,1.494723707437515259e-01,3.137347996234893799e-01,-5.979436635971069336e-01,5.560255050659179688e-01,-4.629383087158203125e-01,2.499065250158309937e-01,3.198268413543701172e-01
1.614854484796524048e-01,-3.162827193737030029e-01,-3.241663575172424316e-01,4.593914151191711426e-01,-1.312328595668077469e-02,6.974526643753051758e-01,-1.975311189889907837e-01,5.287691950798034668e-03,4.711075872182846069e-02,-4.682519435882568359e-01,4.384579658508300781e-01,-5.654202103614807129e-01,8.898377418518066406e-02,4.504831731319427490e-01
4.477750360965728760e-01,-5.040467977523803711e-01,-2.821145653724670410e-01,3.981506526470184326e-01,-7.538849860429763794e-02,6.434629559516906738e-01,2.222553640604019165e-01,-5.207761749625205994e-02,8.930885046720504761e-02,-7.047872543334960938e-01,6.014032959938049316e-01,-3.932069540023803711e-01,2.873303592205047607e-01,4.963449537754058838e-01
5.559272766113281250e-01,-4.187733232975006104e-01,-5.172973871231079102e-01,4.025706052780151367e-01,3.635170636698603630e-03,7.964995503425598145e-01,-2.444594353437423706e-01,-9.468327462673187256e-02,1.226188465952873230e-01,-7.104976773262023926e-01,5.443009138107299805e-01,-3.724559843540191650e-01,2.647543251514434814e-01,3.521984219551086426e-01
3.469808399677276611e-01,-4.025452136993408203e-01,-2.478225529193878174e-01,3.726074099540710449e-01,-2.524051070213317871e-01,6.836045980453491211e-01,-7.647695392370223999e-02,-2.714224904775619507e-02,8.961999416351318359e-02,-7.590678930282592773e-01,5.685197710990905762e-01,-2.583706676959991455e-01,2.831552028656005859e-01,3.425980508327484131e-01
5.363557338714599609e-01,-2.321012616157531738e-01,-4.472006857395172119e-01,2.825078964233398438e-01,-1.536629199981689453e-01,8.438717722892761230e-01,-5.293224751949310303e-02,-1.444371044635772705e-01,-7.330032438039779663e-02,-7.328975200653076172e-01,5.538279414176940918e-01,-3.914427757263183594e-01,4.751193821430206299e-01,5.121299028396606445e-01
3.926591873168945312e-01,-4.947679340839385986e-01,-4.940584897994995117e-01,2.199714779853820801e-01,-3.056058585643768311e-01,6.200315952301025391e-01,-7.234334945678710938e-02,-2.295415401458740234e-01,5.722223594784736633e-02,-5.257598161697387695e-01,4.465474486351013184e-01,-1.953088045120239258e-01,5.269902944564819336e-01,3.289758563041687012e-01
6.135299801826477051e-01,-6.695610880851745605e-01,-5.205062627792358398e-01,4.923753738403320312e-01,-2.552009820938110352e-01,6.721575260162353516e-01,-6.531466543674468994e-02,-1.710758805274963379e-01,1.140732616186141968e-01,-8.249781727790832520e-01,3.360390663146972656e-01,-2.826782166957855225e-01,6.479288935661315918e-01,3.980957865715026855e-01
4.936829209327697754e-01,-6.691179275512695312e-01,-4.381738603115081787e-01,1.679976731538772583e-01,-1.301691830158233643e-01,9.074398875236511230e-01,-1.552539020776748657e-01,-1.358618736267089844e-01,-8.636270463466644287e-02,-8.051578998565673828e-01,2.090726494789123535e-01,-1.554885804653167725e-01,6.121385097503662109e-01,3.299136459827423096e-01
7.308033108711242676e-01,-7.927315831184387207e-01,-4.284401237964630127e-01,3.725901246070861816e-01,-4.109482765197753906e-01,7.983959913253784180e-01,-1.843674480915069580e-01,-1.647660136222839355e-01,-7.904100418090820312e-02,-7.015681266784667969e-01,3.090433776378631592e-01,-2.567415833473205566e-01,8.125172257423400879e-01,4.704926013946533203e-01
6.348545551300048828e-01,-6.311549544334411621e-01,-3.893982768058776855e-01,4.409177601337432861e-01,-4.915348887443542480e-01,4.599195420742034912e-01,-4.513192549347877502e-02,-1.657260805368423462e-01,-1.376055777072906494e-01,-8.705059885978698730e-01,1.705878376960754395e-01,-4.254235327243804932e-01,8.978998661041259766e-01,4.625580906867980957e-01
5.763326287269592285e-01,-8.754763007164001465e-01,-2.848281860351562500e-01,3.655144870281219482e-01,-4.655562043190002441e-01,6.593306660652160645e-01,-4.915544018149375916e-02,-3.950789570808410645e-01,-2.785019278526306152e-01,-9.945748448371887207e-01,4.118081647902727127e-03,-3.217080533504486084e-01,8.720844984054565430e-01,5.132249593734741211e-01
5.552798509597778320e-01,-5.891095995903015137e-01,-7.128472328186035156e-01,3.834239244461059570e-01,-5.406944751739501953e-01,6.252439618110656738e-01,-3.019435405731201172e-01,-5.067977309226989746e-01,-3.640804812312126160e-02,-9.871601462364196777e-01,-3.507785126566886902e-02,-6.761450320482254028e-02,8.469049930572509766e-01,3.287421464920043945e-01
6.830669641494750977e-01,-7.357140779495239258e-01,-4.870847165584564209e-01,1.849109530448913574e-01,-4.674908816814422607e-01,6.972318887710571289e-01,-2.753073275089263916e-01,-3.230050504207611084e-01,-2.767917513847351074e-01,-9.968349933624267578e-01,2.086038142442703247e-01,-2.053161710500717163e-01,9.884618520736694336e-01,3.484383821487426758e-01
6.831625103950500488e-01,-9.296386241912841797e-01,-3.515392541885375977e-01,2.875093221664428711e-01,-5.559113621711730957e-01,7.689909934997558594e-01,-6.021785736083984375e-02,-3.506829440593719482e-01,-1.276166737079620361e-01,-8.897456526756286621e-01,2.901643887162208557e-02,-1.515765935182571411e-01,1.064883470535278320e+00,4.622382521629333496e-01
8.219877481460571289e-01,-7.904164791107177734e-01,-3.261813521385192871e-01,4.766814410686492920e-01,-6.759640574455261230e-01,6.576190590858459473e-01,1.081807352602481842e-02,-5.453490018844604492e-01,-4.026797413825988770e-01,-9.279519319534301758e-01,-6.093201413750648499e-02,-2.814499437808990479e-01,1.100860238075256348e+00,3.274182677268981934e-01
8.167355656623840332e-01,-8.670756816864013672e-01,-4.512996673583984375e-01,3.711175322532653809e-01,-5.970269441604614258e-01,6.920770406723022461e-01,-5.386137054301798344e-04,-3.980199694633483887e-01,-1.733240336179733276e-01,-1.030914664268493652e+00,1.525058150291442871e-01,3.772545233368873596e-02,1.071730971336364746e+00,5.431897044181823730e-01
8.229421973228454590e-01,-7.782962918281555176e-01,-4.109005630016326904e-01,3.455406427383422852e-01,-8.587425351142883301e-01,7.324907183647155762e-01,2.312957122921943665e-02,-4.673701226711273193e-01,-1.609361469745635986e-01,-7.241652607917785645e-01,-2.000802904367446899e-01,-2.196362987160682678e-02,1.046100139617919922e+00,3.900931775569915771e-01
6.768193840980529785e-01,-9.094154238700866699e-01,-4.864687621593475342e-01,1.209583654999732971e-01,-7.312428951263427734e-01,8.800503015518188477e-01,1.261836662888526917e-02,-5.593731999397277832e-01,-1.623118221759796143e-01,-8.179771304130554199e-01,-1.604402959346771240e-01,2.913409844040870667e-02,1.069527983665466309e+00,3.959415555000305176e-01
8.364535570144653320e-01,-7.853623628616333008e-01,-4.329302310943603516e-01,1.670579984784126282e-02,-6.341334581375122070e-01,7.921932935714721680e-01,8.520710468292236328e-02,-5.259865522384643555e-01,-1.693191975355148315e-01,-9.358814358711242676e-01,-2.108516395092010498e-01,1.799180954694747925e-01,1.008952260017395020e+00,4.602273106575012207e-01
6.894466280937194824e-01,-8.732086420059204102e-01,-4.564078748226165771e-01,2.225907444953918457e-01,-6.468743681907653809e-01,8.477387428283691406e-01,1.400672644376754761e-01,-4.973413944244384766e-01,-1.274772435426712036e-01,-8.068207502365112305e-01,-3.269637525081634521e-01,1.009547710418701172e-01,1.093142509460449219e+00,1.654746085405349731e-01
6.577554941177368164e-01,-8.292418718338012695e-01,-5.555331707000732422e-01,9.754337370395660400e-02,-5.795282125473022461e-01,7.118391990661621094e-01,3.540681004524230957e-01,-4.715332090854644775e-01,-9.753489494323730469e-02,-8.503914475440979004e-01,-2.205634713172912598e-01,3.368364572525024414e-01,1.050224423408508301e+00,2.006271034479141235e-01
7.181190252304077148e-01,-9.309162497520446777e-01,-7.083434462547302246e-01,1.326666921377182007e-01,-5.747405886650085449e-01,6.678943634033203125e-01,3.035295009613037109e-01,-6.167622804641723633e-01,2.385365031659603119e-02,-7.061805129051208496e-01,-1.482602804899215698e-01,2.671976983547210693e-01,8.882989287376403809e-01,3.334324955940246582e-01
6.517779231071472168e-01,-5.929299592971801758e-01,-5.177215933799743652e-01,5.640085786581039429e-02,-6.943190097808837891e-01,6.782039403915405273e-01,3.482143282890319824e-01,-6.111347079277038574e-01,5.779824033379554749e-02,-8.080003857612609863e-01,-2.644948065280914307e-01,3.680198788642883301e-01,7.910880446434020996e-01,3.108444809913635254e-01
5.622457265853881836e-01,-6.284300088882446289e-01,-4.959565103054046631e-01,6.547699868679046631e-02,-6.142320632934570312e-01,5.102032423019409180e-01,3.852554857730865479e-01,-4.500887095928192139e-01,2.507911324501037598e-01,-6.701794862747192383e-01,-1.768565624952316284e-01,3.684188425540924072e-01,8.598393201828002930e-01,9.644250571727752686e-02
7.985309362411499023e-01,-8.309221863746643066e-01,-4.569976627826690674e-01,-1.209181249141693115e-01,-7.150672078132629395e-01,6.494200229644775391e-01,1.380269825458526611e-01,-3.790711462497711182e-01,1.705309599637985229e-01,-6.245021820068359375e-01,-1.105327233672142029e-01,4.172275662422180176e-01,6.112322807312011719e-01,1.582805067300796509e-01
7.315050363540649414e-01,-7.112639546394348145e-01,-4.055631756782531738e-01,-2.454946562647819519e-02,-3.855623900890350342e-01,4.571711122989654541e-01,4.974778294563293457e-01,-3.607049584388732910e-01,2.489075362682342529e-01,-7.471341490745544434e-01,-5.195957422256469727e-02,4.606783688068389893e-01,5.440480709075927734e-01,3.175265491008758545e-01
6.523440480232238770e-01,-8.586308956146240234e-01,-3.701257705688476562e-01,-1.499137729406356812e-01,-1.725156754255294800e-01,3.447275757789611816e-01,5.235690474510192871e-01,-4.140268862247467041e-01,8.677371591329574585e-02,-6.049898862838745117e-01,-1.495341956615447998e-01,5.173927545547485352e-01,5.958942770957946777e-01,1.771133542060852051e-01
7.385109066963195801e-01,-8.709820508956909180e-01,-3.038796186447143555e-01,4.004072025418281555e-02,-4.504683911800384521e-01,2.337338626384735107e-01,6.062949299812316895e-01,-4.661844968795776367e-01,4.712522625923156738e-01,-5.474101305007934570e-01,-3.033725619316101074e-01,5.079801082611083984e-01,3.871579468250274658e-01,1.617010980844497681e-01
8.486399054527282715e-01,-6.462262272834777832e-01,-3.305838406085968018e-01,9.671408683061599731e-02,-2.487390190362930298e-01,1.447618007659912109e-01,5.367364287376403809e-01,-1.048546284437179565e-01,4.613681137561798096e-01,-5.872183442115783691e-01,-5.869810655713081360e-02,5.469357371330261230e-01,5.084066987037658691e-01,-2.862276136875152588e-02
4.922011494636535645e-01,-7.609421014785766602e-01,-2.026898711919784546e-01,1.694445461034774780e-01,-1.186163276433944702e-01,1.498023718595504761e-01,8.131273984909057617e-01,-3.303189873695373535e-01,4.645871520042419434e-01,-5.023074150085449219e-01,-1.220206990838050842e-01,8.028222918510437012e-01,4.812377393245697021e-01,1.546405404806137085e-01
5.949296951293945312e-01,-9.704796671867370605e-01,-1.569733321666717529e-01,1.291213929653167725e-01,-2.046827077865600586e-01,1.518672108650207520e-01,7.580526471138000488e-01,-3.279926180839538574e-01,3.450519740581512451e-01,-4.448828399181365967e-01,-2.317421585321426392e-01,8.164611458778381348e-01,4.916936755180358887e-01,1.221129000186920166e-01
7.301838994026184082e-01,-9.679321646690368652e-01,1.265787035226821899e-01,1.053951084613800049e-01,-1.953504383563995361e-01,-8.917440474033355713e-02,8.452690839767456055e-01,-2.133448272943496704e-01,4.690042436122894287e-01,-4.188581705093383789e-01,-1.680779010057449341e-01,1.033474206924438477e+00,2.150451689958572388e-01,2.146609872579574585e-01
7.071642875671386719e-01,-8.715856671333312988e-01,1.970178484916687012e-01,5.874563753604888916e-02,-3.343654274940490723e-01,-3.931740671396255493e-02,8.346626758575439453e-01,-2.651069462299346924e-01,3.316631913185119629e-01,-2.420521080493927002e-01,-2.214612513780593872e-01,7.219163179397583008e-01,1.838168352842330933e-01,7.510704547166824341e-02
6.766634583473205566e-01,-7.937620282173156738e-01,3.163664340972900391e-01,3.612568080425262451e-01,-1.243314370512962341e-01,-8.950813859701156616e-02,7.757983207702636719e-01,-4.334402829408645630e-02,6.741105318069458008e-01,-1.918991282582283020e-02,-3.140963613986968994e-01,6.048629283905029297e-01,5.230670571327209473e-01,2.428441941738128662e-01
5.967208743095397949e-01,-8.133788704872131348e-01,3.339701592922210693e-01,3.780108690261840820e-01,-2.349154651165008545e-01,-6.643395125865936279e-02,1.226141452789306641e+00,-2.396263740956783295e-02,5.698948502540588379e-01,5.384156107902526855e-02,-4.749842584133148193e-01,7.176728248596191406e-01,1.419082432985305786e-01,2.311041951179504395e-01
3.225583136081695557e-01,-7.197614312171936035e-01,1.477044671773910522e-01,4.854027032852172852e-01,1.399095915257930756e-02,-3.887776732444763184e-01,9.438454508781433105e-01,-1.989663541316986084e-01,6.324031949043273926e-01,-2.162954211235046387e-02,-4.145773649215698242e-01,8.282355666160583496e-01,3.429673910140991211e-01,3.240384757518768311e-01
3.885546624660491943e-01,-8.598576188087463379e-01,3.847635984420776367e-01,4.129954278469085693e-01,2.475546300411224365e-02,-2.341718375682830811e-01,9.780263304710388184e-01,-9.509657323360443115e-02,2.802722454071044922e-01,6.139435991644859314e-02,-5.240319967269897461e-01,7.780110239982604980e-01,1.783083975315093994e-01,-7.748576253652572632e-02
3.675028979778289795e-01,-7.877823114395141602e-01,4.407161772251129150e-01,2.650129199028015137e-01,4.709819331765174866e-03,-3.496776521205902100e-01,1.028939962387084961e+00,-6.288658827543258667e-02,5.629487633705139160e-01,2.243158817291259766e-01,-4.831185936927795410e-01,7.548217177391052246e-01,1.964818835258483887e-01,-6.023715808987617493e-02
3.185958266258239746e-01,-8.065099716186523438e-01,5.147064328193664551e-01,6.276721954345703125e-01,-3.175541386008262634e-02,-2.051735967397689819e-01,1.107828736305236816e+00,-3.134855628013610840e-01,6.808527708053588867e-01,3.699718117713928223e-01,-4.299297928810119629e-01,8.506888151168823242e-01,-3.368132933974266052e-02,2.801804244518280029e-01
1.990993320941925049e-01,-7.674297690391540527e-01,4.762399494647979736e-01,5.262702107429504395e-01,6.531518697738647461e-02,-3.417504429817199707e-01,1.140439629554748535e+00,-1.633531004190444946e-01,4.415557682514190674e-01,3.289093971252441406e-01,-5.207195878028869629e-01,8.507902026176452637e-01,1.083975881338119507e-01,2.899405658245086670e-01
1.990497298538684845e-02,-8.680942654609680176e-01,5.798491835594177246e-01,5.629230141639709473e-01,1.039596423506736755e-01,-3.672000169754028320e-01,9.784737229347229004e-01,-9.283363819122314453e-02,6.156545877456665039e-01,2.989448010921478271e-01,-6.574429273605346680e-01,6.978741884231567383e-01,2.843092381954193115e-01,1.402017623186111450e-01
-8.992553502321243286e-02,-5.721099376678466797e-01,3.642428815364837646e-01,4.569070041179656982e-01,1.532835811376571655e-01,2.075497806072235107e-02,9.026994705200195312e-01,-7.531651854515075684e-02,4.404887855052947998e-01,2.033410370349884033e-01,-6.406178474426269531e-01,7.395991683006286621e-01,2.350796572864055634e-02,1.008465364575386047e-01
-1.514936890453100204e-02,-4.176882207393646240e-01,5.001488924026489258e-01,5.553262233734130859e-01,1.108491793274879456e-01,-1.575766354799270630e-01,9.417172074317932129e-01,-9.997093677520751953e-02,5.856119990348815918e-01,5.972681641578674316e-01,-6.335936188697814941e-01,7.586861252784729004e-01,6.294709444046020508e-02,-1.044679209589958191e-01
-8.978163450956344604e-02,-3.667785525321960449e-01,5.779320597648620605e-01,5.560981631278991699e-01,5.220053251832723618e-03,-3.060766458511352539e-01,8.284271359443664551e-01,-1.899168789386749268e-01,6.331759691238403320e-01,4.794518351554870605e-01,-4.606025815010070801e-01,6.552610397338867188e-01,1.724662482738494873e-01,-1.401315182447433472e-01
-2.981137931346893311e-01,-3.519098758697509766e-01,3.715172111988067627e-01,6.632410287857055664e-01,1.434514299035072327e-02,-7.248002290725708008e-02,7.731301188468933105e-01,-5.299489945173263550e-02,3.749162852764129639e-01,5.953616499900817871e-01,-3.406267464160919189e-01,5.892555713653564453e-01,-7.146771252155303955e-02,-2.719286978244781494e-01
-3.194889426231384277e-01,-2.058766484260559082e-01,4.443035125732421875e-01,6.660876870155334473e-01,-1.204301342368125916e-01,-1.090863570570945740e-01,7.943772077560424805e-01,-3.240041732788085938e-01,5.424172878265380859e-01,5.082247257232666016e-01,-4.941793382167816162e-01,4.183762967586517334e-01,-6.307256221771240234e-02,-1.042490974068641663e-01
-4.881400167942047119e-01,-1.451559513807296753e-01,3.971921801567077637e-01,5.693027973175048828e-01,1.108474805951118469e-01,-4.579336196184158325e-02,6.281960010528564453e-01,-1.360700726509094238e-01,3.064992725849151611e-01,4.924292266368865967e-01,-5.074321627616882324e-01,3.810879886150360107e-01,2.812379002571105957e-01,-8.240904659032821655e-02
-4.167056679725646973e-01,-1.007539331912994385e-01,2.706223428249359131e-01,6.537550687789916992e-01,-6.279604136943817139e-02,-1.484827846288681030e-01,9.378186464309692383e-01,-1.405033767223358154e-01,5.203800797462463379e-01,5.843452811241149902e-01,-4.441413879394531250e-01,3.931382596492767334e-01,2.394133061170578003e-02,-4.786051809787750244e-01
-4.034862220287322998e-01,-2.034753412008285522e-01,3.290309011936187744e-01,5.418513417243957520e-01,1.757269203662872314e-01,-1.285478100180625916e-02,5.638301968574523926e-01,-1.366975009441375732e-01,3.847676515579223633e-01,4.436702728271484375e-01,-3.206497430801391602e-01,4.697004705667495728e-02,-1.868851855397224426e-02,-2.210365831851959229e-01
-3.699387311935424805e-01,-1.521785557270050049e-01,3.658110201358795166e-01,4.135400950908660889e-01,9.117056429386138916e-02,-9.265023469924926758e-02,7.469588518142700195e-01,-9.411023557186126709e-02,4.114463925361633301e-01,5.510669946670532227e-01,-1.544622033834457397e-01,2.118705213069915771e-01,1.137428656220436096e-01,-2.909781634807586670e-01
-2.842452228069305420e-01,2.109208852052688599e-01,3.401361703872680664e-01,6.936948895454406738e-01,1.289077252149581909e-01,-1.187526881694793701e-01,5.735170245170593262e-01,-5.480052530765533447e-02,2.257362753152847290e-01,3.790147900581359863e-01,-2.140727639198303223e-01,2.423234879970550537e-01,-3.527853265404701233e-02,-2.834462523460388184e-01
-3.519352376461029053e-01,2.097429707646369934e-02,3.691260814666748047e-01,4.752264320850372314e-01,-2.412212826311588287e-02,1.340643167495727539e-01,5.449665188789367676e-01,5.490338802337646484e-02,8.439048379659652710e-02,2.860735058784484863e-01,-2.922513484954833984e-01,1.501581445336341858e-02,1.274432092905044556e-01,-4.476765692234039307e-01
-4.454869627952575684e-01,8.518551476299762726e-03,2.898166179656982422e-01,3.704865276813507080e-01,6.383018940687179565e-02,8.817874640226364136e-02,5.170083642005920410e-01,2.887823283672332764e-01,1.908022910356521606e-01,3.036322891712188721e-01,-1.952288150787353516e-01,7.887091487646102905e-02,6.486500799655914307e-02,-4.409887790679931641e-01
-5.833855867385864258e-01,1.275532990694046021e-01,2.577366828918457031e-01,4.641343057155609131e-01,-1.834218949079513550e-02,-8.979875594377517700e-02,3.914998769760131836e-01,1.611836254596710205e-01,1.285632997751235962e-01,2.397861480712890625e-01,-8.267778158187866211e-02,1.132801473140716553e-01,1.898868232965469360e-01,-5.365209579467773438e-01
-3.592348098754882812e-01,1.939233243465423584e-01,2.170083224773406982e-01,2.581588625907897949e-01,1.799511164426803589e-02,2.833554334938526154e-02,3.202148377895355225e-01,2.573072910308837891e-01,2.405782938003540039e-01,3.973330557346343994e-01,-2.846643030643463135e-01,7.643796503543853760e-02,-1.007553189992904663e-01,-4.688066542148590088e-01
-3.251004219055175781e-01,3.242219612002372742e-02,2.525432109832763672e-01,5.115686655044555664e-01,-2.797519974410533905e-02,2.917789295315742493e-02,3.182231485843658447e-01,8.105360716581344604e-02,2.825677692890167236e-01,2.138170041143894196e-02,1.293931752443313599e-01,6.491412967443466187e-02,7.582234591245651245e-02,-5.708374381065368652e-01
-5.687887072563171387e-01,2.527934312820434570e-01,1.012684330344200134e-01,2.220259159803390503e-01,-3.538165241479873657e-02,1.364371329545974731e-01,4.792550802230834961e-01,2.565614879131317139e-01,3.617710471153259277e-01,1.753502637147903442e-01,-6.341557949781417847e-02,6.007310003042221069e-03,-4.240453615784645081e-02,-5.059632062911987305e-01
-3.898736834526062012e-01,2.384278923273086548e-01,-1.640921831130981445e-02,1.621752083301544189e-01,1.108540743589401245e-01,9.988368302583694458e-02,4.212033152580261230e-01,2.977028787136077881e-01,2.171061933040618896e-01,2.230473309755325317e-01,1.302781105041503906e-01,-3.332815319299697876e-02,2.941627521067857742e-03,-4.847066402435302734e-01
-2.002209573984146118e-01,3.321879208087921143e-01,2.805398777127265930e-02,2.358837425708770752e-01,1.755677722394466400e-02,1.681061238050460815e-01,3.312786221504211426e-01,1.496585905551910400e-01,2.928228080272674561e-01,2.460051774978637695e-01,-2.643649466335773468e-02,-1.896474361419677734e-01,3.152313455939292908e-02,-5.562317371368408203e-01
-4.074297249317169189e-01,3.152841627597808838e-01,-2.192385047674179077e-01,4.333344101905822754e-02,-2.294280752539634705e-02,3.285678327083587646e-01,3.119550645351409912e-01,1.405375152826309204e-01,2.742052078247070312e-01,3.439829051494598389e-01,3.167463541030883789e-01,2.519664354622364044e-03,5.211649835109710693e-02,-3.658256232738494873e-01
-3.218765854835510254e-01,2.405221909284591675e-01,1.701375246047973633e-01,6.622311775572597980e-04,-1.125741675496101379e-01,2.579439580440521240e-01,5.068573355674743652e-01,3.017083704471588135e-01,2.912524044513702393e-01,2.134695649147033691e-01,2.193736135959625244e-01,4.195107892155647278e-02,-1.073177531361579895e-01,-3.808058798313140869e-01
-2.303380519151687622e-01,6.938959006220102310e-03,-1.920810937881469727e-01,-1.027622893452644348e-01,2.813933193683624268e-01,2.017138749361038208e-01,2.994660139083862305e-01,1.312708407640457153e-01,4.381174743175506592e-01,9.511286020278930664e-02,3.360583186149597168e-01,3.476347075775265694e-03,-8.976422995328903198e-02,-4.517185091972351074e-01
-3.766005933284759521e-01,1.830735951662063599e-01,-8.168203756213188171e-03,-1.417383402585983276e-01,2.809903323650360107e-01,1.731382161378860474e-01,2.308113574981689453e-01,1.961755156517028809e-01,7.216811925172805786e-02,9.556507319211959839e-02,3.563997745513916016e-01,5.635682120919227600e-02,-2.508985102176666260e-01,-3.051555156707763672e-01
-1.598087102174758911e-01,2.602592408657073975e-01,5.680682510137557983e-02,-2.034556120634078979e-01,1.932718604803085327e-01,2.577332556247711182e-01,1.417918503284454346e-01,1.486303806304931641e-01,3.353237509727478027e-01,2.660127282142639160e-01,4.582194089889526367e-01,-1.164056807756423950e-01,-2.555802166461944580e-01,-4.438622593879699707e-01
-2.421751171350479126e-01,2.743808031082153320e-01,-9.326875954866409302e-02,-2.187711894512176514e-01,-1.320605818182229996e-02,2.209306508302688599e-02,2.101383507251739502e-01,2.601101696491241455e-01,3.392561078071594238e-01,8.424525707960128784e-02,3.679542243480682373e-01,-1.786317080259323120e-01,-2.034830003976821899e-01,-7.485377788543701172e-02
-2.613159120082855225e-01,9.771033376455307007e-02,-1.666837185621261597e-01,-2.323872447013854980e-01,2.032075375318527222e-01,2.202606573700904846e-02,2.162468433380126953e-01,-3.737716004252433777e-02,2.133904546499252319e-01,1.292121857404708862e-01,5.478694438934326172e-01,-2.247131466865539551e-01,-1.699117571115493774e-01,-2.815970182418823242e-01
-2.082142084836959839e-01,1.718633621931076050e-01,-2.862583398818969727e-01,-2.420184761285781860e-01,2.925112247467041016e-01,1.335725933313369751e-01,1.134587973356246948e-01,1.575156301259994507e-01,3.720444142818450928e-01,2.262774854898452759e-01,6.106781959533691406e-01,-2.401786446571350098e-01,-1.987229585647583008e-01,-3.069989681243896484e-01
-9.870641678571701050e-02,9.533554315567016602e-02,-2.607307434082031250e-01,-2.889951765537261963e-01,1.155229061841964722e-01,-7.613745331764221191e-02,8.256741613149642944e-02,-1.016486659646034241e-01,1.135610342025756836e-01,1.742074489593505859e-01,4.266948103904724121e-01,-2.328141480684280396e-01,-9.163173288106918335e-02,-1.480504125356674194e-01
5.361826717853546143e-02,3.843198716640472412e-02,-2.752218246459960938e-01,-1.221594065427780151e-01,7.038193196058273315e-02,8.736734837293624878e-02,-4.510337603278458118e-04,-2.246868461370468140e-01,3.139503002166748047e-01,1.415429562330245972e-01,5.221740007400512695e-01,-3.873491883277893066e-01,-1.717240214347839355e-01,-4.383037984371185303e-02
-1.061228439211845398e-01,5.066235098638571799e-05,-2.581546902656555176e-01,-1.274643242359161377e-01,5.959074944257736206e-02,8.306054398417472839e-03,-1.428132653236389160e-01,-7.695468515157699585e-02,2.121229767799377441e-01,5.683170258998870850e-02,4.475336372852325439e-01,-3.201739490032196045e-01,6.699753552675247192e-02,-3.414849191904067993e-02
-1.875688903965055943e-04,-8.821548521518707275e-02,-1.062021180987358093e-01,-3.283739686012268066e-01,6.589391268789768219e-03,3.285508602857589722e-02,3.118963725864887238e-02,2.247647941112518311e-01,2.743561863899230957e-01,1.096672043204307556e-01,5.472062230110168457e-01,-3.004366457462310791e-01,3.898418322205543518e-02,4.753754660487174988e-02
-1.106503084301948547e-01,9.044051170349121094e-02,-2.727968096733093262e-01,-3.851349055767059326e-01,-2.470643371343612671e-01,-3.595253825187683105e-01,-9.217413514852523804e-02,-2.607914507389068604e-01,2.886656299233436584e-02,-6.508876383304595947e-02,5.391032099723815918e-01,-2.896883487701416016e-01,-2.377424761652946472e-02,1.548460423946380615e-01
4.411687701940536499e-02,-1.532687544822692871e-01,-3.491760194301605225e-01,-4.466877877712249756e-01,-2.532927989959716797e-01,-5.928145721554756165e-02,-1.408095359802246094e-01,-1.912113130092620850e-01,1.403249651193618774e-01,1.718257926404476166e-02,4.638614952564239502e-01,-1.014207750558853149e-01,-2.775936201214790344e-02,1.232740208506584167e-01
-8.884990960359573364e-02,-2.793173491954803467e-01,-2.370832860469818115e-01,-2.742374837398529053e-01,-3.676343560218811035e-01,1.676110737025737762e-02,-1.398573219776153564e-01,-2.585509717464447021e-01,-3.090143017470836639e-02,4.490244388580322266e-02,4.065892696380615234e-01,-2.412144839763641357e-01,7.993467152118682861e-02,3.126275539398193359e-01
-1.132780015468597412e-01,-3.609511256217956543e-01,-4.217564761638641357e-01,-2.420105040073394775e-01,-1.836471706628799438e-01,-1.121283099055290222e-01,-7.274945825338363647e-02,-2.392747551202774048e-01,-1.320882886648178101e-01,-9.811098128557205200e-02,4.388388097286224365e-01,-1.822108626365661621e-01,1.039700955152511597e-01,3.672598898410797119e-01
6.575727835297584534e-03,-3.062341809272766113e-01,-4.089686870574951172e-01,-1.733540296554565430e-01,-4.806616604328155518e-01,-7.781632244586944580e-02,-2.874256968498229980e-01,-4.209965765476226807e-01,1.091929376125335693e-01,-1.923030018806457520e-01,1.592794954776763916e-01,-3.003969192504882812e-01,4.763373360037803650e-02,6.003234982490539551e-01
-1.696761697530746460e-01,-2.948070168495178223e-01,-4.605906903743743896e-01,-2.231900542974472046e-01,-3.738597929477691650e-01,1.386207938194274902e-01,-2.736702561378479004e-01,-5.459286570549011230e-01,1.624594442546367645e-02,-2.492419034242630005e-01,2.565347254276275635e-01,-3.309552371501922607e-01,1.179589405655860901e-01,5.035323500633239746e-01
-2.684351503849029541e-01,-3.857825696468353271e-01,-2.561364471912384033e-01,-5.032616257667541504e-01,-6.415897011756896973e-01,-7.944966666400432587e-03,-2.786013782024383545e-01,-5.202884078025817871e-01,4.798915609717369080e-02,-1.302192956209182739e-01,4.590380191802978516e-01,-1.745688468217849731e-01,1.058942750096321106e-01,4.100601673126220703e-01
-1.997319608926773071e-01,-3.528773486614227295e-01,-4.746084511280059814e-01,-3.944541811943054199e-01,-4.361470341682434082e-01,-1.494243890047073364e-01,-3.305134475231170654e-01,-6.747174859046936035e-01,-4.151939973235130310e-02,-1.182033941149711609e-01,3.161646425724029541e-01,-3.308022618293762207e-01,4.906488582491874695e-02,3.311235606670379639e-01
-9.517171233892440796e-02,-2.806777358055114746e-01,-4.923295676708221436e-01,-4.715983867645263672e-01,-6.355173587799072266e-01,3.853917866945266724e-02,-3.986643552780151367e-01,-6.796730160713195801e-01,-1.124773826450109482e-02,-8.074107021093368530e-02,9.794037044048309326e-02,-2.280890941619873047e-01,2.175857424736022949e-01,6.030502319335937500e-01
-1.273828446865081787e-01,-3.076520860195159912e-01,-6.666889190673828125e-01,-3.662773072719573975e-01,-6.423729658126831055e-01,6.057399138808250427e-02,-2.726157605648040771e-01,-8.080379962921142578e-01,-8.855221420526504517e-02,2.832580916583538055e-02,2.801527380943298340e-01,-3.669285476207733154e-01,3.102473318576812744e-01,5.994210243225097656e-01
-2.433011494576931000e-02,-1.917928904294967651e-01,-8.162040114402770996e-01,-4.006797969341278076e-01,-5.252743959426879883e-01,2.984222583472728729e-02,-3.804683387279510498e-01,-9.615372419357299805e-01,5.709015950560569763e-02,-1.211307942867279053e-01,3.563046753406524658e-01,-1.635351181030273438e-01,1.138525232672691345e-01,5.057795643806457520e-01
-2.446416020393371582e-01,-2.887374162673950195e-01,-8.295760750770568848e-01,-4.699500501155853271e-01,-6.029972434043884277e-01,1.675058752298355103e-01,-4.344783723354339600e-01,-7.000135779380798340e-01,1.505180001258850098e-01,-1.138237863779067993e-01,2.246454954147338867e-01,-2.548665404319763184e-01,3.555803298950195312e-01,4.667499661445617676e-01
-1.779117584228515625e-01,-1.540667414665222168e-01,-5.397849082946777344e-01,-3.481436967849731445e-01,-7.098678350448608398e-01,9.074509143829345703e-03,-5.251466035842895508e-01,-9.360573887825012207e-01,-4.920032992959022522e-02,-2.647317647933959961e-01,1.997987329959869385e-01,1.607230678200721741e-02,1.812486350536346436e-01,6.256695985794067383e-01
5.694011598825454712e-02,-3.515447378158569336e-01,-7.323952913284301758e-01,-6.300278902053833008e-01,-7.728617787361145020e-01,1.086821500211954117e-02,-5.322960615158081055e-01,-9.756867289543151855e-01,7.638765871524810791e-02,-2.396878302097320557e-01,2.699707448482513428e-01,-1.784885078668594360e-01,2.580611705780029297e-01,6.628379225730895996e-01
-7.284658960998058319e-03,-3.181274533271789551e-01,-1.022266626358032227e+00,-6.864007711410522461e-01,-8.568080663681030273e-01,-2.489723414182662964e-01,-4.791556596755981445e-01,-9.422468543052673340e-01,2.151535600423812866e-01,-3.457838296890258789e-01,1.663102209568023682e-01,-2.250419855117797852e-01,1.773791909217834473e-01,5.536249876022338867e-01
-5.432112142443656921e-02,-1.902498453855514526e-01,-9.523515701293945312e-01,-5.324608087539672852e-01,-9.497972726821899414e-01,-1.797354370355606079e-01,-5.420829653739929199e-01,-1.096665501594543457e+00,2.594346404075622559e-01,-1.605141758918762207e-01,1.981634050607681274e-01,-1.827273145318031311e-02,1.833636611700057983e-01,5.042920112609863281e-01
-1.704938262701034546e-01,-3.364606797695159912e-01,-7.256604433059692383e-01,-5.556035041809082031e-01,-7.435668110847473145e-01,-1.035066768527030945e-01,-3.485735058784484863e-01,-1.060129284858703613e+00,8.329744637012481689e-02,-6.787044554948806763e-02,1.291948258876800537e-01,-1.416449397802352905e-01,1.867519617080688477e-01,4.263006150722503662e-01
-1.995096504688262939e-01,-3.842290937900543213e-01,-8.299902081489562988e-01,-6.147368550300598145e-01,-9.647942185401916504e-01,-1.154037117958068848e-01,-4.678466916084289551e-01,-1.014675140380859375e+00,2.238878309726715088e-01,-4.853870868682861328e-01,2.482613772153854370e-01,-1.001107841730117798e-01,9.275434166193008423e-02,4.133057594299316406e-01
6.120435148477554321e-02,-3.891192376613616943e-01,-8.158465027809143066e-01,-6.406065821647644043e-01,-8.648203611373901367e-01,-1.663068532943725586e-01,-4.071705341339111328e-01,-7.766847610473632812e-01,1.979079991579055786e-01,-2.052518278360366821e-01,2.361500859260559082e-01,-7.530018687248229980e-02,1.825630962848663330e-01,4.359577000141143799e-01
3.789504244923591614e-02,-2.697782814502716064e-01,-6.813226938247680664e-01,-5.476789474487304688e-01,-7.931769490242004395e-01,-3.455840647220611572e-01,-2.886980772018432617e-01,-8.214949965476989746e-01,3.549833968281745911e-02,-7.021477818489074707e-01,1.693640649318695068e-01,-4.963964596390724182e-02,1.723206937313079834e-01,4.789472520351409912e-01
3.398356959223747253e-03,-2.622845768928527832e-01,-7.328737974166870117e-01,-7.409569621086120605e-01,-8.018941283226013184e-01,-3.491739034652709961e-01,-3.782251775264739990e-01,-1.023944973945617676e+00,9.547881782054901123e-02,-5.116461515426635742e-01,3.186783194541931152e-01,7.799519598484039307e-02,1.093218773603439331e-01,6.777862906455993652e-01
-6.287503242492675781e-02,-4.154908657073974609e-01,-7.096094489097595215e-01,-7.219419479370117188e-01,-9.847427010536193848e-01,-2.389434278011322021e-01,-3.449130952358245850e-01,-8.275017738342285156e-01,2.659026384353637695e-01,-4.955208003520965576e-01,1.787186414003372192e-01,1.264154817909002304e-02,-6.947998888790607452e-03,5.114886760711669922e-01
-9.701409190893173218e-02,-3.225553333759307861e-01,-9.488523006439208984e-01,-6.356328129768371582e-01,-7.353366017341613770e-01,-2.712661027908325195e-01,-2.299780696630477905e-01,-8.053521513938903809e-01,4.250544607639312744e-01,-3.472399413585662842e-01,2.775195240974426270e-01,2.271738350391387939e-01,2.842485345900058746e-02,3.840731382369995117e-01
3.584091737866401672e-02,-4.034603834152221680e-01,-8.331978917121887207e-01,-5.097535252571105957e-01,-8.423886299133300781e-01,-2.555450797080993652e-01,-1.697304993867874146e-01,-9.767227768898010254e-01,4.000349938869476318e-01,-2.107925415039062500e-01,2.166558504104614258e-01,4.094090759754180908e-01,1.855037361383438110e-01,1.511452198028564453e-01
-1.983869820833206177e-02,-5.160050988197326660e-01,-7.386838793754577637e-01,-5.200269818305969238e-01,-8.191429376602172852e-01,-3.877856135368347168e-01,6.070529669523239136e-02,-7.902747392654418945e-01,3.624578416347503662e-01,-8.691509068012237549e-02,1.066038087010383606e-01,2.563209831714630127e-01,-5.847839638590812683e-02,3.332129716873168945e-01
4.665701091289520264e-02,-3.217623829841613770e-01,-5.356004238128662109e-01,-5.570644140243530273e-01,-7.399370074272155762e-01,-5.098624229431152344e-01,1.929974742233753204e-02,-6.520373225212097168e-01,5.501807928085327148e-01,-2.770615816116333008e-01,2.461985051631927490e-01,1.790128201246261597e-01,-2.040609270334243774e-01,4.335269033908843994e-01
-1.937668956816196442e-02,-4.713751077651977539e-01,-6.757270693778991699e-01,-5.912824273109436035e-01,-6.722636818885803223e-01,-3.615467846393585205e-01,1.791228652000427246e-01,-7.480465769767761230e-01,7.097090482711791992e-01,-2.552792429924011230e-01,1.280442923307418823e-01,4.322197735309600830e-01,-1.687654107809066772e-01,3.345870971679687500e-01
-1.131340116262435913e-01,-2.513722479343414307e-01,-3.993801772594451904e-01,-5.303474068641662598e-01,-4.245767295360565186e-01,-6.867827773094177246e-01,1.273346245288848877e-01,-7.803153991699218750e-01,5.379550457000732422e-01,-8.369207382202148438e-02,3.299686312675476074e-01,4.620080292224884033e-01,-1.288060247898101807e-01,4.939941763877868652e-01
-1.326133459806442261e-01,-3.905619978904724121e-01,-5.581881403923034668e-01,-4.132006466388702393e-01,-3.748855888843536377e-01,-3.275595605373382568e-01,3.443633913993835449e-01,-7.562602162361145020e-01,7.082121372222900391e-01,-2.987276203930377960e-02,1.470796912908554077e-01,4.774295389652252197e-01,-5.243594050407409668e-01,4.093112349510192871e-01
3.991107922047376633e-03,-2.949189245700836182e-01,-2.794096767902374268e-01,-4.263593554496765137e-01,-3.556578457355499268e-01,-6.068949699401855469e-01,5.371032357215881348e-01,-8.480692505836486816e-01,8.488022089004516602e-01,-1.165960207581520081e-01,2.519916594028472900e-01,5.865772962570190430e-01,-5.367844700813293457e-01,2.603775560855865479e-01
-1.942277401685714722e-01,-2.966331243515014648e-01,-6.190647482872009277e-01,-6.601788401603698730e-01,-1.855954676866531372e-01,-6.518751978874206543e-01,3.192345798015594482e-01,-7.993991374969482422e-01,7.928563356399536133e-01,1.517687551677227020e-02,1.095654740929603577e-01,5.701552629470825195e-01,-3.474868237972259521e-01,2.286747694015502930e-01
-1.023868024349212646e-01,-2.000166326761245728e-01,-3.549666702747344971e-01,-3.764107525348663330e-01,-1.130278334021568298e-01,-3.852364420890808105e-01,2.919268310070037842e-01,-6.452868580818176270e-01,7.598496079444885254e-01,2.279631048440933228e-01,2.572661340236663818e-01,5.235548615455627441e-01,-7.242673635482788086e-01,3.778580129146575928e-01
-2.657503187656402588e-01,-5.037034153938293457e-01,-3.158121407032012939e-01,-2.221678197383880615e-01,1.398789510130882263e-02,-6.150335669517517090e-01,3.527131676673889160e-01,-6.438021063804626465e-01,1.018764138221740723e+00,2.344624102115631104e-01,1.828774362802505493e-01,5.330039262771606445e-01,-4.916242063045501709e-01,1.936432123184204102e-01
-8.285219222307205200e-02,-2.223240435123443604e-01,-1.269337534904479980e-01,-2.628108263015747070e-01,6.060349941253662109e-02,-5.832870006561279297e-01,4.338200986385345459e-01,-7.257141470909118652e-01,1.004467844963073730e+00,7.059783488512039185e-02,4.214519262313842773e-01,6.488000750541687012e-01,-5.246004462242126465e-01,2.452976703643798828e-01
-2.165058553218841553e-01,-2.099354863166809082e-01,-3.636502623558044434e-01,-1.537938117980957031e-01,7.363471388816833496e-02,-7.922304868698120117e-01,3.145886361598968506e-01,-8.049990534782409668e-01,8.573690056800842285e-01,2.173856496810913086e-01,2.433340996503829956e-01,7.723265290260314941e-01,-5.941656827926635742e-01,1.816358715295791626e-01
-1.768754422664642334e-01,-3.967857658863067627e-01,-5.990680307149887085e-02,1.587749458849430084e-02,2.020468860864639282e-01,-7.773878574371337891e-01,5.086420774459838867e-01,-7.252845168113708496e-01,1.028197884559631348e+00,2.004678398370742798e-01,2.612282335758209229e-01,6.003606915473937988e-01,-6.209287643432617188e-01,8.072949945926666260e-02
-1.784837245941162109e-01,-2.730847001075744629e-01,-2.216980755329132080e-01,-5.049830675125122070e-02,1.313590854406356812e-01,-6.872287392616271973e-01,2.855399250984191895e-01,-7.045575976371765137e-01,1.069208621978759766e+00,1.409403532743453979e-01,2.800301313400268555e-01,6.254070997238159180e-01,-6.581472754478454590e-01,-2.191483043134212494e-02
-3.488418161869049072e-01,-1.970468908548355103e-01,-6.302367150783538818e-02,1.253307051956653595e-02,1.353785097599029541e-01,-8.697265982627868652e-01,3.132897615432739258e-01,-5.453548431396484375e-01,8.795205950736999512e-01,3.100704848766326904e-01,1.628494411706924438e-01,5.431877970695495605e-01,-6.852691769599914551e-01,1.564441770315170288e-01
-5.487906932830810547e-01,-4.035150110721588135e-01,-2.037573792040348053e-02,2.820256054401397705e-01,-7.381053292192518711e-04,-7.190144062042236328e-01,4.829296767711639404e-01,-6.803860664367675781e-01,7.130825519561767578e-01,3.951101005077362061e-01,2.568828761577606201e-01,3.222354352474212646e-01,-5.818085074424743652e-01,1.602379530668258667e-01
-3.505790829658508301e-01,-2.738861739635467529e-01,-6.972328573465347290e-02,2.804729044437408447e-01,1.509510129690170288e-01,-8.808494210243225098e-01,4.620248675346374512e-01,-6.030998229980468750e-01,8.253334164619445801e-01,4.486701190471649170e-01,3.042436540126800537e-01,4.940861165523529053e-01,-6.573902368545532227e-01,8.526211231946945190e-02
-4.716604948043823242e-01,-3.278462886810302734e-01,1.891932785511016846e-01,4.801436662673950195e-01,2.121203839778900146e-01,-8.203038573265075684e-01,3.974058926105499268e-01,-6.253839731216430664e-01,8.058762550354003906e-01,2.440557926893234253e-01,1.163116097450256348e-01,6.462842822074890137e-01,-7.357249855995178223e-01,-3.805806860327720642e-02
-3.772613108158111572e-01,-1.983992457389831543e-01,3.105258941650390625e-01,4.829677343368530273e-01,8.326991647481918335e-02,-7.557130455970764160e-01,3.086272478103637695e-01,-5.365714430809020996e-01,4.862538874149322510e-01,4.663901925086975098e-01,2.963286042213439941e-01,5.801492333412170410e-01,-6.697960495948791504e-01,-4.831091687083244324e-02
-3.901864886283874512e-01,-2.976985275745391846e-01,2.581175267696380615e-01,6.128234267234802246e-01,2.550973594188690186e-01,-7.198940515518188477e-01,3.420066833496093750e-01,-4.363207817077636719e-01,6.551478505134582520e-01,4.177995920181274414e-01,3.862614333629608154e-01,4.882413148880004883e-01,-4.132483601570129395e-01,-1.658601611852645874e-01
-3.950575292110443115e-01,-2.545037269592285156e-01,-3.483722358942031860e-02,5.360684990882873535e-01,2.700780034065246582e-01,-3.674740493297576904e-01,2.971009910106658936e-01,-5.327391624450683594e-01,7.236353158950805664e-01,3.238725960254669189e-01,-5.535944178700447083e-02,5.388962626457214355e-01,-3.775064051151275635e-01,-2.937818467617034912e-01
-5.322098135948181152e-01,-4.340806603431701660e-02,1.150197535753250122e-01,6.093691587448120117e-01,2.872576713562011719e-01,-5.229893326759338379e-01,3.940868079662322998e-01,-1.988754868507385254e-01,5.070114731788635254e-01,3.125614225864410400e-01,1.233943700790405273e-01,5.456745028495788574e-01,-5.728788375854492188e-01,-1.286869198083877563e-01
-7.112010717391967773e-01,1.277826875448226929e-01,9.876192361116409302e-02,6.170626878738403320e-01,2.103948146104812622e-01,-4.427607953548431396e-01,4.422180354595184326e-01,-3.278766870498657227e-01,3.634704053401947021e-01,4.145892560482025146e-01,2.677155435085296631e-01,3.559291362762451172e-01,-4.623883366584777832e-01,-2.521247565746307373e-01
-7.527108192443847656e-01,-2.299106419086456299e-01,-8.296008408069610596e-02,4.752150774002075195e-01,1.533247530460357666e-01,-2.946367263793945312e-01,4.195109009742736816e-01,-1.234801113605499268e-01,4.007972478866577148e-01,3.784368336200714111e-01,1.525075137615203857e-01,3.824570477008819580e-01,-3.038527965545654297e-01,-2.510014772415161133e-01
-9.394384026527404785e-01,5.353977531194686890e-02,7.821994274854660034e-02,4.357242584228515625e-01,2.658005654811859131e-01,-3.475590050220489502e-01,4.214298129081726074e-01,-3.523619174957275391e-01,6.687244176864624023e-01,5.907002687454223633e-01,2.286119908094406128e-01,3.027680516242980957e-01,-4.309070110321044922e-01,-4.527708292007446289e-01
-7.350382208824157715e-01,5.261640995740890503e-02,-8.090776950120925903e-02,4.259734153747558594e-01,3.155054152011871338e-01,-3.028371036052703857e-01,3.022891581058502197e-01,-2.882382869720458984e-01,5.185499191284179688e-01,2.929874360561370850e-01,1.549158692359924316e-01,4.971932470798492432e-01,-3.852764964103698730e-01,-4.420639872550964355e-01
-8.455216884613037109e-01,-5.246492102742195129e-02,9.860812127590179443e-02,5.015692114830017090e-01,2.105764299631118774e-01,-2.582022249698638916e-01,3.613039255142211914e-01,-1.979909539222717285e-01,2.423416972160339355e-01,4.621065855026245117e-01,3.058346211910247803e-01,3.929153382778167725e-01,-3.444786369800567627e-01,-4.290566146373748779e-01
-8.951980471611022949e-01,1.537434160709381104e-01,-2.265963405370712280e-01,4.680655002593994141e-01,3.995133042335510254e-01,-2.987796366214752197e-01,2.585214674472808838e-01,-2.826789915561676025e-01,1.748329848051071167e-01,2.480431199073791504e-01,3.875183761119842529e-01,3.044455349445343018e-01,-3.992784917354583740e-01,-4.575025141239166260e-01
-9.060218930244445801e-01,2.666423618793487549e-01,-1.151376441121101379e-01,5.490931868553161621e-01,3.925128281116485596e-01,4.505298100411891937e-03,6.113157048821449280e-02,-1.820117682218551636e-01,2.868468761444091797e-01,1.021124795079231262e-01,5.516533851623535156e-01,1.443323343992233276e-01,-3.846193253993988037e-01,-7.786904573440551758e-01
-6.774916648864746094e-01,2.107064574956893921e-01,-1.657495498657226562e-01,4.439087212085723877e-01,4.511081278324127197e-01,1.860626600682735443e-02,2.193218171596527100e-01,-2.954723834991455078e-01,3.220984041690826416e-01,2.483396530151367188e-01,5.675044059753417969e-01,2.374271750450134277e-01,-6.045999526977539062e-01,-7.423231005668640137e-01
-7.907310724258422852e-01,3.574398756027221680e-01,-1.083094552159309387e-01,4.652791321277618408e-01,7.287497520446777344e-01,-5.782779189758002758e-04,2.286420315504074097e-01,-2.491511106491088867e-01,2.351454794406890869e-01,1.143761500716209412e-01,6.873631477355957031e-01,-6.734281033277511597e-02,-5.892385840415954590e-01,-8.174038529396057129e-01
-7.125502824783325195e-01,2.321218252182006836e-01,-1.023652777075767517e-01,3.947791457176208496e-01,5.388571023941040039e-01,1.654758453369140625e-01,1.900327503681182861e-01,-6.585177034139633179e-02,1.872570812702178955e-01,1.898486018180847168e-01,7.556623220443725586e-01,1.022324413061141968e-01,-4.073186218738555908e-01,-1.145398736000061035e+00
-4.822493791580200195e-01,2.177415341138839722e-01,-1.037656813859939575e-01,4.459921121597290039e-01,6.109460592269897461e-01,9.413602203130722046e-02,2.553917467594146729e-01,1.480369120836257935e-01,1.086686775088310242e-01,-8.372008800506591797e-02,7.680609822273254395e-01,1.189992427825927734e-01,-4.912988841533660889e-01,-8.879002332687377930e-01
-6.646177172660827637e-01,2.024218291044235229e-01,-2.110418528318405151e-01,3.428482413291931152e-01,4.472325146198272705e-01,9.321677684783935547e-02,1.029063984751701355e-01,7.971374690532684326e-02,2.788402140140533447e-01,-6.305611133575439453e-02,9.077822566032409668e-01,1.519830822944641113e-01,-3.995195329189300537e-01,-1.080615282058715820e+00
-4.040373861789703369e-01,3.207863569259643555e-01,-1.168688163161277771e-01,2.629319429397583008e-01,5.567845106124877930e-01,2.089510113000869751e-01,2.987541854381561279e-01,3.336392641067504883e-01,4.273937642574310303e-02,9.801266342401504517e-02,8.497826457023620605e-01,1.231320127844810486e-01,-4.660995900630950928e-01,-1.136871099472045898e+00
-2.022819221019744873e-01,3.514658212661743164e-01,-2.723663151264190674e-01,2.628208994865417480e-01,4.766146838665008545e-01,3.844745159149169922e-01,1.850747615098953247e-01,1.865830421447753906e-01,3.874416276812553406e-02,-3.758659213781356812e-02,1.013862609863281250e+00,-4.909703508019447327e-02,-5.710745453834533691e-01,-1.075079083442687988e+00
-3.825815618038177490e-01,2.191318422555923462e-01,-1.509092748165130615e-01,3.641179800033569336e-01,6.381883621215820312e-01,3.718573153018951416e-01,2.920545041561126709e-01,4.001008272171020508e-01,-7.166849076747894287e-02,9.973885118961334229e-02,1.005924463272094727e+00,9.706569463014602661e-02,-3.062150180339813232e-01,-1.015852570533752441e+00
-8.756624162197113037e-02,2.650837898254394531e-01,-1.029122918844223022e-01,3.195157349109649658e-01,5.656557679176330566e-01,2.422594130039215088e-01,3.499368429183959961e-01,4.333321452140808105e-01,-9.730557352304458618e-02,-2.124384194612503052e-01,1.032648563385009766e+00,7.493716478347778320e-02,-3.445441722869873047e-01,-8.384761214256286621e-01
-1.588169038295745850e-01,5.748207494616508484e-02,-1.683253347873687744e-01,2.389605045318603516e-01,7.150451540946960449e-01,2.169744670391082764e-01,1.234051361680030823e-01,4.679375588893890381e-01,-1.454833298921585083e-01,2.427295967936515808e-02,1.066588521003723145e+00,-4.718937724828720093e-02,-3.267824947834014893e-01,-9.712911844253540039e-01
-1.915110796689987183e-01,1.239129602909088135e-01,2.839945815503597260e-02,2.618238925933837891e-01,7.366951107978820801e-01,1.541538834571838379e-01,1.045913100242614746e-01,4.946333765983581543e-01,-1.531383246183395386e-01,-1.245421171188354492e-01,8.424017429351806641e-01,1.605142802000045776e-01,-3.143886029720306396e-01,-7.557166814804077148e-01
-6.549993157386779785e-02,2.415115758776664734e-02,-4.105754196643829346e-02,1.505083292722702026e-01,7.321363687515258789e-01,1.502307355403900146e-01,3.142377734184265137e-01,4.656363725662231445e-01,-6.966696679592132568e-02,-1.338037699460983276e-01,1.189460277557373047e+00,2.943757772445678711e-01,-1.331522613763809204e-01,-6.717467904090881348e-01
-1.270345449447631836e-01,-1.800529211759567261e-01,-7.635570317506790161e-02,5.580765381455421448e-02,9.437958598136901855e-01,1.044788956642150879e-02,1.409612298011779785e-01,6.371819972991943359e-01,-2.204564958810806274e-01,-7.710748165845870972e-02,7.856009006500244141e-01,3.171214163303375244e-01,-1.788987517356872559e-01,-8.269429802894592285e-01
-1.294375211000442505e-01,-1.726384758949279785e-01,-7.603405043482780457e-03,1.487905234098434448e-01,7.011551856994628906e-01,2.298766821622848511e-01,-5.800363793969154358e-02,3.974294960498809814e-01,-3.829991519451141357e-01,2.512244880199432373e-02,8.679531216621398926e-01,2.359228879213333130e-01,-1.129341349005699158e-01,-8.938689231872558594e-01
4.648034460842609406e-03,-1.894547492265701294e-01,-1.565804630517959595e-01,2.865071594715118408e-01,7.360552549362182617e-01,3.989489376544952393e-01,1.515911072492599487e-01,4.098372757434844971e-01,-1.600269824266433716e-01,5.289604142308235168e-02,1.056342124938964844e+00,2.276048064231872559e-01,-1.514490544795989990e-01,-6.789222955703735352e-01
-1.934948749840259552e-02,-3.155027925968170166e-01,-6.185253709554672241e-02,1.542259454727172852e-01,8.969126343727111816e-01,4.002034068107604980e-01,1.676254570484161377e-01,3.759863078594207764e-01,-2.776807248592376709e-01,-9.596859663724899292e-02,9.685577154159545898e-01,1.183829307556152344e-01,1.150031536817550659e-01,-4.532605111598968506e-01
1.214079782366752625e-01,-1.628549546003341675e-01,-1.074457764625549316e-01,6.878074258565902710e-02,7.194775342941284180e-01,2.789109349250793457e-01,-7.362496852874755859e-02,5.213435888290405273e-01,-3.222077786922454834e-01,-2.896129339933395386e-02,8.268168568611145020e-01,1.916966140270233154e-01,-1.524123549461364746e-01,-4.908435046672821045e-01
-7.078931480646133423e-02,-1.605160832405090332e-01,-2.776141278445720673e-02,-1.393779963254928589e-01,7.341941595077514648e-01,1.871237605810165405e-01,2.755959630012512207e-01,3.850254416465759277e-01,-5.214903950691223145e-01,5.637650191783905029e-02,7.270183563232421875e-01,2.320389449596405029e-01,-7.267232984304428101e-02,-3.889581859111785889e-01
-2.094567120075225830e-01,-2.970072031021118164e-01,-1.442087441682815552e-01,-5.523581430315971375e-02,7.494289278984069824e-01,2.752076089382171631e-01,1.394369006156921387e-01,3.812879621982574463e-01,-4.563871026039123535e-01,1.944580227136611938e-01,7.911406755447387695e-01,2.352022230625152588e-01,-1.605155877768993378e-03,-5.952035188674926758e-01
-1.150144487619400024e-01,-3.397581577301025391e-01,-1.818888336420059204e-01,-4.070966318249702454e-02,6.241349577903747559e-01,3.021033704280853271e-01,-1.026930883526802063e-01,1.513769030570983887e-01,-3.707497417926788330e-01,2.370745539665222168e-01,7.072480916976928711e-01,4.125930666923522949e-01,2.921985462307929993e-02,-4.008678495883941650e-01
3.814895823597908020e-02,-2.865167558193206787e-01,-1.207816451787948608e-01,-4.250660538673400879e-02,6.508446931838989258e-01,2.423368841409683228e-01,-2.098777890205383301e-02,1.844352632761001587e-01,-4.218902289867401123e-01,7.464046776294708252e-02,6.930921077728271484e-01,3.015113770961761475e-01,1.734486520290374756e-01,-5.117959380149841309e-01
7.192510366439819336e-02,-3.923754096031188965e-01,-7.808732986450195312e-02,-2.268259376287460327e-01,7.288569211959838867e-01,5.574112758040428162e-03,-5.793580040335655212e-02,1.808992773294448853e-01,-6.715667247772216797e-01,8.169537037611007690e-02,6.480869054794311523e-01,4.939970970153808594e-01,2.874968349933624268e-01,-3.017564415931701660e-01
3.257165104150772095e-02,-1.979482769966125488e-01,-1.001736521720886230e-01,1.711905188858509064e-02,5.870527029037475586e-01,2.626798748970031738e-01,-1.418035924434661865e-01,6.275510042905807495e-02,-6.430631279945373535e-01,9.674999862909317017e-02,5.783120393753051758e-01,2.839809656143188477e-01,3.624921664595603943e-02,-5.412020087242126465e-01
1.097315624356269836e-01,-1.912672966718673706e-01,-1.019434928894042969e-01,-1.154037341475486755e-01,3.513360023498535156e-01,2.485400438308715820e-01,-2.693511247634887695e-01,2.978217974305152893e-02,-6.806824803352355957e-01,-4.333623684942722321e-03,5.336869955062866211e-01,2.845797836780548096e-01,1.196854561567306519e-01,-1.718125790357589722e-01
1.283893585205078125e-01,-5.469849109649658203e-01,-6.473797559738159180e-02,-2.529664635658264160e-01,3.638875484466552734e-01,1.576315760612487793e-01,-1.163695454597473145e-01,-1.059435829520225525e-01,-6.085242033004760742e-01,1.050796955823898315e-01,4.695056676864624023e-01,2.476861923933029175e-01,3.400639295578002930e-01,-3.304603099822998047e-01
-3.896556049585342407e-02,-4.900526106357574463e-01,-1.575828492641448975e-01,-1.988231688737869263e-01,1.794659495353698730e-01,2.291267961263656616e-01,-3.240661323070526123e-01,1.646196246147155762e-01,-7.741450667381286621e-01,4.170020669698715210e-02,5.046198368072509766e-01,2.650825679302215576e-01,2.219351679086685181e-01,-3.882491886615753174e-01
-7.514021545648574829e-02,-4.893190264701843262e-01,-2.603698372840881348e-01,-1.355253010988235474e-01,2.858671545982360840e-01,9.033668786287307739e-02,-3.004992306232452393e-01,7.437327504158020020e-02,-7.569198012351989746e-01,7.293307781219482422e-02,4.866704940795898438e-01,2.333933562040328979e-01,2.556582093238830566e-01,-1.961535215377807617e-01
-7.441596686840057373e-02,-4.391845464706420898e-01,-3.188322186470031738e-01,-1.935547292232513428e-01,3.055115789175033569e-02,5.862906202673912048e-02,-3.116905689239501953e-01,1.345354784280061722e-02,-6.931714415550231934e-01,-3.641740186139941216e-03,3.168039321899414062e-01,1.821938753128051758e-01,4.492401182651519775e-01,-3.855236470699310303e-01
6.040541455149650574e-02,-4.925065338611602783e-01,-2.867439985275268555e-01,-2.418050915002822876e-01,8.495552092790603638e-02,6.202189624309539795e-02,-5.438095927238464355e-01,1.106681972742080688e-01,-5.515084266662597656e-01,4.368946328759193420e-02,3.047592639923095703e-01,2.671929895877838135e-01,6.040588617324829102e-01,-2.284872978925704956e-01
1.257853507995605469e-01,-5.439527034759521484e-01,-1.374679207801818848e-01,-1.472839415073394775e-01,4.563781246542930603e-02,-7.568057626485824585e-02,-2.923841774463653564e-01,-2.854351699352264404e-01,-6.792365908622741699e-01,-2.357384562492370605e-01,1.865475624799728394e-01,7.519650459289550781e-02,4.900743067264556885e-01,-3.451145291328430176e-01
1.413313895463943481e-01,-3.954764008522033691e-01,-1.150776818394660950e-01,-7.374056428670883179e-02,-1.079391781240701675e-02,1.101424098014831543e-01,-3.242811858654022217e-01,8.138401806354522705e-02,-8.378381729125976562e-01,-1.362576037645339966e-01,2.063298970460891724e-01,4.264769852161407471e-01,5.929127335548400879e-01,-2.292800992727279663e-01
4.134011566638946533e-01,-3.137794435024261475e-01,-3.004538118839263916e-01,-2.501327991485595703e-01,5.808361247181892395e-02,4.979063570499420166e-02,-4.311981797218322754e-01,-7.895928807556629181e-03,-8.873521089553833008e-01,-1.023257672786712646e-01,2.718176320195198059e-02,2.923353016376495361e-01,5.095953941345214844e-01,-1.725068837404251099e-01
1.242671981453895569e-01,-4.950698316097259521e-01,-2.800285816192626953e-01,-1.537080407142639160e-01,-4.255603253841400146e-02,3.032362461090087891e-02,-2.467343211174011230e-01,-1.929363161325454712e-01,-9.266204237937927246e-01,-5.060667544603347778e-02,1.972936689853668213e-01,4.878586232662200928e-01,5.815013647079467773e-01,-1.841996759176254272e-01
1.551868976093828678e-03,-3.238741159439086914e-01,-2.674997746944427490e-01,-3.386051952838897705e-01,1.808311976492404938e-02,6.340443505905568600e-04,-2.285582721233367920e-01,-2.096372395753860474e-01,-1.008272886276245117e+00,-1.693575978279113770e-01,7.869883626699447632e-02,4.882503747940063477e-01,4.107233881950378418e-01,-2.038309723138809204e-01
1.095379889011383057e-01,-4.400586783885955811e-01,1.353471819311380386e-02,-3.550617396831512451e-01,-1.391294151544570923e-01,6.339839659631252289e-03,-2.746634483337402344e-01,-1.675118952989578247e-01,-7.437704205513000488e-01,5.408095195889472961e-03,-1.151009574532508850e-01,3.377581834793090820e-01,5.466973185539245605e-01,-1.923623383045196533e-01
1.128155887126922607e-01,-4.126420915126800537e-01,-2.658351063728332520e-01,-5.092478394508361816e-01,-2.828920483589172363e-01,-7.871653884649276733e-02,-4.075002670288085938e-01,-1.914702355861663818e-01,-7.294082045555114746e-01,-1.503441333770751953e-01,-1.658378690481185913e-01,3.111498653888702393e-01,3.618370294570922852e-01,-2.125965952873229980e-01
1.300779432058334351e-01,-3.409394919872283936e-01,-2.347662895917892456e-01,-6.193751692771911621e-01,-1.790797114372253418e-01,-2.374271675944328308e-02,-3.774221837520599365e-01,-3.675894141197204590e-01,-7.574782967567443848e-01,-4.051702097058296204e-02,-6.610994040966033936e-02,3.539390265941619873e-01,3.195278644561767578e-01,-2.039047032594680786e-01
1.171150282025337219e-01,-2.572135627269744873e-01,-4.312874749302864075e-02,-6.309775114059448242e-01,-1.145642250776290894e-01,-2.880547046661376953e-01,-1.903910487890243530e-01,-2.289403676986694336e-01,-6.903237104415893555e-01,-1.426175353117287159e-03,-1.062702834606170654e-01,3.976281881332397461e-01,4.803158640861511230e-01,-3.702175617218017578e-01
-4.102242365479469299e-02,-2.525245845317840576e-01,-1.129022240638732910e-01,-6.843844056129455566e-01,-2.713344991207122803e-01,-2.219751924276351929e-01,-3.350769355893135071e-02,-1.417206320911645889e-02,-3.364458978176116943e-01,1.311033368110656738e-01,-1.011908203363418579e-01,5.985401868820190430e-01,2.347657531499862671e-01,-2.597405612468719482e-01
2.437511086463928223e-02,-1.530571728944778442e-01,-8.950246870517730713e-02,-5.983521938323974609e-01,1.111747398972511292e-01,3.002802841365337372e-02,-2.454532235860824585e-01,-2.321544140577316284e-01,-3.944635987281799316e-01,1.599394381046295166e-01,-9.581347554922103882e-02,7.348759770393371582e-01,2.150264829397201538e-01,-2.993812263011932373e-01
-3.148002550005912781e-02,-3.392127454280853271e-01,5.498113855719566345e-02,-7.032226324081420898e-01,-8.250718563795089722e-02,-2.199324518442153931e-01,-2.982741594314575195e-01,-1.181558892130851746e-01,-3.550593256950378418e-01,7.796032726764678955e-02,-1.792791336774826050e-01,4.870752692222595215e-01,2.446166425943374634e-01,-2.658182680606842041e-01
-8.157194592058658600e-03,-5.959798023104667664e-02,-1.800999641418457031e-01,-6.216773390769958496e-01,-7.420968264341354370e-02,-6.863090395927429199e-02,1.447697579860687256e-01,-2.054509669542312622e-01,-2.486176341772079468e-01,1.793665289878845215e-01,-6.438543647527694702e-02,5.597767233848571777e-01,1.767955720424652100e-01,-2.747058272361755371e-01
-1.528301462531089783e-02,-1.645352542400360107e-01,-1.022814540192484856e-03,-6.111673116683959961e-01,7.293576747179031372e-02,-4.573975503444671631e-01,-6.549454480409622192e-02,-2.538651525974273682e-01,-4.873707294464111328e-01,3.525584638118743896e-01,-7.176580280065536499e-02,6.677350997924804688e-01,7.919752039015293121e-03,-1.146189793944358826e-01
1.035965755581855774e-01,-1.093779206275939941e-01,-6.022854894399642944e-02,-7.265990972518920898e-01,-7.550429552793502808e-02,-3.946072161197662354e-01,1.985235363245010376e-01,-6.975953280925750732e-02,-2.838420569896697998e-01,1.612544506788253784e-01,-9.396377950906753540e-02,6.079043745994567871e-01,-1.627819538116455078e-01,3.681590408086776733e-02
1.107620522379875183e-01,-1.780308187007904053e-01,9.218364953994750977e-02,-7.365294098854064941e-01,9.917279332876205444e-02,-4.405823945999145508e-01,-7.007634639739990234e-02,1.579334959387779236e-02,-1.690190657973289490e-02,2.612425386905670166e-01,-8.452258259057998657e-02,4.784192442893981934e-01,6.196128576993942261e-02,-2.100743949413299561e-01
3.321916563436388969e-03,-2.162579298019409180e-01,2.149301469326019287e-01,-6.948259472846984863e-01,1.371302306652069092e-01,-4.999708831310272217e-01,1.404292285442352295e-01,-7.334820926189422607e-02,-7.592961937189102173e-02,2.930882275104522705e-01,-1.283220350742340088e-01,8.147225975990295410e-01,-1.197131574153900146e-01,-1.498538106679916382e-01
-1.558331102132797241e-01,-7.469262927770614624e-02,4.937027990818023682e-01,-5.481635928153991699e-01,2.336260229349136353e-01,-6.219837069511413574e-01,-6.296079605817794800e-02,-1.883384287357330322e-01,-1.287569999694824219e-01,4.053369164466857910e-01,-1.312119960784912109e-01,8.486666679382324219e-01,-1.880984306335449219e-01,-2.362298667430877686e-01
9.617866575717926025e-02,-1.743244975805282593e-01,4.484324455261230469e-01,-3.199477493762969971e-01,2.642565071582794189e-01,-8.149764537811279297e-01,1.353886872529983521e-01,-2.238727957010269165e-01,3.547867387533187866e-02,2.130519747734069824e-01,5.321856122463941574e-03,7.896628379821777344e-01,-2.609404027462005615e-01,-1.992937326431274414e-01
-7.222053408622741699e-02,-1.333611607551574707e-01,5.319973826408386230e-01,-3.750649690628051758e-01,1.595793217420578003e-01,-9.345844388008117676e-01,4.094972610473632812e-01,1.037834882736206055e-01,-2.608876526355743408e-01,5.617464184761047363e-01,-1.834624707698822021e-01,9.014760255813598633e-01,-4.002527892589569092e-01,-3.784557580947875977e-01
-1.129883155226707458e-01,-1.230876743793487549e-01,4.464027285575866699e-01,-4.580053091049194336e-01,3.110209703445434570e-01,-7.787778377532958984e-01,2.355031669139862061e-01,1.048972457647323608e-01,1.059062331914901733e-01,3.934238255023956299e-01,-9.696947783231735229e-02,9.507762789726257324e-01,-3.609553277492523193e-01,-8.287376910448074341e-02
-1.632158309221267700e-01,-1.134986728429794312e-01,7.232899069786071777e-01,-2.466025948524475098e-01,1.512924879789352417e-01,-8.695219159126281738e-01,2.624629735946655273e-01,2.042397297918796539e-02,7.886444032192230225e-02,4.844300746917724609e-01,-4.295507669448852539e-01,6.575271487236022949e-01,-3.716318905353546143e-01,-2.383101284503936768e-01
-1.476522684097290039e-01,-8.941708505153656006e-02,7.540358901023864746e-01,-2.048871368169784546e-01,2.450792938470840454e-01,-6.636211872100830078e-01,4.780647754669189453e-01,3.521836549043655396e-02,1.843587309122085571e-01,6.392931342124938965e-01,-1.917272657155990601e-01,7.819327712059020996e-01,-3.888916671276092529e-01,-1.598827242851257324e-01
-2.270849198102951050e-01,-1.934282034635543823e-01,6.920590996742248535e-01,-2.520419359207153320e-01,3.149265646934509277e-01,-9.831095933914184570e-01,3.114696145057678223e-01,1.890643090009689331e-01,9.153839200735092163e-02,6.210859417915344238e-01,-1.521888375282287598e-01,8.822346925735473633e-01,-5.334391593933105469e-01,-1.888870447874069214e-01
-2.955140769481658936e-01,-1.230945736169815063e-01,5.481639504432678223e-01,-7.326317578554153442e-02,2.108483761548995972e-01,-8.995355963706970215e-01,4.180091023445129395e-01,2.419036328792572021e-01,1.497652381658554077e-01,8.852886557579040527e-01,-3.068761527538299561e-01,7.653836011886596680e-01,-3.855955302715301514e-01,-1.734022647142410278e-01
-5.237853527069091797e-01,1.016997024416923523e-01,6.806609034538269043e-01,-2.294651865959167480e-01,1.203930899500846863e-01,-9.074268341064453125e-01,4.952815771102905273e-01,2.032480435445904732e-03,1.866952478885650635e-01,7.346442341804504395e-01,-3.381259441375732422e-01,7.444726228713989258e-01,-4.296747148036956787e-01,-2.294631451368331909e-01
-4.135934412479400635e-01,1.479086875915527344e-01,6.986281871795654297e-01,-1.518815159797668457e-01,2.922481894493103027e-01,-1.139792323112487793e+00,2.632420063018798828e-01,-3.120594918727874756e-01,1.725805401802062988e-01,9.383740425109863281e-01,-3.645270168781280518e-01,8.009229302406311035e-01,-6.561304926872253418e-01,-8.016150444746017456e-03
-6.756939888000488281e-01,-1.289912499487400055e-02,7.082483768463134766e-01,1.336712390184402466e-01,3.042371273040771484e-01,-9.340096712112426758e-01,3.945935964584350586e-01,-9.484093636274337769e-02,2.137603461742401123e-01,8.925212621688842773e-01,-2.996088266372680664e-01,5.767625570297241211e-01,-6.919244527816772461e-01,-5.204984173178672791e-02
-8.159829378128051758e-01,5.395277962088584900e-02,6.441907882690429688e-01,-1.484160423278808594e-01,3.584171831607818604e-01,-8.580800890922546387e-01,2.161053419113159180e-01,-1.579023897647857666e-02,1.795472055673599243e-01,9.173701405525207520e-01,-2.642883360385894775e-01,6.352224946022033691e-01,-4.828879833221435547e-01,-1.342472732067108154e-01
-7.287918925285339355e-01,1.744819432497024536e-01,8.008902072906494141e-01,-5.024798214435577393e-02,1.323408186435699463e-01,-7.886625528335571289e-01,1.452943384647369385e-01,-8.497301489114761353e-02,2.351681441068649292e-01,1.033714056015014648e+00,-4.493429660797119141e-01,4.445372819900512695e-01,-6.958611607551574707e-01,-2.700777649879455566e-01
-8.920204043388366699e-01,2.391933351755142212e-01,6.753581762313842773e-01,-6.742446124553680420e-02,3.451585471630096436e-01,-8.221349716186523438e-01,2.058586031198501587e-01,-5.405255034565925598e-02,2.518361210823059082e-01,1.016226410865783691e+00,-3.708149790763854980e-01,4.335077702999114990e-01,-6.757832765579223633e-01,1.764875836670398712e-02
-9.439783692359924316e-01,2.499720752239227295e-01,8.048148751258850098e-01,2.996797859668731689e-01,3.122021555900573730e-01,-9.499062895774841309e-01,6.099735200405120850e-02,-1.286903172731399536e-01,9.692370146512985229e-02,1.076691269874572754e+00,-3.309069275856018066e-01,4.476900696754455566e-01,-7.474557161331176758e-01,-1.007186546921730042e-01
-1.064329266548156738e+00,4.335548579692840576e-01,7.270025014877319336e-01,1.139643117785453796e-01,2.731126546859741211e-01,-8.866474628448486328e-01,8.294642716646194458e-02,-7.128986716270446777e-02,2.831415235996246338e-01,8.223019838333129883e-01,-2.285037785768508911e-01,3.527206778526306152e-01,-7.904649376869201660e-01,-7.728003710508346558e-02
-9.142143726348876953e-01,6.420533657073974609e-01,6.888250112533569336e-01,2.152485996484756470e-01,3.128685057163238525e-01,-8.455220460891723633e-01,1.471467316150665283e-02,2.524509727954864502e-01,2.246209084987640381e-01,9.569689035415649414e-01,-3.085497021675109863e-01,1.167976260185241699e-01,-6.484150886535644531e-01,-1.826699525117874146e-01
-9.421068429946899414e-01,7.361905574798583984e-01,7.463180422782897949e-01,-1.629300415515899658e-02,3.256830573081970215e-01,-8.994584083557128906e-01,-7.413394749164581299e-02,-1.635214537382125854e-01,-2.262575086206197739e-03,1.081768870353698730e+00,-2.858677506446838379e-01,3.093824256211519241e-03,-8.170045614242553711e-01,-3.344117701053619385e-01
-1.050299525260925293e+00,7.565255761146545410e-01,6.514003276824951172e-01,3.020417392253875732e-01,3.533694446086883545e-01,-8.976480364799499512e-01,-1.657387316226959229e-01,9.719432890415191650e-02,-1.201754137873649597e-01,1.021934509277343750e+00,-1.327850967645645142e-01,-4.431739822030067444e-02,-6.231818199157714844e-01,-4.234569668769836426e-01
-9.936805963516235352e-01,5.766108632087707520e-01,5.834707617759704590e-01,3.982595503330230713e-01,2.661525607109069824e-01,-6.062604784965515137e-01,-1.234905198216438293e-01,9.369757771492004395e-02,-9.021058795042335987e-04,7.525081038475036621e-01,-7.909011095762252808e-02,-8.038577437400817871e-02,-5.337843894958496094e-01,-2.743117809295654297e-01
-1.006487011909484863e+00,5.759167075157165527e-01,7.860265374183654785e-01,3.780413269996643066e-01,3.463548123836517334e-01,-7.197772264480590820e-01,-2.846190333366394043e-01,1.382987052202224731e-01,-7.597303390502929688e-02,7.204651236534118652e-01,-1.567238010466098785e-02,6.516949087381362915e-02,-6.676623225212097168e-01,-4.897628426551818848e-01
-9.957449436187744141e-01,8.075697422027587891e-01,6.879934668540954590e-01,2.885126173496246338e-01,3.014399409294128418e-01,-6.750251054763793945e-01,-1.548939645290374756e-01,1.898907572031021118e-01,1.463259160518646240e-01,9.058441519737243652e-01,4.015789926052093506e-02,-2.576400637626647949e-01,-7.196073532104492188e-01,-2.852036058902740479e-01
-9.827837347984313965e-01,8.085914254188537598e-01,7.095439434051513672e-01,2.684463262557983398e-01,4.238253235816955566e-01,-4.875681698322296143e-01,-2.532707154750823975e-01,2.540948092937469482e-01,-9.865312278270721436e-02,6.191232204437255859e-01,-2.547965049743652344e-01,-2.443975955247879028e-01,-6.239266991615295410e-01,-7.375625967979431152e-01
-8.853405714035034180e-01,1.156495332717895508e+00,5.554630756378173828e-01,2.412263303995132446e-01,1.878300309181213379e-01,-5.997208952903747559e-01,-2.059870511293411255e-01,3.430525660514831543e-01,-8.240731805562973022e-02,5.610668659210205078e-01,1.458974778652191162e-01,-4.314509630203247070e-01,-4.165461063385009766e-01,-4.393734037876129150e-01
-1.058168172836303711e+00,9.365137219429016113e-01,5.148020982742309570e-01,1.955084651708602905e-01,2.891546487808227539e-01,-5.990241169929504395e-01,-3.221429884433746338e-01,2.579162716865539551e-01,1.394182443618774414e-01,5.893990993499755859e-01,1.275426745414733887e-01,-2.228935658931732178e-01,-5.709054470062255859e-01,-5.632613301277160645e-01
-8.315057754516601562e-01,1.065156459808349609e+00,4.918516576290130615e-01,3.017177581787109375e-01,1.782223880290985107e-01,-5.061209201812744141e-01,-3.731455504894256592e-01,3.066498339176177979e-01,-8.072927594184875488e-02,5.307974815368652344e-01,2.399248182773590088e-01,-3.332864642143249512e-01,-6.985681056976318359e-01,-7.587575316429138184e-01
-9.715343713760375977e-01,9.140013456344604492e-01,2.984657585620880127e-01,2.648708820343017578e-01,2.837449312210083008e-01,-3.386109173297882080e-01,-4.688233733177185059e-01,2.295608222484588623e-01,-4.019729048013687134e-02,4.297365844249725342e-01,3.681326508522033691e-01,-3.122576475143432617e-01,-6.180187463760375977e-01,-7.157297730445861816e-01
-9.611813426017761230e-01,9.484220147132873535e-01,4.492971301078796387e-01,1.932291984558105469e-01,5.122094750404357910e-01,-3.650280237197875977e-01,-5.616251826286315918e-01,3.710762262344360352e-01,-1.027184426784515381e-01,4.433458745479583740e-01,3.944653868675231934e-01,-4.043695926666259766e-01,-5.312550663948059082e-01,-7.136724591255187988e-01
