AF3,F7,F3,FC5,T7,P7,O1,O2,P8,T8,FC6,F4,F8,AF4
-1.200702562928199768e-01,1.812689155340194702e-01,8.091763593256473541e-03,8.443108797073364258e-01,-4.189034700393676758e-01,4.145998954772949219e-01,4.316549599170684814e-01,1.069535091519355774e-01,3.667779266834259033e-01,-2.343548685312271118e-01,-3.287995159626007080e-01,2.388703823089599609e-01,6.677702665328979492e-01,-3.710574507713317871e-01
-2.052205353975296021e-01,-4.486303403973579407e-02,-7.456183433532714844e-03,7.375730872154235840e-01,-3.456398546695709229e-01,5.538305044174194336e-01,6.105661988258361816e-01,1.077354699373245239e-01,2.549672722816467285e-01,-4.728462696075439453e-01,-5.593073964118957520e-01,-3.449817001819610596e-02,4.513728320598602295e-01,-3.715965151786804199e-01
-1.384459584951400757e-01,1.122979447245597839e-01,-2.454815618693828583e-02,9.277997612953186035e-01,-4.693221151828765869e-01,5.521769523620605469e-01,4.176743328571319580e-01,-1.433416604995727539e-01,3.646644949913024902e-01,-5.559647679328918457e-01,-5.857851728796958923e-02,1.448883563280105591e-01,5.981825590133666992e-01,-2.298931926488876343e-01
-4.544008672237396240e-01,9.117469191551208496e-02,5.115284398198127747e-02,1.020662307739257812e+00,-3.304458260536193848e-01,6.542269587516784668e-01,4.595042169094085693e-01,2.195660583674907684e-02,3.684389293193817139e-01,-3.987621963024139404e-01,-2.484319657087326050e-01,7.544846087694168091e-02,4.711318016052246094e-01,-4.422570168972015381e-01
-4.617039859294891357e-01,-2.020387351512908936e-02,3.865155950188636780e-02,1.125486254692077637e+00,-2.262816876173019409e-01,3.917117416858673096e-01,3.432860076427459717e-01,1.501813647337257862e-03,2.467904090881347656e-01,-4.995554983615875244e-01,-1.857315599918365479e-01,1.068046987056732178e-01,4.053403735160827637e-01,-4.431544840335845947e-01
-4.790584743022918701e-01,-1.991472579538822174e-02,1.936942934989929199e-01,1.058908820152282715e+00,-1.979126185178756714e-01,5.353766083717346191e-01,2.936015725135803223e-01,5.885361135005950928e-02,3.375280499458312988e-01,-4.567158520221710205e-01,-1.727301776409149170e-01,-6.322476267814636230e-02,4.326777160167694092e-01,-5.281307101249694824e-01
-3.769971132278442383e-01,-4.686287045478820801e-02,7.193610817193984985e-02,1.215334177017211914e+00,-6.997447460889816284e-02,7.020951509475708008e-01,9.371618181467056274e-02,1.416768431663513184e-01,3.095501065254211426e-01,-5.728625655174255371e-01,-1.693157255649566650e-01,-2.152338922023773193e-01,1.244858279824256897e-01,-4.643581807613372803e-01
-4.246627390384674072e-01,-1.907736659049987793e-01,3.322061523795127869e-02,1.000196099281311035e+00,4.460406675934791565e-02,5.822737216949462891e-01,7.694510370492935181e-02,8.404427021741867065e-02,2.854066193103790283e-01,-6.134911775588989258e-01,-5.427017807960510254e-02,-1.571044176816940308e-01,4.132602363824844360e-02,-4.752210080623626709e-01
-5.956264734268188477e-01,-1.304785311222076416e-01,-2.514465451240539551e-01,1.140141129493713379e+00,2.515882998704910278e-02,6.560725569725036621e-01,-4.894156008958816528e-02,-7.499023526906967163e-02,4.011254012584686279e-01,-5.572186112403869629e-01,-1.282239705324172974e-01,-1.328375339508056641e-01,-2.104577142745256424e-03,-5.809372663497924805e-01
-5.398448705673217773e-01,-9.291421622037887573e-02,-1.355413347482681274e-01,1.088763236999511719e+00,-2.482271566987037659e-02,7.412089705467224121e-01,2.408916875720024109e-02,-1.757738739252090454e-01,4.914597272872924805e-01,-4.024412631988525391e-01,1.688859462738037109e-01,-1.791179329156875610e-01,-8.969201892614364624e-02,-5.391907691955566406e-01
-7.112670540809631348e-01,-2.338471710681915283e-01,-3.835992515087127686e-02,1.243215560913085938e+00,-4.744295775890350342e-02,9.810813665390014648e-01,-3.738436698913574219e-01,-3.937447443604469299e-02,3.467459976673126221e-01,-3.996422886848449707e-01,4.029196873307228088e-02,-3.065137565135955811e-01,-1.438155770301818848e-01,-3.914602994918823242e-01
-6.341459155082702637e-01,-2.518429756164550781e-01,-1.399011462926864624e-01,1.025048255920410156e+00,9.862826019525527954e-02,5.957148075103759766e-01,-5.767849460244178772e-02,5.522928386926651001e-02,2.109540253877639771e-01,-4.335784614086151123e-01,2.050984799861907959e-01,-1.816769391298294067e-01,6.452348828315734863e-02,-4.545030295848846436e-01
-7.522154450416564941e-01,-1.243178099393844604e-01,-1.648420989513397217e-01,1.129794836044311523e+00,-3.765106201171875000e-02,7.003521919250488281e-01,-1.701539009809494019e-01,-1.166034415364265442e-01,3.908054530620574951e-01,-5.043925642967224121e-01,1.768276691436767578e-01,-1.544972062110900879e-01,-3.146920502185821533e-01,-5.904191136360168457e-01
-7.168049216270446777e-01,-2.682982683181762695e-01,-1.384812295436859131e-01,1.160969257354736328e+00,-8.940452337265014648e-02,6.896715760231018066e-01,-3.452243506908416748e-01,-2.334063351154327393e-01,2.999846041202545166e-01,-4.353587031364440918e-01,3.816092014312744141e-01,-4.158835709095001221e-01,-3.103251457214355469e-01,-5.474824905395507812e-01
-7.133006453514099121e-01,-2.561279237270355225e-01,-3.249418437480926514e-01,1.120986461639404297e+00,-7.698759436607360840e-02,4.309223294258117676e-01,-4.159604310989379883e-01,-1.451063305139541626e-01,3.571552932262420654e-01,-4.385851621627807617e-01,4.759692549705505371e-01,-3.349986076354980469e-01,-1.919917613267898560e-01,-3.972862362861633301e-01
-7.386332154273986816e-01,-3.207518756389617920e-01,-2.933933958411216736e-02,7.720591425895690918e-01,9.315022267401218414e-03,6.874796748161315918e-01,-3.486003279685974121e-01,-3.210783302783966064e-01,3.883000016212463379e-01,-2.387885600328445435e-01,2.387580275535583496e-01,-3.529700636863708496e-01,-2.573783397674560547e-01,-5.992740988731384277e-01
-5.704005360603332520e-01,-3.531895279884338379e-01,-1.984635740518569946e-01,7.965216636657714844e-01,1.304138004779815674e-01,4.832469820976257324e-01,-4.725180864334106445e-01,-9.375100582838058472e-02,4.868230521678924561e-01,-3.496361970901489258e-01,5.154826641082763672e-01,-5.581556558609008789e-01,-5.009891390800476074e-01,-6.174547076225280762e-01
-5.209994912147521973e-01,-3.701385557651519775e-01,-3.863411843776702881e-01,7.334674596786499023e-01,1.353692710399627686e-01,4.080535769462585449e-01,-5.439876914024353027e-01,1.678723394870758057e-01,3.272185325622558594e-01,-3.797075748443603516e-01,5.445449948310852051e-01,-4.848213493824005127e-01,-2.525497972965240479e-01,-5.381190180778503418e-01
-7.775340080261230469e-01,-1.840733289718627930e-01,-2.691688239574432373e-01,7.388151884078979492e-01,-1.400499045848846436e-01,3.118167519569396973e-01,-5.436064600944519043e-01,-8.615487813949584961e-02,5.119514465332031250e-01,-1.506379991769790649e-01,3.655760586261749268e-01,-3.558383882045745850e-01,-3.004578351974487305e-01,-7.493532896041870117e-01
-6.978636384010314941e-01,-4.077855646610260010e-01,-2.983385026454925537e-01,6.979445815086364746e-01,-6.146172806620597839e-02,3.230343163013458252e-01,-6.933343410491943359e-01,-1.438022777438163757e-02,5.825670957565307617e-01,-1.290371268987655640e-01,4.824638962745666504e-01,-5.243760943412780762e-01,-5.684365034103393555e-01,-8.254581093788146973e-01
-7.309172153472900391e-01,-3.304250240325927734e-01,-1.195890307426452637e-01,6.573631763458251953e-01,-1.005986779928207397e-01,1.401385068893432617e-01,-5.665697455406188965e-01,8.033936470746994019e-02,2.555926740169525146e-01,-7.134702801704406738e-02,3.504838943481445312e-01,-2.932510972023010254e-01,-2.992191612720489502e-01,-8.891860842704772949e-01
-6.622244119644165039e-01,-4.720768630504608154e-01,-1.159729436039924622e-01,3.818269073963165283e-01,2.145200371742248535e-01,8.906790614128112793e-02,-4.169464409351348877e-01,-6.727115809917449951e-02,2.362893074750900269e-01,-9.372099488973617554e-02,4.783809483051300049e-01,-5.698242783546447754e-01,-1.423383206129074097e-01,-9.057496786117553711e-01
-5.623925328254699707e-01,-4.349864423274993896e-01,-2.836239337921142578e-01,4.531558454036712646e-01,1.183199360966682434e-01,8.382605761289596558e-02,-3.412778377532958984e-01,1.557938605546951294e-01,4.330496191978454590e-01,-1.030638962984085083e-01,5.696357488632202148e-01,-4.006635546684265137e-01,-3.813028037548065186e-01,-1.060429692268371582e+00
-5.930429697036743164e-01,-4.278533458709716797e-01,-3.704315721988677979e-01,3.694791495800018311e-01,6.726888567209243774e-02,3.127507269382476807e-01,-4.881478846073150635e-01,6.644874066114425659e-02,5.495305657386779785e-01,2.644739486277103424e-02,4.940686821937561035e-01,-5.758216977119445801e-01,-3.241897821426391602e-01,-1.115506291389465332e+00
-5.889533162117004395e-01,-3.890548944473266602e-01,-2.416268438100814819e-01,3.361838757991790771e-01,-8.578568696975708008e-02,-2.745549939572811127e-02,-5.293330550193786621e-01,1.381334066390991211e-01,5.931191444396972656e-01,7.045543193817138672e-02,3.642236292362213135e-01,-4.928328394889831543e-01,-4.686702489852905273e-01,-1.015238404273986816e+00
-4.085861742496490479e-01,-3.931005299091339111e-01,-3.156140148639678955e-01,3.658506870269775391e-01,1.013785526156425476e-01,1.693867594003677368e-01,-5.221229791641235352e-01,1.847045868635177612e-01,4.630596339702606201e-01,2.124733179807662964e-01,4.060154855251312256e-01,-3.625895678997039795e-01,-4.946670234203338623e-01,-1.081622600555419922e+00
-5.738916993141174316e-01,-3.900105059146881104e-01,-3.984282016754150391e-01,2.722334861755371094e-01,-7.324559986591339111e-02,-1.578748524188995361e-01,-7.365295290946960449e-01,1.608855277299880981e-01,3.586831390857696533e-01,1.893191933631896973e-01,1.591602414846420288e-01,-2.239274531602859497e-01,-3.604002296924591064e-01,-9.579380154609680176e-01
-5.684132575988769531e-01,-3.974890112876892090e-01,-2.169172465801239014e-01,2.573997974395751953e-01,2.606112975627183914e-03,-5.214518308639526367e-02,-5.631484389305114746e-01,-1.988129131495952606e-02,4.675041735172271729e-01,1.481664478778839111e-01,2.428433746099472046e-01,-2.596766054630279541e-01,-1.996746361255645752e-01,-1.040898323059082031e+00
-3.456670343875885010e-01,-3.483035564422607422e-01,-4.726954996585845947e-01,2.729759514331817627e-01,2.379768043756484985e-01,-1.942167282104492188e-01,-5.737868547439575195e-01,-1.345874462276697159e-02,5.504825711250305176e-01,2.216998040676116943e-01,9.809583425521850586e-02,-2.057292014360427856e-01,-1.811144351959228516e-01,-9.537066817283630371e-01
-4.311508834362030029e-01,-2.668720781803131104e-01,-4.832385778427124023e-01,2.393159419298171997e-01,1.251159608364105225e-01,-2.916310429573059082e-01,-4.367251098155975342e-01,3.531349822878837585e-02,2.724432349205017090e-01,1.505901068449020386e-01,1.363443732261657715e-01,-1.117719858884811401e-01,-1.796856969594955444e-01,-1.014978766441345215e+00
-5.327858328819274902e-01,-8.609396219253540039e-02,-7.241772413253784180e-01,1.763240844011306763e-01,2.286834269762039185e-01,-2.081191986799240112e-01,-4.092704057693481445e-01,1.160612255334854126e-01,4.958899617195129395e-01,2.858344838023185730e-02,1.898111253976821899e-01,5.037561804056167603e-02,-3.112019598484039307e-01,-9.418553113937377930e-01
-3.043250143527984619e-01,-2.842524051666259766e-01,-7.216991186141967773e-01,2.575882077217102051e-01,2.233656495809555054e-01,-2.164476066827774048e-01,-2.661446630954742432e-01,8.714400976896286011e-02,3.450876772403717041e-01,5.631646886467933655e-02,3.586297482252120972e-02,1.072241142392158508e-01,-1.787660121917724609e-01,-8.306859731674194336e-01
-1.636213511228561401e-01,-6.473727524280548096e-02,-6.519954800605773926e-01,8.348541706800460815e-02,9.605507552623748779e-02,-3.771365582942962646e-01,-1.761442720890045166e-01,8.044950664043426514e-02,5.402274727821350098e-01,2.459257394075393677e-01,1.168756093829870224e-02,2.384809553623199463e-01,-1.735690236091613770e-01,-9.876694083213806152e-01
-1.240536123514175415e-01,1.750274747610092163e-01,-7.106871604919433594e-01,2.109003439545631409e-02,1.714490503072738647e-01,-5.272426009178161621e-01,-3.577100634574890137e-01,9.714449942111968994e-02,4.320199191570281982e-01,1.749077737331390381e-01,-1.295612603425979614e-01,1.205566525459289551e-01,-1.464662402868270874e-01,-6.507432460784912109e-01
-2.008865773677825928e-02,-2.551403939723968506e-01,-7.309552431106567383e-01,1.031348109245300293e-01,1.880451142787933350e-01,-4.444160461425781250e-01,-3.488026261329650879e-01,1.910182833671569824e-01,3.959037363529205322e-01,8.098934590816497803e-02,7.878600619733333588e-03,1.181483715772628784e-01,-2.188005298376083374e-02,-7.039361596107482910e-01
7.737046480178833008e-02,2.210050821304321289e-01,-7.817260622978210449e-01,-2.987720668315887451e-01,2.682669758796691895e-01,-4.090803563594818115e-01,-3.156892359256744385e-01,1.440665274858474731e-01,3.376087546348571777e-01,4.336384236812591553e-01,-7.202720642089843750e-02,3.870259225368499756e-01,-8.619161322712898254e-03,-6.965634226799011230e-01
1.553584188222885132e-01,1.475486755371093750e-01,-8.285637497901916504e-01,-6.803312897682189941e-02,3.268614709377288818e-01,-4.481477737426757812e-01,-2.425334751605987549e-01,2.555918879806995392e-02,4.935168921947479248e-01,4.163451194763183594e-01,1.309605240821838379e-01,3.142501711845397949e-01,-7.071822136640548706e-02,-5.303758382797241211e-01
5.042603239417076111e-02,1.530459523200988770e-01,-8.399691581726074219e-01,-5.238134413957595825e-02,3.361010551452636719e-01,-4.780137836933135986e-01,-2.518263459205627441e-01,8.099694550037384033e-02,6.485174894332885742e-01,3.045622408390045166e-01,1.312250643968582153e-01,5.579319000244140625e-01,-1.910457164049148560e-01,-4.846291244029998779e-01
1.871780902147293091e-01,3.333522081375122070e-01,-7.012423872947692871e-01,-4.331948608160018921e-02,2.301665097475051880e-01,-4.154360592365264893e-01,4.729680716991424561e-02,2.064158208668231964e-02,5.904881954193115234e-01,2.758265435695648193e-01,9.511752054095268250e-03,3.759362697601318359e-01,5.010685883462429047e-03,-4.290319085121154785e-01
4.218761622905731201e-01,2.548212110996246338e-01,-9.939919710159301758e-01,-1.524226814508438110e-01,1.818110048770904541e-01,-5.190802216529846191e-01,-1.896637529134750366e-01,-1.016195043921470642e-01,3.808160424232482910e-01,3.045750856399536133e-01,9.602396190166473389e-02,4.420122206211090088e-01,-1.347887665033340454e-01,-2.693408727645874023e-01
3.922061622142791748e-01,1.982893198728561401e-01,-9.046072363853454590e-01,6.666687130928039551e-02,9.764578193426132202e-02,-4.233196377754211426e-01,-2.002494633197784424e-01,1.252776980400085449e-01,6.198976635932922363e-01,3.773747384548187256e-02,-4.782026633620262146e-02,5.076896548271179199e-01,1.308807432651519775e-01,-3.873382210731506348e-01
3.931263685226440430e-01,2.673019468784332275e-01,-7.964757680892944336e-01,-4.245473444461822510e-02,1.432294100522994995e-01,-4.575798213481903076e-01,-1.969409286975860596e-01,-2.119663543999195099e-02,3.774635493755340576e-01,4.269933328032493591e-02,-8.303553611040115356e-02,4.813594222068786621e-01,-2.929567918181419373e-02,-2.162354290485382080e-01
4.034797549247741699e-01,2.017574608325958252e-01,-9.786588549613952637e-01,-5.283974483609199524e-02,1.088851541280746460e-01,-5.426755547523498535e-01,-2.457211762666702271e-01,-1.567436307668685913e-01,2.795243859291076660e-01,-7.550881057977676392e-02,1.835025101900100708e-01,4.471639096736907959e-01,-2.827981673181056976e-02,-3.897396326065063477e-01
3.059906065464019775e-01,2.084864675998687744e-01,-7.292752265930175781e-01,-1.261370033025741577e-01,3.905642405152320862e-02,-3.543340861797332764e-01,-2.123925834894180298e-01,-3.373938202857971191e-01,4.001447260379791260e-01,1.195537149906158447e-01,6.464510411024093628e-02,5.930398106575012207e-01,-1.525919437408447266e-01,-3.461860418319702148e-01
6.592979431152343750e-01,7.723957300186157227e-02,-8.550566434860229492e-01,-2.275320589542388916e-01,2.388456463813781738e-01,-4.839384555816650391e-01,-2.646290361881256104e-01,-3.798403143882751465e-01,2.657279670238494873e-01,1.266960753127932549e-03,1.463970094919204712e-01,4.333484172821044922e-01,-2.039979845285415649e-01,-1.881478577852249146e-01
4.770338535308837891e-01,2.446114867925643921e-01,-9.788077473640441895e-01,-1.722087264060974121e-01,1.147739216685295105e-02,-2.089962810277938843e-01,-2.755118012428283691e-01,-6.279069185256958008e-01,4.577419161796569824e-01,8.223072439432144165e-02,-4.088491201400756836e-02,5.775113701820373535e-01,8.071654289960861206e-02,-2.131361812353134155e-01
5.513024926185607910e-01,-1.209718436002731323e-01,-7.614688873291015625e-01,-3.600785974413156509e-03,1.417830437421798706e-01,-2.654083073139190674e-01,-3.933808207511901855e-01,-6.518009305000305176e-01,3.315537273883819580e-01,-2.798362076282501221e-01,5.128901824355125427e-02,7.517256140708923340e-01,-1.522345095872879028e-01,1.069866046309471130e-01
4.935013949871063232e-01,1.485373377799987793e-01,-9.726653695106506348e-01,5.053347721695899963e-02,-6.194083951413631439e-03,-2.877138257026672363e-01,-2.719112932682037354e-01,-7.026602625846862793e-01,1.994577497243881226e-01,-8.082689344882965088e-02,2.301906943321228027e-01,4.250179827213287354e-01,-4.630485177040100098e-02,1.450137048959732056e-01
4.567041099071502686e-01,2.155136168003082275e-01,-8.130705952644348145e-01,-4.885930195450782776e-02,-3.205591067671775818e-02,-2.495767325162887573e-01,-5.789113417267799377e-02,-7.046934962272644043e-01,1.651911139488220215e-01,-1.002642363309860229e-01,6.004265323281288147e-02,6.458726525306701660e-01,1.003096532076597214e-02,-7.328150421380996704e-02
5.302622318267822266e-01,4.991278983652591705e-04,-7.286638021469116211e-01,-2.087111622095108032e-01,-1.246964558959007263e-01,-3.663383722305297852e-01,-2.186673581600189209e-01,-7.901031970977783203e-01,1.173998489975929260e-01,-2.425760179758071899e-01,3.109462000429630280e-02,5.467753410339355469e-01,4.325109347701072693e-02,1.233958378434181213e-01
4.684507250785827637e-01,4.117756336927413940e-02,-6.141903996467590332e-01,-3.608227521181106567e-02,-1.981496661901473999e-01,-4.262409210205078125e-01,-1.379153132438659668e-01,-8.440718650817871094e-01,-2.405647188425064087e-02,-1.531946808099746704e-01,6.362759321928024292e-02,6.413855552673339844e-01,8.735503256320953369e-02,6.996908783912658691e-02
5.504716038703918457e-01,-2.657676674425601959e-02,-4.637903869152069092e-01,-3.392118513584136963e-01,-2.673069834709167480e-01,-4.475497603416442871e-01,-3.322230577468872070e-01,-8.737012147903442383e-01,-1.262568775564432144e-02,-2.662167847156524658e-01,1.515323966741561890e-01,5.788967609405517578e-01,-5.327307432889938354e-02,5.498880743980407715e-01
4.849936962127685547e-01,7.694206386804580688e-02,-7.132447957992553711e-01,-2.726444303989410400e-01,-2.840318381786346436e-01,-4.320074319839477539e-01,-5.357721447944641113e-01,-9.381160140037536621e-01,-2.318197041749954224e-01,-5.532904341816902161e-02,3.992040082812309265e-02,7.476761341094970703e-01,5.103364586830139160e-02,2.049893438816070557e-01
4.221341907978057861e-01,-3.270392492413520813e-02,-4.679325520992279053e-01,-4.773490726947784424e-01,-6.373543143272399902e-01,-4.616594016551971436e-01,-2.480570971965789795e-01,-1.015241622924804688e+00,-9.318704903125762939e-02,-9.228439629077911377e-02,3.126968443393707275e-02,7.280014157295227051e-01,1.888155043125152588e-01,2.297984361648559570e-01
4.399288296699523926e-01,-1.492515951395034790e-02,-4.971574246883392334e-01,-3.243473768234252930e-01,-3.510315418243408203e-01,-4.282144606113433838e-01,-2.769331037998199463e-01,-9.331188797950744629e-01,-6.010350584983825684e-01,-1.521023958921432495e-01,-6.567012518644332886e-03,6.981340050697326660e-01,1.707242876291275024e-01,2.365614324808120728e-01
3.260449171066284180e-01,-2.369430288672447205e-02,-4.815519750118255615e-01,-4.902929961681365967e-01,-5.471648573875427246e-01,-4.342194497585296631e-01,-4.053419828414916992e-01,-8.500928878784179688e-01,-3.802637457847595215e-01,-2.312714308500289917e-01,1.053080409765243530e-01,8.588008880615234375e-01,1.491221487522125244e-01,2.167093753814697266e-01
4.275628924369812012e-01,-1.877867877483367920e-01,-2.676389813423156738e-01,-3.193961083889007568e-01,-6.102446317672729492e-01,-6.060703992843627930e-01,-7.352274656295776367e-02,-1.102063894271850586e+00,-2.331871092319488525e-01,-2.944322824478149414e-01,-3.764976561069488525e-02,8.095120787620544434e-01,2.730486094951629639e-01,-2.834452688694000244e-02
3.715173602104187012e-01,-3.259221017360687256e-01,-3.088153004646301270e-01,-4.302873611450195312e-01,-6.505227684974670410e-01,-4.622244834899902344e-01,-3.157437443733215332e-01,-7.555366158485412598e-01,-4.634052515029907227e-01,-3.029829561710357666e-01,1.749672144651412964e-01,7.464730739593505859e-01,2.627458870410919189e-01,2.026676088571548462e-01
3.695009350776672363e-01,-4.255483150482177734e-01,-3.263193964958190918e-01,-3.578909337520599365e-01,-7.344102263450622559e-01,-3.676647245883941650e-01,4.216448217630386353e-02,-7.654946446418762207e-01,-4.680220186710357666e-01,-1.590883880853652954e-01,1.070866584777832031e-01,6.470392346382141113e-01,2.510738074779510498e-01,2.392081618309020996e-01
5.070037245750427246e-01,-3.623390793800354004e-01,-3.176779747009277344e-01,-4.365511536598205566e-01,-7.184552550315856934e-01,-3.916714489459991455e-01,2.074266076087951660e-01,-8.497714400291442871e-01,-2.992562353610992432e-01,-2.582712173461914062e-01,1.519536674022674561e-01,7.299715876579284668e-01,4.495620429515838623e-01,-3.857373446226119995e-02
4.656254351139068604e-01,-3.842070698738098145e-01,3.678395971655845642e-02,-2.016867250204086304e-01,-7.063792943954467773e-01,-2.694158554077148438e-01,-1.518646031618118286e-01,-6.798597574234008789e-01,-4.390206336975097656e-01,-2.743112444877624512e-01,1.401158869266510010e-01,6.511788964271545410e-01,4.485714435577392578e-01,6.686246395111083984e-02
4.971269071102142334e-01,-4.194444715976715088e-01,-7.074766606092453003e-02,-3.704771101474761963e-01,-9.327413439750671387e-01,-3.979161679744720459e-01,-2.157653421163558960e-01,-6.705837249755859375e-01,-3.122518062591552734e-01,-1.340330988168716431e-01,-6.798101961612701416e-02,7.861486673355102539e-01,4.234722852706909180e-01,1.050864383578300476e-01
4.550271332263946533e-01,-4.219987392425537109e-01,5.803092941641807556e-02,-5.230207443237304688e-01,-8.428492546081542969e-01,-2.874868512153625488e-01,-1.781174540519714355e-01,-9.540245532989501953e-01,-1.269194632768630981e-01,-3.472951650619506836e-01,1.270906627178192139e-01,8.875096440315246582e-01,4.584421813488006592e-01,6.417819857597351074e-02
5.345649719238281250e-01,-4.566058516502380371e-01,2.072726488113403320e-01,-2.169260531663894653e-01,-7.052385210990905762e-01,-1.189639791846275330e-01,-1.627443730831146240e-01,-6.942427158355712891e-01,-3.635050952434539795e-01,-3.012935817241668701e-01,-8.629843592643737793e-02,6.042568087577819824e-01,4.668993651866912842e-01,-1.579716219566762447e-03
5.455789566040039062e-01,-6.411809325218200684e-01,2.819637656211853027e-01,-2.199729830026626587e-01,-8.182009458541870117e-01,-1.190189570188522339e-01,-2.134402692317962646e-01,-8.258518576622009277e-01,-4.208673238754272461e-01,-2.106379568576812744e-01,3.624418377876281738e-02,8.062379360198974609e-01,4.108508825302124023e-01,1.440804451704025269e-02
4.826526641845703125e-01,-4.964144825935363770e-01,2.081917673349380493e-01,4.416155442595481873e-02,-8.674283027648925781e-01,-4.602940753102302551e-03,-5.863683298230171204e-02,-7.462264299392700195e-01,-1.733231097459793091e-01,-2.565244436264038086e-01,1.025888547301292419e-01,6.512430310249328613e-01,2.599058151245117188e-01,-1.304262429475784302e-01
4.363335669040679932e-01,-4.824092388153076172e-01,1.729807257652282715e-01,-5.613223090767860413e-02,-7.430928349494934082e-01,-4.517291858792304993e-02,-1.164463385939598083e-01,-9.059640765190124512e-01,-2.117867618799209595e-01,-4.993558824062347412e-01,1.035173311829566956e-01,6.586692333221435547e-01,2.907802164554595947e-01,-2.169790863990783691e-01
4.735849797725677490e-01,-4.504515826702117920e-01,4.038744866847991943e-01,5.884531885385513306e-03,-5.561600923538208008e-01,1.486366838216781616e-01,-9.681084007024765015e-02,-9.247825741767883301e-01,-2.697554230690002441e-01,-4.622951745986938477e-01,1.791504472494125366e-01,8.335019350051879883e-01,3.576988279819488525e-01,-8.784425258636474609e-02
4.929003119468688965e-01,-5.767593383789062500e-01,2.149672657251358032e-01,1.245859041810035706e-01,-5.920723080635070801e-01,-1.823100820183753967e-02,-2.698652744293212891e-01,-6.096827387809753418e-01,-2.044961042702198029e-02,-5.105069875717163086e-01,1.547210384160280228e-02,6.944816708564758301e-01,2.831295132637023926e-01,-3.625327944755554199e-01
2.456935346126556396e-01,-5.518020391464233398e-01,1.830365061759948730e-01,4.524601995944976807e-01,-6.564168930053710938e-01,1.855937689542770386e-01,-1.750536113977432251e-01,-8.566657304763793945e-01,1.362600922584533691e-01,-3.975159227848052979e-01,1.882016658782958984e-01,3.901077806949615479e-01,1.737028807401657104e-01,-5.655045807361602783e-02
4.711468517780303955e-01,-5.351762175559997559e-01,3.919790387153625488e-01,3.771770596504211426e-01,-4.851837158203125000e-01,2.709453403949737549e-01,-1.643080860376358032e-01,-7.496095895767211914e-01,2.821054076775908470e-03,-3.754462897777557373e-01,6.452056765556335449e-02,7.315115332603454590e-01,3.027311563491821289e-01,-1.874716877937316895e-01
2.984381318092346191e-01,-5.982069373130798340e-01,4.927515089511871338e-01,2.372412383556365967e-01,-7.348300814628601074e-01,5.624413490295410156e-01,-1.150245666503906250e-01,-7.711795568466186523e-01,-3.580053523182868958e-02,-4.742875099182128906e-01,2.751396298408508301e-01,7.566263079643249512e-01,5.591792985796928406e-02,-1.244715452194213867e-01
4.297039806842803955e-01,-6.336914300918579102e-01,2.582027018070220947e-01,5.094622373580932617e-01,-5.546017885208129883e-01,2.922992706298828125e-01,-2.070257067680358887e-01,-5.467643141746520996e-01,-7.057271897792816162e-02,-4.616300463676452637e-01,3.795832991600036621e-01,5.351214408874511719e-01,1.152884513139724731e-01,4.703805968165397644e-02
4.487091004848480225e-01,-6.988090872764587402e-01,1.939056068658828735e-01,4.987420439720153809e-01,-4.621183872222900391e-01,4.032149016857147217e-01,-2.377479821443557739e-01,-5.092533826828002930e-01,-4.543858021497726440e-02,-5.672316551208496094e-01,3.945020735263824463e-01,4.202966988086700439e-01,4.610275477170944214e-02,2.757779136300086975e-02
5.301298499107360840e-01,-6.600490808486938477e-01,1.696131974458694458e-01,4.839436411857604980e-01,-3.404842019081115723e-01,4.214089810848236084e-01,-1.845594942569732666e-01,-5.003991127014160156e-01,1.961760222911834717e-02,-4.476188123226165771e-01,5.551158189773559570e-01,5.376817584037780762e-01,-2.000643461942672729e-01,9.947544336318969727e-02
3.546976745128631592e-01,-5.456900000572204590e-01,1.424815803766250610e-01,5.325830578804016113e-01,-3.980413377285003662e-01,4.660611152648925781e-01,-3.241612911224365234e-01,-5.063858032226562500e-01,1.225707009434700012e-01,-2.133838683366775513e-01,2.520050704479217529e-01,4.244678318500518799e-01,-8.652439713478088379e-02,1.391598582267761230e-01
4.872225821018218994e-01,-5.959846973419189453e-01,3.340655863285064697e-01,4.597402215003967285e-01,-3.884308040142059326e-01,5.525521636009216309e-01,-1.130492165684700012e-01,-5.356323122978210449e-01,5.632171779870986938e-02,-4.586915969848632812e-01,4.850578010082244873e-01,3.744995892047882080e-01,-1.140682995319366455e-01,-2.538362741470336914e-01
4.645166695117950439e-01,-7.249762415885925293e-01,1.612772196531295776e-01,4.654264450073242188e-01,-3.837136030197143555e-01,5.857487916946411133e-01,-3.716969788074493408e-01,-5.374765992164611816e-01,2.529836073517799377e-02,-1.894634366035461426e-01,5.842475891113281250e-01,3.465640246868133545e-01,-1.910465210676193237e-01,-1.567584872245788574e-01
3.238754868507385254e-01,-6.368235945701599121e-01,7.600801438093185425e-02,3.634452521800994873e-01,-3.603933155536651611e-01,2.514914572238922119e-01,-4.773494303226470947e-01,-4.626986086368560791e-01,2.337643951177597046e-01,-4.227439165115356445e-01,6.265878081321716309e-01,-6.129897385835647583e-02,-2.705422043800354004e-01,7.129971403628587723e-03
1.529574245214462280e-01,-6.874796748161315918e-01,2.961289286613464355e-01,5.930486917495727539e-01,-1.597615927457809448e-01,4.982712864875793457e-01,-4.731821417808532715e-01,-4.563551843166351318e-01,2.424046546220779419e-01,-3.861737549304962158e-01,6.214974522590637207e-01,1.943599581718444824e-01,-1.279889941215515137e-01,-1.011484712362289429e-01
1.228805556893348694e-01,-8.447146415710449219e-01,2.423375695943832397e-01,4.020644426345825195e-01,-1.067601963877677917e-01,7.274483442306518555e-01,-3.241936564445495605e-01,-4.013904631137847900e-01,5.608876943588256836e-01,-3.010789155960083008e-01,6.639329195022583008e-01,3.287131665274500847e-03,-1.206854209303855896e-01,-5.906943604350090027e-02
1.577807664871215820e-01,-9.703332185745239258e-01,3.372417688369750977e-01,4.760316312313079834e-01,-1.428806781768798828e-01,7.237747907638549805e-01,-5.374208092689514160e-01,-3.015987873077392578e-01,3.037596642971038818e-01,-5.134489536285400391e-01,6.255229711532592773e-01,6.688805669546127319e-02,-3.685074150562286377e-01,-1.310801804065704346e-01
1.874108314514160156e-01,-8.412938117980957031e-01,4.164022803306579590e-01,5.159075856208801270e-01,-2.356032431125640869e-01,7.420836091041564941e-01,-4.681210815906524658e-01,-5.324264764785766602e-01,5.182840824127197266e-01,-3.069356977939605713e-01,6.994601488113403320e-01,-1.478633880615234375e-01,-1.681427955627441406e-01,-2.408509850502014160e-01
2.010024152696132660e-02,-7.734282612800598145e-01,2.642898857593536377e-01,4.574955701828002930e-01,-5.948311090469360352e-02,4.435320794582366943e-01,-5.726497173309326172e-01,-3.179598748683929443e-01,3.253726661205291748e-01,-3.253649175167083740e-01,6.944039463996887207e-01,-1.910884678363800049e-01,-3.082641661167144775e-01,-2.927241325378417969e-01
2.143601477146148682e-01,-9.993637204170227051e-01,2.415161281824111938e-01,5.457005500793457031e-01,-3.088508732616901398e-02,5.527902841567993164e-01,-6.179991960525512695e-01,-2.669085860252380371e-01,4.724856317043304443e-01,7.009933888912200928e-02,6.670408248901367188e-01,-2.937388420104980469e-01,-2.850893735885620117e-01,-2.247001081705093384e-01
1.828922480344772339e-01,-9.755327105522155762e-01,3.222347497940063477e-01,5.091971755027770996e-01,1.205843091011047363e-01,4.427492320537567139e-01,-7.404361963272094727e-01,-4.503286182880401611e-01,5.178425312042236328e-01,-2.163662761449813843e-01,6.791039109230041504e-01,-3.009205460548400879e-01,-4.156203567981719971e-01,-3.523403406143188477e-01
-1.783249340951442719e-02,-1.093428134918212891e+00,1.603490263223648071e-01,4.602896869182586670e-01,1.000807285308837891e-01,5.180386900901794434e-01,-7.443743348121643066e-01,-2.834664583206176758e-01,5.092238783836364746e-01,-1.219488978385925293e-01,7.139914631843566895e-01,-1.751075088977813721e-01,-4.595988094806671143e-01,-2.583702206611633301e-01
-1.194392368197441101e-01,-1.025439500808715820e+00,2.066781818866729736e-01,4.763796627521514893e-01,8.854655921459197998e-02,5.546011328697204590e-01,-6.860847473144531250e-01,-2.503529489040374756e-01,6.922894120216369629e-01,8.423748612403869629e-02,7.349099516868591309e-01,-4.300861656665802002e-01,-3.777889311313629150e-01,-2.884331345558166504e-01
-1.235970035195350647e-01,-1.030305504798889160e+00,8.051192760467529297e-02,5.426623225212097168e-01,1.796167641878128052e-01,4.174774885177612305e-01,-7.242534756660461426e-01,-2.068519443273544312e-01,6.305864453315734863e-01,-5.091084912419319153e-02,6.259734034538269043e-01,-2.771025598049163818e-01,-4.804968833923339844e-01,-3.162998259067535400e-01
4.361321218311786652e-03,-1.058945655822753906e+00,3.200107514858245850e-01,6.071602106094360352e-01,-5.607874132692813873e-03,3.207918405532836914e-01,-6.595293879508972168e-01,-2.367885112762451172e-01,4.615061581134796143e-01,1.377620846033096313e-01,6.070206761360168457e-01,-6.350583434104919434e-01,-4.928338229656219482e-01,-3.642422556877136230e-01
-9.066702425479888916e-02,-8.344315290451049805e-01,3.088970184326171875e-01,2.093393653631210327e-01,1.479173749685287476e-01,4.258006513118743896e-01,-7.102361321449279785e-01,4.133807122707366943e-02,4.548882842063903809e-01,3.570453524589538574e-01,5.903055071830749512e-01,-5.213859081268310547e-01,-4.676040410995483398e-01,-4.705123305320739746e-01
1.509648114442825317e-01,-9.888336062431335449e-01,3.083847463130950928e-01,2.674871087074279785e-01,2.172005325555801392e-01,3.212963044643402100e-01,-4.994047284126281738e-01,-6.427436321973800659e-02,4.921011924743652344e-01,2.146610170602798462e-01,5.443356633186340332e-01,-4.845712482929229736e-01,-3.260540962219238281e-01,-3.213416635990142822e-01
-1.360073089599609375e-01,-1.021402478218078613e+00,3.674396574497222900e-01,4.180296659469604492e-01,3.038263022899627686e-01,3.244831562042236328e-01,-6.871308684349060059e-01,5.304504930973052979e-02,5.709105134010314941e-01,4.545104205608367920e-01,2.882649898529052734e-01,-4.903845787048339844e-01,-2.380468696355819702e-01,-5.076632499694824219e-01
7.627119868993759155e-02,-9.278609156608581543e-01,1.592042446136474609e-01,3.256294131278991699e-01,1.828809082508087158e-01,1.674622148275375366e-01,-5.299075841903686523e-01,4.013440012931823730e-02,5.041681528091430664e-01,4.454126954078674316e-01,5.009708404541015625e-01,-3.282160162925720215e-01,-4.610811471939086914e-01,-3.886878788471221924e-01
1.050361096858978271e-01,-8.028143644332885742e-01,1.572540104389190674e-01,2.044416666030883789e-01,3.552010059356689453e-01,9.461958706378936768e-02,-6.452333927154541016e-01,1.867009699344635010e-01,4.809769988059997559e-01,5.163641571998596191e-01,4.071083068847656250e-01,-5.280411243438720703e-01,-4.090305864810943604e-01,-1.960118860006332397e-01
6.969098467379808426e-03,-7.508172392845153809e-01,1.123287901282310486e-01,7.780657708644866943e-02,3.265269696712493896e-01,-4.738983511924743652e-02,-4.794323146343231201e-01,1.918984800577163696e-01,5.683115720748901367e-01,7.138195037841796875e-01,3.338860571384429932e-01,-5.836071372032165527e-01,5.183665826916694641e-02,-4.452206194400787354e-01
2.456015795469284058e-01,-7.590560317039489746e-01,1.748314946889877319e-01,-4.155427590012550354e-02,2.508282959461212158e-01,-9.100028872489929199e-02,-5.098385214805603027e-01,1.828428506851196289e-01,6.624748706817626953e-01,8.062523007392883301e-01,3.211041986942291260e-01,-3.889252245426177979e-01,-1.686333417892456055e-01,-4.725067317485809326e-01
4.842866957187652588e-02,-4.832420647144317627e-01,1.243371516466140747e-01,5.549112334847450256e-02,1.617623418569564819e-01,-3.450232371687889099e-02,-2.843415439128875732e-01,3.367030024528503418e-01,6.503633260726928711e-01,8.878126144409179688e-01,3.227928876876831055e-01,-3.891074955463409424e-01,3.036498965229839087e-04,-5.646553039550781250e-01
3.086677193641662598e-01,-5.392669439315795898e-01,1.933422684669494629e-02,-7.163725048303604126e-02,5.553675293922424316e-01,-1.585371941328048706e-01,-2.797525823116302490e-01,3.939495384693145752e-01,6.151726245880126953e-01,7.788988947868347168e-01,3.791533410549163818e-01,-4.898741841316223145e-01,-1.685689538717269897e-01,-5.408499836921691895e-01
3.878650367259979248e-01,-5.457438826560974121e-01,1.064450219273567200e-01,7.759839296340942383e-03,3.492116928100585938e-01,-2.098668813705444336e-01,-1.804632395505905151e-01,5.192328691482543945e-01,5.726054906845092773e-01,9.135756492614746094e-01,1.538945287466049194e-01,-7.571826130151748657e-02,-6.823591887950897217e-02,-2.490023821592330933e-01
3.953492343425750732e-01,-6.365777850151062012e-01,-2.221028357744216919e-01,-2.825585007667541504e-02,3.541110754013061523e-01,-2.698509097099304199e-01,-3.235515952110290527e-01,3.425656259059906006e-01,7.165249586105346680e-01,8.878512978553771973e-01,1.344899181276559830e-02,-4.803514480590820312e-01,2.004753239452838898e-02,-5.181525945663452148e-01
4.441649317741394043e-01,-2.723647356033325195e-01,-2.959100529551506042e-02,-9.804788976907730103e-03,3.699344992637634277e-01,-3.262539207935333252e-01,-1.059504151344299316e-01,4.377558827400207520e-01,8.336507678031921387e-01,8.607027530670166016e-01,1.005945801734924316e-01,-3.789738714694976807e-01,1.422006636857986450e-01,-6.202319860458374023e-01
4.005608558654785156e-01,-3.198381364345550537e-01,-9.117414802312850952e-02,2.677147835493087769e-02,3.768122196197509766e-01,-2.208976000547409058e-01,4.685499891638755798e-02,4.446068108081817627e-01,6.957898736000061035e-01,8.498724699020385742e-01,1.887392997741699219e-01,-2.255309224128723145e-01,5.607806518673896790e-02,-4.922466278076171875e-01
5.400449633598327637e-01,-2.815520465373992920e-01,-1.433199495077133179e-01,-2.372064739465713501e-01,4.724647700786590576e-01,-3.758186995983123779e-01,-8.110921829938888550e-03,3.951050639152526855e-01,7.664844393730163574e-01,8.052495121955871582e-01,4.037125781178474426e-02,-2.924455702304840088e-01,8.462388813495635986e-02,-6.445099115371704102e-01
5.027294754981994629e-01,-1.828313320875167847e-01,-1.829598546028137207e-01,2.337855659425258636e-02,7.578889727592468262e-01,-3.669584393501281738e-01,-5.334270000457763672e-02,3.772582709789276123e-01,9.300438761711120605e-01,7.780797481536865234e-01,1.381571888923645020e-01,-1.657975465059280396e-01,6.391059607267379761e-02,-3.491344749927520752e-01
6.248555183410644531e-01,-1.116384416818618774e-01,-7.590047270059585571e-02,1.862703077495098114e-02,5.443507432937622070e-01,-2.595100998878479004e-01,9.419734030961990356e-02,4.338997602462768555e-01,9.430471062660217285e-01,8.827772140502929688e-01,-1.536603122949600220e-01,-6.545206904411315918e-02,2.068006545305252075e-01,-4.401557147502899170e-01
4.904206693172454834e-01,-9.374943375587463379e-02,-2.406436204910278320e-01,5.715456604957580566e-02,7.190479636192321777e-01,-4.751073122024536133e-01,8.363045752048492432e-02,3.108086585998535156e-01,9.462599754333496094e-01,9.186976552009582520e-01,-3.236157298088073730e-01,-2.934003174304962158e-01,-2.536396030336618423e-03,-4.858663380146026611e-01
6.300115585327148438e-01,-2.505358681082725525e-02,-5.437184572219848633e-01,2.878753840923309326e-02,9.111403226852416992e-01,-3.945711851119995117e-01,2.016174197196960449e-01,4.339445531368255615e-01,1.008516073226928711e+00,8.820750117301940918e-01,-2.097833305597305298e-01,-8.201772719621658325e-02,9.705677628517150879e-03,-2.567376792430877686e-01
5.280053019523620605e-01,-7.234865427017211914e-02,-3.137435615062713623e-01,1.375823915004730225e-01,6.298545002937316895e-01,-3.382310867309570312e-01,8.007591962814331055e-02,4.406423270702362061e-01,8.849992752075195312e-01,7.275140881538391113e-01,-2.205016762018203735e-01,1.249080225825309753e-01,-4.345648363232612610e-02,-2.801714241504669189e-01
5.817778706550598145e-01,3.605448901653289795e-01,-6.349353790283203125e-01,4.178720340132713318e-02,9.643325805664062500e-01,-3.768275082111358643e-01,3.365394175052642822e-01,3.411260247230529785e-01,5.899755358695983887e-01,7.599120140075683594e-01,-2.461699694395065308e-01,-9.416335821151733398e-02,-2.507192455232143402e-02,-4.543726146221160889e-01
5.501533150672912598e-01,1.937139481306076050e-01,-6.338145732879638672e-01,4.714864864945411682e-02,8.750016093254089355e-01,-2.685996294021606445e-01,2.809330523014068604e-01,1.442470699548721313e-01,6.651504635810852051e-01,8.838256597518920898e-01,-3.344984054565429688e-01,3.890596702694892883e-02,5.936696380376815796e-02,-9.364494681358337402e-02
4.659221768379211426e-01,4.270041286945343018e-01,-5.486646294593811035e-01,1.019488275051116943e-01,9.426825642585754395e-01,-3.453046083450317383e-01,1.770568341016769409e-01,1.041498258709907532e-01,7.277575731277465820e-01,7.477706074714660645e-01,-1.804926991462707520e-01,-1.264517474919557571e-02,1.488252729177474976e-02,1.204713806509971619e-01
6.399810910224914551e-01,3.331713080406188965e-01,-5.309329032897949219e-01,-1.266772300004959106e-01,9.974451065063476562e-01,-2.942807674407958984e-01,2.676262259483337402e-01,2.092516869306564331e-01,5.090441107749938965e-01,9.683687090873718262e-01,-3.308537006378173828e-01,6.560358684509992599e-03,-7.481835037469863892e-02,8.852662891149520874e-02
6.033567190170288086e-01,2.691826224327087402e-01,-6.005129814147949219e-01,-7.770162820816040039e-02,8.971396684646606445e-01,-2.929551303386688232e-01,2.641640007495880127e-01,5.717342719435691833e-03,5.362436175346374512e-01,7.002446055412292480e-01,-3.119705319404602051e-01,-4.554787278175354004e-02,-1.752150356769561768e-01,1.476693600416183472e-01
7.262806296348571777e-01,1.113138943910598755e-01,-7.256514430046081543e-01,8.286355063319206238e-03,8.667268753051757812e-01,-3.980304598808288574e-01,4.443973898887634277e-01,1.095415353775024414e-01,5.664082169532775879e-01,7.687929272651672363e-01,-1.553839445114135742e-01,3.117045164108276367e-01,-1.824585348367691040e-02,1.317673325538635254e-01
7.533010244369506836e-01,5.274050235748291016e-01,-6.500519514083862305e-01,-9.496080689132213593e-03,7.456825375556945801e-01,-5.160716772079467773e-01,2.025664299726486206e-01,-1.591886430978775024e-01,2.949750125408172607e-01,9.254744648933410645e-01,-5.443418025970458984e-02,-6.896785646677017212e-02,3.633081167936325073e-02,1.038639098405838013e-01
7.658536434173583984e-01,3.589125275611877441e-01,-5.887506604194641113e-01,4.894850775599479675e-02,7.057778239250183105e-01,-5.994162559509277344e-01,1.497821044176816940e-02,-1.847696900367736816e-01,4.203604161739349365e-01,5.777053833007812500e-01,-3.957952186465263367e-02,2.091427147388458252e-01,2.584576010704040527e-01,2.006504684686660767e-01
7.455816268920898438e-01,4.576808214187622070e-01,-5.729258656501770020e-01,-1.078328639268875122e-01,7.639234662055969238e-01,-6.056470274925231934e-01,2.144302129745483398e-01,-2.093335539102554321e-01,2.350807040929794312e-01,8.228697776794433594e-01,-1.089859530329704285e-01,9.547800570726394653e-02,3.381787836551666260e-01,2.817930877208709717e-01
7.047103643417358398e-01,4.184292554855346680e-01,-6.003282666206359863e-01,-1.269611269235610962e-01,6.551458239555358887e-01,-6.112818121910095215e-01,5.880282521247863770e-01,-2.196380645036697388e-01,2.618052065372467041e-01,6.806755661964416504e-01,-1.029481589794158936e-01,-7.175341015681624413e-04,9.984690696001052856e-02,1.886443048715591431e-01
7.128406763076782227e-01,4.185748696327209473e-01,-6.239210367202758789e-01,-1.267665773630142212e-01,4.965029954910278320e-01,-5.930737257003784180e-01,5.109196901321411133e-01,-3.402981162071228027e-01,1.801201254129409790e-01,7.136861681938171387e-01,-1.140588298439979553e-01,2.121327072381973267e-01,4.574389010667800903e-02,3.979416191577911377e-01
8.357971906661987305e-01,2.328927516937255859e-01,-5.534632205963134766e-01,-1.516251862049102783e-01,6.918948888778686523e-01,-6.405357718467712402e-01,4.811672270298004150e-01,-2.809248268604278564e-01,-6.645508110523223877e-02,8.177173733711242676e-01,-1.957699209451675415e-01,-1.922135241329669952e-02,3.165372610092163086e-01,2.990685701370239258e-01
4.939333498477935791e-01,2.671620845794677734e-01,-4.706862270832061768e-01,-5.502704903483390808e-02,5.334320068359375000e-01,-4.895343482494354248e-01,2.607082724571228027e-01,-3.938662707805633545e-01,5.180518329143524170e-02,8.379772901535034180e-01,-3.741028532385826111e-02,2.171541005373001099e-01,1.337199211120605469e-01,8.022075146436691284e-02
5.532452464103698730e-01,3.878563344478607178e-01,-3.194112479686737061e-01,-6.535848975181579590e-02,4.344037175178527832e-01,-5.424367189407348633e-01,3.979719877243041992e-01,-3.837152719497680664e-01,-1.758966147899627686e-01,6.298731565475463867e-01,-1.722373366355895996e-01,2.505527436733245850e-01,6.213855370879173279e-02,9.210180491209030151e-02
5.453829765319824219e-01,2.597435414791107178e-01,-3.204185664653778076e-01,-1.959824562072753906e-01,5.114849209785461426e-01,-6.880893111228942871e-01,3.468106389045715332e-01,-4.573723673820495605e-01,-1.206775233149528503e-01,6.644276976585388184e-01,-8.697786182165145874e-02,2.678539752960205078e-01,2.371237128973007202e-01,-9.491892531514167786e-03
4.344531297683715820e-01,4.218378067016601562e-01,-2.019047141075134277e-01,-4.642083868384361267e-02,3.987653553485870361e-01,-6.071817874908447266e-01,2.060624063014984131e-01,-2.713027298450469971e-01,-3.050793707370758057e-01,4.152340888977050781e-01,-1.951963752508163452e-01,1.552901118993759155e-01,1.835927367210388184e-01,3.187198340892791748e-01
4.201551675796508789e-01,2.207601070404052734e-01,-2.765220403671264648e-01,-3.492132723331451416e-01,1.814303249120712280e-01,-6.895824074745178223e-01,4.031403660774230957e-01,-5.435765981674194336e-01,-3.142990171909332275e-01,5.126760601997375488e-01,-1.158549264073371887e-02,2.672277987003326416e-01,1.056716293096542358e-01,1.580437272787094116e-01
2.431169748306274414e-01,3.288307487964630127e-01,-2.031984776258468628e-01,-1.677493751049041748e-01,3.176510334014892578e-01,-5.761409401893615723e-01,3.874340951442718506e-01,-8.979662060737609863e-01,-2.471860945224761963e-01,4.362946450710296631e-01,-2.671786248683929443e-01,1.693890541791915894e-01,8.144276589155197144e-02,-1.585514545440673828e-01
3.978287577629089355e-01,2.269022017717361450e-01,-4.101810231804847717e-02,-1.147435531020164490e-01,2.179497927427291870e-01,-5.348240137100219727e-01,2.634484767913818359e-01,-8.361045718193054199e-01,-3.610887527465820312e-01,6.369228363037109375e-01,-1.849742531776428223e-01,1.429215669631958008e-01,6.227065995335578918e-02,5.730639025568962097e-02
2.223905473947525024e-01,7.755892723798751831e-02,1.097371354699134827e-01,-1.364760696887969971e-01,-2.255371026694774628e-02,-6.618360877037048340e-01,3.505890965461730957e-01,-5.166135430335998535e-01,-5.923559665679931641e-01,5.861589312553405762e-01,-4.088933393359184265e-02,2.836228907108306885e-01,1.190685257315635681e-01,5.159357562661170959e-02
2.587709724903106689e-01,3.552354276180267334e-01,-5.569397658109664917e-02,-1.096959859132766724e-01,3.270647227764129639e-01,-8.237369656562805176e-01,3.660302460193634033e-01,-4.904490709304809570e-01,-5.378423333168029785e-01,3.657740652561187744e-01,-7.291439920663833618e-02,3.366437852382659912e-01,-1.839524507522583008e-02,1.211565285921096802e-01
4.103219509124755859e-02,1.919918805360794067e-01,1.586161851882934570e-01,-1.699734926223754883e-01,7.850553840398788452e-02,-5.809021592140197754e-01,6.079533696174621582e-01,-7.472193241119384766e-01,-5.460915565490722656e-01,3.108638226985931396e-01,3.713106736540794373e-02,2.717390954494476318e-01,3.698850795626640320e-02,-3.893812745809555054e-02
3.929232358932495117e-01,1.627271622419357300e-01,1.539314240217208862e-01,-3.410021960735321045e-02,7.025717198848724365e-02,-7.032122611999511719e-01,2.518501877784729004e-01,-5.306214690208435059e-01,-4.802096784114837646e-01,4.840788841247558594e-01,-7.542707026004791260e-02,2.599622607231140137e-01,7.896176725625991821e-02,-2.051895409822463989e-01
2.480279505252838135e-01,1.498643159866333008e-01,5.007007718086242676e-02,-3.087398707866668701e-01,8.193712681531906128e-02,-6.033252477645874023e-01,1.704659163951873779e-01,-5.055584907531738281e-01,-7.098276019096374512e-01,4.949266910552978516e-01,-5.520276352763175964e-02,4.969595074653625488e-01,1.902045458555221558e-01,-1.323515325784683228e-01
2.072454094886779785e-01,2.847833335399627686e-01,1.313855499029159546e-01,-7.256429642438888550e-02,9.571110829710960388e-03,-7.636289000511169434e-01,3.836796581745147705e-01,-6.237270236015319824e-01,-7.667322158813476562e-01,5.398614406585693359e-01,1.467272192239761353e-01,5.256710052490234375e-01,9.747248142957687378e-02,5.493913590908050537e-02
5.880344510078430176e-01,2.304683029651641846e-01,1.346492469310760498e-01,-4.834151268005371094e-02,1.896636560559272766e-02,-7.332099676132202148e-01,5.094773173332214355e-01,-5.258013010025024414e-01,-6.488921642303466797e-01,3.777417540550231934e-01,1.634146422147750854e-01,5.073993206024169922e-01,1.479700952768325806e-01,-1.031202375888824463e-01
1.501808315515518188e-01,1.436686813831329346e-01,6.166992336511611938e-02,-1.303700357675552368e-01,2.379946224391460419e-02,-6.600530743598937988e-01,3.290859758853912354e-01,-5.030915737152099609e-01,-6.702690124511718750e-01,4.157157838344573975e-01,7.735616713762283325e-02,3.527962565422058105e-01,2.106831967830657959e-01,-1.250517219305038452e-01
1.531243473291397095e-01,2.917138934135437012e-01,2.191829979419708252e-01,4.627719894051551819e-02,-1.327871084213256836e-01,-6.204639673233032227e-01,3.524779379367828369e-01,-5.453307628631591797e-01,-6.942253112792968750e-01,3.573033511638641357e-01,1.626417189836502075e-01,4.837744832038879395e-01,1.357357501983642578e-01,-2.037851214408874512e-01
2.824232578277587891e-01,1.984950155019760132e-01,2.022685259580612183e-01,-7.927973568439483643e-02,6.497915834188461304e-02,-7.513146400451660156e-01,3.403426706790924072e-01,-4.874765276908874512e-01,-6.060768365859985352e-01,2.761148214340209961e-01,3.478990867733955383e-02,4.857106804847717285e-01,-3.220005035400390625e-01,-1.191203519701957703e-01
3.858210444450378418e-01,2.663581371307373047e-01,7.870350778102874756e-02,-9.604903869330883026e-03,-1.328562647104263306e-01,-4.970848262310028076e-01,4.830115437507629395e-01,-5.079643726348876953e-01,-6.274424791336059570e-01,2.217080593109130859e-01,-5.726399272680282593e-02,3.410177826881408691e-01,1.512177139520645142e-01,-1.781055778264999390e-01
2.898942530155181885e-01,1.348181515932083130e-01,1.812185645103454590e-01,-2.568969875574111938e-02,5.861833691596984863e-02,-4.963151216506958008e-01,6.224832534790039062e-01,-4.629513323307037354e-01,-4.346544444561004639e-01,2.574095129966735840e-01,3.315294981002807617e-01,4.639443159103393555e-01,-7.814196497201919556e-02,-1.345614343881607056e-01
2.399362623691558838e-01,-3.469759598374366760e-03,2.900921404361724854e-01,6.315288692712783813e-02,1.003004685044288635e-01,-4.299030601978302002e-01,4.660004675388336182e-01,-4.679768085479736328e-01,-3.509858250617980957e-01,1.959256678819656372e-01,1.583359688520431519e-01,4.901386201381683350e-01,-1.201786249876022339e-01,-2.926381230354309082e-01
2.721571326255798340e-01,2.236663550138473511e-01,3.061621189117431641e-01,1.712476760149002075e-01,-2.568253688514232635e-02,-4.690099954605102539e-01,2.826638221740722656e-01,-4.895167052745819092e-01,-4.603222012519836426e-01,3.718029707670211792e-03,3.603595495223999023e-01,5.510796308517456055e-01,-1.921135038137435913e-01,-3.746149241924285889e-01
2.063257992267608643e-01,6.726389378309249878e-02,1.400728374719619751e-01,4.674097299575805664e-01,7.565875351428985596e-02,-1.467133909463882446e-01,2.737781703472137451e-01,-4.267504513263702393e-01,-4.519776105880737305e-01,2.672886848449707031e-02,5.495105385780334473e-01,2.134508341550827026e-01,-5.038555264472961426e-01,-3.291975557804107666e-01
5.141459032893180847e-02,1.661269515752792358e-01,2.786367833614349365e-01,1.486725360155105591e-01,1.904895156621932983e-01,4.215267673134803772e-02,2.500853538513183594e-01,-5.598043203353881836e-01,-4.598736166954040527e-01,-3.825756907463073730e-02,4.699117541313171387e-01,3.076440691947937012e-01,-3.855305612087249756e-01,-4.227157831192016602e-01
2.983019948005676270e-01,-1.023856028914451599e-01,1.110399886965751648e-01,3.849954903125762939e-01,-2.111782319843769073e-02,-2.692293226718902588e-01,-8.513561636209487915e-02,-4.516516923904418945e-01,-3.719885349273681641e-01,-1.362414509057998657e-01,3.862341344356536865e-01,2.490289807319641113e-01,-2.944421470165252686e-01,-3.508585989475250244e-01
2.948525846004486084e-01,-1.121176183223724365e-01,1.811712607741355896e-02,3.322914242744445801e-01,1.162039041519165039e-01,-1.932455450296401978e-01,-2.258713841438293457e-01,-3.016858994960784912e-01,-2.778601646423339844e-01,-2.847629487514495850e-01,6.045953035354614258e-01,2.835786938667297363e-01,-5.767962336540222168e-01,-4.479630887508392334e-01
1.866705529391765594e-02,-1.731417626142501831e-01,2.648906409740447998e-01,5.438727140426635742e-01,2.375151962041854858e-01,-8.032186329364776611e-02,4.687505215406417847e-02,-5.456895232200622559e-01,-1.079075932502746582e-01,-1.285008490085601807e-01,6.252619624137878418e-01,3.739324212074279785e-01,-6.226159334182739258e-01,-5.069457292556762695e-01
-7.375641167163848877e-02,-1.377575471997261047e-02,2.139724940061569214e-01,4.088704586029052734e-01,3.058798909187316895e-01,2.685796469449996948e-02,-2.899680435657501221e-01,-4.802591204643249512e-01,-5.006839632987976074e-01,-2.167687714099884033e-01,6.570004224777221680e-01,9.058412909507751465e-02,-7.983440756797790527e-01,-3.403306007385253906e-01
-7.274033129215240479e-02,-6.869062781333923340e-02,2.101912498474121094e-01,3.477706909179687500e-01,1.227667778730392456e-01,-8.199358731508255005e-02,-9.344998747110366821e-02,-5.149877071380615234e-01,-1.570231467485427856e-01,-2.780568599700927734e-01,6.346497535705566406e-01,6.001072004437446594e-02,-8.349978327751159668e-01,-3.348594903945922852e-01
6.862346827983856201e-02,-9.718709439039230347e-02,-8.618674241006374359e-03,4.510206282138824463e-01,3.639628887176513672e-01,1.272848099470138550e-01,-3.570818901062011719e-01,-4.751183092594146729e-01,-3.340059220790863037e-01,-3.818362653255462646e-01,8.656668066978454590e-01,7.678948342800140381e-02,-9.356961846351623535e-01,-1.382516026496887207e-01
-2.170351743698120117e-01,-7.495768368244171143e-02,1.523137092590332031e-01,3.737702965736389160e-01,3.145234286785125732e-01,2.290142886340618134e-02,-2.293502241373062134e-01,-5.360243916511535645e-01,-2.712783217430114746e-01,-3.553190231323242188e-01,6.271300911903381348e-01,-1.414112895727157593e-01,-9.229685664176940918e-01,-2.834510505199432373e-01
-2.208247184753417969e-01,-3.626211360096931458e-02,2.245075628161430359e-02,4.254662096500396729e-01,3.688664734363555908e-01,1.213287487626075745e-01,-5.378312468528747559e-01,-5.275957584381103516e-01,-3.972852826118469238e-01,-2.140997350215911865e-01,6.737240552902221680e-01,-4.859808087348937988e-02,-8.520004153251647949e-01,-3.504067659378051758e-01
-2.129527740180492401e-02,-1.366152316331863403e-01,9.609752148389816284e-02,1.887555271387100220e-01,2.685239911079406738e-01,1.296330094337463379e-01,-4.749440550804138184e-01,-4.553968012332916260e-01,-4.191840887069702148e-01,-2.848440706729888916e-01,9.913896918296813965e-01,-8.247943222522735596e-02,-1.014788389205932617e+00,-2.798821926116943359e-01
-1.070534959435462952e-01,-1.592378467321395874e-01,3.328369259834289551e-01,2.560538947582244873e-01,2.662693858146667480e-01,9.549253433942794800e-02,-4.495803713798522949e-01,-5.341607332229614258e-01,-3.607539534568786621e-01,-7.149235904216766357e-02,9.046609997749328613e-01,-2.820484042167663574e-01,-9.789564013481140137e-01,-1.374299824237823486e-01
-2.739226520061492920e-01,-2.664709091186523438e-01,1.235251352190971375e-01,1.191654056310653687e-01,2.588553130626678467e-01,1.922692731022834778e-02,-3.578639328479766846e-01,-4.592072367668151855e-01,-3.735166788101196289e-01,-6.987784057855606079e-02,9.436187744140625000e-01,-6.215550750494003296e-02,-1.006555199623107910e+00,-2.993458509445190430e-01
-1.047347337007522583e-01,-1.455289572477340698e-01,2.429600954055786133e-01,-6.348361074924468994e-02,2.516472041606903076e-01,-1.148837357759475708e-01,-5.230213403701782227e-01,-3.757026791572570801e-01,-3.158756196498870850e-01,-7.080407347530126572e-03,1.026061534881591797e+00,-1.267909556627273560e-01,-7.917195558547973633e-01,-3.999376893043518066e-01
-2.391740381717681885e-01,-3.559179604053497314e-01,2.631888985633850098e-01,1.412866264581680298e-02,2.932497560977935791e-01,-1.975447982549667358e-01,-6.327329874038696289e-01,-3.387943208217620850e-01,-3.226542174816131592e-01,-2.864247560501098633e-02,1.040162920951843262e+00,-2.254537642002105713e-01,-1.039691448211669922e+00,-3.250444531440734863e-01
-1.889781057834625244e-01,-2.598503530025482178e-01,2.501105964183807373e-01,-1.405325829982757568e-01,3.766682744026184082e-01,-1.839356571435928345e-01,-5.065361261367797852e-01,-2.209039032459259033e-01,-3.542143702507019043e-01,-8.450796455144882202e-02,9.380104541778564453e-01,-3.952596485614776611e-01,-9.463806748390197754e-01,-3.026752173900604248e-01
-5.357125774025917053e-02,-4.632757306098937988e-01,1.152587085962295532e-01,3.867917926982045174e-03,3.431459665298461914e-01,-2.848870456218719482e-01,-5.991771817207336426e-01,-2.772667109966278076e-01,-2.357882112264633179e-01,8.201587945222854614e-02,1.053605198860168457e+00,-1.707419306039810181e-01,-7.760728597640991211e-01,-7.016636431217193604e-03
-1.027056500315666199e-01,-4.648370444774627686e-01,1.743981689214706421e-01,-3.104144632816314697e-01,3.274765908718109131e-01,-2.334710210561752319e-01,-6.191009879112243652e-01,-1.771188676357269287e-01,-3.403128981590270996e-01,1.453796774148941040e-01,1.004096865653991699e+00,-2.016040086746215820e-01,-7.353673577308654785e-01,-2.812467515468597412e-01
-1.078184098005294800e-01,-4.306248724460601807e-01,4.370757937431335449e-01,-2.641916871070861816e-01,3.254021704196929932e-01,-2.313079982995986938e-01,-8.371072411537170410e-01,-2.280159145593643188e-01,-5.186823010444641113e-01,2.949717342853546143e-01,1.070895552635192871e+00,-2.573620975017547607e-01,-1.036311507225036621e+00,-2.676936089992523193e-01
-2.137669175863265991e-01,-6.201378107070922852e-01,2.426129132509231567e-01,-5.049875378608703613e-01,1.151320710778236389e-01,-9.736836701631546021e-02,-5.269655585289001465e-01,-1.561297178268432617e-01,-1.073629558086395264e-01,2.006611526012420654e-01,9.236191511154174805e-01,-2.538332641124725342e-01,-8.079090118408203125e-01,-5.603129267692565918e-01
-1.406203210353851318e-01,-3.932116925716400146e-01,1.785612553358078003e-01,-3.704682886600494385e-01,2.570319771766662598e-01,-4.697720706462860107e-01,-8.160620331764221191e-01,-1.519672274589538574e-01,-2.779724895954132080e-01,3.402758836746215820e-01,1.012315750122070312e+00,-4.091126918792724609e-01,-7.904515862464904785e-01,-3.255634903907775879e-01
-1.398129314184188843e-01,-4.825828671455383301e-01,3.733909726142883301e-01,-4.059593081474304199e-01,3.279206156730651855e-01,-3.503427505493164062e-01,-6.512131690979003906e-01,3.066606074571609497e-02,-1.206002756953239441e-01,1.221614107489585876e-01,7.399290800094604492e-01,-3.533476293087005615e-01,-9.432471990585327148e-01,-3.869399428367614746e-01
-2.292842045426368713e-02,-4.989188909530639648e-01,8.306258916854858398e-02,-3.724564015865325928e-01,2.237200736999511719e-01,-3.822756409645080566e-01,-4.228591024875640869e-01,-1.167502328753471375e-01,-2.641303539276123047e-01,1.245164945721626282e-01,8.074601888656616211e-01,-3.830099999904632568e-01,-8.063549399375915527e-01,-5.614531040191650391e-01
-2.358780950307846069e-01,-3.620159029960632324e-01,3.889273405075073242e-01,-4.488623142242431641e-01,4.431681931018829346e-01,-4.169568121433258057e-01,-6.029026508331298828e-01,-8.995226584374904633e-03,-1.240829974412918091e-01,2.965548932552337646e-01,7.899109125137329102e-01,-2.503245472908020020e-01,-9.096070528030395508e-01,-2.999617755413055420e-01
-5.649780388921499252e-03,-4.700677096843719482e-01,3.106768727302551270e-01,-4.166484475135803223e-01,5.095584392547607422e-01,-1.977164000272750854e-01,-4.760027229785919189e-01,-1.270226389169692993e-01,-1.258576512336730957e-01,3.203777372837066650e-01,6.872967481613159180e-01,-3.589864373207092285e-01,-5.229279994964599609e-01,-4.234007298946380615e-01
1.290853768587112427e-01,-2.370321601629257202e-01,3.800469636917114258e-01,-5.955650210380554199e-01,2.954497337341308594e-01,-2.501738667488098145e-01,-4.357005953788757324e-01,1.292019039392471313e-01,-1.852964758872985840e-01,4.608909487724304199e-01,5.854417085647583008e-01,-4.938102960586547852e-01,-6.082158684730529785e-01,-3.420977294445037842e-01
1.436449736356735229e-01,-2.485202401876449585e-01,1.090985462069511414e-01,-6.670625805854797363e-01,4.271832108497619629e-01,-6.136234402656555176e-01,-3.928373456001281738e-01,6.493328604847192764e-03,9.026781655848026276e-03,3.877223730087280273e-01,5.343894362449645996e-01,-2.016573846340179443e-01,-6.691536903381347656e-01,-4.053302705287933350e-01
1.092344820499420166e-01,-3.780423402786254883e-01,3.240804001688957214e-02,-5.458292365074157715e-01,5.228895545005798340e-01,-3.215537071228027344e-01,-3.001301884651184082e-01,1.395339220762252808e-01,-3.048391342163085938e-01,5.860339403152465820e-01,6.392304897308349609e-01,-4.490967690944671631e-01,-5.832938551902770996e-01,-4.843240603804588318e-02
4.537164270877838135e-01,-2.078547924757003784e-01,1.597286909818649292e-01,-6.375550627708435059e-01,2.692808806896209717e-01,-4.669421017169952393e-01,-3.119117021560668945e-01,7.931705564260482788e-02,-3.945848904550075531e-03,4.705632627010345459e-01,3.331198394298553467e-01,-3.334678113460540771e-01,-6.040246486663818359e-01,-2.357223480939865112e-01
1.999104917049407959e-01,-5.154931545257568359e-02,1.480419337749481201e-01,-5.540154576301574707e-01,4.718039631843566895e-01,-5.145176053047180176e-01,-2.493809610605239868e-01,1.630556136369705200e-01,-1.456612497568130493e-01,5.676787495613098145e-01,3.925613462924957275e-01,-4.089553654193878174e-02,-4.546783566474914551e-01,-6.585422903299331665e-02
3.976799547672271729e-01,-1.651014238595962524e-01,6.097795069217681885e-02,-8.235412836074829102e-01,5.227674841880798340e-01,-4.901891946792602539e-01,-1.254745274782180786e-01,1.355108618736267090e-01,-9.771525114774703979e-02,5.397307872772216797e-01,3.172311186790466309e-01,-2.904908731579780579e-02,-4.914597570896148682e-01,-1.490682363510131836e-01
4.859087765216827393e-01,-8.109721355140209198e-03,-6.648286432027816772e-02,-5.403258800506591797e-01,6.369771957397460938e-01,-4.899826347827911377e-01,-2.783119678497314453e-01,1.342855542898178101e-01,-3.983377665281295776e-02,7.092579007148742676e-01,1.171133369207382202e-01,-1.308484077453613281e-01,-4.990120232105255127e-01,-7.212731987237930298e-02
6.342947483062744141e-01,9.750722348690032959e-02,-2.257495746016502380e-02,-9.711059927940368652e-01,6.572565436363220215e-01,-4.804660677909851074e-01,-1.190884262323379517e-01,1.972054839134216309e-01,-1.808845996856689453e-02,6.838448643684387207e-01,1.868466883897781372e-01,-8.640576153993606567e-02,-4.935890138149261475e-01,-9.534905850887298584e-02
8.194081187248229980e-01,1.300619393587112427e-01,-1.452155709266662598e-01,-6.558222770690917969e-01,6.247751712799072266e-01,-5.426346659660339355e-01,1.721834838390350342e-01,2.077504396438598633e-01,4.320232197642326355e-02,7.745025157928466797e-01,2.486861646175384521e-01,1.937677562236785889e-01,-1.817229241132736206e-01,1.188647001981735229e-01
6.878420710563659668e-01,2.140437066555023193e-01,-9.045021235942840576e-02,-8.957315087318420410e-01,7.057678103446960449e-01,-4.986352026462554932e-01,2.410903386771678925e-02,1.770257353782653809e-01,1.973123699426651001e-01,6.556066274642944336e-01,2.883979976177215576e-01,9.254992008209228516e-03,-3.126028478145599365e-01,5.249178409576416016e-02
7.668948173522949219e-01,3.588514626026153564e-01,3.907258063554763794e-02,-6.633231639862060547e-01,6.120607256889343262e-01,-6.745857596397399902e-01,2.115090191364288330e-01,6.634946167469024658e-02,1.756438985466957092e-02,5.380899906158447266e-01,9.709008783102035522e-02,-2.501737559214234352e-03,-4.202154576778411865e-01,2.123150080442428589e-01
8.603917956352233887e-01,1.783101707696914673e-01,-1.077465042471885681e-01,-7.860139012336730957e-01,4.292931556701660156e-01,-6.220955252647399902e-01,5.249875411391258240e-02,2.178624719381332397e-01,-2.478248625993728638e-01,4.867840409278869629e-01,1.547922194004058838e-01,-1.129271909594535828e-01,-1.826816946268081665e-01,1.977016776800155640e-01
8.291123509407043457e-01,4.512352943420410156e-01,-1.019425764679908752e-01,-8.338268399238586426e-01,5.456394553184509277e-01,-5.500820279121398926e-01,2.609424293041229248e-01,-7.568659633398056030e-02,3.239713609218597412e-01,4.505672752857208252e-01,6.759785115718841553e-02,4.995104670524597168e-02,-1.899103224277496338e-01,3.880873620510101318e-01
8.351605534553527832e-01,3.733171224594116211e-01,-2.325542420148849487e-01,-6.393736004829406738e-01,6.898187994956970215e-01,-3.828266561031341553e-01,9.646192193031311035e-02,1.696639657020568848e-01,-2.338851615786552429e-02,5.915626883506774902e-01,1.050485745072364807e-01,7.589545100927352905e-02,-2.044107913970947266e-01,3.504909574985504150e-01
1.009424567222595215e+00,2.930429279804229736e-01,3.736775368452072144e-02,-8.014749288558959961e-01,4.466482698917388916e-01,-5.052886009216308594e-01,7.056199014186859131e-02,3.642377676442265511e-03,-2.098156809806823730e-01,4.654740691184997559e-01,-9.097523242235183716e-02,9.423623234033584595e-02,-2.435961365699768066e-01,5.034262537956237793e-01
9.991989731788635254e-01,2.827603816986083984e-01,-3.109464049339294434e-01,-8.958484530448913574e-01,5.141296982765197754e-01,-4.105873703956604004e-01,1.989189088344573975e-01,2.676201239228248596e-02,-2.400338202714920044e-01,3.249270021915435791e-01,5.616648588329553604e-03,1.385327726602554321e-01,-4.952420294284820557e-02,6.324869394302368164e-01
1.260128259658813477e+00,1.847889423370361328e-01,5.314737930893898010e-02,-8.522971272468566895e-01,3.285160660743713379e-01,-1.175710707902908325e-01,1.829529851675033569e-01,2.649101056158542633e-02,-1.749678403139114380e-01,2.679867744445800781e-01,-1.045617312192916870e-01,-1.389605458825826645e-02,-9.333368390798568726e-02,6.588591933250427246e-01
9.560183882713317871e-01,4.055968523025512695e-01,-1.700777411460876465e-01,-6.398586630821228027e-01,3.586865365505218506e-01,-5.395651459693908691e-01,1.741474270820617676e-01,-2.137198112905025482e-03,-2.106810361146926880e-02,3.830157518386840820e-01,1.108309626579284668e-01,-2.448531612753868103e-02,-1.779652833938598633e-01,5.811136364936828613e-01
8.449724316596984863e-01,1.645674258470535278e-01,-2.625711262226104736e-02,-9.319134950637817383e-01,5.429008603096008301e-01,-2.112183719873428345e-01,2.224455475807189941e-01,-3.130765259265899658e-01,8.018925786018371582e-02,2.720127999782562256e-01,4.989817366003990173e-02,-7.515659183263778687e-02,-2.328276336193084717e-01,6.320748925209045410e-01
6.722679734230041504e-01,2.918371856212615967e-01,-1.376405656337738037e-01,-7.241137623786926270e-01,5.888987183570861816e-01,-1.539389789104461670e-01,9.302495419979095459e-02,-2.089481055736541748e-01,-7.978563755750656128e-02,3.580876588821411133e-01,1.387886106967926025e-01,7.004008442163467407e-02,2.735830843448638916e-02,7.519115805625915527e-01
6.800444126129150391e-01,2.805010378360748291e-01,6.594949960708618164e-02,-9.056758284568786621e-01,4.666536748409271240e-01,-4.851827919483184814e-01,1.895208209753036499e-01,-1.190623193979263306e-01,-2.632701992988586426e-01,3.352735936641693115e-01,-6.186209246516227722e-02,-2.654781937599182129e-02,-9.808275848627090454e-02,8.047069907188415527e-01
9.939581155776977539e-01,3.255996406078338623e-01,1.117240339517593384e-01,-6.882247328758239746e-01,4.192602336406707764e-01,-3.400787413120269775e-01,1.769320815801620483e-01,-1.299213320016860962e-01,-2.481586784124374390e-01,3.022107779979705811e-01,2.478451281785964966e-02,-1.215700432658195496e-01,1.668602786958217621e-02,8.415776491165161133e-01
8.611169457435607910e-01,1.031245589256286621e-01,-1.006149575114250183e-01,-6.580455303192138672e-01,3.472379446029663086e-01,-3.174889385700225830e-01,7.715361565351486206e-02,-4.464346170425415039e-01,-4.139701426029205322e-01,5.574957728385925293e-01,-1.130910515785217285e-01,-7.074959576129913330e-02,-1.004561707377433777e-01,8.358576893806457520e-01
9.051824212074279785e-01,2.907973825931549072e-01,1.298116445541381836e-01,-6.083834767341613770e-01,4.675075411796569824e-01,-2.542738616466522217e-01,2.580978572368621826e-01,-4.734122157096862793e-01,-3.459511697292327881e-01,2.001220136880874634e-01,-4.390954598784446716e-02,-5.203467607498168945e-02,6.049787253141403198e-02,9.448642134666442871e-01
8.834761381149291992e-01,3.037167787551879883e-01,9.069062769412994385e-02,-7.525506019592285156e-01,2.024612426757812500e-01,-2.799232304096221924e-01,4.406212568283081055e-01,-3.273991942405700684e-01,-4.803721606731414795e-01,3.697578608989715576e-01,-3.392131626605987549e-01,-1.183255985379219055e-01,2.069441080093383789e-01,1.075273633003234863e+00
9.128485918045043945e-01,5.771052837371826172e-01,1.725376844406127930e-01,-7.933591604232788086e-01,2.467011660337448120e-01,-5.274206772446632385e-02,3.080826103687286377e-01,-4.595469832420349121e-01,-5.701546072959899902e-01,3.325881063938140869e-01,-1.515260189771652222e-01,1.909850984811782837e-01,1.502913683652877808e-01,9.713638424873352051e-01
7.650256752967834473e-01,2.933392822742462158e-01,3.027282059192657471e-01,-7.294767498970031738e-01,2.061642259359359741e-01,-4.660204350948333740e-01,4.345239400863647461e-01,-3.124296367168426514e-01,-6.599394083023071289e-01,3.809139728546142578e-01,-2.738445699214935303e-01,1.778916716575622559e-01,2.677232921123504639e-01,1.074205636978149414e+00
9.251179695129394531e-01,8.543626964092254639e-02,2.623313367366790771e-01,-9.520874619483947754e-01,1.780208647251129150e-01,-9.514521062374114990e-02,4.770582020282745361e-01,-3.778696954250335693e-01,-7.680084705352783203e-01,3.502222597599029541e-01,-3.165793716907501221e-01,-8.618430793285369873e-02,2.742249071598052979e-01,9.687414765357971191e-01
7.489011287689208984e-01,1.952632516622543335e-01,3.669645190238952637e-01,-6.833779215812683105e-01,1.589682549238204956e-01,-3.803784847259521484e-01,4.711321294307708740e-01,-2.142182886600494385e-01,-7.614642381668090820e-01,4.627527296543121338e-01,-2.067407220602035522e-01,-7.245666813105344772e-03,3.784951269626617432e-01,8.964587450027465820e-01
6.339814662933349609e-01,2.496999800205230713e-01,5.412863492965698242e-01,-9.877364635467529297e-01,-5.511450022459030151e-02,-3.529202640056610107e-01,3.821347057819366455e-01,-1.985988765954971313e-01,-6.635748744010925293e-01,5.187292695045471191e-01,-2.737831771373748779e-01,3.489861637353897095e-02,3.721365332603454590e-01,9.265620708465576172e-01
8.220453262329101562e-01,1.289591193199157715e-01,5.838737487792968750e-01,-5.544583201408386230e-01,-2.061749100685119629e-01,-3.095126748085021973e-01,5.948008298873901367e-01,-1.721946448087692261e-01,-6.201809644699096680e-01,4.878479838371276855e-01,-4.072120785713195801e-01,-9.585890173912048340e-02,4.926964044570922852e-01,1.021703362464904785e+00
6.646365523338317871e-01,2.448696196079254150e-01,6.409207582473754883e-01,-6.199763417243957520e-01,-2.737362682819366455e-01,-3.270524740219116211e-01,5.707131624221801758e-01,-2.542611956596374512e-01,-4.898191690444946289e-01,4.041387140750885010e-01,-1.991241723299026489e-01,-1.062099561095237732e-01,5.963448286056518555e-01,9.581165909767150879e-01
6.547966599464416504e-01,1.702870242297649384e-02,7.527779936790466309e-01,-6.146658062934875488e-01,-9.410388022661209106e-02,-1.197805702686309814e-01,5.191222429275512695e-01,-3.534047007560729980e-01,-5.980530381202697754e-01,2.392460852861404419e-01,-1.338081955909729004e-01,-9.320172667503356934e-02,5.219429135322570801e-01,9.131751060485839844e-01
7.439092993736267090e-01,-3.793966770172119141e-02,5.840846300125122070e-01,-4.967549443244934082e-01,-1.415352523326873779e-01,-1.739931106567382812e-01,5.475965738296508789e-01,-3.598536550998687744e-01,-7.252430319786071777e-01,3.359577953815460205e-01,-3.308548331260681152e-01,-5.716028064489364624e-02,6.037552356719970703e-01,9.602998495101928711e-01
8.613761663436889648e-01,4.779450222849845886e-02,7.300948500633239746e-01,-4.453828334808349609e-01,-3.564902245998382568e-01,-3.107057213783264160e-01,5.885743498802185059e-01,-1.703026294708251953e-01,-6.739031672477722168e-01,2.465466558933258057e-01,-3.988676369190216064e-01,-8.901052176952362061e-02,5.001317858695983887e-01,8.264400959014892578e-01
6.809948682785034180e-01,1.435330063104629517e-01,7.866429090499877930e-01,-6.735945940017700195e-01,-2.284316569566726685e-01,-1.058416664600372314e-01,6.961843967437744141e-01,-1.497968137264251709e-01,-6.468654274940490723e-01,8.798515051603317261e-02,-3.776452541351318359e-01,-1.428925544023513794e-01,4.528356790542602539e-01,6.254561543464660645e-01
7.798690199851989746e-01,-6.870410591363906860e-02,8.925661444664001465e-01,-5.463559031486511230e-01,-2.550252377986907959e-01,-1.516076177358627319e-01,5.545275807380676270e-01,-2.488432526588439941e-01,-5.062777996063232422e-01,1.954732090234756470e-01,-4.890667796134948730e-01,-7.789802551269531250e-02,6.002719998359680176e-01,8.460443615913391113e-01
5.534906983375549316e-01,7.326000370085239410e-03,9.836986064910888672e-01,-2.186498045921325684e-01,-4.343636035919189453e-01,7.765085250139236450e-02,3.768603205680847168e-01,-1.630915254354476929e-01,-5.410525202751159668e-01,2.853507697582244873e-01,-3.848190605640411377e-01,-3.420665860176086426e-02,4.699156284332275391e-01,5.490112304687500000e-01
6.387624144554138184e-01,1.825159043073654175e-01,7.409069538116455078e-01,-3.263254761695861816e-01,-1.381462067365646362e-01,1.009299755096435547e-01,7.187249660491943359e-01,-3.487808257341384888e-02,-4.878988265991210938e-01,2.608003914356231689e-01,-2.672956287860870361e-01,-3.971327245235443115e-01,3.926547765731811523e-01,7.005550265312194824e-01
4.966173470020294189e-01,2.365323007106781006e-01,1.022294998168945312e+00,-6.700182706117630005e-02,-1.800421774387359619e-01,3.563818931579589844e-01,7.753285765647888184e-01,4.611676931381225586e-02,-3.224079310894012451e-01,9.189871698617935181e-02,-3.814569711685180664e-01,-6.116697192192077637e-02,4.471137523651123047e-01,5.208122730255126953e-01
4.502370655536651611e-01,4.124680534005165100e-02,1.039808988571166992e+00,-1.193866040557622910e-02,8.344693109393119812e-03,1.862543076276779175e-01,6.064119935035705566e-01,-5.514342710375785828e-02,-4.637753665447235107e-01,2.642135322093963623e-01,-4.528373181819915771e-01,-3.189871013164520264e-01,4.393552839756011963e-01,4.725675284862518311e-01
3.337914943695068359e-01,-9.725156426429748535e-02,8.994480967521667480e-01,4.515922814607620239e-02,1.143707036972045898e-01,3.817203938961029053e-01,6.469620466232299805e-01,-4.269939288496971130e-02,-3.217090964317321777e-01,1.520352661609649658e-01,-5.535611510276794434e-01,-3.013063073158264160e-01,4.611777365207672119e-01,5.289010405540466309e-01
4.482060670852661133e-01,-4.529614001512527466e-02,8.447523117065429688e-01,9.325086325407028198e-02,1.311066448688507080e-01,2.575570940971374512e-01,6.159206628799438477e-01,-1.435593888163566589e-02,-3.731771707534790039e-01,1.857676953077316284e-01,-2.692693173885345459e-01,-1.870437897741794586e-02,3.071023225784301758e-01,5.330698490142822266e-01
4.121114015579223633e-01,1.607948243618011475e-01,1.052025079727172852e+00,2.835196815431118011e-02,5.894065275788307190e-02,3.856225609779357910e-01,8.216450214385986328e-01,1.626637727022171021e-01,-4.370226562023162842e-01,4.850427061319351196e-02,-4.639682471752166748e-01,-1.407898962497711182e-01,4.047660827636718750e-01,3.337536454200744629e-01
2.454570382833480835e-01,3.248483538627624512e-01,9.110547900199890137e-01,5.405586212873458862e-02,-3.491208329796791077e-02,5.341768860816955566e-01,3.801817595958709717e-01,2.243642359972000122e-01,-4.622014760971069336e-01,-4.326273128390312195e-02,-2.241949141025543213e-01,-2.153138518333435059e-01,1.853557229042053223e-01,3.378596007823944092e-01
1.764863729476928711e-01,2.873596549034118652e-01,7.502405643463134766e-01,3.835443854331970215e-01,1.208537518978118896e-01,5.434116125106811523e-01,5.412993431091308594e-01,-3.367704525589942932e-02,-3.622502684593200684e-01,-4.917072132229804993e-02,-2.165839672088623047e-01,-2.189618349075317383e-01,4.102125391364097595e-02,4.719363451004028320e-01
2.969360649585723877e-01,1.084598302841186523e-01,8.594759702682495117e-01,3.555737733840942383e-01,2.492740005254745483e-01,6.121829152107238770e-01,5.764518380165100098e-01,1.686076819896697998e-01,-3.500858545303344727e-01,5.218904465436935425e-02,-3.814329802989959717e-01,-2.744055986404418945e-01,1.994944214820861816e-01,5.144051313400268555e-01
2.798503339290618896e-01,2.979925088584423065e-02,8.103561401367187500e-01,2.848274409770965576e-01,2.291971594095230103e-01,6.312592625617980957e-01,5.912453532218933105e-01,1.516507659107446671e-02,-1.358674913644790649e-01,-7.579772919416427612e-02,-1.343949735164642334e-01,-3.477043807506561279e-01,1.162633225321769714e-01,4.676523208618164062e-01
2.018722593784332275e-01,1.212296187877655029e-01,7.809432148933410645e-01,2.288667857646942139e-01,3.074404597282409668e-01,5.719880461692810059e-01,4.705388247966766357e-01,1.762127429246902466e-01,-2.631758451461791992e-01,-4.456953704357147217e-02,-1.412746906280517578e-01,-3.657260537147521973e-01,1.815418601036071777e-01,4.106464684009552002e-01
3.013765811920166016e-01,1.245791674591600895e-03,6.203059554100036621e-01,4.099523723125457764e-01,1.930511444807052612e-01,5.465834140777587891e-01,6.213425397872924805e-01,2.189089655876159668e-01,-5.383766815066337585e-02,-7.943194359540939331e-02,-1.243629604578018188e-01,-3.296614289283752441e-01,1.132773235440254211e-02,3.322292864322662354e-01
3.050132393836975098e-01,1.906685829162597656e-01,9.033352732658386230e-01,4.301095306873321533e-01,3.391368389129638672e-01,3.336948752403259277e-01,5.983735322952270508e-01,2.687270641326904297e-01,6.009969115257263184e-02,1.548994630575180054e-01,-9.657610952854156494e-02,-2.841214239597320557e-01,1.671125888824462891e-01,3.012616038322448730e-01
-4.999309033155441284e-02,2.615477144718170166e-01,6.633529067039489746e-01,5.403711795806884766e-01,3.581917881965637207e-01,4.906280040740966797e-01,3.510522544384002686e-01,4.297461807727813721e-01,-6.609530746936798096e-02,-9.599958360195159912e-02,-6.763457506895065308e-02,-5.710377097129821777e-01,4.963810369372367859e-02,5.405210256576538086e-01
1.069925874471664429e-01,-1.283187419176101685e-01,6.793321967124938965e-01,3.632107973098754883e-01,3.965446949005126953e-01,6.125352978706359863e-01,4.780868887901306152e-01,1.404950171709060669e-01,-3.382537513971328735e-03,5.891831964254379272e-02,1.349971890449523926e-01,-5.899465084075927734e-01,-1.044652387499809265e-01,2.795332074165344238e-01
-3.792707249522209167e-02,3.154966831207275391e-01,5.295987725257873535e-01,4.024409949779510498e-01,4.227465987205505371e-01,6.078640818595886230e-01,5.316013693809509277e-01,3.204708397388458252e-01,9.614955633878707886e-03,-1.441395431756973267e-01,1.248550191521644592e-01,-6.474088430404663086e-01,-2.412950098514556885e-01,3.579847216606140137e-01
-7.644405215978622437e-02,-1.114794686436653137e-01,6.914972066879272461e-01,3.237569630146026611e-01,3.077187538146972656e-01,5.850724577903747559e-01,3.289453983306884766e-01,4.321812391281127930e-01,2.655447460711002350e-02,3.512653335928916931e-02,2.074127495288848877e-01,-6.788022518157958984e-01,-2.907475531101226807e-01,2.540474534034729004e-01
-2.778893709182739258e-01,-2.485797703266143799e-01,6.871176362037658691e-01,4.929926395416259766e-01,4.427143931388854980e-01,7.350609898567199707e-01,1.901611536741256714e-01,2.577471137046813965e-01,1.456165164709091187e-01,3.073056600987911224e-02,1.702654957771301270e-01,-7.837589979171752930e-01,-1.987351179122924805e-01,2.363416850566864014e-01
-9.266611933708190918e-02,-1.426271200180053711e-01,7.388215661048889160e-01,6.186249256134033203e-01,4.457577168941497803e-01,8.747914433479309082e-01,1.621011942625045776e-01,3.462646305561065674e-01,2.520084679126739502e-01,-6.813774257898330688e-02,2.027775794267654419e-01,-9.588289260864257812e-01,-2.841420173645019531e-01,1.201393380761146545e-01
-3.653593361377716064e-01,-1.025479212403297424e-01,7.795718312263488770e-01,6.717190742492675781e-01,3.663696646690368652e-01,8.897967338562011719e-01,2.432555854320526123e-01,2.720874249935150146e-01,4.676323011517524719e-02,-7.087407261133193970e-02,2.882813215255737305e-01,-9.514203667640686035e-01,-1.514919251203536987e-01,9.308544546365737915e-02
-2.973809838294982910e-01,-1.721628308296203613e-01,6.587238907814025879e-01,6.486210823059082031e-01,5.354869961738586426e-01,6.184247136116027832e-01,3.172005712985992432e-02,4.946235120296478271e-01,1.931875646114349365e-01,2.533256113529205322e-01,2.309600859880447388e-01,-1.168062210083007812e+00,-4.952093064785003662e-01,1.060315966606140137e-01
-5.459522008895874023e-01,-1.847606003284454346e-01,5.722137689590454102e-01,6.572442054748535156e-01,6.826376318931579590e-01,6.358126997947692871e-01,2.258849292993545532e-01,2.863190174102783203e-01,2.189670056104660034e-01,4.315405339002609253e-02,9.252506494522094727e-02,-1.030612111091613770e+00,-3.736573755741119385e-01,2.919573783874511719e-01
-5.978463292121887207e-01,2.016885578632354736e-02,5.618805885314941406e-01,4.115597307682037354e-01,6.664870977401733398e-01,5.409551858901977539e-01,3.466923162341117859e-02,3.298696875572204590e-01,5.157186836004257202e-02,8.917571604251861572e-02,1.691899299621582031e-01,-1.063663601875305176e+00,-3.106588721275329590e-01,2.162274569272994995e-01
-3.863490223884582520e-01,-3.931929767131805420e-01,5.313303470611572266e-01,3.729978203773498535e-01,5.474116206169128418e-01,5.469644665718078613e-01,8.062969893217086792e-02,4.500849246978759766e-01,2.939438223838806152e-01,3.768227100372314453e-01,1.321042031049728394e-01,-1.221580624580383301e+00,-3.243145644664764404e-01,-1.619725078344345093e-01
-4.522940814495086670e-01,-2.546035945415496826e-01,4.943116903305053711e-01,3.446244299411773682e-01,7.217558622360229492e-01,4.068469107151031494e-01,9.812304377555847168e-02,3.622709214687347412e-01,5.826773867011070251e-02,3.746623992919921875e-01,1.064898669719696045e-01,-1.233532428741455078e+00,-4.034040570259094238e-01,-7.889814674854278564e-02
-7.123838663101196289e-01,-1.711386591196060181e-01,6.506129503250122070e-01,2.379602342844009399e-01,7.365262508392333984e-01,4.228411316871643066e-01,-4.898326005786657333e-03,4.204766452312469482e-01,-5.936991889029741287e-03,2.414564490318298340e-01,2.377445697784423828e-01,-1.137926459312438965e+00,-3.153757452964782715e-01,-8.307196944952011108e-02
-5.867711901664733887e-01,-5.616843327879905701e-02,4.480940997600555420e-01,3.251934349536895752e-01,6.524872779846191406e-01,4.768998622894287109e-01,6.225817278027534485e-02,6.727336049079895020e-01,1.666987836360931396e-01,3.980127573013305664e-01,7.253680843859910965e-03,-1.078882694244384766e+00,-1.619836390018463135e-01,-5.722162500023841858e-02
-4.959020614624023438e-01,9.151430428028106689e-02,4.544641673564910889e-01,2.267053574323654175e-01,6.009773015975952148e-01,3.657099306583404541e-01,7.788386195898056030e-02,6.123896837234497070e-01,-9.516427293419837952e-03,4.798025488853454590e-01,-6.845144927501678467e-02,-1.245906114578247070e+00,-2.863979339599609375e-01,-4.213495925068855286e-02
-5.161064863204956055e-01,-5.128738656640052795e-02,3.831791281700134277e-01,1.196957081556320190e-01,5.455647110939025879e-01,1.528775244951248169e-01,1.691096574068069458e-01,6.522822976112365723e-01,2.020173668861389160e-01,7.523161768913269043e-01,-1.086210235953330994e-01,-9.880284667015075684e-01,-1.395106166601181030e-01,-7.486032694578170776e-02
-4.504785835742950439e-01,1.520515531301498413e-01,3.315443098545074463e-01,3.584418445825576782e-02,5.288131833076477051e-01,9.152033179998397827e-02,1.978341042995452881e-01,6.802896857261657715e-01,1.097219064831733704e-01,5.296047329902648926e-01,-5.742276087403297424e-02,-1.033954143524169922e+00,-2.398487776517868042e-01,-1.727594286203384399e-01
-7.130417823791503906e-01,-7.841707766056060791e-02,3.425852954387664795e-01,9.566150605678558350e-02,5.700620412826538086e-01,2.601772248744964600e-01,2.795261442661285400e-01,7.126941084861755371e-01,1.863523423671722412e-01,7.149775624275207520e-01,-2.169392555952072144e-01,-1.185558080673217773e+00,-8.365476876497268677e-02,-1.006193011999130249e-01
-5.417553186416625977e-01,2.374281734228134155e-01,2.543804347515106201e-01,-4.340646043419837952e-02,5.290096402168273926e-01,1.209289282560348511e-01,3.615842163562774658e-01,7.451383471488952637e-01,1.450182348489761353e-01,6.447947621345520020e-01,-4.103437066078186035e-02,-9.593976736068725586e-01,8.860817551612854004e-02,-2.561972439289093018e-01
-3.133251070976257324e-01,2.766581773757934570e-01,2.960861921310424805e-01,3.222578018903732300e-02,6.585718989372253418e-01,-3.860601037740707397e-02,4.390881359577178955e-01,6.627925634384155273e-01,1.809239387512207031e-01,7.366908788681030273e-01,-1.465767156332731247e-02,-9.611161947250366211e-01,8.172632008790969849e-02,-1.258863359689712524e-01
-4.855557382106781006e-01,4.352487623691558838e-01,1.464187949895858765e-01,4.152228590101003647e-03,7.968042492866516113e-01,1.653223484754562378e-02,3.004001379013061523e-01,8.490230441093444824e-01,4.191452264785766602e-01,7.397698163986206055e-01,-1.493202447891235352e-01,-8.663215041160583496e-01,1.007201001048088074e-01,-2.943128645420074463e-01
-2.309605479240417480e-01,3.212810158729553223e-01,-5.550367757678031921e-02,4.008402302861213684e-02,8.314132690429687500e-01,-1.393675655126571655e-01,4.046616554260253906e-01,9.740816950798034668e-01,3.979289829730987549e-01,7.874763607978820801e-01,-2.222906351089477539e-01,-9.883296489715576172e-01,-6.548849493265151978e-02,-3.402988016605377197e-01
-1.961010843515396118e-01,3.499927222728729248e-01,9.404051303863525391e-02,-1.280278712511062622e-01,6.974639296531677246e-01,-1.353498995304107666e-01,5.118920803070068359e-01,9.576035141944885254e-01,2.980905175209045410e-01,9.186080098152160645e-01,-1.807875186204910278e-01,-9.067384600639343262e-01,6.629142910242080688e-02,-2.718161046504974365e-01
-5.320649221539497375e-02,3.895949721336364746e-01,1.371733844280242920e-01,-9.602111577987670898e-02,6.386758685111999512e-01,-7.522701472043991089e-02,4.556014835834503174e-01,7.970101237297058105e-01,3.440565168857574463e-01,8.533916473388671875e-01,-3.646315336227416992e-01,-8.809579014778137207e-01,4.956320673227310181e-02,-2.229496985673904419e-01
-6.932976096868515015e-02,3.581588268280029297e-01,1.137512400746345520e-01,-1.509396433830261230e-01,6.686757206916809082e-01,-1.495196223258972168e-01,6.420675516128540039e-01,8.730936050415039062e-01,3.496116399765014648e-01,5.677206516265869141e-01,-4.738124310970306396e-01,-8.035097122192382812e-01,-1.977836340665817261e-01,-3.824536502361297607e-01
-3.399699628353118896e-01,5.624790191650390625e-01,1.250398606061935425e-01,-3.226661682128906250e-02,8.743577003479003906e-01,-3.377174735069274902e-01,4.376371502876281738e-01,8.836994767189025879e-01,1.180475428700447083e-01,6.170108318328857422e-01,-5.246880054473876953e-01,-6.146715283393859863e-01,1.773139089345932007e-02,-3.306891024112701416e-01
1.019118577241897583e-01,3.977511227130889893e-01,-1.146484259516000748e-02,-3.449293598532676697e-02,8.205279111862182617e-01,-3.572700619697570801e-01,5.883550643920898438e-01,8.931215405464172363e-01,2.946904897689819336e-01,5.722705721855163574e-01,-7.641059160232543945e-01,-6.433845758438110352e-01,-2.813621759414672852e-01,-1.767738312482833862e-01
-2.028582803905010223e-02,4.571017324924468994e-01,-1.619237214326858521e-01,-3.061763942241668701e-01,6.269228458404541016e-01,-1.637770980596542358e-01,4.919935166835784912e-01,8.091198801994323730e-01,2.406048178672790527e-01,5.760250091552734375e-01,-3.671901822090148926e-01,-6.267923116683959961e-01,2.218540012836456299e-01,-1.834938079118728638e-01
-1.042798757553100586e-01,6.691428422927856445e-01,-2.705510556697845459e-01,2.822423912584781647e-02,8.672399520874023438e-01,-1.290585249662399292e-01,4.945879876613616943e-01,7.228741645812988281e-01,3.401034474372863770e-01,5.635413527488708496e-01,-3.873815238475799561e-01,-5.636404752731323242e-01,-1.576528549194335938e-01,-7.800756394863128662e-02
2.011535763740539551e-01,7.255298495292663574e-01,-1.606069207191467285e-01,-1.067415028810501099e-01,8.825028538703918457e-01,-3.538191318511962891e-01,5.386793613433837891e-01,4.904080629348754883e-01,2.457866966724395752e-01,4.147224426269531250e-01,-4.937408566474914551e-01,-4.919754862785339355e-01,-6.207055225968360901e-02,-2.776496112346649170e-02
-1.333429217338562012e-01,9.099612832069396973e-01,-4.850675463676452637e-01,4.519138112664222717e-02,8.818359375000000000e-01,-2.189602851867675781e-01,6.419868469238281250e-01,6.336131691932678223e-01,1.432349085807800293e-01,6.770085692405700684e-01,-5.201504826545715332e-01,-3.894935846328735352e-01,-3.761065751314163208e-02,-1.361501663923263550e-01
-7.145654410123825073e-02,8.083852529525756836e-01,-4.540883600711822510e-01,-8.548419177532196045e-02,7.819975614547729492e-01,-2.435582131147384644e-01,4.952968657016754150e-01,5.175177454948425293e-01,1.546608060598373413e-01,4.703842699527740479e-01,-6.662663221359252930e-01,-4.051780104637145996e-01,-8.919931203126907349e-02,2.495255321264266968e-02
2.136342460289597511e-03,8.353874683380126953e-01,-4.500840604305267334e-01,-1.183887869119644165e-01,9.857138991355895996e-01,-4.748054146766662598e-01,4.942992031574249268e-01,5.732759833335876465e-01,2.131762206554412842e-01,4.357246160507202148e-01,-4.534402787685394287e-01,-1.741850823163986206e-01,2.140368819236755371e-01,1.975749731063842773e-01
1.676278859376907349e-01,8.781086206436157227e-01,-6.085418462753295898e-01,-1.510899662971496582e-01,9.047539830207824707e-01,-3.044481575489044189e-01,6.899189352989196777e-01,4.668612480163574219e-01,1.974306553602218628e-01,6.053226590156555176e-01,-6.320183277130126953e-01,-2.869899868965148926e-01,1.442314777523279190e-02,1.879399418830871582e-01
4.740772396326065063e-02,9.768503904342651367e-01,-3.443727791309356689e-01,-2.188904583454132080e-02,8.940697908401489258e-01,-2.566548883914947510e-01,5.774554610252380371e-01,4.682592749595642090e-01,7.497855275869369507e-02,4.566574096679687500e-01,-5.947324037551879883e-01,-1.668069064617156982e-01,-5.836765468120574951e-02,5.419277772307395935e-02
1.008685827255249023e-01,1.157701253890991211e+00,-6.259811520576477051e-01,-1.811359524726867676e-01,9.314140677452087402e-01,-1.244777366518974304e-01,6.590149998664855957e-01,2.918574810028076172e-01,2.474134974181652069e-02,3.786731660366058350e-01,-5.352617502212524414e-01,-1.672080010175704956e-01,1.798433959484100342e-01,1.957015097141265869e-01
1.788976341485977173e-01,8.554947376251220703e-01,-5.274176001548767090e-01,-1.492242068052291870e-01,8.769134879112243652e-01,-3.202384114265441895e-01,7.501176595687866211e-01,3.762094080448150635e-01,-7.143373042345046997e-02,2.789300978183746338e-01,-6.080490946769714355e-01,-2.083758860826492310e-01,1.285785064101219177e-02,2.314255386590957642e-01
2.714109718799591064e-01,9.558152556419372559e-01,-4.491096436977386475e-01,-2.240067422389984131e-01,7.086459994316101074e-01,-4.345571398735046387e-01,5.701898932456970215e-01,2.152310460805892944e-01,-1.042371168732643127e-01,2.046917527914047241e-01,-4.763594865798950195e-01,-1.832620203495025635e-01,3.065420687198638916e-01,4.257759153842926025e-01
9.164039790630340576e-02,9.662540555000305176e-01,-5.071852803230285645e-01,-3.116165101528167725e-01,6.723448038101196289e-01,-3.116031885147094727e-01,5.598202347755432129e-01,1.772914528846740723e-01,-4.506726264953613281e-01,3.837094604969024658e-01,-5.130133628845214844e-01,-4.580981284379959106e-02,5.818014219403266907e-02,4.829287827014923096e-01
1.961558461189270020e-01,1.190850257873535156e+00,-6.211010813713073730e-01,-8.753911405801773071e-02,4.505819976329803467e-01,-4.085870087146759033e-01,9.984815120697021484e-01,2.284916192293167114e-01,-1.295110732316970825e-01,3.671494126319885254e-01,-4.592954516410827637e-01,-8.598927408456802368e-02,1.926767230033874512e-01,4.487727880477905273e-01
2.234188467264175415e-01,9.704577326774597168e-01,-3.998419642448425293e-01,-3.780643641948699951e-01,4.471543729305267334e-01,-2.756737768650054932e-01,6.688460707664489746e-01,1.987619400024414062e-01,-2.782259881496429443e-01,2.904263436794281006e-01,-3.954870700836181641e-01,-6.586641073226928711e-02,-9.986881911754608154e-02,3.984980285167694092e-01
1.520551145076751709e-01,9.206517934799194336e-01,-3.572984039783477783e-01,-3.313561081886291504e-01,5.523902177810668945e-01,-4.873575568199157715e-01,6.204872131347656250e-01,1.946864277124404907e-01,-3.512606918811798096e-01,-8.836825937032699585e-02,-3.463639914989471436e-01,-8.013400365598499775e-04,2.850843667984008789e-01,4.890521168708801270e-01
1.814908087253570557e-01,6.780307888984680176e-01,-2.766232490539550781e-01,-4.619891643524169922e-01,1.189897730946540833e-01,-2.945564985275268555e-01,3.682206571102142334e-01,-1.342029720544815063e-01,-4.162569344043731689e-01,-1.030117794871330261e-01,-2.502498030662536621e-01,-8.672091364860534668e-02,3.452240824699401855e-01,4.775180220603942871e-01
2.184558510780334473e-01,8.493500947952270508e-01,-2.740916311740875244e-01,-4.939557313919067383e-01,7.603212445974349976e-02,-3.092024326324462891e-01,6.648455858230590820e-01,-1.879916787147521973e-01,-2.886826992034912109e-01,1.252609044313430786e-01,-5.443446710705757141e-02,-5.475221201777458191e-02,3.233029544353485107e-01,8.328704237937927246e-01
4.056185483932495117e-03,6.562912464141845703e-01,-2.284377366304397583e-01,-3.825332224369049072e-01,2.004784718155860901e-02,-3.564927279949188232e-01,5.669451355934143066e-01,-2.233261168003082275e-01,-4.770509600639343262e-01,-1.388886421918869019e-01,-2.753781378269195557e-01,1.157961860299110413e-01,1.962082087993621826e-01,4.604896306991577148e-01
-4.563688114285469055e-02,6.419407725334167480e-01,-1.601554453372955322e-01,-4.120481908321380615e-01,4.164794832468032837e-02,-2.531811296939849854e-01,4.532697498798370361e-01,-2.012805938720703125e-01,-3.552318513393402100e-01,2.869854681193828583e-02,-3.761716485023498535e-01,-1.316950321197509766e-01,3.369874954223632812e-01,5.061493515968322754e-01
9.704393148422241211e-02,6.156816482543945312e-01,-8.190907537937164307e-02,-4.673287868499755859e-01,1.148869395256042480e-01,-3.091178834438323975e-01,6.487038135528564453e-01,-2.473338246345520020e-01,-5.252996683120727539e-01,4.214380867779254913e-03,-3.227241039276123047e-01,-4.087797552347183228e-02,3.600458800792694092e-01,5.499222874641418457e-01
-1.483419835567474365e-01,7.958897352218627930e-01,1.309985965490341187e-01,-4.393287599086761475e-01,-1.583408713340759277e-01,-3.200205862522125244e-01,3.283064067363739014e-01,-3.627791106700897217e-01,-9.182655811309814453e-01,-2.349963486194610596e-01,-2.767024636268615723e-01,1.644295603036880493e-01,5.510584712028503418e-01,3.181103765964508057e-01
-5.548544600605964661e-02,6.245868206024169922e-01,-6.763688474893569946e-02,-4.760323166847229004e-01,-1.634151786565780640e-01,-4.594436883926391602e-01,5.226949453353881836e-01,-2.565586864948272705e-01,-5.629791021347045898e-01,3.803404048085212708e-02,-3.502216339111328125e-01,-1.319134887307882309e-02,4.368848502635955811e-01,1.690585762262344360e-01
-3.944426774978637695e-02,6.659950613975524902e-01,1.969108879566192627e-01,-2.615184783935546875e-01,-2.510372102260589600e-01,-1.215480640530586243e-01,3.387897908687591553e-01,-5.490388274192810059e-01,-6.136023402214050293e-01,-3.740940988063812256e-02,-3.907954692840576172e-01,-1.128500401973724365e-01,4.407555162906646729e-01,1.891318112611770630e-01
-1.860186606645584106e-01,4.722324609756469727e-01,1.081687062978744507e-01,-4.057126939296722412e-01,-2.692974805831909180e-01,-3.552527129650115967e-01,4.807415306568145752e-01,-3.938499093055725098e-01,-9.891886115074157715e-01,-2.659012973308563232e-01,-3.686770200729370117e-01,1.035603061318397522e-01,3.345156311988830566e-01,4.095764160156250000e-01
-1.415754556655883789e-01,4.934418201446533203e-01,3.854530304670333862e-02,-2.558825910091400146e-01,-3.029114603996276855e-01,-1.686022132635116577e-01,6.210729479789733887e-01,-3.536848425865173340e-01,-7.327404618263244629e-01,-1.325172632932662964e-01,-4.352955818176269531e-01,2.439602091908454895e-02,4.489724040031433105e-01,4.627551138401031494e-01
-3.746287897229194641e-02,5.175681710243225098e-01,2.009460031986236572e-01,-2.754258215427398682e-01,-4.740290045738220215e-01,-8.984246104955673218e-02,1.950588822364807129e-01,-3.882173597812652588e-01,-1.210806846618652344e+00,-2.669306099414825439e-01,-4.130342900753021240e-01,1.849320679903030396e-01,4.513193070888519287e-01,2.985280752182006836e-01
-1.383712887763977051e-01,4.370544552803039551e-01,2.036575675010681152e-01,-2.787994742393493652e-01,-2.715198695659637451e-01,-2.401256710290908813e-01,4.605787992477416992e-01,-5.359867215156555176e-01,-8.131020069122314453e-01,-4.733051359653472900e-02,-3.816778957843780518e-01,8.617398142814636230e-02,3.332982957363128662e-01,2.290225178003311157e-01
-2.083466649055480957e-01,3.603933453559875488e-01,2.256795465946197510e-01,-2.833479642868041992e-01,-4.573504030704498291e-01,-9.886001795530319214e-02,6.609982848167419434e-01,-3.430940508842468262e-01,-9.163420200347900391e-01,-6.431120634078979492e-02,-3.765309751033782959e-01,2.967982292175292969e-01,3.991903662681579590e-01,3.026011884212493896e-01
-2.713698744773864746e-01,3.234832584857940674e-01,4.148470163345336914e-01,-1.726804375648498535e-01,-3.669468164443969727e-01,-3.446239829063415527e-01,7.052947878837585449e-01,-3.192347586154937744e-01,-8.857065439224243164e-01,-3.445064723491668701e-01,-2.629754543304443359e-01,2.381885498762130737e-01,3.748255372047424316e-01,3.165845572948455811e-01
-1.186079233884811401e-01,5.484181046485900879e-01,3.262920081615447998e-01,-4.092062711715698242e-01,-5.230872631072998047e-01,-1.690440438687801361e-02,6.076801419258117676e-01,-1.798158586025238037e-01,-8.138164877891540527e-01,-2.740352749824523926e-01,-1.981033235788345337e-01,3.294422626495361328e-01,4.314090907573699951e-01,3.304257690906524658e-01
-1.645057797431945801e-01,4.011979401111602783e-01,3.029392063617706299e-01,-1.331241130828857422e-01,-6.140093207359313965e-01,-2.654937207698822021e-01,6.089243292808532715e-01,-3.907116353511810303e-01,-7.787141203880310059e-01,-4.495269358158111572e-01,-2.253968268632888794e-01,2.489203661680221558e-01,4.087082147598266602e-01,3.187386393547058105e-01
-4.673967882990837097e-02,3.035688698291778564e-01,4.547229111194610596e-01,-2.176001667976379395e-01,-5.665228962898254395e-01,-1.475868523120880127e-01,5.194519162178039551e-01,-2.835069894790649414e-01,-8.317016363143920898e-01,-5.470401048660278320e-01,-4.480086863040924072e-01,2.737606167793273926e-01,3.951606154441833496e-01,6.420029699802398682e-02
1.154498234391212463e-01,2.411531955003738403e-01,3.005028963088989258e-01,-6.254998967051506042e-03,-8.394041061401367188e-01,1.021720468997955322e-01,7.116180658340454102e-01,-1.220444291830062866e-01,-5.857725143432617188e-01,-5.339376330375671387e-01,-4.064135551452636719e-01,2.106790244579315186e-01,4.112520217895507812e-01,2.678934633731842041e-01
-1.406214535236358643e-01,4.828175306320190430e-01,5.905089974403381348e-01,1.235972046852111816e-01,-5.188298225402832031e-01,5.899816006422042847e-02,3.799093067646026611e-01,-2.211379259824752808e-01,-5.830245614051818848e-01,-5.372641682624816895e-01,-3.139388263225555420e-01,3.117880821228027344e-01,5.298368930816650391e-01,1.084964126348495483e-01
-6.185573339462280273e-02,4.690393507480621338e-01,2.430488169193267822e-01,1.216427907347679138e-01,-6.676428914070129395e-01,1.770280301570892334e-01,3.251626193523406982e-01,-6.589651107788085938e-03,-5.063693523406982422e-01,-3.392839431762695312e-01,-1.442583650350570679e-01,3.537016808986663818e-01,4.153809249401092529e-01,1.461396217346191406e-01
5.529462359845638275e-03,1.920052617788314819e-01,4.044210016727447510e-01,5.777621641755104065e-02,-5.927668213844299316e-01,1.597043573856353760e-01,3.646214306354522705e-01,-1.616477519273757935e-01,-5.916970372200012207e-01,-6.158950924873352051e-01,-2.312684059143066406e-01,3.995742201805114746e-01,2.635674476623535156e-01,1.839493811130523682e-01
-2.917750924825668335e-02,3.138844370841979980e-01,3.773351907730102539e-01,3.029150366783142090e-01,-3.467619121074676514e-01,1.494304537773132324e-01,4.282209873199462891e-01,-1.837839335203170776e-01,-4.451225697994232178e-01,-7.486383318901062012e-01,8.599299937486648560e-02,1.212389916181564331e-01,2.256522178649902344e-01,1.478223055601119995e-01
2.480996539816260338e-03,9.880619496107101440e-02,4.721260666847229004e-01,2.409416735172271729e-01,-6.281934380531311035e-01,3.337742388248443604e-01,2.152073979377746582e-01,-1.301460266113281250e-01,-5.624675154685974121e-01,-6.607385873794555664e-01,-1.188338920474052429e-02,3.928719162940979004e-01,2.986271679401397705e-01,1.820882111787796021e-01
-1.661585867404937744e-01,1.924333870410919189e-01,4.621847867965698242e-01,3.115009367465972900e-01,-6.037836074829101562e-01,4.919615983963012695e-01,2.137217074632644653e-01,-1.701830625534057617e-01,-3.724143505096435547e-01,-8.044059276580810547e-01,1.122753024101257324e-01,1.438311487436294556e-01,6.594301760196685791e-02,5.236985906958580017e-02
-2.048952430486679077e-01,1.420191079378128052e-01,5.731530785560607910e-01,8.175150305032730103e-02,-4.686453342437744141e-01,6.100946664810180664e-01,1.394885033369064331e-01,-1.105068773031234741e-01,-4.548189938068389893e-01,-8.841276168823242188e-01,1.776635348796844482e-01,4.019561409950256348e-02,1.456811279058456421e-01,7.680683583021163940e-02
-2.164838165044784546e-01,1.025977283716201782e-01,3.838235139846801758e-01,2.710260152816772461e-01,-5.534256696701049805e-01,5.377363562583923340e-01,6.802566349506378174e-02,5.404097028076648712e-04,-2.869667708873748779e-01,-7.404266595840454102e-01,1.896852850914001465e-01,2.371380478143692017e-02,-1.047669425606727600e-01,6.458342820405960083e-02
-2.620598971843719482e-01,-3.692542016506195068e-02,4.776841998100280762e-01,4.593168497085571289e-01,-3.204233944416046143e-01,6.008699536323547363e-01,-1.097337976098060608e-01,-2.655739188194274902e-01,-2.124329507350921631e-01,-8.359372615814208984e-01,2.763674259185791016e-01,-6.165551394224166870e-02,-2.227019518613815308e-02,-1.976588666439056396e-01
-3.887414932250976562e-02,-6.213619187474250793e-02,4.003665745258331299e-01,4.479048252105712891e-01,-3.619787991046905518e-01,6.765092611312866211e-01,-4.989683255553245544e-02,-1.637008190155029297e-01,-4.674679934978485107e-01,-9.033476710319519043e-01,1.787095516920089722e-01,-1.823895275592803955e-01,-1.459645330905914307e-01,-3.210750594735145569e-02
-2.460911870002746582e-01,-2.079220302402973175e-02,5.451651811599731445e-01,5.737754702568054199e-01,-2.058557868003845215e-01,8.766952753067016602e-01,-1.104198247194290161e-01,-3.028175532817840576e-01,-2.369833737611770630e-01,-9.848538041114807129e-01,3.351652622222900391e-01,-1.167167350649833679e-01,-2.319672852754592896e-01,7.772098481655120850e-02
-5.297967791557312012e-01,-1.922706067562103271e-01,1.887239664793014526e-01,6.638512611389160156e-01,-1.090441718697547913e-01,7.721658349037170410e-01,-4.174314439296722412e-01,-5.536169931292533875e-02,-1.371809989213943481e-01,-8.243302702903747559e-01,-5.353427492082118988e-03,-1.282190997153520584e-02,-1.600123494863510132e-01,2.113513797521591187e-01
-2.427706569433212280e-01,-1.644178777933120728e-01,2.114813625812530518e-01,4.189022779464721680e-01,-1.220254674553871155e-01,6.165533065795898438e-01,-3.168228864669799805e-01,-1.040256246924400330e-01,-8.311092853546142578e-02,-9.370127916336059570e-01,3.587230145931243896e-01,-1.894851773977279663e-01,-3.405076265335083008e-01,1.555163115262985229e-01
-3.895896077156066895e-01,-3.591724634170532227e-01,3.250470161437988281e-01,3.764208853244781494e-01,-1.343141943216323853e-01,6.769770383834838867e-01,-2.604779601097106934e-01,-1.070895493030548096e-01,-9.154540300369262695e-02,-7.898477911949157715e-01,1.606004089117050171e-01,-2.519524097442626953e-01,-1.705261170864105225e-01,6.429083645343780518e-02
-3.459445238113403320e-01,-2.554603815078735352e-01,2.791123688220977783e-01,4.827947914600372314e-01,-1.996954083442687988e-01,7.595308423042297363e-01,-4.448297023773193359e-01,-3.164215087890625000e-01,-4.935819655656814575e-02,-7.164790630340576172e-01,4.122385084629058838e-01,-4.244393706321716309e-01,-1.973412036895751953e-01,7.526441663503646851e-02
-3.204929232597351074e-01,-2.542411684989929199e-01,3.422920107841491699e-01,4.865497052669525146e-01,-2.583252191543579102e-01,9.121002554893493652e-01,-4.997269511222839355e-01,-2.602969482541084290e-02,-7.340570539236068726e-02,-5.651479959487915039e-01,3.810720443725585938e-01,-2.585640549659729004e-01,-3.974628448486328125e-01,-4.387257795315235853e-04
-4.762302339076995850e-01,-3.199274837970733643e-01,4.527748525142669678e-01,4.819532632827758789e-01,-2.884379327297210693e-01,8.354125618934631348e-01,-5.091795921325683594e-01,-1.468670368194580078e-01,-1.277873665094375610e-01,-7.040830254554748535e-01,4.552097618579864502e-01,-4.815252125263214111e-01,-3.720156848430633545e-01,4.809684306383132935e-02
-4.278334975242614746e-01,-5.487245321273803711e-01,3.356447815895080566e-01,2.260511219501495361e-01,-1.833868324756622314e-01,7.650868296623229980e-01,-4.056636095046997070e-01,7.924690842628479004e-03,1.305044349282979965e-02,-7.028015851974487305e-01,3.776874542236328125e-01,-3.633468747138977051e-01,-2.691969871520996094e-01,7.536812871694564819e-02
-4.110853075981140137e-01,-3.502900302410125732e-01,5.261561870574951172e-01,2.197298109531402588e-01,-3.152130246162414551e-01,7.425470352172851562e-01,-4.621683359146118164e-01,9.139652550220489502e-02,-1.854429841041564941e-01,-5.297709703445434570e-01,4.833642542362213135e-01,-6.021534204483032227e-01,-2.835360169410705566e-01,1.399365216493606567e-01
-3.555839359760284424e-01,-5.075023770332336426e-01,7.131543755531311035e-01,2.458400279283523560e-01,-3.223472237586975098e-01,6.948691010475158691e-01,-3.688701391220092773e-01,1.132052466273307800e-01,-5.478352680802345276e-02,-6.149643659591674805e-01,5.757571458816528320e-01,-5.504136085510253906e-01,-5.752138420939445496e-02,-7.971173524856567383e-02
-3.223527669906616211e-01,-4.372197687625885010e-01,4.188241958618164062e-01,2.339964210987091064e-01,-2.989165484905242920e-01,9.068090319633483887e-01,-5.512932538986206055e-01,4.873559344559907913e-03,-1.298373043537139893e-01,-4.171965718269348145e-01,4.611440896987915039e-01,-6.794204115867614746e-01,-1.518037468194961548e-01,1.084391176700592041e-01
-5.177275538444519043e-01,-4.428371191024780273e-01,4.609332680702209473e-01,1.493170708417892456e-01,-3.745815157890319824e-01,5.945968031883239746e-01,-5.188367962837219238e-01,3.558914363384246826e-01,1.613466292619705200e-01,-5.646358132362365723e-01,3.659933805465698242e-01,-6.752867102622985840e-01,1.422410644590854645e-02,9.875553101301193237e-02
-3.114888966083526611e-01,-4.215517044067382812e-01,5.152652263641357422e-01,2.229659557342529297e-01,-2.574448883533477783e-01,6.983699798583984375e-01,-4.318004250526428223e-01,6.901098415255546570e-03,-4.563826136291027069e-03,-1.958855092525482178e-01,3.520530462265014648e-01,-7.302227616310119629e-01,-1.815259158611297607e-01,2.538409456610679626e-02
-3.881357014179229736e-01,-5.923117399215698242e-01,4.237003624439239502e-01,5.202608183026313782e-02,-3.713070154190063477e-01,5.600304007530212402e-01,-3.597522675991058350e-01,5.005168914794921875e-01,-1.057402603328227997e-02,-3.135065436363220215e-01,2.556549310684204102e-01,-8.068881034851074219e-01,3.163503110408782959e-02,-6.223595235496759415e-03
-2.892606556415557861e-01,-5.305406451225280762e-01,5.336720943450927734e-01,-1.585800200700759888e-01,-2.450159937143325806e-01,6.580351591110229492e-01,-4.384361505508422852e-01,2.936224043369293213e-01,2.133828103542327881e-01,-4.055254161357879639e-01,3.035717010498046875e-01,-5.902866125106811523e-01,4.687377437949180603e-02,-1.583050787448883057e-01
-3.476289510726928711e-01,-6.883037090301513672e-01,4.255188107490539551e-01,-2.692147158086299896e-03,-2.283449769020080566e-01,5.489261746406555176e-01,-5.840992927551269531e-01,1.804749071598052979e-01,9.624764323234558105e-02,-1.192222163081169128e-01,2.886626124382019043e-01,-7.499116063117980957e-01,-5.402964353561401367e-02,-1.009212359786033630e-01
-4.602782428264617920e-01,-5.900046825408935547e-01,3.735649287700653076e-01,-1.601708680391311646e-02,-2.529940307140350342e-01,4.709202647209167480e-01,-3.861433267593383789e-01,5.258208513259887695e-01,3.093682825565338135e-01,-3.516775369644165039e-01,1.319889128208160400e-01,-7.420859932899475098e-01,-2.862170636653900146e-01,-1.862911134958267212e-01
-2.342645078897476196e-01,-7.007638216018676758e-01,3.246304988861083984e-01,2.018011733889579773e-02,-2.423744648694992065e-01,4.069548249244689941e-01,-6.133683323860168457e-01,3.113209903240203857e-01,2.577552497386932373e-01,-9.498303383588790894e-02,1.211588755249977112e-01,-8.386823534965515137e-01,1.097611561417579651e-01,-1.685819029808044434e-01
-1.494103968143463135e-01,-5.700955390930175781e-01,4.459035098552703857e-01,1.003355011343955994e-01,1.474097487516701221e-03,5.590071082115173340e-01,-5.668645501136779785e-01,3.770257234573364258e-01,4.164195060729980469e-01,5.891039222478866577e-02,2.247822731733322144e-01,-6.116032600402832031e-01,1.062401980161666870e-01,-1.450817883014678955e-01
-2.363801896572113037e-01,-4.067336916923522949e-01,5.213495492935180664e-01,1.453743129968643188e-01,-4.993478208780288696e-02,3.536383211612701416e-01,-5.331118106842041016e-01,5.183155536651611328e-01,2.507990002632141113e-01,-5.432008765637874603e-03,1.681575435213744640e-03,-7.600699067115783691e-01,-7.943292148411273956e-03,-2.464870363473892212e-01
-2.003420293331146240e-01,-4.541832208633422852e-01,2.031555473804473877e-01,1.399633586406707764e-01,-1.539142280817031860e-01,3.887775242328643799e-01,-4.000322222709655762e-01,6.301173567771911621e-01,4.433736503124237061e-01,1.155635938048362732e-01,-2.382529377937316895e-01,-4.285335838794708252e-01,1.592254787683486938e-01,-3.243410289287567139e-01
-2.138324677944183350e-01,-1.747591644525527954e-01,3.273911476135253906e-01,-1.828237473964691162e-01,1.155674234032630920e-01,3.213775157928466797e-01,-2.426141202449798584e-01,4.035809934139251709e-01,5.743569731712341309e-01,4.427825286984443665e-02,-1.674800664186477661e-01,-5.507748723030090332e-01,1.465335190296173096e-01,-2.348457872867584229e-01
-2.206605821847915649e-01,-2.202349156141281128e-01,8.105739951133728027e-02,-3.205819055438041687e-02,-4.265021532773971558e-03,1.925402879714965820e-01,-3.139605522155761719e-01,6.918534040451049805e-01,5.547051429748535156e-01,1.218057796359062195e-01,-2.399981766939163208e-01,-6.361278891563415527e-01,4.087216556072235107e-01,-1.319478899240493774e-01
5.521245766431093216e-03,-1.077241674065589905e-01,2.678435444831848145e-01,-6.367552094161510468e-03,1.089607775211334229e-01,3.549855351448059082e-01,-2.964325845241546631e-01,4.899264574050903320e-01,5.529009103775024414e-01,1.127998307347297668e-01,-3.341353237628936768e-01,-5.950945019721984863e-01,1.814317107200622559e-01,-9.471224993467330933e-02
-3.481829771772027016e-03,6.599491927772760391e-03,-4.146197065711021423e-02,9.279281646013259888e-02,8.794637769460678101e-02,2.438440471887588501e-01,-1.740307919681072235e-02,5.699263215065002441e-01,6.231932044029235840e-01,2.382046729326248169e-01,-4.056255817413330078e-01,-3.749141693115234375e-01,3.605541586875915527e-01,7.676243036985397339e-02
1.355071961879730225e-01,-1.062520197592675686e-03,-4.301596432924270630e-03,-1.012115776538848877e-01,-1.079525612294673920e-02,2.624532282352447510e-01,-2.511501545086503029e-03,6.208498477935791016e-01,5.467095375061035156e-01,2.340208142995834351e-01,-3.055329620838165283e-01,-5.737542510032653809e-01,4.221474528312683105e-01,2.245753444731235504e-02
3.950703144073486328e-01,-4.289980605244636536e-02,-2.606346011161804199e-01,-5.909772589802742004e-03,-1.163200214505195618e-01,3.274061977863311768e-01,1.252737492322921753e-01,7.927012443542480469e-01,6.021547913551330566e-01,4.747655689716339111e-01,-3.695096373558044434e-01,-4.655750095844268799e-01,5.001580119132995605e-01,2.591977715492248535e-01
3.164916336536407471e-01,-3.737464547157287598e-02,4.207707941532135010e-02,-2.063084244728088379e-01,2.715944647789001465e-01,9.936380386352539062e-02,1.105456724762916565e-01,6.702187061309814453e-01,7.021997570991516113e-01,3.335634469985961914e-01,-5.697678327560424805e-01,-2.640786767005920410e-01,4.631113708019256592e-01,-7.715723942965269089e-03
3.659623563289642334e-01,2.158025205135345459e-01,-2.407978922128677368e-01,-1.651420742273330688e-01,1.580069065093994141e-01,2.042449414730072021e-01,2.667795419692993164e-01,5.907182693481445312e-01,7.236219048500061035e-01,3.685864210128784180e-01,-3.555844426155090332e-01,-3.324783146381378174e-01,4.950509369373321533e-01,1.795673817396163940e-01
4.076740443706512451e-01,2.811076045036315918e-01,-3.001032173633575439e-01,2.871029265224933624e-02,8.753572404384613037e-02,5.487579852342605591e-02,2.184804230928421021e-01,5.927313566207885742e-01,7.928648591041564941e-01,3.229981660842895508e-01,-4.762890636920928955e-01,-2.110002487897872925e-01,5.218329429626464844e-01,1.563075631856918335e-01
5.622087717056274414e-01,6.526066362857818604e-02,-3.422745466232299805e-01,-6.536584347486495972e-02,1.895960569381713867e-01,4.066081941127777100e-01,2.351775914430618286e-01,6.157144308090209961e-01,6.228750348091125488e-01,3.503875732421875000e-01,-6.426616311073303223e-01,-2.255590409040451050e-01,6.332647800445556641e-01,3.461264073848724365e-01
4.902432262897491455e-01,1.523738354444503784e-01,-4.064292311668395996e-01,-8.054757863283157349e-02,9.035720676183700562e-02,1.702022701501846313e-01,2.534721493721008301e-01,5.092850327491760254e-01,6.527659296989440918e-01,3.916171789169311523e-01,-6.793853640556335449e-01,-9.795951098203659058e-02,6.985464096069335938e-01,1.207886040210723877e-01
3.198202252388000488e-01,2.778363227844238281e-01,-1.622482091188430786e-01,-1.338933221995830536e-02,2.086037695407867432e-01,2.641171216964721680e-01,4.481752216815948486e-01,5.831981301307678223e-01,8.187519311904907227e-01,1.493647545576095581e-01,-4.047862589359283447e-01,-2.341666221618652344e-01,6.866804957389831543e-01,3.801440596580505371e-01
3.421817421913146973e-01,3.058759868144989014e-01,-2.507654130458831787e-01,4.044844582676887512e-02,3.413181751966476440e-02,2.329091876745223999e-01,3.517633676528930664e-01,5.242841839790344238e-01,8.500381708145141602e-01,1.501368880271911621e-01,-2.489213049411773682e-01,-1.644239127635955811e-01,5.019494891166687012e-01,3.076334893703460693e-01
5.321798920631408691e-01,-3.757204487919807434e-02,-2.132808119058609009e-01,7.983792573213577271e-02,3.360080718994140625e-01,2.894081771373748779e-01,3.100202381610870361e-01,4.467081129550933838e-01,7.813042998313903809e-01,2.643444575369358063e-02,-5.742470622062683105e-01,4.228963330388069153e-02,7.044576406478881836e-01,3.810053169727325439e-01
5.846283435821533203e-01,3.386656641960144043e-01,-3.223518431186676025e-01,9.076611697673797607e-02,1.386263966560363770e-01,2.675983607769012451e-01,2.473613768815994263e-01,4.783317744731903076e-01,6.487154960632324219e-01,6.489563733339309692e-02,-4.586421549320220947e-01,-2.098027467727661133e-01,6.317253708839416504e-01,3.812371492385864258e-01
4.443919658660888672e-01,2.178830504417419434e-01,-9.029643982648849487e-02,-7.323699072003364563e-03,3.037694096565246582e-01,5.219067335128784180e-01,3.183928132057189941e-01,3.423636853694915771e-01,7.421221137046813965e-01,3.081918656826019287e-01,-7.491780519485473633e-01,-3.733552992343902588e-01,6.704013943672180176e-01,3.532421588897705078e-01
3.382776379585266113e-01,2.371774911880493164e-01,-2.888338565826416016e-01,2.013208530843257904e-02,3.941787183284759521e-01,1.845512986183166504e-01,3.036539554595947266e-01,4.175494313240051270e-01,4.496940076351165771e-01,1.457302737981081009e-02,-6.231048107147216797e-01,-2.232962548732757568e-01,7.160484194755554199e-01,4.190756976604461670e-01
5.863612890243530273e-01,1.958200335502624512e-01,-9.896250814199447632e-02,2.154114842414855957e-01,1.997549831867218018e-01,3.953680098056793213e-01,1.783379316329956055e-01,3.416831195354461670e-01,5.007709264755249023e-01,1.352222859859466553e-01,-7.286486029624938965e-01,-1.571249514818191528e-01,5.633975863456726074e-01,7.139568924903869629e-01
2.689533531665802002e-01,2.546338438987731934e-01,-2.153450548648834229e-01,1.730444133281707764e-01,3.125607669353485107e-01,2.311541587114334106e-01,3.430958390235900879e-01,9.122844785451889038e-02,5.121139287948608398e-01,1.141412183642387390e-01,-6.375186443328857422e-01,-2.422648817300796509e-01,4.466037750244140625e-01,5.838596224784851074e-01
2.534048557281494141e-01,2.432169318199157715e-01,-1.589137315750122070e-01,1.278708726167678833e-01,2.054895758628845215e-01,2.483676373958587646e-01,4.778980612754821777e-01,1.409008651971817017e-01,2.927573919296264648e-01,1.453499794006347656e-01,-9.449898600578308105e-01,-9.122051298618316650e-02,6.941464543342590332e-01,4.344229996204376221e-01
7.981699705123901367e-02,3.729468286037445068e-01,-1.137366294860839844e-01,1.768371611833572388e-01,2.184399366378784180e-01,1.471278816461563110e-01,4.686431884765625000e-01,1.685417443513870239e-01,4.216721355915069580e-01,5.674545839428901672e-02,-8.932359814643859863e-01,-1.865828484296798706e-01,7.332496643066406250e-01,6.902226805686950684e-01
1.112442165613174438e-01,1.042500361800193787e-01,-3.249579966068267822e-01,2.356566488742828369e-02,8.161596953868865967e-02,4.617487788200378418e-01,4.399075210094451904e-01,1.763763129711151123e-01,2.574382424354553223e-01,6.148584559559822083e-02,-8.005384802818298340e-01,1.083417050540447235e-02,8.310850858688354492e-01,4.588720500469207764e-01
1.094908937811851501e-01,3.021550774574279785e-01,-2.415747493505477905e-01,2.249339222908020020e-01,-1.330036669969558716e-01,2.743628323078155518e-01,4.837575852870941162e-01,1.194624323397874832e-02,2.294478863477706909e-01,8.966726809740066528e-02,-7.934855818748474121e-01,-2.119846493005752563e-01,7.039840221405029297e-01,4.752174317836761475e-01
2.230833768844604492e-01,2.314610779285430908e-01,-2.717149853706359863e-01,-1.406518928706645966e-02,-1.202950254082679749e-01,2.439771592617034912e-01,5.384649634361267090e-01,-5.156406760215759277e-02,2.511745691299438477e-01,8.587903529405593872e-02,-7.645062804222106934e-01,-1.987337172031402588e-01,8.625816702842712402e-01,6.713172793388366699e-01
4.635799229145050049e-01,2.505338191986083984e-01,-8.735666424036026001e-02,2.506798207759857178e-01,-1.606840193271636963e-01,3.375169932842254639e-01,7.123266458511352539e-01,-7.717721909284591675e-02,7.373201102018356323e-02,1.982536762952804565e-01,-7.127669453620910645e-01,-1.306236386299133301e-01,8.502117991447448730e-01,4.945094287395477295e-01
1.913560479879379272e-01,1.607407331466674805e-01,-2.534214965999126434e-02,2.682093977928161621e-01,-1.702872663736343384e-01,1.343557536602020264e-01,6.182760596275329590e-01,-1.075136438012123108e-01,2.887209057807922363e-01,2.290731482207775116e-02,-7.929211854934692383e-01,-5.499318987131118774e-02,9.560234546661376953e-01,7.456886768341064453e-01
1.964727491140365601e-01,4.639857709407806396e-01,-7.937469333410263062e-02,9.819351881742477417e-02,-2.449918389320373535e-01,9.013438969850540161e-02,3.817478120326995850e-01,-5.980065092444419861e-02,1.110732480883598328e-01,1.566745936870574951e-01,-7.918634414672851562e-01,-1.356247365474700928e-01,9.770039916038513184e-01,7.700583934783935547e-01
