AF3,F7,F3,FC5,T7,P7,O1,O2,P8,T8,FC6,F4,F8,AF4
-1.993851065635681152e-01,-4.725067615509033203e-01,1.132302060723304749e-01,6.419107913970947266e-01,6.178963780403137207e-01,3.587191402912139893e-01,-1.507458388805389404e-01,1.987583339214324951e-01,-4.021539911627769470e-02,7.916708476841449738e-03,2.733381390571594238e-01,-8.549321293830871582e-01,-2.637593746185302734e-01,-2.263817936182022095e-01
-2.723375558853149414e-01,-3.375326097011566162e-01,2.135249823331832886e-01,5.765960812568664551e-01,7.799971103668212891e-01,2.550272047519683838e-01,-1.411742120981216431e-01,3.103556931018829346e-01,-4.591147974133491516e-02,-7.726322859525680542e-02,3.693297505378723145e-01,-6.983355283737182617e-01,-1.107657700777053833e-01,-1.883836090564727783e-01
-1.832451075315475464e-01,-3.946824967861175537e-01,3.433836698532104492e-01,4.702882766723632812e-01,7.236769795417785645e-01,3.666229248046875000e-01,-2.900525033473968506e-01,4.084377884864807129e-01,-1.568749397993087769e-01,-1.139514222741127014e-01,4.067687094211578369e-01,-8.062078952789306641e-01,-7.129023224115371704e-02,-4.468363821506500244e-01
-7.378684729337692261e-02,-3.029706478118896484e-01,1.658672988414764404e-01,7.246238589286804199e-01,8.217439055442810059e-01,3.242261409759521484e-01,6.594810634851455688e-02,2.381262928247451782e-01,-2.237654775381088257e-01,-1.079579740762710571e-01,1.981185674667358398e-01,-6.983919739723205566e-01,-6.241212040185928345e-02,-2.490800619125366211e-01
-6.509580463171005249e-02,-5.255367755889892578e-01,2.952221408486366272e-02,6.554932594299316406e-01,8.362401127815246582e-01,1.103448346257209778e-01,1.416824478656053543e-02,9.882096946239471436e-02,-2.174652218818664551e-01,-1.084041371941566467e-01,2.715718448162078857e-01,-5.764885544776916504e-01,-4.707077145576477051e-02,-4.665071666240692139e-01
-1.273295879364013672e-01,-3.712017238140106201e-01,1.392599791288375854e-01,5.706040859222412109e-01,7.667737007141113281e-01,3.527036607265472412e-01,5.676791816949844360e-02,1.386753767728805542e-01,-4.002945721149444580e-01,-8.905192464590072632e-02,2.425297200679779053e-01,-4.676600098609924316e-01,-7.060253992676734924e-03,-3.706093728542327881e-01
-1.359476298093795776e-01,-4.060501754283905029e-01,3.317547142505645752e-01,7.130920290946960449e-01,9.856413006782531738e-01,2.289942353963851929e-01,-1.239670142531394958e-01,4.373669624328613281e-02,-3.063281178474426270e-01,-1.290474832057952881e-01,4.135831594467163086e-01,-4.694156050682067871e-01,9.809023886919021606e-02,-3.639901578426361084e-01
-1.812375783920288086e-01,-6.606228649616241455e-02,4.913118183612823486e-01,7.762257456779479980e-01,9.556522369384765625e-01,2.158372849225997925e-01,1.100289970636367798e-01,-7.358251512050628662e-02,-6.126574873924255371e-01,-3.736641108989715576e-01,3.031915724277496338e-01,-3.654800355434417725e-01,2.687987871468067169e-02,-5.016718506813049316e-01
-6.475386023521423340e-02,-2.466106265783309937e-01,4.080925285816192627e-01,6.364400386810302734e-01,7.797826528549194336e-01,2.982032895088195801e-01,-2.258472517132759094e-02,9.609397500753402710e-02,-6.417471170425415039e-01,-2.322392016649246216e-01,5.414198637008666992e-01,-4.282631874084472656e-01,1.180777549743652344e-01,-4.280955791473388672e-01
-1.132590621709823608e-01,-3.684053719043731689e-01,4.118126332759857178e-01,5.656324625015258789e-01,9.541389346122741699e-01,2.412070780992507935e-01,2.591888308525085449e-01,-1.129706352949142456e-01,-6.964225172996520996e-01,-1.812851876020431519e-01,2.837229967117309570e-01,-2.442104369401931763e-01,2.438820451498031616e-01,-2.272584438323974609e-01
-1.429121643304824829e-01,-3.548959195613861084e-01,4.846754670143127441e-01,5.179447531700134277e-01,8.183938264846801758e-01,1.791580319404602051e-01,2.789249718189239502e-01,-2.614969313144683838e-01,-5.886580944061279297e-01,-2.767632603645324707e-01,2.895089089870452881e-01,-1.850153058767318726e-01,3.006070256233215332e-01,-4.287508428096771240e-01
-3.796401619911193848e-01,-4.615832269191741943e-01,6.236203312873840332e-01,5.883827805519104004e-01,7.595391869544982910e-01,2.398311644792556763e-01,1.732547581195831299e-01,-1.111256107687950134e-01,-5.381189584732055664e-01,-3.830910027027130127e-01,2.890402972698211670e-01,-1.735191643238067627e-01,4.199382662773132324e-01,-3.032710552215576172e-01
-1.020849794149398804e-01,-3.413888216018676758e-01,5.023431777954101562e-01,6.166030168533325195e-01,7.058895230293273926e-01,1.887225657701492310e-01,2.158629596233367920e-01,-1.039782017469406128e-01,-4.840762615203857422e-01,-3.348574638366699219e-01,2.462127357721328735e-01,-2.451886236667633057e-01,5.846277475357055664e-01,-2.468003034591674805e-01
-6.553184241056442261e-02,-2.892403304576873779e-01,6.851409077644348145e-01,7.480406165122985840e-01,5.256512165069580078e-01,4.494417607784271240e-01,2.784014344215393066e-01,-3.499192297458648682e-01,-4.858128428459167480e-01,-2.753466665744781494e-01,-3.649760037660598755e-02,-9.454740583896636963e-02,3.305231332778930664e-01,-2.307334989309310913e-01
-1.753362119197845459e-01,-3.577211201190948486e-01,9.001851677894592285e-01,7.673086524009704590e-01,7.100133299827575684e-01,3.904137611389160156e-01,1.616972237825393677e-01,-2.405768483877182007e-01,-4.271537661552429199e-01,-3.906673491001129150e-01,-7.532822340726852417e-02,-6.435908377170562744e-02,2.830449342727661133e-01,-4.296371042728424072e-01
5.113352462649345398e-02,-3.697059154510498047e-01,6.689238548278808594e-01,5.516148805618286133e-01,5.484665036201477051e-01,4.144534170627593994e-01,2.931099832057952881e-01,-2.056662887334823608e-01,-3.694800138473510742e-01,-5.132442712783813477e-01,-9.107166528701782227e-02,-9.415587782859802246e-02,3.860892057418823242e-01,2.614913694560527802e-02
-2.724446654319763184e-01,-4.006336331367492676e-01,9.450365900993347168e-01,5.769145488739013672e-01,4.621390998363494873e-01,6.056502461433410645e-01,2.200271189212799072e-01,-3.078937828540802002e-01,-2.022397667169570923e-01,-3.319863379001617432e-01,1.412685029208660126e-02,-1.142849251627922058e-01,2.158512324094772339e-01,-1.505368500947952271e-01
-6.269046664237976074e-02,-2.699785232543945312e-01,7.257168292999267578e-01,6.481413841247558594e-01,4.903834164142608643e-01,5.731099843978881836e-01,2.624716162681579590e-01,-2.783896327018737793e-01,-8.640265464782714844e-02,-2.245321422815322876e-01,-1.359883695840835571e-01,-6.380293518304824829e-02,8.818864822387695312e-02,1.185467541217803955e-01
-1.814557313919067383e-01,-2.350268810987472534e-01,8.506397604942321777e-01,6.868798732757568359e-01,2.153488993644714355e-01,3.273472189903259277e-01,2.607814073562622070e-01,-2.755002379417419434e-01,-4.491987824440002441e-02,-2.210590690374374390e-01,-1.952537521719932556e-02,-1.878926604986190796e-01,1.333438754081726074e-01,-5.609659105539321899e-02
-8.596762269735336304e-02,-3.106335736811161041e-02,8.980920314788818359e-01,4.157848656177520752e-01,7.670999318361282349e-02,2.825919687747955322e-01,3.224803805351257324e-01,-1.371081471443176270e-01,-1.635893136262893677e-01,-1.196384876966476440e-01,-2.137558907270431519e-02,-8.538962155580520630e-02,-5.873583629727363586e-02,-1.060315445065498352e-01
-1.789803057909011841e-01,-9.206789731979370117e-02,9.747099876403808594e-01,5.922269821166992188e-01,2.210733108222484589e-02,4.857829809188842773e-01,7.238319516181945801e-02,9.810743853449821472e-03,7.470388710498809814e-02,-4.347357898950576782e-02,-2.117824852466583252e-01,-6.412732601165771484e-02,-3.654917329549789429e-02,-2.300607115030288696e-01
-3.170241117477416992e-01,3.803148865699768066e-02,9.449436068534851074e-01,4.807688891887664795e-01,8.684105239808559418e-03,4.208804368972778320e-01,2.651492655277252197e-01,-3.415555134415626526e-02,2.072498649358749390e-01,-1.816553473472595215e-01,-3.362850844860076904e-01,-3.715768456459045410e-01,-1.641180962324142456e-01,1.249296367168426514e-01
-4.568589627742767334e-01,2.988591790199279785e-01,8.708525300025939941e-01,5.722417235374450684e-01,1.600187569856643677e-01,5.380824804306030273e-01,3.408522158861160278e-02,5.302402377128601074e-02,1.735106110572814941e-01,-7.330903410911560059e-02,-2.957230508327484131e-01,-1.138484925031661987e-01,-1.566530913114547729e-01,-1.106893271207809448e-01
-4.127573072910308838e-01,1.561414152383804321e-01,7.523422241210937500e-01,5.523949861526489258e-01,-3.002417087554931641e-02,6.894592642784118652e-01,2.900895774364471436e-01,9.506470710039138794e-02,2.371664196252822876e-01,-1.527113318443298340e-01,-7.271844893693923950e-02,-1.220341324806213379e-01,-3.286683261394500732e-01,-2.925423681735992432e-01
-4.315858781337738037e-01,2.998568117618560791e-01,7.353889346122741699e-01,1.764175593852996826e-01,1.042371764779090881e-01,5.732460618019104004e-01,1.656926274299621582e-01,2.181817889213562012e-01,4.295601546764373779e-01,-4.091486707329750061e-02,-2.370190434157848358e-02,-2.233294993638992310e-01,-1.934839487075805664e-01,-2.976896464824676514e-01
-5.493671894073486328e-01,2.095931470394134521e-01,5.457614064216613770e-01,2.919360697269439697e-01,-9.017882496118545532e-02,6.977390050888061523e-01,1.208682581782341003e-01,1.820159554481506348e-01,2.348571568727493286e-01,1.466199755668640137e-01,-9.079632908105850220e-02,-2.483085244894027710e-01,-3.502224981784820557e-01,-2.759672403335571289e-01
-5.131956934928894043e-01,4.877336621284484863e-01,7.180432677268981934e-01,1.297413557767868042e-02,4.521384090185165405e-02,6.827420592308044434e-01,3.814719021320343018e-01,2.305313795804977417e-01,1.781854331493377686e-01,3.037449903786182404e-02,1.702298969030380249e-01,-2.786869108676910400e-01,-1.903549134731292725e-01,-3.967787325382232666e-01
-4.120568037033081055e-01,5.858210921287536621e-01,3.555816709995269775e-01,2.694631218910217285e-01,1.031234860420227051e-02,6.709316968917846680e-01,2.973814904689788818e-01,3.406051695346832275e-01,5.837742090225219727e-01,1.613810956478118896e-01,1.383427381515502930e-01,-1.157082915306091309e-01,-2.679138481616973877e-01,-3.677100539207458496e-01
-4.533128142356872559e-01,6.498129367828369141e-01,5.407314896583557129e-01,2.525548338890075684e-01,1.983690112829208374e-01,8.754098415374755859e-01,1.611689627170562744e-01,3.180774152278900146e-01,4.473978281021118164e-01,1.073305457830429077e-01,2.937159240245819092e-01,-2.588533461093902588e-01,-1.079568862915039062e-01,-4.200206100940704346e-01
-6.980062723159790039e-01,7.846584916114807129e-01,3.764980435371398926e-01,-7.674873806536197662e-03,5.176812782883644104e-02,1.008450508117675781e+00,8.489285409450531006e-02,2.576250731945037842e-01,5.045218467712402344e-01,1.972732245922088623e-01,2.061914801597595215e-01,-2.944111526012420654e-01,-1.880229264497756958e-01,-4.796192646026611328e-01
-7.657001018524169922e-01,6.834428310394287109e-01,3.262499570846557617e-01,-6.120124831795692444e-03,6.649497151374816895e-02,9.204457402229309082e-01,-1.190458890050649643e-02,3.968544006347656250e-01,2.925505340099334717e-01,2.706621289253234863e-01,3.518294692039489746e-01,-2.365889698266983032e-01,-2.035018950700759888e-01,-6.496793031692504883e-01
-7.063631415367126465e-01,7.107387185096740723e-01,2.555198073387145996e-01,1.018578112125396729e-01,1.346845924854278564e-01,8.360822796821594238e-01,1.166822463274002075e-01,4.287632107734680176e-01,3.797195553779602051e-01,3.830192983150482178e-01,2.703504860401153564e-01,-4.222725927829742432e-01,-2.640842497348785400e-01,-5.000514984130859375e-01
-4.216101169586181641e-01,8.914719223976135254e-01,7.171557843685150146e-02,2.283404022455215454e-01,2.389387637376785278e-01,8.761700987815856934e-01,-7.343219220638275146e-02,3.941839635372161865e-01,5.107126832008361816e-01,3.949680924415588379e-01,4.545745253562927246e-01,-2.546944618225097656e-01,-1.970880478620529175e-01,-3.807391226291656494e-01
-3.077307343482971191e-01,8.128169775009155273e-01,8.255017548799514771e-02,-7.084410637617111206e-03,3.441067039966583252e-01,1.019316196441650391e+00,-2.160979509353637695e-01,3.725666105747222900e-01,7.248344421386718750e-01,4.523093700408935547e-01,3.211168348789215088e-01,-3.297564685344696045e-01,-1.195364743471145630e-01,-4.811104238033294678e-01
-4.436575472354888916e-01,7.479827404022216797e-01,2.405957430601119995e-01,1.410350650548934937e-01,1.627517640590667725e-01,7.860251069068908691e-01,-2.199611514806747437e-01,4.036925435066223145e-01,6.779571771621704102e-01,5.562099814414978027e-01,2.534785568714141846e-01,-4.029486477375030518e-01,-4.277857393026351929e-02,-2.503869533538818359e-01
-4.449803233146667480e-01,7.722809314727783203e-01,2.834369540214538574e-01,2.186686992645263672e-01,1.382700800895690918e-01,9.554280042648315430e-01,-2.971676886081695557e-01,4.149757623672485352e-01,5.871986150741577148e-01,4.855238199234008789e-01,1.930062025785446167e-01,-2.357655018568038940e-01,-2.214629352092742920e-01,-5.613348484039306641e-01
-3.706731498241424561e-01,7.278366088867187500e-01,2.446797937154769897e-01,2.016924619674682617e-01,4.553680717945098877e-01,7.070143818855285645e-01,-3.650551736354827881e-01,4.852720797061920166e-01,4.852139353752136230e-01,3.366836905479431152e-01,-6.837499886751174927e-02,-2.720202207565307617e-01,-3.118339553475379944e-02,-4.706888794898986816e-01
-2.764066755771636963e-01,6.143301129341125488e-01,2.311733663082122803e-01,1.424149125814437866e-01,2.811332345008850098e-01,7.950040698051452637e-01,-2.685491144657135010e-01,6.279873251914978027e-01,7.717720270156860352e-01,6.772416234016418457e-01,1.839528083801269531e-01,-3.483088314533233643e-01,-5.043263081461191177e-03,-5.669803023338317871e-01
-9.907557070255279541e-02,6.557592749595642090e-01,1.524921506643295288e-01,1.719413101673126221e-01,1.772756129503250122e-01,3.929679691791534424e-01,-4.025787413120269775e-01,4.311678707599639893e-01,5.966649055480957031e-01,6.037692427635192871e-01,-1.115743145346641541e-01,-4.591783881187438965e-01,-1.861417591571807861e-01,-2.159124165773391724e-01
-2.147502899169921875e-01,5.196569561958312988e-01,1.686312407255172729e-01,4.299510419368743896e-01,4.116233065724372864e-02,5.322739481925964355e-01,-3.990919888019561768e-01,4.903916716575622559e-01,7.373994588851928711e-01,6.320574879646301270e-01,2.978928014636039734e-02,-3.416247069835662842e-01,7.483720779418945312e-02,-2.626525759696960449e-01
-9.724111109972000122e-02,5.241224765777587891e-01,2.282558381557464600e-01,5.736063122749328613e-01,1.292486041784286499e-01,6.344640851020812988e-01,-4.189994633197784424e-01,7.038484811782836914e-01,6.201019287109375000e-01,6.188915967941284180e-01,9.473811089992523193e-02,-4.035055041313171387e-01,-8.882872015237808228e-02,-1.275805532932281494e-01
-3.647169843316078186e-02,3.423088490962982178e-01,1.696452200412750244e-01,7.003840804100036621e-01,1.185629516839981079e-01,3.341852426528930664e-01,-4.504595398902893066e-01,5.820797085762023926e-01,6.081615090370178223e-01,8.079486489295959473e-01,-2.268459796905517578e-01,-4.539986550807952881e-01,-5.977586284279823303e-02,8.126652985811233521e-02
-1.533276736736297607e-01,4.334214627742767334e-01,-4.779156297445297241e-02,3.502643406391143799e-01,9.804131835699081421e-02,2.027888894081115723e-01,-3.230369091033935547e-01,6.562507748603820801e-01,6.233656406402587891e-01,6.806253790855407715e-01,-1.610334217548370361e-01,-3.407792150974273682e-01,-3.800463303923606873e-02,9.150289744138717651e-02
-1.933626681566238403e-01,5.450379848480224609e-01,1.232478022575378418e-01,5.814514160156250000e-01,2.482862919569015503e-01,2.482842653989791870e-01,-3.605751395225524902e-01,3.094833195209503174e-01,4.333962500095367432e-01,4.603696167469024658e-01,-2.036207914352416992e-01,-2.518926262855529785e-01,1.376022994518280029e-01,1.108326986432075500e-01
-1.858080029487609863e-01,4.841836392879486084e-01,1.152434721589088440e-01,6.545911431312561035e-01,3.317253887653350830e-01,6.708338856697082520e-02,-3.584052324295043945e-01,4.014862179756164551e-01,4.395517110824584961e-01,5.062779784202575684e-01,-2.416799366474151611e-01,-1.874277591705322266e-01,1.998736411333084106e-01,3.314069239422678947e-03
5.376018583774566650e-03,3.471921980381011963e-01,2.246375232934951782e-01,5.633943080902099609e-01,2.264119684696197510e-01,1.101252958178520203e-01,-2.081518918275833130e-01,4.300238490104675293e-01,3.694854676723480225e-01,3.665817081928253174e-01,-3.505511879920959473e-01,3.788023442029953003e-02,1.169067434966564178e-02,5.904211848974227905e-02
4.387491568922996521e-02,5.774202942848205566e-01,6.031756475567817688e-02,4.757422208786010742e-01,2.673546969890594482e-01,-5.286568403244018555e-02,-1.692641973495483398e-01,3.833363652229309082e-01,3.251297771930694580e-01,3.154297769069671631e-01,-4.119970500469207764e-01,5.084192007780075073e-02,2.167536169290542603e-01,1.273438930511474609e-01
-6.884618848562240601e-02,4.983324110507965088e-01,1.491025090217590332e-01,3.429460227489471436e-01,3.438751995563507080e-01,3.615280240774154663e-02,-3.241407498717308044e-02,2.772763967514038086e-01,3.287326097488403320e-01,3.175440132617950439e-01,-4.793668985366821289e-01,4.017976671457290649e-02,1.908595412969589233e-01,1.218892484903335571e-01
-1.893608123064041138e-01,8.015212416648864746e-01,2.262566611170768738e-02,3.304085731506347656e-01,1.520225256681442261e-01,-2.691201567649841309e-01,-9.832852333784103394e-02,1.943874061107635498e-01,2.755370438098907471e-01,1.563308238983154297e-01,-4.172032773494720459e-01,1.431540250778198242e-01,4.103842973709106445e-01,2.976818084716796875e-01
-9.488491714000701904e-02,5.020035505294799805e-01,2.490317225456237793e-01,2.280665636062622070e-01,3.808676600456237793e-01,-1.405269801616668701e-01,5.042080208659172058e-02,2.416834793984889984e-02,3.616266250610351562e-01,2.638276219367980957e-01,-6.100433468818664551e-01,2.510891556739807129e-01,1.963479071855545044e-01,2.708039879798889160e-01
-2.875674366950988770e-01,5.356962084770202637e-01,-2.116161957383155823e-02,3.419993817806243896e-01,2.650925656780600548e-03,-4.000862687826156616e-02,1.039396971464157104e-01,1.809211671352386475e-01,1.053482666611671448e-01,1.304674893617630005e-02,-6.604039669036865234e-01,3.298918604850769043e-01,3.112041652202606201e-01,3.832147121429443359e-01
-2.386843562126159668e-01,6.355151534080505371e-01,1.046151965856552124e-01,2.165406793355941772e-01,4.687204584479331970e-02,-8.762447535991668701e-02,-9.340246021747589111e-02,3.558354824781417847e-02,4.186897575855255127e-01,1.184746921062469482e-01,-6.914155483245849609e-01,3.622114956378936768e-01,1.581919193267822266e-01,5.248762965202331543e-01
-7.919946685433387756e-03,7.065708637237548828e-01,-1.030484586954116821e-02,1.483949124813079834e-01,1.640611439943313599e-01,-1.956689357757568359e-01,1.562626212835311890e-01,1.449303179979324341e-01,4.036786258220672607e-01,1.662983559072017670e-02,-5.638307929039001465e-01,2.990729510784149170e-01,3.274535536766052246e-01,5.429251790046691895e-01
-2.267949730157852173e-01,5.525211691856384277e-01,7.950989156961441040e-02,9.578995406627655029e-02,1.609311625361442566e-02,1.028297189623117447e-02,1.455588638782501221e-01,-7.727415114641189575e-02,4.729655086994171143e-01,-1.065217703580856323e-01,-8.164395689964294434e-01,6.015798449516296387e-01,3.020286932587623596e-02,4.970058202743530273e-01
-3.886561393737792969e-01,5.467860698699951172e-01,1.354877054691314697e-01,6.979100406169891357e-02,5.985027179121971130e-03,-2.220293432474136353e-01,1.803027391433715820e-01,-2.594849467277526855e-02,5.712904930114746094e-01,-1.819992959499359131e-01,-8.640887737274169922e-01,4.464088380336761475e-01,5.482878535985946655e-02,6.135844588279724121e-01
-1.257752776145935059e-01,7.269271016120910645e-01,1.341094076633453369e-02,-4.014763981103897095e-03,-1.053696051239967346e-01,-5.078766122460365295e-02,-2.859161980450153351e-02,1.230565682053565979e-01,5.465446710586547852e-01,1.894482783973217010e-02,-8.730518221855163574e-01,3.281849920749664307e-01,-1.002207845449447632e-01,6.801770329475402832e-01
-3.904430270195007324e-01,6.175230145454406738e-01,-2.660747803747653961e-02,4.740149155259132385e-02,-1.754706948995590210e-01,-4.948265105485916138e-02,9.119484573602676392e-02,2.354233562946319580e-01,4.949170649051666260e-01,5.174350365996360779e-02,-8.172342777252197266e-01,4.547306001186370850e-01,3.837181255221366882e-02,9.280685782432556152e-01
-2.338252067565917969e-01,4.483913779258728027e-01,1.360075026750564575e-01,4.059094004333019257e-03,-3.073379099369049072e-01,-9.248403459787368774e-02,1.294831335544586182e-01,3.013577163219451904e-01,6.433582901954650879e-01,4.110877588391304016e-02,-9.093777537345886230e-01,4.820012748241424561e-01,-2.465790063142776489e-01,8.121819496154785156e-01
-3.208202123641967773e-01,6.729915738105773926e-01,-1.091688349843025208e-01,-2.289908230304718018e-01,-3.329394459724426270e-01,-2.114370763301849365e-01,2.295244112610816956e-02,1.770253628492355347e-01,7.718907594680786133e-01,7.490932941436767578e-02,-9.194657206535339355e-01,2.360145151615142822e-01,-3.022871613502502441e-01,8.618458509445190430e-01
-2.215988785028457642e-01,5.788626074790954590e-01,-1.517016589641571045e-01,-1.663774102926254272e-01,-1.455689966678619385e-01,-1.311352401971817017e-01,-4.856207966804504395e-02,5.023648142814636230e-01,8.249257802963256836e-01,2.856093943119049072e-01,-9.798428416252136230e-01,4.482387304306030273e-01,-4.223728775978088379e-01,6.829892396926879883e-01
-2.303725033998489380e-01,6.727684140205383301e-01,-2.584002017974853516e-01,-8.867627382278442383e-02,-2.327001541852951050e-01,-7.147175818681716919e-02,1.092464998364448547e-01,3.738667368888854980e-01,7.679684758186340332e-01,1.389889568090438843e-01,-9.868429899215698242e-01,2.165447473526000977e-01,-3.292619287967681885e-01,7.213932871818542480e-01
-1.637632697820663452e-01,5.665069818496704102e-01,-5.357232689857482910e-01,-2.457315325736999512e-01,-1.499396115541458130e-01,-1.795441210269927979e-01,4.872763063758611679e-03,6.402266621589660645e-01,7.510815858840942383e-01,-9.828984737396240234e-02,-1.054565429687500000e+00,1.716094762086868286e-01,-2.731182873249053955e-01,6.181879639625549316e-01
-3.648683130741119385e-01,3.868417441844940186e-01,-4.880274534225463867e-01,-2.618081569671630859e-01,-2.187752127647399902e-01,-2.113817781209945679e-01,-2.327054440975189209e-01,4.478138685226440430e-01,8.647864460945129395e-01,1.925339996814727783e-01,-8.390560746192932129e-01,2.170341759920120239e-01,-4.402477741241455078e-01,6.378399729728698730e-01
-2.937052845954895020e-01,7.236905694007873535e-01,-4.671413898468017578e-01,-5.517583489418029785e-01,-1.282068043947219849e-01,9.186952374875545502e-03,-1.069880649447441101e-01,6.453492045402526855e-01,7.336329221725463867e-01,2.066814750432968140e-01,-9.441772103309631348e-01,2.664778232574462891e-01,-4.521848857402801514e-01,6.060333251953125000e-01
-1.305594742298126221e-01,7.006676197052001953e-01,-6.431630253791809082e-01,-4.900620877742767334e-01,-6.619283556938171387e-02,-1.638212054967880249e-01,-6.947119534015655518e-02,6.204665899276733398e-01,6.154190301895141602e-01,6.172791123390197754e-02,-5.552428364753723145e-01,1.487269699573516846e-01,-4.870767891407012939e-01,5.815144777297973633e-01
-3.357847630977630615e-01,5.595120787620544434e-01,-6.001780033111572266e-01,-1.972245723009109497e-01,-7.254785299301147461e-02,-1.977303028106689453e-01,7.912430912256240845e-02,6.001123785972595215e-01,7.197531461715698242e-01,2.517926394939422607e-01,-6.914055943489074707e-01,-1.792731136083602905e-01,-5.660964250564575195e-01,4.100911915302276611e-01
-4.309879541397094727e-01,5.907412171363830566e-01,-6.760057210922241211e-01,-3.898759782314300537e-01,2.484523691236972809e-02,-1.935961544513702393e-01,-3.302120417356491089e-02,6.762427091598510742e-01,7.516422271728515625e-01,1.102936267852783203e-01,-5.876516103744506836e-01,1.025745496153831482e-01,-6.238170862197875977e-01,5.664144158363342285e-01
-1.199167147278785706e-01,7.221499085426330566e-01,-8.609345555305480957e-01,-5.827246904373168945e-01,1.814494580030441284e-01,-1.717107892036437988e-01,-2.316237837076187134e-01,7.967979907989501953e-01,7.363625764846801758e-01,1.483326107263565063e-01,-6.508999466896057129e-01,-3.078654990531504154e-04,-6.265232563018798828e-01,4.919677674770355225e-01
-3.905858993530273438e-01,5.628005862236022949e-01,-8.857296109199523926e-01,-5.229767560958862305e-01,1.987867653369903564e-01,-3.121614456176757812e-01,-1.549953520298004150e-01,7.313012480735778809e-01,5.578731298446655273e-01,3.257879316806793213e-01,-6.611797213554382324e-01,1.837568134069442749e-01,-2.820595502853393555e-01,3.730607628822326660e-01
-3.932206034660339355e-01,8.075745701789855957e-01,-9.112135171890258789e-01,-6.062433123588562012e-01,2.344141304492950439e-01,-2.892443835735321045e-01,-1.638957113027572632e-01,6.318691968917846680e-01,4.807579219341278076e-01,7.364250719547271729e-03,-5.166643857955932617e-01,1.888968497514724731e-01,-4.464603960514068604e-01,4.225186109542846680e-01
-1.433672904968261719e-01,5.438569188117980957e-01,-9.210232496261596680e-01,-4.098507761955261230e-01,5.117475390434265137e-01,-2.509186565876007080e-01,-2.214303463697433472e-01,7.049214839935302734e-01,1.667141318321228027e-01,-2.786146663129329681e-02,-5.080528259277343750e-01,4.741578176617622375e-02,-4.051891863346099854e-01,2.861916720867156982e-01
-1.701636910438537598e-01,5.916439890861511230e-01,-6.392045617103576660e-01,-3.212134838104248047e-01,2.711532115936279297e-01,-3.835694789886474609e-01,-2.479339577257633209e-02,5.977765321731567383e-01,2.803342342376708984e-01,9.268452413380146027e-03,-4.126301109790802002e-01,-1.548874229192733765e-01,-2.693522572517395020e-01,3.524159789085388184e-01
-5.866792052984237671e-02,4.724860787391662598e-01,-7.390996813774108887e-01,-3.684737086296081543e-01,3.851132690906524658e-01,-2.892369627952575684e-01,-1.079720109701156616e-01,6.556667089462280273e-01,2.890384495258331299e-01,5.912825837731361389e-02,-5.795754194259643555e-01,1.923036128282546997e-01,-3.493718504905700684e-01,2.977496981620788574e-01
-2.194685339927673340e-01,2.628616392612457275e-01,-7.716155648231506348e-01,-2.800692319869995117e-01,3.920165598392486572e-01,-1.621412485837936401e-01,-1.567943543195724487e-01,7.115895748138427734e-01,2.432117909193038940e-01,4.695910960435867310e-02,-4.124780297279357910e-01,1.689138710498809814e-01,-2.693121433258056641e-01,3.693372905254364014e-01
3.645259141921997070e-01,2.091749012470245361e-01,-6.302281022071838379e-01,-3.194416463375091553e-01,4.441075623035430908e-01,-4.763958752155303955e-01,-3.301854431629180908e-01,4.561813175678253174e-01,3.364171087741851807e-01,-1.658220738172531128e-01,-6.010642647743225098e-01,1.255432516336441040e-01,-3.996249288320541382e-02,5.086091756820678711e-01
2.235601544380187988e-01,1.910241842269897461e-01,-6.280686855316162109e-01,-2.026215046644210815e-01,3.338245749473571777e-01,-1.607169061899185181e-01,-3.472498655319213867e-01,5.039020776748657227e-01,1.314992010593414307e-01,8.624608814716339111e-02,-6.843396425247192383e-01,-5.946761369705200195e-02,-2.220289260149002075e-01,4.553016722202301025e-01
-3.338258713483810425e-02,4.097709804773330688e-02,-8.075534105300903320e-01,-2.302099205553531647e-02,9.381645917892456055e-02,-4.163992106914520264e-01,-5.422106385231018066e-01,6.257683038711547852e-01,4.307532310485839844e-01,-1.115796938538551331e-01,-7.772579193115234375e-01,1.228404790163040161e-01,-2.361481338739395142e-01,4.937184751033782959e-01
4.226255118846893311e-01,-2.115176618099212646e-02,-4.753350615501403809e-01,-1.593923717737197876e-01,2.873509228229522705e-01,-5.224384069442749023e-01,-4.930753707885742188e-01,6.355614662170410156e-01,1.474428772926330566e-01,-1.266515105962753296e-01,-6.697345376014709473e-01,-1.383347809314727783e-01,-7.013039290904998779e-02,5.974016785621643066e-01
2.448367029428482056e-01,-2.641355991363525391e-01,-5.663476586341857910e-01,-7.767183333635330200e-02,1.165449470281600952e-01,-8.085486292839050293e-01,-3.467673659324645996e-01,4.711126983165740967e-01,-2.304174937307834625e-03,-1.272681355476379395e-01,-4.280331134796142578e-01,1.198340654373168945e-01,-3.378689587116241455e-01,6.376032829284667969e-01
3.970231115818023682e-01,-6.523476541042327881e-02,-2.497855573892593384e-01,-3.042529523372650146e-02,1.778999269008636475e-01,-6.366778016090393066e-01,-4.038014411926269531e-01,5.358687043190002441e-01,5.742442980408668518e-02,-8.339691907167434692e-02,-6.377524733543395996e-01,-1.356164366006851196e-01,-3.079158961772918701e-01,5.849619507789611816e-01
4.289281666278839111e-01,-2.448206394910812378e-01,-3.213461339473724365e-01,1.181346848607063293e-01,2.673466503620147705e-01,-6.854555010795593262e-01,-3.302420675754547119e-01,5.602495074272155762e-01,-1.131989061832427979e-01,-1.540861278772354126e-01,-7.086993455886840820e-01,-1.639608666300773621e-02,-2.121592313051223755e-01,6.498575210571289062e-01
3.899369239807128906e-01,-1.172882616519927979e-01,-3.311273753643035889e-01,1.912921220064163208e-01,8.581648021936416626e-02,-7.726461887359619141e-01,-1.836945116519927979e-01,3.877016603946685791e-01,-7.764675654470920563e-03,-3.955040574073791504e-01,-8.093027472496032715e-01,-1.905663311481475830e-01,-2.924064397811889648e-01,5.529773831367492676e-01
4.780278503894805908e-01,-2.732419073581695557e-01,-2.295174747705459595e-01,5.603690072894096375e-02,1.560672074556350708e-01,-9.095389246940612793e-01,-3.679317831993103027e-01,4.934549927711486816e-01,-9.004247933626174927e-02,-2.039273083209991455e-01,-8.500875830650329590e-01,-2.010337449610233307e-02,-3.608891665935516357e-01,8.035340905189514160e-01
3.903074264526367188e-01,-1.498280316591262817e-01,-1.636693328619003296e-01,9.044614271260797977e-04,2.895660698413848877e-01,-7.820501327514648438e-01,-3.363326489925384521e-01,3.643575310707092285e-01,-4.426926746964454651e-02,-2.211172282695770264e-01,-7.270122766494750977e-01,1.329125910997390747e-01,-3.417948186397552490e-01,8.372040987014770508e-01
3.395654857158660889e-01,-1.926093250513076782e-01,-2.249957770109176636e-01,1.414805650711059570e-01,1.532962024211883545e-01,-1.043310999870300293e+00,-2.611099481582641602e-01,3.007109463214874268e-01,-2.593440711498260498e-01,-2.844882607460021973e-01,-7.076036334037780762e-01,2.984174340963363647e-02,-3.287329077720642090e-01,7.517025470733642578e-01
3.053551614284515381e-01,-2.314351946115493774e-01,-1.469018608331680298e-01,1.634902358055114746e-01,2.474204897880554199e-01,-5.939648151397705078e-01,-6.709326803684234619e-02,4.263896942138671875e-01,-2.101363241672515869e-01,-4.962334632873535156e-01,-7.472354769706726074e-01,-3.317940235137939453e-02,-6.415256261825561523e-01,7.402282357215881348e-01
1.668778359889984131e-01,-2.196054756641387939e-01,-1.182783469557762146e-01,1.382454335689544678e-01,2.162165343761444092e-01,-9.083745479583740234e-01,1.775599271059036255e-01,2.487961351871490479e-01,-1.953543722629547119e-01,-4.665288627147674561e-01,-5.380622148513793945e-01,2.363783270120620728e-01,-4.996606111526489258e-01,6.783864498138427734e-01
3.249188959598541260e-01,5.858267657458782196e-03,-1.965706497430801392e-01,9.131490439176559448e-02,9.160668402910232544e-02,-6.885636448860168457e-01,1.778502613306045532e-01,3.193331062793731689e-01,-1.854826062917709351e-01,-4.568639397621154785e-01,-6.015720367431640625e-01,1.105201095342636108e-01,-4.500560760498046875e-01,7.843654155731201172e-01
1.246219575405120850e-01,-1.145116388797760010e-01,-2.691734135150909424e-01,8.830437064170837402e-02,1.201261114329099655e-02,-6.416802406311035156e-01,1.762476265430450439e-01,2.127279937267303467e-01,-2.668443620204925537e-01,-4.661394953727722168e-01,-3.574940562248229980e-01,1.954255104064941406e-01,-4.445293843746185303e-01,6.180285811424255371e-01
2.774747274816036224e-02,-7.846765220165252686e-02,-2.276970893144607544e-01,1.082737967371940613e-01,2.189463973045349121e-01,-6.076992750167846680e-01,2.055011838674545288e-01,9.517423808574676514e-02,-2.015465945005416870e-01,-5.686451196670532227e-01,-5.144226551055908203e-01,-5.631447955965995789e-02,-5.370220541954040527e-01,6.909495592117309570e-01
-2.208448797464370728e-01,1.869783550500869751e-01,-8.573331683874130249e-02,-6.640946958214044571e-03,2.459498643875122070e-01,-5.236006975173950195e-01,2.253558337688446045e-01,4.321581125259399414e-02,-2.286342978477478027e-01,-5.213583111763000488e-01,-4.207993149757385254e-01,1.779025495052337646e-01,-7.349434494972229004e-01,3.959146738052368164e-01
-5.154725909233093262e-02,9.324997663497924805e-02,-2.389612346887588501e-01,-8.747030049562454224e-02,2.470438480377197266e-01,-5.729919075965881348e-01,2.101931273937225342e-01,3.330877423286437988e-01,-2.466043978929519653e-01,-4.384963214397430420e-01,-3.985154032707214355e-01,1.670193225145339966e-01,-4.791258275508880615e-01,6.161167025566101074e-01
-1.119881197810173035e-01,8.526643365621566772e-02,-1.177363097667694092e-01,-3.620894998311996460e-02,9.000630676746368408e-02,-3.117254078388214111e-01,2.573670148849487305e-01,2.888925373554229736e-01,-1.994393169879913330e-01,-4.749753177165985107e-01,-5.759145617485046387e-01,1.647319048643112183e-01,-6.554061174392700195e-01,4.588176012039184570e-01
-1.482644826173782349e-01,2.020035535097122192e-01,-1.493389159440994263e-01,-6.239736080169677734e-02,1.072452291846275330e-01,-1.400977820158004761e-01,-1.435892097651958466e-02,1.108843684196472168e-01,-4.130231216549873352e-02,-4.816768765449523926e-01,-3.884159028530120850e-01,-2.628977037966251373e-02,-5.318031907081604004e-01,5.317376255989074707e-01
-2.371296882629394531e-01,2.535359561443328857e-01,9.531710296869277954e-03,-2.041911482810974121e-01,-2.573026157915592194e-02,-2.126227021217346191e-01,1.889468729496002197e-01,4.247808754444122314e-01,-7.042998075485229492e-02,-2.547639906406402588e-01,-3.234185278415679932e-01,-2.269658595323562622e-01,-7.940668463706970215e-01,6.475023031234741211e-01
-2.392516285181045532e-01,2.706597149372100830e-01,-1.281851995736360550e-02,-6.175703182816505432e-02,-3.122366033494472504e-02,2.885721996426582336e-02,1.811638176441192627e-01,5.623212456703186035e-01,8.574737608432769775e-02,-2.354102283716201782e-01,-3.806769549846649170e-01,-1.466213315725326538e-01,-9.190483093261718750e-01,4.950825273990631104e-01
-3.601383268833160400e-01,1.753088235855102539e-01,-1.136278510093688965e-01,-5.205368623137474060e-02,-6.211268156766891479e-02,5.275812000036239624e-02,1.240867227315902710e-01,5.182054042816162109e-01,3.077641129493713379e-01,-3.333247825503349304e-02,-3.743810355663299561e-01,-1.570998579263687134e-01,-6.485267877578735352e-01,6.032978296279907227e-01
-3.145851492881774902e-01,2.725101113319396973e-01,-1.085591986775398254e-01,-8.411241322755813599e-02,-7.477424293756484985e-02,1.113494411110877991e-01,-1.371142417192459106e-01,5.681172609329223633e-01,1.565086543560028076e-01,-1.099410578608512878e-01,-3.115397989749908447e-01,-2.725937068462371826e-01,-8.562168478965759277e-01,4.885539114475250244e-01
-3.549414873123168945e-01,7.508680969476699829e-02,-2.339246720075607300e-01,-1.559861153364181519e-01,1.313663870096206665e-01,-8.312102407217025757e-03,-1.772617846727371216e-01,6.975201964378356934e-01,1.302872747182846069e-01,-2.142612338066101074e-01,-3.356104791164398193e-01,-3.061339259147644043e-01,-8.645391464233398438e-01,4.278507232666015625e-01
-2.418840080499649048e-01,1.695090681314468384e-01,-1.740423291921615601e-01,5.132793262600898743e-02,-1.650006696581840515e-02,1.279072016477584839e-01,6.400095298886299133e-04,6.484510898590087891e-01,2.000929862260818481e-01,-4.189718142151832581e-02,-4.431565105915069580e-02,-5.520246624946594238e-01,-8.049095869064331055e-01,4.270945787429809570e-01
-1.510198265314102173e-01,1.753322035074234009e-01,-3.239963054656982422e-01,1.587467789649963379e-01,-1.034502871334552765e-02,-3.073725290596485138e-02,-8.284089714288711548e-02,7.679986953735351562e-01,2.814684212207794189e-01,1.069296002388000488e-01,-1.764731109142303467e-01,-6.549253463745117188e-01,-9.349408149719238281e-01,5.433244705200195312e-01
-5.339694023132324219e-01,7.224632799625396729e-02,-3.170959651470184326e-01,2.669355086982250214e-02,9.284661710262298584e-02,4.224098846316337585e-02,-2.456607818603515625e-01,6.938236951828002930e-01,3.040577769279479980e-01,1.979639232158660889e-01,1.062324792146682739e-01,-7.605445981025695801e-01,-8.927342295646667480e-01,3.093276917934417725e-01
-4.574394524097442627e-01,1.454488635063171387e-01,-6.096594929695129395e-01,2.066527307033538818e-01,3.057726025581359863e-01,-1.060889959335327148e-01,-4.018954187631607056e-02,7.015875577926635742e-01,1.553544849157333374e-01,1.162527203559875488e-01,1.260360330343246460e-01,-7.630278468132019043e-01,-7.670515179634094238e-01,3.367976844310760498e-01
-3.321924507617950439e-01,1.580075323581695557e-01,-4.984139204025268555e-01,9.287239611148834229e-02,3.050329983234405518e-01,-1.177173778414726257e-01,-1.139994487166404724e-01,5.241175293922424316e-01,7.889538258314132690e-02,1.726329028606414795e-01,3.505448400974273682e-01,-8.085551261901855469e-01,-7.123787403106689453e-01,1.806803792715072632e-01
-3.359552919864654541e-01,7.716938853263854980e-02,-3.260084390640258789e-01,3.202836513519287109e-01,3.624397814273834229e-01,-8.114706724882125854e-02,1.230195313692092896e-01,7.872606515884399414e-01,7.443121075630187988e-02,3.064280152320861816e-01,3.998704850673675537e-01,-7.256075143814086914e-01,-6.732428669929504395e-01,8.382990211248397827e-02
-5.015708208084106445e-01,3.044867217540740967e-01,-5.105744600296020508e-01,2.349580228328704834e-01,3.891223669052124023e-01,-1.667263731360435486e-02,-2.089549154043197632e-01,6.607509255409240723e-01,1.501552611589431763e-01,3.487560451030731201e-01,3.550751507282257080e-01,-6.189287304878234863e-01,-5.583896040916442871e-01,-2.722170948982238770e-02
-4.388853013515472412e-01,1.434820592403411865e-01,-3.616415262222290039e-01,3.804949522018432617e-01,5.120767354965209961e-01,-5.106000974774360657e-02,1.327541004866361618e-02,5.139718651771545410e-01,8.531344123184680939e-03,2.829706966876983643e-01,3.535376787185668945e-01,-7.024902105331420898e-01,-6.930339932441711426e-01,-2.383415959775447845e-02
-5.575278997421264648e-01,1.800274997949600220e-01,-4.859346151351928711e-01,2.812307178974151611e-01,6.752566695213317871e-01,-1.218909770250320435e-01,7.591152191162109375e-02,5.553814768791198730e-01,-1.451984643936157227e-01,1.766650229692459106e-01,3.223021924495697021e-01,-7.576296329498291016e-01,-2.700954079627990723e-01,-6.934366375207901001e-02
-4.375356733798980713e-01,2.788490355014801025e-01,-4.840108156204223633e-01,3.461768627166748047e-01,7.211400866508483887e-01,-2.255880981683731079e-01,5.533327162265777588e-02,2.875922024250030518e-01,-5.217872932553291321e-02,7.053546607494354248e-02,2.355938255786895752e-01,-7.909068465232849121e-01,-3.420751094818115234e-01,-4.932408407330513000e-02
-6.095250248908996582e-01,2.522180378437042236e-01,-3.644073307514190674e-01,3.910535871982574463e-01,8.997230529785156250e-01,-4.299248382449150085e-02,1.673555821180343628e-01,3.780256509780883789e-01,-2.451179176568984985e-01,2.192547023296356201e-01,3.934893310070037842e-01,-7.810285091400146484e-01,-2.516790330410003662e-01,-1.129323393106460571e-01
-4.415526390075683594e-01,3.978196084499359131e-01,-3.049066960811614990e-01,3.708299994468688965e-01,8.499121069908142090e-01,-4.801240190863609314e-02,1.728818118572235107e-01,1.747020483016967773e-01,-2.702706158161163330e-01,2.180243879556655884e-01,2.784667313098907471e-01,-6.485004425048828125e-01,-1.297181397676467896e-01,6.466584652662277222e-02
-4.686226248741149902e-01,7.992553710937500000e-02,-2.932027876377105713e-01,4.551031589508056641e-01,8.264151811599731445e-01,-1.540994644165039062e-01,2.438041418790817261e-01,1.354533582925796509e-01,-3.881498277187347412e-01,1.591203808784484863e-01,4.621489942073822021e-01,-4.824357926845550537e-01,-9.392466396093368530e-02,3.751781955361366272e-02
-4.418178200721740723e-01,1.861499436199665070e-02,-8.653498440980911255e-02,4.265919923782348633e-01,8.573859333992004395e-01,-1.201390698552131653e-01,1.374464184045791626e-01,2.590370774269104004e-01,-2.442626357078552246e-01,2.139149606227874756e-01,2.546083927154541016e-01,-3.448285460472106934e-01,3.073296509683132172e-02,1.150560751557350159e-01
-6.976838111877441406e-01,-3.784709842875599861e-03,-3.155359029769897461e-01,5.743110179901123047e-01,7.617206573486328125e-01,-1.782855540513992310e-01,3.073824942111968994e-01,-6.627941876649856567e-02,-4.855434298515319824e-01,2.562723159790039062e-01,3.064296245574951172e-01,-4.535663425922393799e-01,-1.676884852349758148e-02,-4.893707484006881714e-02
-2.747929692268371582e-01,-9.670357406139373779e-02,7.970562577247619629e-02,5.641686916351318359e-01,7.708256840705871582e-01,-1.995265930891036987e-01,2.184348404407501221e-01,-1.075128391385078430e-01,-1.983456015586853027e-01,1.167484968900680542e-01,1.135059371590614319e-01,-4.361419081687927246e-01,1.021120622754096985e-01,4.238303005695343018e-01
-4.911890327930450439e-01,-1.163073256611824036e-01,-9.264135151170194149e-04,6.600027680397033691e-01,5.845918059349060059e-01,-2.369039356708526611e-01,2.918061912059783936e-01,-9.628015011548995972e-02,-5.105860829353332520e-01,2.755057811737060547e-01,1.621892452239990234e-01,-4.898715019226074219e-01,1.349725574254989624e-01,4.609613120555877686e-01
-2.695424258708953857e-01,-2.855733036994934082e-01,-5.314942449331283569e-03,5.430513024330139160e-01,8.061513900756835938e-01,-1.790889054536819458e-01,2.559915184974670410e-01,-2.237479090690612793e-01,-5.787598490715026855e-01,2.213445156812667847e-01,3.474225103855133057e-02,-1.970695555210113525e-01,2.108284085988998413e-01,2.232678234577178955e-01
-4.494276940822601318e-01,-4.174332916736602783e-01,1.823575347661972046e-01,8.048954010009765625e-01,5.262452960014343262e-01,-3.992597758769989014e-01,2.986503839492797852e-01,-4.998601078987121582e-01,-5.087408423423767090e-01,2.686005532741546631e-01,1.348384916782379150e-01,-2.528658509254455566e-01,-7.180404663085937500e-02,2.792172729969024658e-01
-3.179399371147155762e-01,-7.664729654788970947e-02,1.364184916019439697e-01,7.341108322143554688e-01,5.767208337783813477e-01,-4.038541316986083984e-01,3.131167292594909668e-01,-1.996734142303466797e-01,-3.353724479675292969e-01,2.591737508773803711e-01,-1.478537768125534058e-01,-1.779805570840835571e-01,1.162238866090774536e-01,2.903271019458770752e-01
-2.927272617816925049e-01,-3.454951941967010498e-01,2.770335376262664795e-01,7.213372588157653809e-01,4.053356945514678955e-01,-4.295477867126464844e-01,6.687886118888854980e-01,-3.812588453292846680e-01,-1.936123371124267578e-01,4.357585608959197998e-01,-3.118011951446533203e-01,-6.607361137866973877e-02,2.918033897876739502e-01,5.299929976463317871e-01
-6.023390889167785645e-01,-3.516819477081298828e-01,1.630393564701080322e-01,7.701579332351684570e-01,3.177587091922760010e-01,-2.577308118343353271e-01,8.057557940483093262e-01,-5.179652571678161621e-01,-4.008167684078216553e-01,1.189453229308128357e-01,1.137085855007171631e-01,-4.063065052032470703e-01,-5.822780728340148926e-02,4.606910645961761475e-01
-5.469076633453369141e-01,-1.054105013608932495e-01,1.052392199635505676e-01,9.266902804374694824e-01,4.590767323970794678e-01,-5.301781892776489258e-01,6.899212598800659180e-01,-4.179915487766265869e-01,-4.067978262901306152e-01,1.415435820817947388e-01,-2.524675130844116211e-01,-1.713248938322067261e-01,5.024075135588645935e-02,5.363858342170715332e-01
-4.848903119564056396e-01,-3.885770961642265320e-02,1.947529911994934082e-01,6.771475076675415039e-01,5.246453881263732910e-01,-3.721534311771392822e-01,6.738675832748413086e-01,-5.739305019378662109e-01,-2.515525817871093750e-01,1.656929254531860352e-01,-3.714663088321685791e-01,-3.739961981773376465e-02,1.398473829030990601e-01,4.347256422042846680e-01
-5.224607586860656738e-01,-1.100016012787818909e-01,2.290038317441940308e-01,6.445314288139343262e-01,3.533222973346710205e-01,-3.695728778839111328e-01,7.222730517387390137e-01,-4.259857237339019775e-01,-4.149981737136840820e-01,2.979384362697601318e-01,-2.866086959838867188e-01,-2.584458887577056885e-02,1.926165372133255005e-01,4.849736094474792480e-01
-7.748735547065734863e-01,-3.909785673022270203e-02,1.634300053119659424e-01,4.713557064533233643e-01,3.363511264324188232e-01,-4.578459560871124268e-01,8.667363524436950684e-01,-4.313178956508636475e-01,-3.737467527389526367e-01,3.077093362808227539e-01,-1.493073105812072754e-01,-2.678463980555534363e-02,1.659593880176544189e-01,6.244171857833862305e-01
-7.578679323196411133e-01,8.028035052120685577e-03,-4.575715586543083191e-02,5.201735496520996094e-01,4.910826981067657471e-01,-2.202879339456558228e-01,1.097940683364868164e+00,-4.148128330707550049e-01,-2.737297713756561279e-01,5.786198377609252930e-02,-1.472098976373672485e-01,2.512477524578571320e-02,-8.823286741971969604e-02,4.941580593585968018e-01
-9.863537549972534180e-01,-4.282050207257270813e-02,8.927796036005020142e-02,2.509062588214874268e-01,4.504720568656921387e-01,-1.155298277735710144e-01,9.648728966712951660e-01,-3.378468155860900879e-01,-4.001126587390899658e-01,3.073633909225463867e-01,-5.941320676356554031e-03,1.382796466350555420e-01,-2.565447613596916199e-02,2.391586452722549438e-01
-9.158576726913452148e-01,-5.903820972889661789e-03,-1.249917224049568176e-01,1.601783335208892822e-01,5.025416016578674316e-01,-2.613452076911926270e-01,1.047372102737426758e+00,-5.393310785293579102e-01,-2.421450167894363403e-01,1.607775539159774780e-01,-1.191188469529151917e-01,2.010858654975891113e-01,7.114631682634353638e-02,2.004349678754806519e-01
-8.537603616714477539e-01,3.481803834438323975e-01,-1.013280600309371948e-01,1.620628684759140015e-01,4.960193932056427002e-01,-2.508750744163990021e-02,1.062309622764587402e+00,-6.973430514335632324e-01,-4.361575841903686523e-01,1.142645999789237976e-01,-4.123675823211669922e-02,-1.454966980963945389e-02,-6.177034694701433182e-03,2.488410472869873047e-01
-1.047393560409545898e+00,1.282692849636077881e-01,-6.229427177459001541e-03,-7.984817028045654297e-02,5.031948685646057129e-01,1.452545728534460068e-02,9.359596967697143555e-01,-6.065465807914733887e-01,-2.991201579570770264e-01,1.847209185361862183e-01,-8.894519507884979248e-02,2.210249453783035278e-01,2.846711277961730957e-01,9.310232102870941162e-02
-1.057960271835327148e+00,3.440544903278350830e-01,2.113503776490688324e-02,-1.287529021501541138e-01,3.337021172046661377e-01,-6.830672919750213623e-02,1.038117647171020508e+00,-5.893348455429077148e-01,-4.812140166759490967e-01,1.423017680644989014e-01,8.954796940088272095e-02,2.225090116262435913e-01,2.066004090011119843e-02,4.124360531568527222e-02
-1.092246294021606445e+00,4.130604863166809082e-01,-2.052818238735198975e-01,6.513283401727676392e-02,5.781697630882263184e-01,3.119287490844726562e-01,9.631231427192687988e-01,-5.664103031158447266e-01,-3.354673087596893311e-01,1.434524655342102051e-01,1.963753066956996918e-02,4.476048424839973450e-02,-1.808113232254981995e-02,2.936641685664653778e-02
-8.691709041595458984e-01,3.714842498302459717e-01,-2.584513127803802490e-01,-4.045265167951583862e-02,2.334767729043960571e-01,1.112241148948669434e-01,9.291153550148010254e-01,-4.611042141914367676e-01,-2.574134171009063721e-01,1.614643782377243042e-01,-6.096564605832099915e-02,4.994826912879943848e-01,3.592551648616790771e-01,5.939753726124763489e-02
-8.876692652702331543e-01,4.301547706127166748e-01,-2.765313088893890381e-01,-1.612999886274337769e-01,3.636935949325561523e-01,3.216331601142883301e-01,8.545399308204650879e-01,-5.629391670227050781e-01,-8.703326433897018433e-02,3.546391427516937256e-01,7.676177471876144409e-02,2.580968141555786133e-01,1.941251754760742188e-01,-1.131698042154312134e-01
-8.065605163574218750e-01,4.102019369602203369e-01,-2.170782983303070068e-01,-2.185734808444976807e-01,4.757283329963684082e-01,2.084272950887680054e-01,8.460450172424316406e-01,-4.874032437801361084e-01,-7.658961415290832520e-02,3.634532988071441650e-01,1.486701965332031250e-01,2.487193048000335693e-01,3.858272433280944824e-01,4.361810535192489624e-02
-8.490873575210571289e-01,5.383830666542053223e-01,-3.175276815891265869e-01,-3.190251290798187256e-01,3.540438711643218994e-01,3.349145948886871338e-01,7.034920454025268555e-01,-4.456417560577392578e-01,-7.691739499568939209e-02,1.375587582588195801e-01,-7.804396003484725952e-02,2.348636388778686523e-01,3.525956571102142334e-01,4.339804500341415405e-02
-6.664173007011413574e-01,2.734044790267944336e-01,-4.220757633447647095e-02,-1.160898432135581970e-01,4.508764445781707764e-01,2.308463007211685181e-01,7.835180759429931641e-01,-3.007804751396179199e-01,2.918565273284912109e-02,4.352079033851623535e-01,5.094502866268157959e-02,2.000692486763000488e-02,1.027139648795127869e-01,-6.605480611324310303e-02
-6.513470411300659180e-01,7.586839795112609863e-02,-2.769531309604644775e-01,-1.704236119985580444e-01,4.586949944496154785e-01,3.076135218143463135e-01,5.776834487915039062e-01,-2.940692007541656494e-01,-9.962630271911621094e-02,3.535023927688598633e-01,2.704729735851287842e-01,-3.338908404111862183e-02,2.938134074211120605e-01,2.210342697799205780e-02
-5.797055959701538086e-01,3.495304882526397705e-01,-2.703602313995361328e-01,-2.934705615043640137e-01,4.943599700927734375e-01,1.476419568061828613e-01,4.344040453433990479e-01,-2.635765969753265381e-01,-1.369976699352264404e-01,6.411272883415222168e-01,2.046987414360046387e-03,9.294810146093368530e-02,3.946757614612579346e-01,-1.134677752852439880e-01
-4.982922971248626709e-01,4.580948874354362488e-02,-2.247370332479476929e-01,-2.444766461849212646e-01,4.029256403446197510e-01,4.420702159404754639e-02,5.256584286689758301e-01,-1.287363469600677490e-01,-7.804682850837707520e-02,6.508638858795166016e-01,3.493810817599296570e-02,-1.126081421971321106e-01,2.936920821666717529e-01,-1.018094569444656372e-01
-4.283970296382904053e-01,3.452203571796417236e-01,-3.827298581600189209e-01,-2.134629786014556885e-01,3.951104879379272461e-01,4.246557131409645081e-02,3.814686536788940430e-01,-2.991137504577636719e-01,-5.151402205228805542e-02,7.905047535896301270e-01,2.227993011474609375e-01,-4.444549232721328735e-02,2.036645710468292236e-01,-2.352026551961898804e-01
-5.151549577713012695e-01,1.347592324018478394e-01,-4.381094872951507568e-01,-9.999056905508041382e-02,5.239687561988830566e-01,-6.844314187765121460e-02,5.095125436782836914e-01,-1.513125300407409668e-01,8.191771060228347778e-02,6.554881334304809570e-01,6.096586957573890686e-02,-8.922190219163894653e-02,4.748834669589996338e-01,-4.735200405120849609e-01
-5.150525569915771484e-01,1.501454710960388184e-01,-2.151367366313934326e-01,-2.695255726575851440e-02,2.929548025131225586e-01,-1.840767636895179749e-02,3.855230510234832764e-01,-1.290439516305923462e-01,5.330008268356323242e-02,6.979473233222961426e-01,2.302718460559844971e-01,-9.631960652768611908e-03,4.598507285118103027e-01,-4.350558221340179443e-01
-3.219576776027679443e-01,1.817468106746673584e-01,-3.481048047542572021e-01,-9.530439227819442749e-02,5.635859370231628418e-01,-8.346679806709289551e-02,4.356229007244110107e-01,-1.813328415155410767e-01,-5.044926330447196960e-02,6.037096977233886719e-01,1.105811670422554016e-01,1.669628471136093140e-01,4.214953780174255371e-01,-2.575395405292510986e-01
-2.817369401454925537e-01,1.176071912050247192e-01,-5.117613077163696289e-01,2.535924687981605530e-02,5.689030885696411133e-01,-3.281747698783874512e-01,4.762919247150421143e-01,-2.192966938018798828e-01,-1.128145679831504822e-01,6.911015510559082031e-01,2.543630301952362061e-01,1.550545543432235718e-01,5.805950760841369629e-01,-3.044860064983367920e-01
-9.382537007331848145e-02,-2.510628290474414825e-02,-3.789030611515045166e-01,-1.198290437459945679e-01,6.859589219093322754e-01,-1.166989579796791077e-01,3.989237844944000244e-01,-6.930611096322536469e-03,-3.867088854312896729e-01,6.002212762832641602e-01,2.068894207477569580e-01,9.755071252584457397e-02,7.571364045143127441e-01,-5.156690478324890137e-01
-2.239749282598495483e-01,-8.925972506403923035e-03,-3.473068177700042725e-01,-1.840247660875320435e-01,4.950119853019714355e-01,-2.897204160690307617e-01,1.832718998193740845e-01,-4.317074716091156006e-01,-3.222329914569854736e-01,6.618334054946899414e-01,2.693064212799072266e-01,2.744023501873016357e-01,6.379584074020385742e-01,-3.704848885536193848e-01
-2.217696905136108398e-01,-5.257755145430564880e-02,-1.625859439373016357e-01,-1.511289179325103760e-01,4.229800999164581299e-01,-9.691190719604492188e-02,3.290387094020843506e-01,-3.012470602989196777e-01,-3.904638290405273438e-01,6.512181162834167480e-01,2.867386937141418457e-01,4.287148118019104004e-01,7.554345726966857910e-01,-3.300058841705322266e-01
-1.339407265186309814e-01,-2.575802057981491089e-02,-2.144248783588409424e-01,-2.615908980369567871e-01,3.874664604663848877e-01,-1.265725493431091309e-01,4.099654853343963623e-01,-4.796442985534667969e-01,-5.681227445602416992e-01,4.332247376441955566e-01,2.974393963813781738e-01,2.897741496562957764e-01,8.075617551803588867e-01,-4.438638091087341309e-01
-2.349338233470916748e-01,-3.933508880436420441e-03,-2.376352697610855103e-01,-8.576090633869171143e-02,4.248228669166564941e-01,-3.786927163600921631e-01,4.990223050117492676e-01,-4.535226821899414062e-01,-7.088713049888610840e-01,3.251951634883880615e-01,2.087195217609405518e-01,7.859830260276794434e-01,9.634727835655212402e-01,-3.448078036308288574e-01
-1.326140463352203369e-01,1.184317544102668762e-01,-1.101717874407768250e-01,-2.371202707290649414e-01,2.905746400356292725e-01,-1.940568834543228149e-01,3.876171112060546875e-01,-4.987031519412994385e-01,-4.027039706707000732e-01,2.663085758686065674e-01,1.899572014808654785e-01,6.914594769477844238e-01,8.257738351821899414e-01,-2.181695997714996338e-01
-9.250306338071823120e-02,6.061674654483795166e-02,-2.054272294044494629e-01,-1.397778093814849854e-01,3.520877063274383545e-01,-3.139424324035644531e-01,5.744460225105285645e-01,-3.919863104820251465e-01,-4.715249240398406982e-01,2.484059482812881470e-01,2.114511430263519287e-01,5.501521825790405273e-01,9.863983392715454102e-01,-2.139530628919601440e-01
-1.700381040573120117e-01,6.204154342412948608e-02,-2.545690536499023438e-02,-3.657226562500000000e-01,3.387770652770996094e-01,-1.831911057233810425e-01,3.681875765323638916e-01,-5.239675641059875488e-01,-4.156497418880462646e-01,2.293178439140319824e-01,2.093003690242767334e-02,6.570134162902832031e-01,9.291449785232543945e-01,-1.669122092425823212e-02
2.065150626003742218e-02,1.673388332128524780e-01,-8.690093643963336945e-03,-3.884370625019073486e-01,9.966731816530227661e-02,-1.584549844264984131e-01,3.419829905033111572e-01,-7.267103791236877441e-01,-4.542185664176940918e-01,2.005388960242271423e-02,1.716394275426864624e-01,9.250532388687133789e-01,7.586445212364196777e-01,1.222299062646925449e-03
-9.962735697627067566e-03,4.152605310082435608e-02,5.061908066272735596e-02,-4.119541645050048828e-01,2.328490763902664185e-01,-2.770669162273406982e-01,3.114627897739410400e-01,-5.932205915451049805e-01,-3.469999134540557861e-01,1.427494883537292480e-01,-1.520148217678070068e-01,8.191542029380798340e-01,7.501689791679382324e-01,-8.873032778501510620e-02
3.908563405275344849e-02,8.062889426946640015e-02,1.020896658301353455e-01,-4.621794819831848145e-01,2.744260802865028381e-02,-6.052465736865997314e-02,3.990092277526855469e-01,-5.857149958610534668e-01,-4.263882339000701904e-01,1.393934190273284912e-01,-2.255820184946060181e-01,8.788277506828308105e-01,7.686212658882141113e-01,-8.552534133195877075e-02
2.874567508697509766e-01,1.467871069908142090e-01,2.549807429313659668e-01,-3.706882894039154053e-01,-1.397005468606948853e-01,-2.139945775270462036e-01,1.861312538385391235e-01,-5.864885449409484863e-01,-2.072727829217910767e-01,9.876713156700134277e-02,-1.687471568584442139e-01,6.568357944488525391e-01,4.572556018829345703e-01,6.513068825006484985e-02
2.482371926307678223e-01,4.008230566978454590e-02,-2.926820516586303711e-02,-2.488891929388046265e-01,-3.059386312961578369e-01,-5.370757728815078735e-02,2.716209292411804199e-01,-4.793151319026947021e-01,-1.482795737683773041e-02,3.122898042201995850e-01,-4.444442689418792725e-01,7.501314878463745117e-01,5.203688740730285645e-01,1.424389183521270752e-01
1.137550771236419678e-01,1.614926755428314209e-01,1.200675442814826965e-01,-2.845444381237030029e-01,-5.776041150093078613e-01,-7.286373525857925415e-02,2.708068192005157471e-01,-3.714842498302459717e-01,-2.345831394195556641e-01,1.303605437278747559e-01,-3.770009577274322510e-01,8.252237439155578613e-01,4.661307632923126221e-01,1.618289500474929810e-01
1.326051801443099976e-01,5.466225370764732361e-02,9.443162381649017334e-02,-4.239166080951690674e-01,-4.454040527343750000e-01,-1.725698411464691162e-01,3.738497793674468994e-01,-1.696823984384536743e-01,-8.959126472473144531e-02,2.397472858428955078e-01,-3.161299526691436768e-01,7.231674790382385254e-01,5.623354911804199219e-01,2.351939678192138672e-01
-6.989479809999465942e-02,1.232088133692741394e-01,1.082797944545745850e-01,-2.710693478584289551e-01,-5.421614050865173340e-01,-7.094148546457290649e-02,3.535194694995880127e-01,-1.311992406845092773e-01,-1.450501233339309692e-01,2.875692546367645264e-01,-3.716781437397003174e-01,6.287468075752258301e-01,2.818274497985839844e-01,1.812085360288619995e-01
1.972490996122360229e-01,2.866077721118927002e-01,-4.490770399570465088e-02,-4.155898392200469971e-01,-5.072181820869445801e-01,-1.132122334092855453e-02,1.504719704389572144e-01,-2.664116919040679932e-01,1.198038905858993530e-01,3.744696676731109619e-01,-2.892574667930603027e-01,8.781157732009887695e-01,1.563845276832580566e-01,1.468569785356521606e-01
-7.955908030271530151e-02,3.915525972843170166e-01,-4.641601070761680603e-02,-6.315256357192993164e-01,-6.422461271286010742e-01,-1.711574196815490723e-01,1.412288099527359009e-01,-5.433779954910278320e-02,2.237604856491088867e-01,2.146221846342086792e-01,-3.620219528675079346e-01,6.863037943840026855e-01,8.819901943206787109e-02,6.809539347887039185e-02
1.151289790868759155e-01,4.977283477783203125e-01,-1.671743541955947876e-01,-6.177632808685302734e-01,-4.371304810047149658e-01,-6.022468581795692444e-02,1.892804801464080811e-01,4.936621710658073425e-02,2.584553062915802002e-01,3.326060175895690918e-01,-2.428443282842636108e-01,6.053161621093750000e-01,8.218539506196975708e-02,7.030944526195526123e-02
3.703820332884788513e-02,5.901839733123779297e-01,-1.348496228456497192e-01,-6.541221737861633301e-01,-5.628900527954101562e-01,-1.890567094087600708e-01,1.328514814376831055e-01,-3.634391725063323975e-02,1.340075284242630005e-01,3.954014182090759277e-01,-1.663692891597747803e-01,6.987595558166503906e-01,-4.679488018155097961e-02,-2.315851114690303802e-02
-1.738117784261703491e-01,6.930000782012939453e-01,-3.665739595890045166e-01,-8.431898355484008789e-01,-5.763506293296813965e-01,-1.314328014850616455e-01,2.131604105234146118e-01,-9.646114706993103027e-02,1.076993718743324280e-02,2.705726623535156250e-01,-1.065514385700225830e-01,6.617510914802551270e-01,-7.033020257949829102e-02,-3.757047280669212341e-02
-2.060732096433639526e-01,5.930438637733459473e-01,-4.482494890689849854e-01,-8.657371401786804199e-01,-5.742266774177551270e-01,1.486657559871673584e-01,4.012199044227600098e-01,3.970276564359664917e-02,2.461047321557998657e-01,1.218266859650611877e-01,-1.123739406466484070e-01,6.212978959083557129e-01,1.134578213095664978e-01,-2.936783805489540100e-02
-6.101845949888229370e-02,6.981372833251953125e-01,-4.145549237728118896e-01,-6.289599537849426270e-01,-7.133796215057373047e-01,-1.806520484387874603e-02,2.448397576808929443e-01,5.838102847337722778e-02,2.614139616489410400e-01,3.029511272907257080e-01,-1.874485909938812256e-01,5.833946466445922852e-01,7.188015431165695190e-02,-9.191546589136123657e-02
-2.729003429412841797e-01,9.267620444297790527e-01,-5.585361123085021973e-01,-5.297305583953857422e-01,-5.236346125602722168e-01,1.256702095270156860e-01,1.921546757221221924e-01,2.642735093832015991e-02,1.801940649747848511e-01,3.577251434326171875e-01,3.735595196485519409e-02,6.063762307167053223e-01,3.341283276677131653e-02,-8.409878611564636230e-02
-2.412365674972534180e-01,6.775795817375183105e-01,-5.811380147933959961e-01,-8.079389929771423340e-01,-5.700674057006835938e-01,1.901530772447586060e-01,1.778182685375213623e-01,-7.661286508664488792e-04,3.198775053024291992e-01,3.859463334083557129e-01,6.923254579305648804e-02,4.788299202919006348e-01,-3.806424885988235474e-02,-1.194360852241516113e-01
-1.647504121065139771e-01,7.420340180397033691e-01,-6.061514616012573242e-01,-6.329924464225769043e-01,-5.805447101593017578e-01,1.510669291019439697e-01,1.322328299283981323e-01,-4.165063053369522095e-02,3.511416316032409668e-01,3.593598902225494385e-01,1.417107880115509033e-01,4.956626892089843750e-01,-6.814406719058752060e-03,-4.874477982521057129e-01
1.786229759454727173e-02,8.822962045669555664e-01,-5.890988111495971680e-01,-9.178981184959411621e-01,-3.957034051418304443e-01,8.083402365446090698e-02,-7.006614655256271362e-02,1.851670444011688232e-01,2.721641361713409424e-01,3.900865316390991211e-01,1.803474426269531250e-01,5.627112388610839844e-01,1.156372427940368652e-01,-2.268775403499603271e-01
-2.883469127118587494e-02,7.553462386131286621e-01,-7.341172099113464355e-01,-1.080125808715820312e+00,-3.996340036392211914e-01,1.070801094174385071e-01,5.010934919118881226e-02,2.273517102003097534e-01,5.202314853668212891e-01,5.494401454925537109e-01,1.000696793198585510e-01,5.021300911903381348e-01,1.497750729322433472e-01,-1.625279337167739868e-01
-9.165497124195098877e-02,6.863204240798950195e-01,-7.284639477729797363e-01,-8.605104088783264160e-01,-4.121269583702087402e-01,2.558350861072540283e-01,-1.578089743852615356e-01,4.005909860134124756e-01,4.224763512611389160e-01,5.044425129890441895e-01,3.067604601383209229e-01,3.600076735019683838e-01,5.258442461490631104e-02,-2.462871968746185303e-01
-9.748531505465507507e-03,6.001657843589782715e-01,-6.736795902252197266e-01,-7.141662240028381348e-01,-3.218171000480651855e-01,1.161932721734046936e-01,-3.995476663112640381e-01,4.210294485092163086e-01,4.518971443176269531e-01,6.051737666130065918e-01,1.248047128319740295e-01,2.649882435798645020e-01,1.965538412332534790e-01,1.263305637985467911e-02
-8.581419289112091064e-02,4.496908187866210938e-01,-4.976796805858612061e-01,-7.579191923141479492e-01,-3.363154232501983643e-01,2.878620624542236328e-01,-3.654508888721466064e-01,3.674827218055725098e-01,4.586456120014190674e-01,4.974014163017272949e-01,1.081556677818298340e-01,2.889578342437744141e-01,5.920346826314926147e-02,-1.369371712207794189e-01
7.517313957214355469e-02,3.945557177066802979e-01,-5.100004673004150391e-01,-7.888950705528259277e-01,-3.207542598247528076e-01,-2.346670627593994141e-02,-3.596096634864807129e-01,3.615373075008392334e-01,3.170755207538604736e-01,6.124657392501831055e-01,1.096546426415443420e-01,3.366587162017822266e-01,2.083983854390680790e-04,1.087979078292846680e-01
2.095191627740859985e-01,2.574071884155273438e-01,-5.791435837745666504e-01,-6.413033604621887207e-01,-2.737670242786407471e-01,-1.841443032026290894e-02,-3.534877300262451172e-01,3.954854905605316162e-01,5.280448198318481445e-01,5.590929985046386719e-01,-2.281448058784008026e-02,1.985099166631698608e-01,6.750205904245376587e-02,2.524648308753967285e-01
3.342940211296081543e-01,2.337589859962463379e-01,-6.245707273483276367e-01,-5.368195176124572754e-01,-5.075253844261169434e-01,-3.102090060710906982e-01,-4.793023169040679932e-01,1.054956391453742981e-01,5.138106346130371094e-01,6.814115643501281738e-01,1.730897575616836548e-01,1.110735461115837097e-01,-5.617476627230644226e-02,5.963090434670448303e-02
3.512014746665954590e-01,2.865440845489501953e-01,-6.280233860015869141e-01,-4.001164734363555908e-01,-3.160579800605773926e-01,-2.849979102611541748e-01,-5.532061457633972168e-01,3.087027966976165771e-01,4.137332737445831299e-01,6.255828142166137695e-01,-3.217976912856101990e-02,3.684698939323425293e-01,6.611584872007369995e-02,2.900906503200531006e-01
5.843803286552429199e-01,1.557541191577911377e-01,-5.413711071014404297e-01,-3.006254732608795166e-01,-2.214573919773101807e-01,-3.176653683185577393e-01,-5.492082238197326660e-01,3.068430125713348389e-01,1.609348654747009277e-01,6.132165193557739258e-01,-5.313757807016372681e-02,3.501577377319335938e-01,4.790868144482374191e-03,2.432658672332763672e-01
4.935672283172607422e-01,6.915922462940216064e-02,-7.537279129028320312e-01,-3.071698248386383057e-01,-3.773332834243774414e-01,-5.602597594261169434e-01,-8.528286814689636230e-01,5.315287709236145020e-01,2.632501423358917236e-01,7.225633263587951660e-01,-1.177646070718765259e-01,1.854549050331115723e-01,1.815054267644882202e-01,2.258401215076446533e-01
4.672548174858093262e-01,1.266597956418991089e-01,-4.974077641963958740e-01,-2.389427274465560913e-01,-3.849838674068450928e-01,-4.248888194561004639e-01,-4.296286404132843018e-01,4.999521970748901367e-01,1.389660686254501343e-01,4.608278870582580566e-01,1.058439910411834717e-01,1.301858872175216675e-01,3.848262349492870271e-05,3.288879692554473877e-01
4.298277795314788818e-01,1.175307705998420715e-01,-4.485467076301574707e-01,-2.196315824985504150e-01,-2.131092995405197144e-01,-5.282462239265441895e-01,-4.803132712841033936e-01,1.876874119043350220e-01,-7.610115688294172287e-03,4.687372744083404541e-01,-2.131089717149734497e-01,3.315457105636596680e-01,2.685803472995758057e-01,2.562013268470764160e-01
5.550149083137512207e-01,1.216668114066123962e-01,-7.109455466270446777e-01,-5.270461738109588623e-02,-1.695483028888702393e-01,-6.454557776451110840e-01,-3.889559209346771240e-01,1.850176453590393066e-01,-6.440869718790054321e-02,4.144441187381744385e-01,-1.234647035598754883e-01,3.208166956901550293e-01,2.021535038948059082e-01,3.591225445270538330e-01
6.112672686576843262e-01,-6.233122199773788452e-02,-6.908178329467773438e-01,-8.414641767740249634e-02,-1.526364535093307495e-01,-6.736565828323364258e-01,-4.767130315303802490e-01,2.830144166946411133e-01,-3.772846981883049011e-02,1.341961622238159180e-01,-1.307384073734283447e-01,3.903621137142181396e-01,3.246946632862091064e-01,3.522366285324096680e-01
5.361931324005126953e-01,1.164516136050224304e-01,-7.258939743041992188e-01,-1.915118545293807983e-01,-3.710256218910217285e-01,-8.089573979377746582e-01,-2.198052555322647095e-01,4.669450595974922180e-02,-1.088631600141525269e-01,-7.907412201166152954e-02,-5.804540589451789856e-02,5.644211769104003906e-01,3.710794746875762939e-01,4.234133362770080566e-01
5.436062216758728027e-01,7.325130701065063477e-02,-8.760727047920227051e-01,-1.664634197950363159e-01,-2.738121151924133301e-01,-9.247468709945678711e-01,7.300597429275512695e-02,-5.215176567435264587e-02,-1.356264799833297729e-01,3.035597205162048340e-01,-1.670266836881637573e-01,7.357011437416076660e-01,4.259504675865173340e-01,4.960953891277313232e-01
4.418880045413970947e-01,-2.052158117294311523e-01,-5.198175907135009766e-01,-2.836656868457794189e-01,-3.807932138442993164e-01,-7.659683227539062500e-01,-1.705446243286132812e-01,-4.819013923406600952e-02,-2.445375472307205200e-01,-1.768001238815486431e-03,-1.885573863983154297e-01,8.786337375640869141e-01,3.728289306163787842e-01,4.835085570812225342e-01
3.623658716678619385e-01,-1.749476045370101929e-01,-4.876205623149871826e-01,-2.553762197494506836e-01,-3.658678531646728516e-01,-7.571833133697509766e-01,-5.940837785601615906e-02,-2.036327868700027466e-01,-3.067765831947326660e-01,-2.334251403808593750e-01,-2.807797491550445557e-01,5.730810165405273438e-01,2.159708291292190552e-01,4.153814017772674561e-01
5.355145335197448730e-01,6.763539463281631470e-02,-6.515299677848815918e-01,-2.212881855666637421e-02,-2.756140828132629395e-01,-8.234446644783020020e-01,1.804563403129577637e-01,-1.699744462966918945e-01,-2.563963532447814941e-01,-5.813568085432052612e-02,-2.066379636526107788e-01,7.818965911865234375e-01,1.919175386428833008e-01,4.865837991237640381e-01
5.092108845710754395e-01,-1.955906003713607788e-01,-7.066538333892822266e-01,-4.225015938282012939e-01,-4.201253056526184082e-01,-6.182267069816589355e-01,-3.528152406215667725e-02,-1.773939281702041626e-01,-4.595246315002441406e-01,-3.369580805301666260e-01,-3.990036547183990479e-01,7.757728695869445801e-01,2.191093116998672485e-01,5.802086591720581055e-01
2.471028119325637817e-01,-2.044020295143127441e-01,-5.705134272575378418e-01,-5.416203737258911133e-01,-2.606992721557617188e-01,-7.981413006782531738e-01,9.025329351425170898e-02,-2.363341599702835083e-01,-2.650853097438812256e-01,-5.442871451377868652e-01,-2.140243649482727051e-01,8.201051354408264160e-01,2.229433655738830566e-01,4.559563398361206055e-01
4.582888782024383545e-01,-1.776588708162307739e-01,-4.284340441226959229e-01,-4.074221849441528320e-01,-3.416300117969512939e-01,-7.399104833602905273e-01,-6.932003051042556763e-02,-2.189272046089172363e-01,-3.426019251346588135e-01,-4.628657102584838867e-01,-4.008957445621490479e-01,8.308600187301635742e-01,2.795228362083435059e-01,6.727741956710815430e-01
1.536597609519958496e-01,-8.322434872388839722e-02,-5.419937968254089355e-01,-3.627398312091827393e-01,-2.934253811836242676e-01,-5.976186394691467285e-01,1.152451336383819580e-01,-2.745622992515563965e-01,-2.165058702230453491e-01,-3.777642846107482910e-01,-6.584162116050720215e-01,8.513507843017578125e-01,3.409939110279083252e-01,7.756135463714599609e-01
1.978889852762222290e-01,-1.163722276687622070e-01,-2.958245873451232910e-01,-4.917446076869964600e-01,-6.562739610671997070e-01,-6.902785897254943848e-01,1.933510303497314453e-01,-1.527008712291717529e-01,-2.340298444032669067e-01,-3.419991433620452881e-01,-3.030093312263488770e-01,6.363762617111206055e-01,8.302769064903259277e-02,7.367036938667297363e-01
1.878380775451660156e-01,-1.525233983993530273e-01,-4.439243376255035400e-01,-4.308872520923614502e-01,-5.567076206207275391e-01,-5.322840213775634766e-01,1.989644467830657959e-01,-2.840694785118103027e-01,-7.665993273258209229e-02,-5.003298521041870117e-01,-5.538548231124877930e-01,6.801899671554565430e-01,-2.103461027145385742e-01,7.218876481056213379e-01
3.525869846343994141e-01,-1.774435192346572876e-01,-4.358595013618469238e-01,-4.330172240734100342e-01,-6.444353461265563965e-01,-4.992695748805999756e-01,2.117209136486053467e-01,-7.055123895406723022e-02,-7.707743346691131592e-02,-4.467690885066986084e-01,-7.747167348861694336e-01,7.634037137031555176e-01,1.748102009296417236e-01,7.718086242675781250e-01
1.098179891705513000e-01,-2.494833767414093018e-01,-5.302032828330993652e-01,-4.445553421974182129e-01,-6.944020390510559082e-01,-4.363544583320617676e-01,5.373923853039741516e-02,-7.262108381837606430e-03,4.468042403459548950e-02,-1.952044665813446045e-01,-5.261150598526000977e-01,6.120414733886718750e-01,-5.555841326713562012e-02,7.756212949752807617e-01
1.671192795038223267e-01,-3.671977818012237549e-01,-7.456908822059631348e-01,-3.664304018020629883e-01,-7.159038782119750977e-01,-6.413713693618774414e-01,5.417419970035552979e-02,-1.055911481380462646e-01,-1.420102417469024658e-01,-4.219357371330261230e-01,-2.907130718231201172e-01,4.232570528984069824e-01,-3.893616050481796265e-02,7.494997978210449219e-01
1.345180124044418335e-01,-1.230469048023223877e-01,-5.760389566421508789e-01,-3.550121784210205078e-01,-6.562314629554748535e-01,-6.260321736335754395e-01,4.816109687089920044e-02,-1.174840927124023438e-01,-1.330542713403701782e-01,-4.805581271648406982e-01,-3.448173999786376953e-01,5.091812014579772949e-01,-1.067918166518211365e-01,7.044537663459777832e-01
1.330405771732330322e-01,-1.593934595584869385e-01,-6.187032461166381836e-01,-3.312056362628936768e-01,-4.051837325096130371e-01,-6.448789238929748535e-01,-1.085298135876655579e-02,1.274689435958862305e-01,1.082661747932434082e-02,-2.316285818815231323e-01,-2.717872858047485352e-01,3.627241849899291992e-01,-3.566228747367858887e-01,5.861607193946838379e-01
1.261152327060699463e-01,-1.122741475701332092e-01,-7.783715128898620605e-01,-5.224962830543518066e-01,-3.744703829288482666e-01,-6.610321998596191406e-01,-9.300790727138519287e-03,1.159769222140312195e-01,-1.047998592257499695e-01,-2.432050853967666626e-01,-3.199817240238189697e-01,1.668248772621154785e-01,-2.762683928012847900e-01,4.913012385368347168e-01
1.547038257122039795e-01,-1.827501803636550903e-01,-7.835856676101684570e-01,-5.083053112030029297e-01,-1.718683838844299316e-01,-5.223529338836669922e-01,1.352349817752838135e-01,-1.102121430449187756e-03,-5.393510684370994568e-02,-3.391720652580261230e-01,-2.183205187320709229e-01,1.003624647855758667e-01,-3.047196269035339355e-01,1.934846639633178711e-01
-1.359160523861646652e-02,-2.555904388427734375e-01,-7.733389139175415039e-01,-4.727274775505065918e-01,-3.495197594165802002e-01,-5.033986568450927734e-01,6.709592789411544800e-02,-8.785929530858993530e-02,-1.909820437431335449e-01,-2.929521799087524414e-01,-1.159422174096107483e-01,2.603912651538848877e-01,-2.278674542903900146e-01,2.021165043115615845e-01
-1.522774249315261841e-01,-1.804088354110717773e-01,-9.258742332458496094e-01,-6.341105103492736816e-01,-3.712730109691619873e-01,-3.642529249191284180e-01,1.665078103542327881e-01,2.566866278648376465e-01,-3.174794018268585205e-01,-2.921040952205657959e-01,6.531987339258193970e-03,2.788168936967849731e-02,-2.080235779285430908e-01,2.275059819221496582e-01
-6.903345230966806412e-03,2.757992409169673920e-02,-8.263770341873168945e-01,-5.454451441764831543e-01,-3.084875047206878662e-01,-3.940453827381134033e-01,2.316792011260986328e-01,1.604168713092803955e-01,-2.397920936346054077e-01,-1.524792611598968506e-01,-3.721817955374717712e-02,1.726764887571334839e-01,-2.983305156230926514e-01,-5.430234968662261963e-02
-7.476677745580673218e-02,-2.050676047801971436e-01,-8.991489410400390625e-01,-5.999063253402709961e-01,-4.044920206069946289e-02,-1.306386888027191162e-01,7.670131325721740723e-02,-1.616727793589234352e-03,-4.135833680629730225e-01,-2.989745736122131348e-01,2.017615586519241333e-01,1.280714869499206543e-01,-1.328537017107009888e-01,3.762831911444664001e-02
1.234716475009918213e-01,-1.523374915122985840e-01,-1.064423203468322754e+00,-6.025060415267944336e-01,9.645756334066390991e-02,-3.997332751750946045e-01,1.270952969789505005e-01,1.636086553335189819e-01,-4.732980728149414062e-01,-3.697111010551452637e-01,3.418928086757659912e-01,4.039179906249046326e-02,-1.259127408266067505e-01,-5.380910262465476990e-02
1.108658313751220703e-01,-2.367025613784790039e-01,-8.048670887947082520e-01,-4.386472404003143311e-01,3.429005667567253113e-02,-5.331509113311767578e-01,-2.650626748800277710e-02,-1.011185050010681152e-01,-4.490837752819061279e-01,-3.778662085533142090e-01,2.367000877857208252e-01,1.350218355655670166e-01,2.559640258550643921e-02,1.093540191650390625e-01
1.838352382183074951e-01,-4.057761728763580322e-01,-9.385846257209777832e-01,-4.770078361034393311e-01,3.978944197297096252e-02,-4.977104663848876953e-01,-1.162062510848045349e-01,2.716072462499141693e-02,-5.068275928497314453e-01,-3.325240314006805420e-01,4.276315867900848389e-01,2.373911626636981964e-02,1.287652254104614258e-01,-3.290114104747772217e-01
1.234092265367507935e-01,-3.139731585979461670e-01,-8.582630753517150879e-01,-5.049416422843933105e-01,1.416476964950561523e-01,-2.840618789196014404e-01,-7.599715609103441238e-03,2.214629352092742920e-01,-6.759108304977416992e-01,-2.457683384418487549e-01,3.388978540897369385e-01,1.054301708936691284e-01,-7.700403779745101929e-02,-2.939854264259338379e-01
2.586590647697448730e-01,-5.108606219291687012e-01,-6.886643171310424805e-01,-3.487867414951324463e-01,3.095406293869018555e-01,-3.559890687465667725e-01,6.428056955337524414e-02,-8.055411279201507568e-02,-5.052331089973449707e-01,-3.361584544181823730e-01,5.721489191055297852e-01,2.685563266277313232e-02,6.891156733036041260e-02,-1.242044642567634583e-01
7.622303068637847900e-02,-6.974498033523559570e-01,-6.654631495475769043e-01,-2.200131267309188843e-01,2.828747928142547607e-01,-2.633244991302490234e-01,-4.633566737174987793e-02,-6.268942356109619141e-02,-6.521282792091369629e-01,-4.361111223697662354e-01,3.015576601028442383e-01,1.293476577848196030e-02,3.534294664859771729e-01,-1.418125182390213013e-01
3.128469884395599365e-01,-4.810279011726379395e-01,-4.564637839794158936e-01,-1.176853254437446594e-01,2.618150711059570312e-01,-4.194328486919403076e-01,1.265557669103145599e-02,-1.990822516381740570e-02,-5.801708698272705078e-01,-4.868013560771942139e-01,5.752961635589599609e-01,1.427503973245620728e-01,2.967494726181030273e-01,-2.124866247177124023e-01
4.040757417678833008e-01,-8.655381798744201660e-01,-4.521331787109375000e-01,-1.995678097009658813e-01,3.313397169113159180e-01,-3.231520056724548340e-01,-1.863302141427993774e-01,-6.260289996862411499e-02,-6.909638643264770508e-01,-1.992255747318267822e-01,3.294888436794281006e-01,-1.197079345583915710e-01,3.180349171161651611e-01,4.091928154230117798e-02
4.520195722579956055e-01,-9.497904777526855469e-01,-5.198814272880554199e-01,-1.639941781759262085e-01,1.207767948508262634e-01,-3.732451200485229492e-01,5.657042562961578369e-02,-1.161978095769882202e-01,-4.748644828796386719e-01,-4.833752512931823730e-01,3.665662705898284912e-01,-1.930553764104843140e-01,3.009984493255615234e-01,1.059668511152267456e-02
4.379108846187591553e-01,-9.776416420936584473e-01,-3.875542581081390381e-01,-1.104620471596717834e-01,1.556972265243530273e-01,-2.608270645141601562e-01,-1.904496252536773682e-01,1.614333875477313995e-02,-6.145340800285339355e-01,-5.190302729606628418e-01,4.003049135208129883e-01,5.233536940068006516e-03,3.575007021427154541e-01,-4.240514710545539856e-02
5.116259455680847168e-01,-1.010856747627258301e+00,-1.339210271835327148e-01,1.268040239810943604e-01,1.585314273834228516e-01,-4.751124978065490723e-01,-2.364408224821090698e-02,-2.796650230884552002e-01,-7.221980690956115723e-01,-5.229882597923278809e-01,3.025875985622406006e-01,4.555115010589361191e-03,3.874441385269165039e-01,-1.784820407629013062e-01
6.940267682075500488e-01,-1.057049393653869629e+00,-2.453425824642181396e-01,7.972946017980575562e-02,-1.714058034121990204e-02,-5.003069043159484863e-01,-8.724591881036758423e-02,-6.193901225924491882e-02,-7.871665954589843750e-01,-5.190952420234680176e-01,3.444152474403381348e-01,-2.514463961124420166e-01,1.733923405408859253e-01,6.330810487270355225e-02
6.048849225044250488e-01,-1.130984306335449219e+00,-1.182232573628425598e-01,1.650721132755279541e-01,9.700227528810501099e-02,-5.428467392921447754e-01,-1.099128723144531250e-01,-1.528163403272628784e-01,-7.989982366561889648e-01,-4.821096956729888916e-01,4.400992989540100098e-01,8.131221681833267212e-02,3.936317861080169678e-01,-3.034910187125205994e-02
5.045084357261657715e-01,-1.050201416015625000e+00,-6.707447115331888199e-03,2.285449504852294922e-01,6.085400655865669250e-02,-4.290775060653686523e-01,-5.701714754104614258e-02,-1.434452384710311890e-01,-9.309754967689514160e-01,-2.621028721332550049e-01,2.419672012329101562e-01,2.686972916126251221e-02,1.755113452672958374e-01,8.352601528167724609e-02
5.958338975906372070e-01,-1.119745850563049316e+00,3.244210779666900635e-01,2.700549066066741943e-01,4.843224585056304932e-02,-4.000611305236816406e-01,-4.408254474401473999e-02,-1.945331543684005737e-01,-9.748060107231140137e-01,-5.907275676727294922e-01,2.605199515819549561e-01,6.425302475690841675e-02,1.189828664064407349e-01,1.237023770809173584e-01
4.798744320869445801e-01,-1.057296514511108398e+00,1.691859215497970581e-02,4.364944994449615479e-01,9.448012709617614746e-02,-5.805866122245788574e-01,1.989933997392654419e-01,-3.831932842731475830e-01,-8.448628783226013184e-01,-6.127988100051879883e-01,3.385936915874481201e-01,1.457933336496353149e-01,1.728258430957794189e-01,-1.256894618272781372e-01
4.885289669036865234e-01,-8.525324463844299316e-01,6.505270302295684814e-02,3.100989460945129395e-01,-9.997623972594738007e-03,-5.121316313743591309e-01,7.121650874614715576e-02,-4.805241525173187256e-01,-9.327093362808227539e-01,-6.235744357109069824e-01,2.511104345321655273e-01,2.609337270259857178e-01,1.183412596583366394e-01,-1.481066495180130005e-01
3.671111464500427246e-01,-9.489826560020446777e-01,-5.119543522596359253e-02,2.452618479728698730e-01,4.067338258028030396e-02,-4.930822849273681641e-01,2.612015008926391602e-01,-3.474509119987487793e-01,-8.993062376976013184e-01,-7.362004518508911133e-01,2.843397855758666992e-01,3.993454948067665100e-02,2.863303720951080322e-01,-2.574336156249046326e-02
1.962900161743164062e-01,-8.809741139411926270e-01,1.751957386732101440e-01,3.358970880508422852e-01,-3.279249370098114014e-02,-3.839557170867919922e-01,2.024928033351898193e-01,-4.239186048507690430e-01,-1.164884686470031738e+00,-5.947552323341369629e-01,4.146238863468170166e-01,3.285193443298339844e-01,3.393817543983459473e-01,-5.754220113158226013e-02
2.810557186603546143e-01,-8.070444464683532715e-01,2.942580580711364746e-01,2.129643112421035767e-01,-1.106889843940734863e-01,-4.133706688880920410e-01,4.349205195903778076e-01,-4.525828063488006592e-01,-9.624553322792053223e-01,-7.382667064666748047e-01,3.837224543094635010e-01,2.018846124410629272e-01,2.366881370544433594e-01,-1.530372202396392822e-01
2.338610440492630005e-01,-6.328479051589965820e-01,1.854789555072784424e-01,1.008225604891777039e-01,-1.043894216418266296e-01,-1.800840795040130615e-01,2.780052423477172852e-01,-4.934293329715728760e-01,-1.018702030181884766e+00,-6.084564328193664551e-01,5.411499142646789551e-01,1.960682421922683716e-01,3.473502099514007568e-01,-2.733853757381439209e-01
5.759437382221221924e-02,-4.476283788681030273e-01,5.513465777039527893e-02,-1.047036494128406048e-03,-1.107075735926628113e-01,-2.918951809406280518e-01,3.834257721900939941e-01,-4.689524471759796143e-01,-1.062897205352783203e+00,-7.811210751533508301e-01,5.017599463462829590e-01,2.119188457727432251e-01,8.068268001079559326e-02,-2.772966027259826660e-01
1.474948376417160034e-01,-4.627822935581207275e-01,4.620472192764282227e-01,8.567389845848083496e-02,-1.307235807180404663e-01,7.537008076906204224e-02,6.497713923454284668e-01,-5.512236952781677246e-01,-9.560171961784362793e-01,-8.392714858055114746e-01,4.909583032131195068e-01,2.789418399333953857e-01,1.912666261196136475e-01,-3.682500422000885010e-01
2.714373916387557983e-02,-5.612326264381408691e-01,2.266737669706344604e-01,1.749693006277084351e-01,-2.457092255353927612e-01,-4.155639559030532837e-02,4.030889570713043213e-01,-6.735029816627502441e-01,-8.868446350097656250e-01,-7.632693052291870117e-01,4.420490860939025879e-01,1.544042825698852539e-01,1.458418965339660645e-01,-2.108076810836791992e-01
2.957366406917572021e-01,-5.645859241485595703e-01,2.432575672864913940e-01,-8.556701242923736572e-03,-2.642533779144287109e-01,1.035425812005996704e-01,5.800641775131225586e-01,-8.299683332443237305e-01,-7.926305532455444336e-01,-6.561815142631530762e-01,3.138425946235656738e-01,9.253627061843872070e-02,4.010058939456939697e-02,-3.159777820110321045e-01
-2.041653543710708618e-02,-5.239571332931518555e-01,1.941531598567962646e-01,-5.178787931799888611e-02,-4.122315645217895508e-01,3.427294492721557617e-01,4.144443571567535400e-01,-5.356364250183105469e-01,-5.429607629776000977e-01,-7.115079760551452637e-01,5.935634374618530273e-01,1.170334070920944214e-01,5.376039072871208191e-02,-4.134774506092071533e-01
1.474306266754865646e-02,-4.695077538490295410e-01,4.859575927257537842e-01,-4.500275105237960815e-02,-2.559406757354736328e-01,3.241218924522399902e-01,3.723783493041992188e-01,-4.904873073101043701e-01,-5.072829723358154297e-01,-6.355774402618408203e-01,5.452268123626708984e-01,1.534405909478664398e-02,9.366834908723831177e-02,-3.184700608253479004e-01
9.379062801599502563e-02,-4.070832729339599609e-01,3.438587188720703125e-01,-1.662134975194931030e-01,-3.827718496322631836e-01,4.266269803047180176e-01,2.469419091939926147e-01,-3.888159692287445068e-01,-3.110303282737731934e-01,-5.192709565162658691e-01,5.061932206153869629e-01,6.610070914030075073e-02,-3.775604127440601587e-04,-3.674951791763305664e-01
-1.552921086549758911e-01,-3.522095382213592529e-01,2.766363024711608887e-01,-9.943573176860809326e-02,-4.004086852073669434e-01,4.105820655822753906e-01,2.545649707317352295e-01,-4.528037831187248230e-02,-4.133336842060089111e-01,-5.252909064292907715e-01,4.964130818843841553e-01,-2.508151531219482422e-01,-1.121465638279914856e-01,-3.141272068023681641e-01
-2.612493932247161865e-01,-2.626351416110992432e-01,3.826429247856140137e-01,-1.196452304720878601e-01,-3.559076189994812012e-01,6.587519049644470215e-01,2.004841715097427368e-01,-3.369675576686859131e-01,-4.377437829971313477e-01,-1.792908906936645508e-01,6.394796371459960938e-01,-5.606872588396072388e-02,-3.447600454092025757e-02,-4.248655438423156738e-01
-1.955390721559524536e-01,-2.873723208904266357e-01,3.768256008625030518e-01,7.212905585765838623e-02,-1.602181792259216309e-01,3.788442015647888184e-01,1.843778043985366821e-01,-3.041106760501861572e-01,-2.746500670909881592e-01,-1.295641958713531494e-01,7.860624194145202637e-01,-3.027805825695395470e-03,1.293756533414125443e-02,-4.874156117439270020e-01
-1.660111546516418457e-01,-2.906203866004943848e-01,7.289700210094451904e-02,5.839927494525909424e-02,-2.903119325637817383e-01,5.752129554748535156e-01,1.613798737525939941e-01,-1.534119993448257446e-01,-2.815522849559783936e-01,-1.383459120988845825e-01,6.683785915374755859e-01,-3.763836622238159180e-01,-5.304163321852684021e-02,-4.786643981933593750e-01
-1.981441378593444824e-01,-2.679811120033264160e-01,3.589509129524230957e-01,-1.933336444199085236e-02,-5.009539127349853516e-01,6.091716885566711426e-01,-7.330942153930664062e-02,-2.210461944341659546e-01,-3.292936384677886963e-01,6.227899342775344849e-02,8.528639674186706543e-01,-4.684669673442840576e-01,-1.317532509565353394e-01,-6.046448349952697754e-01
-1.530395895242691040e-01,-4.773586690425872803e-01,1.874978989362716675e-01,-1.132653057575225830e-01,-1.592016816139221191e-01,7.609139680862426758e-01,-1.097092404961585999e-01,-1.349731981754302979e-01,-2.933632135391235352e-01,1.283325850963592529e-01,8.985818624496459961e-01,-2.849537730216979980e-01,-8.110721409320831299e-02,-5.201467275619506836e-01
-1.651206463575363159e-01,-1.514865905046463013e-01,1.212034523487091064e-01,7.492669671773910522e-02,-2.077914625406265259e-01,5.896287560462951660e-01,-1.631256006658077240e-02,9.637736529111862183e-02,-3.489462435245513916e-01,1.151007041335105896e-01,8.612856864929199219e-01,-4.674620628356933594e-01,-1.670162752270698547e-02,-7.168670296669006348e-01
-1.600828021764755249e-01,-2.921625971794128418e-01,4.899522289633750916e-02,4.039526581764221191e-01,-1.530234068632125854e-01,6.451990604400634766e-01,-1.398979127407073975e-01,9.088202565908432007e-02,-1.829768568277359009e-01,-1.145949028432369232e-02,7.547534704208374023e-01,-3.183767795562744141e-01,-1.432808488607406616e-01,-8.009645938873291016e-01
6.213349103927612305e-02,-1.482787281274795532e-01,1.230903938412666321e-01,6.024785339832305908e-02,1.527462899684906006e-01,5.298818945884704590e-01,5.211735144257545471e-03,1.280529350042343140e-01,-1.653580367565155029e-01,4.474544525146484375e-02,1.157563090324401855e+00,-4.011144638061523438e-01,1.692638397216796875e-01,-9.594357609748840332e-01
-4.825932905077934265e-02,-8.346166461706161499e-02,6.183541566133499146e-02,2.143311649560928345e-01,1.602967381477355957e-01,5.012143254280090332e-01,-7.510728202760219574e-03,-2.060234397649765015e-01,-1.895787268877029419e-01,2.189163565635681152e-01,1.141723394393920898e+00,-1.457502990961074829e-01,2.312503457069396973e-01,-9.230760335922241211e-01
-3.020671308040618896e-01,-4.084578529000282288e-02,2.004368007183074951e-01,2.872804105281829834e-01,-1.499602012336254120e-02,5.720383524894714355e-01,-1.418814361095428467e-01,-4.339160397648811340e-02,-3.380738496780395508e-01,2.943661212921142578e-01,1.203793764114379883e+00,-4.713001251220703125e-01,1.697450280189514160e-01,-9.704537391662597656e-01
-1.524862051010131836e-01,-1.062854081392288208e-01,6.101448461413383484e-02,1.940131485462188721e-01,9.478098154067993164e-02,5.086173415184020996e-01,6.544148176908493042e-02,-1.524440944194793701e-01,-5.281894803047180176e-01,2.569481432437896729e-01,1.071903228759765625e+00,-4.010771811008453369e-01,1.836338937282562256e-01,-9.471750855445861816e-01
-9.551566839218139648e-02,-3.288040757179260254e-01,-3.015165566466748714e-04,1.548889726400375366e-01,-2.408445999026298523e-02,4.448954761028289795e-01,-2.493739314377307892e-02,-1.553518176078796387e-01,-4.297744631767272949e-01,2.107682079076766968e-01,1.217153310775756836e+00,-3.729149103164672852e-01,4.709052145481109619e-01,-1.013524770736694336e+00
-8.357716351747512817e-02,-1.555016189813613892e-01,-1.966675221920013428e-01,2.211700677871704102e-01,8.315187692642211914e-02,4.881014525890350342e-01,-1.136915013194084167e-01,-3.965858817100524902e-01,-4.055227637290954590e-01,1.120287999510765076e-01,1.215363025665283203e+00,-3.664074242115020752e-01,5.335240960121154785e-01,-8.768854737281799316e-01
3.768047690391540527e-02,-1.027433425188064575e-01,2.112207263708114624e-01,4.607595503330230713e-01,1.827386170625686646e-01,6.659265160560607910e-01,-2.335657924413681030e-02,-3.260194063186645508e-01,-6.755340099334716797e-01,7.802888005971908569e-02,9.648560285568237305e-01,-2.652715444564819336e-01,5.032622218132019043e-01,-8.227390646934509277e-01
-1.543388813734054565e-01,-1.875083297491073608e-01,1.571840420365333557e-02,4.079751372337341309e-01,9.413939714431762695e-02,6.637796163558959961e-01,9.366869181394577026e-02,-5.207318067550659180e-01,-6.115820407867431641e-01,2.508107125759124756e-01,8.727401494979858398e-01,-2.562536597251892090e-01,6.785695552825927734e-01,-8.922849297523498535e-01
-5.600459501147270203e-02,-1.707738786935806274e-01,1.112058982253074646e-01,4.046888947486877441e-01,-3.213850781321525574e-02,4.145391583442687988e-01,-1.480869203805923462e-01,-7.122642993927001953e-01,-4.818163812160491943e-01,1.839206069707870483e-01,9.254156947135925293e-01,-1.681181490421295166e-01,6.754438877105712891e-01,-9.433022141456604004e-01
-1.357023864984512329e-01,-2.772557437419891357e-01,2.576120495796203613e-01,4.691888689994812012e-01,2.728891372680664062e-01,5.026005506515502930e-01,-7.400621473789215088e-02,-4.478372037410736084e-01,-5.328826904296875000e-01,7.886902242898941040e-02,7.611641883850097656e-01,9.356564260087907314e-04,9.696785211563110352e-01,-6.526461839675903320e-01
6.622385233640670776e-02,-1.563732624053955078e-01,3.541527390480041504e-01,3.433997631072998047e-01,9.051277488470077515e-02,4.711807370185852051e-01,-1.336404383182525635e-01,-4.584413170814514160e-01,-3.621060848236083984e-01,3.956791386008262634e-02,8.140961527824401855e-01,1.488944888114929199e-01,7.717447280883789062e-01,-6.567496061325073242e-01
1.488334536552429199e-01,-3.592616021633148193e-01,5.515031218528747559e-01,4.342398345470428467e-01,-4.253612086176872253e-02,4.546595811843872070e-01,6.921218242496252060e-03,-4.772849082946777344e-01,-4.730325043201446533e-01,6.720448844134807587e-03,5.716145038604736328e-01,3.512661457061767578e-01,7.380598187446594238e-01,-5.895693302154541016e-01
1.221785843372344971e-01,-4.831386804580688477e-01,6.139548420906066895e-01,4.927244186401367188e-01,1.018200963735580444e-01,3.843702673912048340e-01,-3.369650244712829590e-02,-5.067377686500549316e-01,-2.900968492031097412e-01,1.625749655067920685e-02,5.818265676498413086e-01,2.846554815769195557e-01,8.578711152076721191e-01,-3.940559625625610352e-01
7.100735604763031006e-02,-4.832061529159545898e-01,4.109117984771728516e-01,3.360175490379333496e-01,-8.243351429700851440e-02,3.063818514347076416e-01,3.637636080384254456e-02,-6.478120684623718262e-01,-4.283217787742614746e-01,1.712984293699264526e-01,5.204744935035705566e-01,5.425811558961868286e-02,6.966875791549682617e-01,-3.555196523666381836e-01
1.919164359569549561e-01,-4.336421787738800049e-01,5.835896730422973633e-01,5.897237658500671387e-01,-2.821667790412902832e-01,1.444571018218994141e-01,-7.612988352775573730e-02,-5.301844477653503418e-01,-2.615216076374053955e-01,4.033134505152702332e-02,2.427474260330200195e-01,8.490999788045883179e-02,7.871440052986145020e-01,-3.805199861526489258e-01
2.347733676433563232e-01,-4.008027911186218262e-01,4.754492938518524170e-01,5.075239539146423340e-01,-1.932824552059173584e-01,2.008032351732254028e-01,-7.322014775127172470e-03,-6.076164245605468750e-01,-3.483664095401763916e-01,1.108192652463912964e-01,2.689686715602874756e-01,1.792756468057632446e-01,8.026593923568725586e-01,-3.091013133525848389e-01
5.993725731968879700e-02,-3.913810551166534424e-01,4.561960697174072266e-01,5.891133546829223633e-01,-2.876605093479156494e-01,2.638317644596099854e-01,5.591925233602523804e-03,-8.447827696800231934e-01,-1.215841397643089294e-01,1.656182259321212769e-01,2.892451584339141846e-01,3.247055411338806152e-01,9.719747304916381836e-01,-3.771130740642547607e-01
8.633388578891754150e-02,-4.456661045551300049e-01,4.781060814857482910e-01,4.128483533859252930e-01,-2.585090100765228271e-01,1.614017486572265625e-01,4.438321292400360107e-02,-6.059498190879821777e-01,-2.538682520389556885e-01,1.956935226917266846e-01,1.323574185371398926e-01,3.923187851905822754e-01,7.251505255699157715e-01,-2.147615402936935425e-01
-3.934080712497234344e-03,2.989859133958816528e-02,4.055421352386474609e-01,5.110069513320922852e-01,-9.464992582798004150e-02,2.080276161432266235e-01,2.720572352409362793e-01,-7.245057821273803711e-01,-3.743906319141387939e-01,-9.709335863590240479e-02,2.205992341041564941e-01,3.877667486667633057e-01,5.687283277511596680e-01,-1.754125505685806274e-01
-4.977222159504890442e-02,-9.240506589412689209e-02,3.388574123382568359e-01,2.963941991329193115e-01,-3.373426198959350586e-01,1.369802355766296387e-01,2.512370645999908447e-01,-4.777925014495849609e-01,-2.270036786794662476e-01,2.628968656063079834e-01,1.932114213705062866e-01,2.439568638801574707e-01,7.335128188133239746e-01,-3.357188105583190918e-01
1.628521084785461426e-02,-2.147563099861145020e-01,2.112410068511962891e-01,2.197865843772888184e-01,-2.383907288312911987e-01,1.851379573345184326e-01,3.723382651805877686e-01,-5.443435311317443848e-01,-2.544636726379394531e-01,-6.101127341389656067e-02,7.865542545914649963e-03,3.994226455688476562e-01,5.636093020439147949e-01,-2.908337712287902832e-01
-1.199714988470077515e-01,2.195363678038120270e-02,2.578315138816833496e-01,4.063666164875030518e-01,-3.617967665195465088e-01,1.551373451948165894e-01,1.837061494588851929e-01,-7.544628381729125977e-01,-2.693338990211486816e-01,-2.701802551746368408e-02,2.092308700084686279e-01,6.541980504989624023e-01,5.504301786422729492e-01,-4.002143740653991699e-01
-1.159562468528747559e-01,1.317253410816192627e-01,3.532522916793823242e-01,2.396373897790908813e-01,-3.353970348834991455e-01,3.458311855792999268e-01,3.897295892238616943e-01,-5.443122386932373047e-01,-2.775341272354125977e-01,-2.700602710247039795e-01,9.581954777240753174e-02,5.063303112983703613e-01,5.515930056571960449e-01,-3.322586715221405029e-01
-8.820334076881408691e-02,-9.493287652730941772e-02,2.011645138263702393e-01,2.591816335916519165e-02,-5.386460423469543457e-01,1.574297100305557251e-01,4.147310554981231689e-01,-4.275532662868499756e-01,-2.009759396314620972e-01,-2.229753136634826660e-01,-2.868180535733699799e-02,5.140295624732971191e-01,5.753021240234375000e-01,-1.293729841709136963e-01
-3.162886500358581543e-01,1.741150952875614166e-02,7.402680814266204834e-02,-2.288218140602111816e-01,-4.251857697963714600e-01,4.570476710796356201e-01,4.048870503902435303e-01,-6.018773317337036133e-01,-7.446962594985961914e-02,-1.774706095457077026e-01,1.354482620954513550e-01,6.060314774513244629e-01,6.771927475929260254e-01,-3.034362494945526123e-01
-2.660748362541198730e-01,1.555718332529067993e-01,3.400912135839462280e-02,-6.443399935960769653e-02,-3.021278083324432373e-01,3.525858521461486816e-01,3.068287968635559082e-01,-5.804820060729980469e-01,-1.079270020127296448e-01,-1.338436901569366455e-01,1.063816528767347336e-02,6.700922250747680664e-01,3.970602452754974365e-01,-3.556362986564636230e-01
-4.196248948574066162e-01,2.245298027992248535e-01,-3.690829873085021973e-02,-2.688300311565399170e-01,-2.450719028711318970e-01,5.836973786354064941e-01,3.113633394241333008e-01,-5.772446990013122559e-01,-1.256139874458312988e-01,-1.344328969717025757e-01,2.469265758991241455e-01,5.567336082458496094e-01,5.133840441703796387e-01,-3.142985403537750244e-01
-1.963255256414413452e-01,2.011092901229858398e-01,-4.746794700622558594e-02,-4.429954886436462402e-01,-2.882201373577117920e-01,4.831587672233581543e-01,4.909780323505401611e-01,-4.878913462162017822e-01,-4.959253594279289246e-03,-1.856377422809600830e-01,2.241221964359283447e-01,5.976257920265197754e-01,5.373417735099792480e-01,-2.453720569610595703e-01
-2.585660219192504883e-01,2.579438090324401855e-01,-3.545079380273818970e-02,-2.973509132862091064e-01,-2.813880741596221924e-01,4.588726758956909180e-01,1.964786797761917114e-01,-5.141507387161254883e-01,-6.723823398351669312e-02,-2.139412611722946167e-01,2.930419147014617920e-01,5.873155593872070312e-01,7.234644889831542969e-01,-3.211772143840789795e-01
-2.725130021572113037e-01,-8.158176392316818237e-02,-9.502602368593215942e-02,-2.993713915348052979e-01,-3.613700866699218750e-01,6.305864453315734863e-01,7.378409057855606079e-02,-2.265094518661499023e-01,1.864389777183532715e-01,-2.334151417016983032e-02,1.413478702306747437e-01,5.600131750106811523e-01,4.817206263542175293e-01,-5.055174231529235840e-01
2.141949720680713654e-02,2.259561568498611450e-01,1.279081255197525024e-01,-6.296953558921813965e-01,-3.619299829006195068e-01,5.343242287635803223e-01,6.303511559963226318e-02,-9.835095703601837158e-02,2.750143408775329590e-01,-8.916631340980529785e-02,3.049220331013202667e-02,3.795714676380157471e-01,6.566340923309326172e-01,-5.790425539016723633e-01
-1.534508019685745239e-01,1.837510466575622559e-01,-1.611078381538391113e-01,-4.968573153018951416e-01,-2.900076806545257568e-01,5.951860547065734863e-01,-9.791159071028232574e-03,-2.086177915334701538e-01,2.090214043855667114e-01,2.507968433201313019e-02,1.141425445675849915e-01,5.821970701217651367e-01,5.095823407173156738e-01,-5.469236373901367188e-01
-7.919815368950366974e-03,1.252750754356384277e-01,-1.696175634860992432e-01,-4.329248070716857910e-01,-3.913579583168029785e-01,4.831679165363311768e-01,-1.710145920515060425e-01,-8.758994936943054199e-02,2.760628759860992432e-01,8.319705724716186523e-02,1.100619211792945862e-01,3.635645210742950439e-01,5.390655398368835449e-01,-3.983490765094757080e-01
-2.033572411164641380e-03,2.105006873607635498e-01,-1.832487434148788452e-01,-5.052538514137268066e-01,-4.469000697135925293e-01,5.705174803733825684e-01,-3.101381659507751465e-01,-1.823585666716098785e-02,3.397099971771240234e-01,2.606625482439994812e-02,1.467524915933609009e-01,3.658961057662963867e-01,3.548853993415832520e-01,-4.038484096527099609e-01
4.996879771351814270e-02,1.179203242063522339e-01,-1.636298447847366333e-01,-3.233793675899505615e-01,-5.844034552574157715e-01,4.968636035919189453e-01,-2.841878235340118408e-01,-3.838806971907615662e-02,3.833791613578796387e-01,8.954267948865890503e-03,2.633157558739185333e-02,3.204127848148345947e-01,3.192039728164672852e-01,-5.410584807395935059e-01
4.350144863128662109e-01,9.207388013601303101e-02,-1.926450729370117188e-01,-3.337070941925048828e-01,-4.967784583568572998e-01,4.859817922115325928e-01,-4.430360794067382812e-01,4.333660379052162170e-02,2.610892057418823242e-01,1.727029830217361450e-01,3.731048852205276489e-02,2.591237723827362061e-01,4.685727357864379883e-01,-4.096541702747344971e-01
3.326987922191619873e-01,-1.670973896980285645e-01,-2.259602844715118408e-01,-3.789138495922088623e-01,-4.733314812183380127e-01,3.248094618320465088e-01,-6.131709814071655273e-01,-5.933963879942893982e-02,2.042968422174453735e-01,4.104811251163482666e-01,6.762073189020156860e-02,1.768375039100646973e-01,4.532216787338256836e-01,-5.293151736259460449e-01
3.576964139938354492e-01,-2.671399116516113281e-01,-1.855337470769882202e-01,-3.056768476963043213e-01,-1.912770867347717285e-01,2.685598433017730713e-01,-5.216293931007385254e-01,2.149285227060317993e-01,2.551639080047607422e-01,2.959431409835815430e-01,2.212486267089843750e-01,5.225460231304168701e-02,4.076108038425445557e-01,-3.209836781024932861e-01
4.882519543170928955e-01,7.078765332698822021e-02,-2.781134247779846191e-01,-1.118607595562934875e-01,-2.878461480140686035e-01,3.319602310657501221e-01,-5.341349244117736816e-01,1.717205643653869629e-01,1.677212417125701904e-01,1.066545173525810242e-01,1.663708388805389404e-01,3.698220476508140564e-02,3.031251728534698486e-01,-4.758028090000152588e-01
4.304809570312500000e-01,-3.528473153710365295e-02,-3.063631057739257812e-01,-1.961869746446609497e-01,-2.489650398492813110e-01,2.662569582462310791e-01,-8.108628988265991211e-01,2.302630692720413208e-01,7.874479889869689941e-02,1.476289331912994385e-01,1.717598885297775269e-01,1.060330420732498169e-01,4.083930552005767822e-01,-5.262426137924194336e-01
5.676078200340270996e-01,1.881219074130058289e-02,-3.145550787448883057e-01,-7.174953073263168335e-02,-1.004157438874244690e-01,-2.466448210179805756e-02,-5.856586694717407227e-01,1.661222726106643677e-01,2.301878184080123901e-01,1.303899139165878296e-01,8.438069373369216919e-02,3.302550911903381348e-01,4.754789173603057861e-01,-5.362619161605834961e-01
5.431863069534301758e-01,7.866193540394306183e-03,-3.324472904205322266e-01,-2.910903990268707275e-01,-1.579072773456573486e-01,1.311911195516586304e-01,-6.699352860450744629e-01,1.081128939986228943e-01,8.249356597661972046e-02,-2.347030937671661377e-01,7.460042834281921387e-02,2.760172188282012939e-01,3.180633187294006348e-01,-4.182428717613220215e-01
7.064810395240783691e-01,-1.113815978169441223e-01,-1.344862133264541626e-01,-1.639786362648010254e-01,-2.398699522018432617e-01,8.700586110353469849e-02,-6.213521361351013184e-01,1.859648525714874268e-02,-9.639529138803482056e-02,-4.655936732888221741e-02,1.117746755480766296e-01,2.631786763668060303e-01,5.574395060539245605e-01,-3.688427805900573730e-01
8.095758557319641113e-01,-2.076307088136672974e-01,-1.762609779834747314e-01,-1.022455319762229919e-01,-2.826649844646453857e-01,2.062488347291946411e-01,-5.617436766624450684e-01,1.456521302461624146e-01,-1.958384811878204346e-01,-1.095559149980545044e-01,1.374203562736511230e-01,4.937549233436584473e-01,5.216567516326904297e-01,-5.086963772773742676e-01
7.145990729331970215e-01,-6.868804246187210083e-02,-2.724850475788116455e-01,-1.704920083284378052e-01,-1.346364170312881470e-01,-7.872864603996276855e-02,-6.219635009765625000e-01,3.993692249059677124e-02,-4.283165559172630310e-02,-2.281597852706909180e-01,8.952085673809051514e-02,5.973240733146667480e-01,6.077877283096313477e-01,-5.003474950790405273e-01
7.850434184074401855e-01,-3.140896260738372803e-01,-1.886088550090789795e-01,-1.669433712959289551e-01,-2.000768035650253296e-01,1.083373278379440308e-02,-5.704537034034729004e-01,8.138997852802276611e-02,-1.804439276456832886e-01,-3.362647294998168945e-01,6.831511110067367554e-02,2.891032099723815918e-01,6.292466521263122559e-01,-3.778491020202636719e-01
6.094383001327514648e-01,-1.108696088194847107e-01,-1.173178479075431824e-01,-1.757296472787857056e-01,-2.462362051010131836e-01,-9.932890534400939941e-02,-5.839831829071044922e-01,-2.011601440608501434e-02,-2.576351165771484375e-01,-3.426267802715301514e-01,-1.001746729016304016e-01,6.628867387771606445e-01,6.435264348983764648e-01,-3.328509330749511719e-01
7.073208093643188477e-01,-2.464409768581390381e-01,-3.551402315497398376e-02,-1.658795028924942017e-01,-2.076626271009445190e-01,-2.029865048825740814e-02,-6.617316603660583496e-01,1.257542222738265991e-01,-2.252135872840881348e-01,-5.531819462776184082e-01,-1.200728565454483032e-01,4.771798253059387207e-01,4.709557294845581055e-01,-2.193276882171630859e-01
7.338994145393371582e-01,-9.311059117317199707e-02,9.859550744295120239e-02,-2.308071404695510864e-01,-2.562037408351898193e-01,-2.211812585592269897e-01,-6.355774402618408203e-01,2.231754921376705170e-02,-6.520589441061019897e-02,-5.933631658554077148e-01,-1.253726780414581299e-01,7.168630957603454590e-01,5.066006779670715332e-01,-1.916641592979431152e-01
8.664542436599731445e-01,-3.217684924602508545e-01,2.125307917594909668e-02,-3.408336639404296875e-01,-5.659685730934143066e-01,-1.141064092516899109e-01,-6.217061877250671387e-01,6.217918917536735535e-02,-2.906183600425720215e-01,-8.249564170837402344e-01,-2.983392775058746338e-01,7.175224423408508301e-01,5.568621158599853516e-01,-1.922215968370437622e-01
8.282751441001892090e-01,-4.283923506736755371e-01,2.352306246757507324e-01,-1.583591997623443604e-01,-5.415620207786560059e-01,3.627772256731987000e-02,-4.137616753578186035e-01,-2.761675417423248291e-01,-2.139939069747924805e-01,-7.925258874893188477e-01,-2.348212897777557373e-01,2.853780984878540039e-01,5.365375876426696777e-01,1.342121046036481857e-02
9.101854562759399414e-01,-2.701192200183868408e-01,3.714378178119659424e-01,-1.121205911040306091e-01,-6.528477668762207031e-01,-1.224834620952606201e-01,-5.302761197090148926e-01,-1.146166920661926270e-01,3.859829530119895935e-02,-6.820058226585388184e-01,-3.435119092464447021e-01,6.942837238311767578e-01,2.014432251453399658e-01,1.408151239156723022e-01
8.241314291954040527e-01,-2.542391121387481689e-01,2.919703423976898193e-01,-5.208538100123405457e-02,-5.810465812683105469e-01,-7.432301342487335205e-02,-5.320549011230468750e-01,1.221449002623558044e-01,1.401391774415969849e-01,-8.242616057395935059e-01,-5.007876157760620117e-01,3.936263024806976318e-01,-1.666411943733692169e-02,6.740500777959823608e-02
7.243755459785461426e-01,-4.265069067478179932e-01,3.632918894290924072e-01,-1.191168352961540222e-01,-6.376680731773376465e-01,5.644186586141586304e-02,-2.938768267631530762e-01,1.673250794410705566e-01,8.711722493171691895e-02,-5.658781528472900391e-01,-4.872176647186279297e-01,5.909597277641296387e-01,3.639718890190124512e-01,1.601521819829940796e-01
9.281711578369140625e-01,-3.129771947860717773e-01,2.405946105718612671e-01,2.105053141713142395e-02,-8.095768094062805176e-01,-2.172916084527969360e-01,-6.256108880043029785e-01,1.197234988212585449e-01,8.054646849632263184e-02,-5.840560793876647949e-01,-3.816032409667968750e-01,2.839714586734771729e-01,-3.962334245443344116e-02,1.922779679298400879e-01
7.968301177024841309e-01,-1.736149489879608154e-01,3.760819137096405029e-01,-2.741611897945404053e-01,-7.387699484825134277e-01,7.620152086019515991e-02,-5.484171509742736816e-01,1.134903877973556519e-01,1.662539131939411163e-02,-6.579580307006835938e-01,-4.519532918930053711e-01,4.369425475597381592e-01,-2.764659523963928223e-01,1.285058259963989258e-01
8.644663095474243164e-01,-9.593092650175094604e-02,2.133745700120925903e-01,1.069725751876831055e-01,-9.275544881820678711e-01,1.916130483150482178e-01,-6.533769965171813965e-01,3.155857324600219727e-01,2.655296623706817627e-01,-7.287982106208801270e-01,-5.182734131813049316e-01,4.499224424362182617e-01,-2.502994537353515625e-01,1.793006360530853271e-01
7.468393445014953613e-01,1.723844744265079498e-02,1.386879086494445801e-01,-1.383436322212219238e-01,-8.957296013832092285e-01,-6.006342545151710510e-02,-6.821737885475158691e-01,2.793863415718078613e-01,2.108813375234603882e-01,-5.913936495780944824e-01,-5.939812064170837402e-01,1.884588748216629028e-01,-2.149547189474105835e-01,2.009064853191375732e-01
7.668830752372741699e-01,-1.239602454006671906e-02,2.507655620574951172e-01,-7.075194269418716431e-02,-9.397546648979187012e-01,7.193208485841751099e-02,-6.180267333984375000e-01,5.474989414215087891e-01,2.001238763332366943e-01,-7.657789587974548340e-01,-3.191717565059661865e-01,3.037896752357482910e-01,-4.653262794017791748e-01,1.081495285034179688e-01
4.701690971851348877e-01,-1.848612539470195770e-02,2.054811418056488037e-01,-1.891144514083862305e-01,-9.517373442649841309e-01,1.928022652864456177e-01,-6.594277620315551758e-01,4.428299665451049805e-01,2.757175266742706299e-01,-4.555816054344177246e-01,-1.256142556667327881e-01,3.057650029659271240e-01,-5.566217303276062012e-01,1.451706439256668091e-01
5.331829786300659180e-01,7.252353429794311523e-02,7.242722064256668091e-02,-2.013226300477981567e-01,-9.705525040626525879e-01,1.693180054426193237e-01,-5.371761918067932129e-01,5.976139307022094727e-01,2.512339949607849121e-01,-5.621035099029541016e-01,-2.560176551342010498e-01,2.296557873487472534e-01,-5.160846114158630371e-01,3.196961432695388794e-02
4.185813963413238525e-01,-9.664208441972732544e-02,-1.414740830659866333e-01,-1.644767075777053833e-01,-8.182824254035949707e-01,3.136209025979042053e-02,-4.682560563087463379e-01,5.197494029998779297e-01,4.889749586582183838e-01,-6.079671978950500488e-01,-8.369820564985275269e-02,1.749559789896011353e-01,-6.091775298118591309e-01,-1.056778505444526672e-01
4.783324897289276123e-01,1.824284493923187256e-01,-2.459413558244705200e-01,-2.328051626682281494e-01,-7.745865583419799805e-01,9.244485944509506226e-02,-4.620453119277954102e-01,7.504582405090332031e-01,3.776157796382904053e-01,-6.740482449531555176e-01,-1.306228786706924438e-01,9.842377156019210815e-02,-3.711346983909606934e-01,4.518028348684310913e-02
4.000432491302490234e-01,4.979164525866508484e-02,-7.036308944225311279e-02,-2.619953751564025879e-01,-6.895751953125000000e-01,3.693570792675018311e-01,-6.507920622825622559e-01,5.034638643264770508e-01,3.646185100078582764e-01,-5.846624374389648438e-01,-4.007938504219055176e-02,-7.610408216714859009e-02,-5.553238391876220703e-01,-8.829890191555023193e-02
4.688680171966552734e-01,2.190275341272354126e-01,-1.630606949329376221e-01,-3.881648182868957520e-01,-6.028302907943725586e-01,2.435267120599746704e-01,-5.466268658638000488e-01,6.139761805534362793e-01,4.623992443084716797e-01,-4.602828323841094971e-01,3.830958157777786255e-02,-5.335544794797897339e-02,-6.166292428970336914e-01,-1.909579038619995117e-01
4.017276465892791748e-01,3.682382404804229736e-01,-3.400129079818725586e-01,-3.160902857780456543e-01,-5.212827920913696289e-01,4.353305697441101074e-01,-4.031253159046173096e-01,6.760426163673400879e-01,2.860337197780609131e-01,-4.962209463119506836e-01,3.926620185375213623e-01,1.136697828769683838e-01,-5.205697417259216309e-01,-2.411770224571228027e-01
1.789247058331966400e-02,5.489445328712463379e-01,-2.127547413110733032e-01,-1.164650097489356995e-01,-5.932188630104064941e-01,2.567368149757385254e-01,-5.572617053985595703e-01,7.825462818145751953e-01,5.098825097084045410e-01,-6.264382600784301758e-01,4.143484402447938919e-03,-4.578137025237083435e-02,-5.981119871139526367e-01,-1.642064303159713745e-01
4.061812162399291992e-01,2.811774611473083496e-01,-4.407024383544921875e-01,-2.989119589328765869e-01,-6.862648725509643555e-01,3.704194724559783936e-01,-6.614282131195068359e-01,6.872233748435974121e-01,3.437323570251464844e-01,-4.258571565151214600e-01,2.906738519668579102e-01,-1.745142191648483276e-01,-6.641803383827209473e-01,-1.584984511137008667e-01
1.459907442331314087e-01,2.758499383926391602e-01,-2.885602414608001709e-01,-3.817332088947296143e-01,-3.241122663021087646e-01,4.291046261787414551e-01,-6.654409766197204590e-01,7.720292210578918457e-01,4.331266582012176514e-01,-2.407507002353668213e-01,1.676598638296127319e-01,-1.674389392137527466e-01,-3.395349383354187012e-01,-1.831470131874084473e-01
3.043025732040405273e-01,3.774769306182861328e-01,-2.371846139430999756e-01,-2.281062602996826172e-01,-4.705105721950531006e-01,3.663233816623687744e-01,-8.808214068412780762e-01,8.941480517387390137e-01,3.479741513729095459e-01,-4.751742482185363770e-01,3.032511770725250244e-01,-1.528019458055496216e-01,-5.280560851097106934e-01,-2.190284579992294312e-01
4.342990815639495850e-01,1.441791057586669922e-01,-2.028248012065887451e-01,-1.504599899053573608e-01,-3.403359055519104004e-01,4.986802339553833008e-01,-8.794111013412475586e-01,7.747590541839599609e-01,3.643574416637420654e-01,-4.004441797733306885e-01,3.055877685546875000e-01,-3.013893067836761475e-01,-4.686160385608673096e-01,-1.235487908124923706e-01
5.939285159111022949e-01,-2.912821434438228607e-02,-1.186372861266136169e-01,3.473270311951637268e-02,-2.320463359355926514e-01,4.953494668006896973e-01,-9.915243983268737793e-01,8.987080454826354980e-01,4.818069040775299072e-01,-4.479529559612274170e-01,8.877290785312652588e-02,-5.052996277809143066e-01,-4.593257904052734375e-01,-7.583600282669067383e-02
4.552151858806610107e-01,-1.052415091544389725e-02,-6.746737658977508545e-02,-6.843406707048416138e-02,-2.937819957733154297e-01,3.809413015842437744e-01,-8.738529682159423828e-01,9.189504981040954590e-01,4.421241581439971924e-01,-4.818396568298339844e-01,6.228513270616531372e-02,-6.167644858360290527e-01,-5.883926153182983398e-01,4.272050783038139343e-02
5.464453101158142090e-01,-1.816476583480834961e-01,6.218872964382171631e-02,5.739429593086242676e-02,-3.468527793884277344e-01,1.230898126959800720e-01,-8.401875495910644531e-01,8.090276122093200684e-01,5.253664255142211914e-01,-3.687972426414489746e-01,-6.429909169673919678e-02,-5.115458965301513672e-01,-4.385435283184051514e-01,-3.310293331742286682e-02
4.525323808193206787e-01,-1.201448589563369751e-01,-6.477694958448410034e-02,3.616489171981811523e-01,-3.627511560916900635e-01,1.764243990182876587e-01,-1.154949426651000977e+00,8.599275946617126465e-01,4.135904312133789062e-01,-5.039793848991394043e-01,4.702446609735488892e-02,-5.626664161682128906e-01,-4.059719741344451904e-01,-4.964686557650566101e-02
5.161046385765075684e-01,-2.818990647792816162e-01,-9.870105981826782227e-02,3.432326316833496094e-01,-1.608279347419738770e-01,5.498348549008369446e-02,-9.014064669609069824e-01,7.253216505050659180e-01,5.534656643867492676e-01,-5.251457914710044861e-02,7.070932537317276001e-02,-6.911246776580810547e-01,-4.918577671051025391e-01,-2.682874724268913269e-02
5.454123020172119141e-01,-3.983216583728790283e-01,-9.021019935607910156e-02,4.561195373535156250e-01,-3.771027326583862305e-01,8.305556327104568481e-02,-1.064509749412536621e+00,8.241401910781860352e-01,3.965205848217010498e-01,-3.323965370655059814e-01,-1.789310202002525330e-02,-6.908839344978332520e-01,-5.331150293350219727e-01,6.061040610074996948e-02
6.065625548362731934e-01,-4.734417498111724854e-01,-9.796540252864360809e-03,6.959686279296875000e-01,2.974966168403625488e-02,1.042584180831909180e-01,-9.211415648460388184e-01,9.131841063499450684e-01,3.852333128452301025e-01,-2.115642279386520386e-01,1.639078557491302490e-01,-6.695269346237182617e-01,-3.446160554885864258e-01,1.714097410440444946e-01
5.086661577224731445e-01,-3.950368463993072510e-01,-9.223870187997817993e-02,7.032725811004638672e-01,-6.256533414125442505e-02,-2.451477050781250000e-01,-6.730712056159973145e-01,6.536645293235778809e-01,1.820827722549438477e-01,-2.342345416545867920e-01,3.460488468408584595e-02,-5.059270858764648438e-01,-2.615571916103363037e-01,1.265759319067001343e-01
5.039401650428771973e-01,-5.728237032890319824e-01,1.266536116600036621e-01,7.165517807006835938e-01,6.838470697402954102e-02,-2.287598848342895508e-01,-1.005374670028686523e+00,7.081317305564880371e-01,3.450326621532440186e-02,-2.833677530288696289e-01,-1.567758992314338684e-02,-5.350658297538757324e-01,-4.051388800144195557e-01,-1.048003137111663818e-01
4.097786247730255127e-01,-4.073724150657653809e-01,2.645524963736534119e-02,6.860909461975097656e-01,4.961051978170871735e-03,-2.557136416435241699e-01,-6.744379401206970215e-01,5.296010971069335938e-01,-5.251552164554595947e-02,-2.218504697084426880e-01,1.932966560125350952e-01,-5.219761133193969727e-01,-3.223489224910736084e-01,2.280034124851226807e-01
5.377314686775207520e-01,-5.424910187721252441e-01,8.739310503005981445e-02,7.854297757148742676e-01,-1.440495625138282776e-02,-2.958995103836059570e-01,-5.141432285308837891e-01,6.019327640533447266e-01,-6.270688027143478394e-02,-5.721765160560607910e-01,7.012595981359481812e-02,-4.021336138248443604e-01,-2.153964936733245850e-01,1.017341464757919312e-01
4.139333665370941162e-01,-4.881484508514404297e-01,1.539542973041534424e-01,7.810464501380920410e-01,-8.777570724487304688e-02,-4.125581681728363037e-01,-5.002058148384094238e-01,4.891003668308258057e-01,-9.455315023660659790e-02,-5.975990891456604004e-01,1.866620928049087524e-01,-4.803846478462219238e-01,-1.469593346118927002e-01,1.185137405991554260e-01
4.369507730007171631e-01,-4.089655876159667969e-01,1.694034188985824585e-01,6.243051886558532715e-01,-8.665944635868072510e-02,-1.946440637111663818e-01,-4.419005811214447021e-01,2.487803846597671509e-01,-2.485114932060241699e-01,-6.440648436546325684e-01,1.274839788675308228e-01,-2.901718318462371826e-01,-4.180183112621307373e-01,1.977961361408233643e-01
1.265127062797546387e-01,-3.931605219841003418e-01,2.378934770822525024e-01,8.422293663024902344e-01,1.857915893197059631e-02,-3.191389739513397217e-01,-5.776392817497253418e-01,2.518382370471954346e-01,-2.687044739723205566e-01,-6.439263820648193359e-01,-3.375777229666709900e-02,-2.507296800613403320e-01,-1.566031873226165771e-01,1.992523223161697388e-01
5.952233821153640747e-02,-3.335006237030029297e-01,3.494578003883361816e-01,7.928217053413391113e-01,2.799284160137176514e-01,-2.793714106082916260e-01,-2.021154016256332397e-01,1.941017955541610718e-01,-4.668861031532287598e-01,-7.338108420372009277e-01,-1.445016264915466309e-01,-3.632490336894989014e-01,-1.719300895929336548e-01,1.875108480453491211e-01
2.776488959789276123e-01,-4.546253085136413574e-01,1.023515015840530396e-01,7.068844437599182129e-01,1.331727206707000732e-01,-4.195155203342437744e-02,-1.455008983612060547e-01,8.611857891082763672e-02,-3.624185919761657715e-01,-8.439663052558898926e-01,-8.769364655017852783e-02,-2.454802989959716797e-01,-1.133101955056190491e-01,5.282177329063415527e-01
9.645443409681320190e-02,-4.467472136020660400e-01,1.550296545028686523e-01,6.881474852561950684e-01,9.998003393411636353e-02,-1.815770119428634644e-01,-2.451712340116500854e-01,-1.159321218729019165e-01,-2.913387119770050049e-01,-8.971401453018188477e-01,-1.444404013454914093e-02,-8.042003214359283447e-02,-2.724232673645019531e-01,4.441262781620025635e-01
1.828507035970687866e-01,-5.159577727317810059e-01,2.550885975360870361e-01,6.321734786033630371e-01,1.678241938352584839e-01,-5.356363952159881592e-02,-1.054478809237480164e-01,-7.768879178911447525e-03,-3.434962332248687744e-01,-9.525779485702514648e-01,-3.375716134905815125e-02,-9.416079521179199219e-02,-1.563157290220260620e-01,4.041989445686340332e-01
2.009763568639755249e-01,-3.440642058849334717e-01,3.833910822868347168e-01,6.530890464782714844e-01,1.078726947307586670e-01,-8.235360682010650635e-02,1.239154413342475891e-01,-1.305739954113960266e-02,-3.579032421112060547e-01,-6.829770803451538086e-01,-2.092689424753189087e-01,6.961675733327865601e-02,-3.259902000427246094e-01,4.979061484336853027e-01
-8.278240263462066650e-02,-3.388936817646026611e-01,2.575915157794952393e-01,5.084407329559326172e-01,5.608292296528816223e-02,7.246742397546768188e-02,4.032551497220993042e-02,-2.215676754713058472e-01,-2.544150948524475098e-01,-9.238086342811584473e-01,-2.306701540946960449e-01,-3.672867715358734131e-01,-1.493266373872756958e-01,4.911985099315643311e-01
