AF3,F7,F3,FC5,T7,P7,O1,O2,P8,T8,FC6,F4,F8,AF4
8.086978644132614136e-02,-6.111592426896095276e-02,1.319228205829858780e-02,8.055388927459716797e-02,-2.169692367315292358e-01,9.065417572855949402e-03,2.453032135963439941e-02,-7.490998506546020508e-02,-8.521041274070739746e-02,1.074172258377075195e-01,5.130997300148010254e-02,4.385836794972419739e-02,-6.626749411225318909e-03,4.579062014818191528e-02
5.813189744949340820e-01,7.570996284484863281e-01,8.589766025543212891e-01,4.809767901897430420e-01,6.954954862594604492e-01,8.050348162651062012e-01,7.237032055854797363e-01,7.713563442230224609e-01,6.840373873710632324e-01,6.331215500831604004e-01,6.753223538398742676e-01,6.799594759941101074e-01,6.430833339691162109e-01,7.046561837196350098e-01
9.228813648223876953e-01,1.415397644042968750e+00,1.424884557723999023e+00,1.018132209777832031e+00,1.078194022178649902e+00,1.230938673019409180e+00,1.065845966339111328e+00,1.100484848022460938e+00,1.189797401428222656e+00,1.225879788398742676e+00,1.106307625770568848e+00,1.150787591934204102e+00,1.064783573150634766e+00,1.120524525642395020e+00
1.215855360031127930e+00,1.499515771865844727e+00,1.510501146316528320e+00,1.175537824630737305e+00,1.350042700767517090e+00,1.283008575439453125e+00,1.264198064804077148e+00,1.564349174499511719e+00,1.416880011558532715e+00,1.407546162605285645e+00,1.424508571624755859e+00,1.281508684158325195e+00,1.185332417488098145e+00,1.239654064178466797e+00
1.206404447555541992e+00,1.607548713684082031e+00,1.315225243568420410e+00,1.056740641593933105e+00,1.066131353378295898e+00,1.272464990615844727e+00,1.149178504943847656e+00,1.330995559692382812e+00,1.371256709098815918e+00,1.018079161643981934e+00,1.164977192878723145e+00,1.328033685684204102e+00,1.048850536346435547e+00,1.065271139144897461e+00
8.243184685707092285e-01,1.193907260894775391e+00,8.572483658790588379e-01,7.584683895111083984e-01,9.415369033813476562e-01,9.901738762855529785e-01,8.165552020072937012e-01,9.491809010505676270e-01,1.155743360519409180e+00,7.958915233612060547e-01,7.171525955200195312e-01,6.282592415809631348e-01,8.091649413108825684e-01,8.274930715560913086e-01
4.479133486747741699e-01,8.723289370536804199e-01,2.569181025028228760e-01,5.359721779823303223e-01,1.420813649892807007e-01,3.257215023040771484e-01,2.519729733467102051e-01,5.724820494651794434e-01,6.639478206634521484e-01,9.021887928247451782e-02,2.979968488216400146e-01,6.447230279445648193e-02,3.632087707519531250e-01,3.230676949024200439e-01
-1.282147597521543503e-02,1.724689006805419922e-01,-5.014717578887939453e-01,-2.805042825639247894e-02,-2.221959382295608521e-01,1.240088883787393570e-02,-4.207051098346710205e-01,8.265387266874313354e-02,-3.661427274346351624e-02,-3.791439533233642578e-01,-2.189173996448516846e-01,-2.407261878252029419e-01,-6.294119171798229218e-03,-2.845424041152000427e-02
-2.323653697967529297e-01,-2.596755027770996094e-01,-4.974428713321685791e-01,-2.202136218547821045e-01,-4.283682703971862793e-01,-3.776428699493408203e-01,-2.716073989868164062e-01,-3.039237856864929199e-01,-5.229517221450805664e-01,-4.367809295654296875e-01,-5.859606862068176270e-01,-4.880030155181884766e-01,-3.282447755336761475e-01,-4.959122836589813232e-01
-4.733582139015197754e-01,-5.648314952850341797e-01,-3.329652547836303711e-01,-4.296434223651885986e-01,-2.720528841018676758e-01,-6.150581240653991699e-01,-4.254139661788940430e-01,-6.456621289253234863e-01,-6.279925107955932617e-01,-5.037141963839530945e-03,-3.318207859992980957e-01,-3.874258697032928467e-01,-4.028081893920898438e-01,-4.352383315563201904e-01
-4.688458144664764404e-01,-9.106304049491882324e-01,-1.096791215240955353e-02,-2.708775997161865234e-01,-1.607345640659332275e-01,-3.866940140724182129e-01,-7.288118451833724976e-02,-5.146754980087280273e-01,-3.990037441253662109e-01,2.624290585517883301e-01,-3.825034797191619873e-01,7.569295912981033325e-02,-1.869696378707885742e-01,3.151031211018562317e-02
-1.327127963304519653e-01,-4.788113832473754883e-01,4.913970530033111572e-01,-7.162024080753326416e-02,3.506281673908233643e-01,8.961294591426849365e-02,3.975881934165954590e-01,-2.248000353574752808e-01,-1.580800265073776245e-01,6.254765391349792480e-01,2.443493604660034180e-01,6.542333364486694336e-01,6.966528296470642090e-02,4.025884568691253662e-01
2.352548390626907349e-01,-8.104139566421508789e-02,1.055280804634094238e+00,1.369781941175460815e-01,5.999500751495361328e-01,5.536215305328369141e-01,7.541958689689636230e-01,1.268896907567977905e-01,1.522631049156188965e-01,1.415209650993347168e+00,5.478318333625793457e-01,8.651034235954284668e-01,4.228741526603698730e-01,6.846834421157836914e-01
5.117371678352355957e-01,3.759602904319763184e-01,1.106529355049133301e+00,5.532803535461425781e-01,8.244563341140747070e-01,5.484282374382019043e-01,1.121592521667480469e+00,7.481686472892761230e-01,5.884321331977844238e-01,1.231495499610900879e+00,9.255393147468566895e-01,1.039477467536926270e+00,7.104706168174743652e-01,7.165635228157043457e-01
6.328713297843933105e-01,7.118484973907470703e-01,8.526242375373840332e-01,7.551353573799133301e-01,9.923863410949707031e-01,8.639195561408996582e-01,9.540457725524902344e-01,9.545730352401733398e-01,9.805359244346618652e-01,1.036599278450012207e+00,8.548085689544677734e-01,8.152027726173400879e-01,1.127037644386291504e+00,7.738538980484008789e-01
8.228284120559692383e-01,9.340372085571289062e-01,4.305845499038696289e-01,7.656198740005493164e-01,8.417410850524902344e-01,8.589589595794677734e-01,4.546936154365539551e-01,7.881284952163696289e-01,9.160294532775878906e-01,4.609749615192413330e-01,9.614467620849609375e-01,3.363353908061981201e-01,5.040006041526794434e-01,3.836249113082885742e-01
6.012746691703796387e-01,8.067083358764648438e-01,-1.803546249866485596e-01,5.202202200889587402e-01,9.292633831501007080e-02,3.293818235397338867e-01,-6.701155751943588257e-02,5.957079529762268066e-01,6.041375398635864258e-01,-4.091155230998992920e-01,4.077526032924652100e-01,-3.636090457439422607e-01,2.912212610244750977e-01,3.182121738791465759e-02
-2.108910121023654938e-03,7.288835644721984863e-01,-8.434358835220336914e-01,1.573305130004882812e-01,-6.606287956237792969e-01,-9.901182353496551514e-02,-9.583937525749206543e-01,7.606250047683715820e-02,1.787564456462860107e-01,-8.598814010620117188e-01,-7.090185582637786865e-02,-7.802920937538146973e-01,-6.019171327352523804e-02,-6.078696846961975098e-01
-3.723827004432678223e-01,4.781858921051025391e-01,-1.452491164207458496e+00,-2.777221500873565674e-01,-8.597403764724731445e-01,-7.173929214477539062e-01,-1.303802371025085449e+00,-4.867545962333679199e-01,-4.304636716842651367e-01,-1.081087470054626465e+00,-9.845471382141113281e-01,-1.095678806304931641e+00,-6.954827308654785156e-01,-9.659291505813598633e-01
-7.491285800933837891e-01,-2.858158648014068604e-01,-1.366277933120727539e+00,-7.754905819892883301e-01,-1.291510701179504395e+00,-1.277240514755249023e+00,-1.150498986244201660e+00,-1.005216479301452637e+00,-7.607406973838806152e-01,-1.006601691246032715e+00,-1.078019142150878906e+00,-1.028968334197998047e+00,-1.153439164161682129e+00,-1.206891775131225586e+00
-8.015075325965881348e-01,-8.907552361488342285e-01,-1.177509069442749023e+00,-1.107560515403747559e+00,-1.432325243949890137e+00,-1.263689994812011719e+00,-1.013900518417358398e+00,-1.284243345260620117e+00,-1.283051133155822754e+00,-6.380227804183959961e-01,-1.113499164581298828e+00,-6.438720822334289551e-01,-1.067797660827636719e+00,-1.071060061454772949e+00
-9.609451293945312500e-01,-9.921693801879882812e-01,-5.543825626373291016e-01,-1.327601075172424316e+00,-1.192282319068908691e+00,-1.109214782714843750e+00,-6.191741228103637695e-01,-1.398095846176147461e+00,-1.542335629463195801e+00,-8.439280837774276733e-02,-9.434168338775634766e-01,2.033275663852691650e-01,-1.074587464332580566e+00,-8.976090550422668457e-01
-8.188772797584533691e-01,-1.188623905181884766e+00,2.859971225261688232e-01,-9.197012782096862793e-01,-6.337246298789978027e-01,-7.715603113174438477e-01,-9.872575104236602783e-02,-1.070824742317199707e+00,-1.278094053268432617e+00,2.604786753654479980e-01,-6.687831878662109375e-01,3.931829631328582764e-01,-6.739509701728820801e-01,-4.594622254371643066e-01
-4.232625961303710938e-01,-1.183343529701232910e+00,7.584006190299987793e-01,-7.172530293464660645e-01,-9.484635293483734131e-02,-1.667429804801940918e-01,4.438754618167877197e-01,-5.392873287200927734e-01,-1.127387404441833496e+00,5.809879302978515625e-01,8.263210952281951904e-02,1.071196079254150391e+00,-1.792933791875839233e-01,2.045596987009048462e-01
4.157375544309616089e-02,-7.841603755950927734e-01,1.056653738021850586e+00,-8.701141178607940674e-02,5.657669901847839355e-01,3.542383611202239990e-01,7.875769734382629395e-01,4.453654214739799500e-02,-5.590525269508361816e-01,6.429451107978820801e-01,5.441479682922363281e-01,9.820708036422729492e-01,2.790966928005218506e-01,3.397649228572845459e-01
5.161567330360412598e-01,-2.733309566974639893e-01,9.872017502784729004e-01,2.546873688697814941e-01,7.001770734786987305e-01,8.484393358230590820e-01,7.357289195060729980e-01,7.419809699058532715e-01,4.486845731735229492e-01,1.784347146749496460e-01,8.346025347709655762e-01,7.002010941505432129e-01,6.763337254524230957e-01,6.602705717086791992e-01
7.343531250953674316e-01,4.754875302314758301e-01,4.826356768608093262e-01,5.032162070274353027e-01,6.414306759834289551e-01,9.084150195121765137e-01,3.480978012084960938e-01,7.527443766593933105e-01,8.652290701866149902e-01,-1.238855570554733276e-01,9.657940268516540527e-01,-2.035109996795654297e-01,9.030985236167907715e-01,5.024313330650329590e-01
8.584672212600708008e-01,1.069276690483093262e+00,-2.022621482610702515e-01,8.505275249481201172e-01,4.451308548450469971e-01,9.901692271232604980e-01,-2.408390045166015625e-01,1.103704333305358887e+00,1.134287118911743164e+00,-4.151488244533538818e-01,6.585973501205444336e-01,-6.066307425498962402e-01,7.352455258369445801e-01,2.939360141754150391e-01
7.705124020576477051e-01,9.571976661682128906e-01,-8.046994209289550781e-01,7.622624039649963379e-01,-8.704042993485927582e-03,4.473242759704589844e-01,-3.976098895072937012e-01,8.021849989891052246e-01,1.147673368453979492e+00,-8.566247224807739258e-01,2.875940203666687012e-01,-8.165149092674255371e-01,1.727438718080520630e-02,-7.564661651849746704e-02
3.159915804862976074e-01,1.364897727966308594e+00,-1.221104145050048828e+00,2.426800578832626343e-01,-6.198293566703796387e-01,-1.906703263521194458e-01,-7.139821648597717285e-01,4.861685335636138916e-01,8.142262101173400879e-01,-9.370155930519104004e-01,-4.381768405437469482e-01,-9.202747344970703125e-01,-9.870938211679458618e-02,-5.018839836120605469e-01
-1.712120920419692993e-01,5.638433098793029785e-01,-1.082582235336303711e+00,5.041825026273727417e-02,-6.855430603027343750e-01,-5.025559067726135254e-01,-9.767943620681762695e-01,-7.902617007493972778e-02,3.108980059623718262e-01,-5.174618363380432129e-01,-9.855363965034484863e-01,-4.623478949069976807e-01,-8.194787502288818359e-01,-5.863358974456787109e-01
-6.265822649002075195e-01,5.427717044949531555e-02,-6.906413435935974121e-01,-5.021497607231140137e-01,-6.607276797294616699e-01,-8.344530463218688965e-01,-5.472338199615478516e-01,-7.265100479125976562e-01,-1.893755793571472168e-01,-3.005202114582061768e-01,-1.017599463462829590e+00,-9.338013827800750732e-03,-8.827114701271057129e-01,-7.257723212242126465e-01
-9.342730641365051270e-01,-5.324182510375976562e-01,1.421525031328201294e-01,-6.817160844802856445e-01,-3.812199234962463379e-01,-9.651672244071960449e-01,9.965962916612625122e-02,-1.121905326843261719e+00,-5.024810433387756348e-01,2.638761401176452637e-01,-8.187784552574157715e-01,8.063172549009323120e-02,-7.015473842620849609e-01,-2.862166464328765869e-01
-9.864586591720581055e-01,-1.121476411819458008e+00,6.260468959808349609e-01,-7.981448769569396973e-01,2.158211544156074524e-02,-9.991023540496826172e-01,2.359988093376159668e-01,-9.369674324989318848e-01,-9.104217886924743652e-01,9.225938320159912109e-01,-6.953384280204772949e-01,3.656032383441925049e-01,-5.255443453788757324e-01,1.118225902318954468e-01
-6.473305225372314453e-01,-1.496615052223205566e+00,8.180158734321594238e-01,-5.976116061210632324e-01,6.512061953544616699e-01,-3.696696758270263672e-01,7.522346973419189453e-01,-6.633542776107788086e-01,-6.639170646667480469e-01,8.849629163742065430e-01,-9.771349281072616577e-02,5.048163533210754395e-01,-3.609801083803176880e-02,4.858609139919281006e-01
-5.114474296569824219e-01,-1.618898153305053711e+00,8.254101276397705078e-01,-5.239602327346801758e-01,9.496728777885437012e-01,6.485077738761901855e-02,9.110607504844665527e-01,-3.188479840755462646e-01,-5.523023605346679688e-01,6.465474367141723633e-01,3.505488634109497070e-01,1.856607049703598022e-01,3.143877983093261719e-01,1.092055797576904297e+00
-2.093960344791412354e-01,-1.233613729476928711e+00,4.970853626728057861e-01,-1.718554063700139523e-03,1.120597481727600098e+00,6.217699646949768066e-01,9.441305994987487793e-01,1.116213425993919373e-01,-1.603776961565017700e-02,3.070015311241149902e-01,4.262842535972595215e-01,-3.116695284843444824e-01,5.336403846740722656e-01,1.113057613372802734e+00
2.729095816612243652e-01,-9.371064901351928711e-01,-4.883407801389694214e-02,3.679023981094360352e-01,1.152481436729431152e+00,8.520007729530334473e-01,3.933907449245452881e-01,4.667699933052062988e-01,4.269415438175201416e-01,-4.596903622150421143e-01,7.985364794731140137e-01,-8.240789771080017090e-01,7.050713896751403809e-01,8.462910056114196777e-01
7.725031375885009766e-01,-3.500173985958099365e-01,-4.957140982151031494e-01,7.846795320510864258e-01,8.151651620864868164e-01,8.646587729454040527e-01,-3.521179854869842529e-01,8.942714333534240723e-01,8.058179616928100586e-01,-9.193368554115295410e-01,3.717920482158660889e-01,-1.265223026275634766e+00,4.252752363681793213e-01,2.966204583644866943e-01
4.803116917610168457e-01,2.363065034151077271e-01,-8.919143080711364746e-01,6.206080317497253418e-01,2.329900562763214111e-01,6.336327791213989258e-01,-8.360605835914611816e-01,9.874805808067321777e-01,1.140494465827941895e+00,-1.040569543838500977e+00,-5.238855723291635513e-03,-1.324490785598754883e+00,4.577289819717407227e-01,6.990186125040054321e-02
3.726476132869720459e-01,8.136969208717346191e-01,-1.166739940643310547e+00,7.966389656066894531e-01,-2.864577472209930420e-01,-4.140333086252212524e-02,-9.551503658294677734e-01,7.310380935668945312e-01,1.075731396675109863e+00,-1.010007381439208984e+00,-4.055830538272857666e-01,-1.152839422225952148e+00,-1.101073771715164185e-01,-5.386147499084472656e-01
-5.660155415534973145e-02,9.746196269989013672e-01,-8.099972009658813477e-01,5.973846316337585449e-01,-7.630414366722106934e-01,-1.514438092708587646e-01,-9.281273484230041504e-01,2.361252754926681519e-01,6.655539870262145996e-01,-8.156769871711730957e-01,-1.090461850166320801e+00,-2.431785762310028076e-01,-5.085723400115966797e-01,-9.266904592514038086e-01
-5.529683828353881836e-01,1.023393392562866211e+00,-1.438580900430679321e-01,-1.108495965600013733e-01,-8.121267557144165039e-01,-6.470784544944763184e-01,-5.491787791252136230e-01,-2.331347614526748657e-01,3.013643026351928711e-01,3.713650628924369812e-02,-1.181655764579772949e+00,4.348778426647186279e-01,-9.783506393432617188e-01,-6.803306341171264648e-01
-6.239752769470214844e-01,6.387258768081665039e-01,7.359663248062133789e-01,-3.556820452213287354e-01,-8.557732701301574707e-01,-7.293165922164916992e-01,2.550210431218147278e-02,-6.399064660072326660e-01,-2.649818062782287598e-01,4.170710444450378418e-01,-8.375935554504394531e-01,9.612045884132385254e-01,-8.635607361793518066e-01,-6.001043319702148438e-01
-6.065188646316528320e-01,1.573240607976913452e-01,1.329000592231750488e+00,-7.183893322944641113e-01,-2.411006540060043335e-01,-6.478631496429443359e-01,6.474491357803344727e-01,-8.398122191429138184e-01,-7.662926912307739258e-01,8.715302348136901855e-01,-6.127902269363403320e-01,1.120859980583190918e+00,-7.113789916038513184e-01,-1.915253996849060059e-01
-6.366422176361083984e-01,-2.563322782516479492e-01,1.743451237678527832e+00,-7.730484008789062500e-01,2.119809091091156006e-01,-3.140546381473541260e-01,1.032912611961364746e+00,-7.054561972618103027e-01,-1.039913535118103027e+00,9.298943877220153809e-01,2.340634167194366455e-02,9.912185072898864746e-01,5.537833645939826965e-02,3.160794675350189209e-01
-2.774842977523803711e-01,-5.068961977958679199e-01,1.405731320381164551e+00,-4.774861037731170654e-01,7.426793575286865234e-01,4.365387558937072754e-01,1.199723362922668457e+00,-1.648588180541992188e-01,-8.162765502929687500e-01,5.839956402778625488e-01,6.968054771423339844e-01,8.205658793449401855e-01,4.948184490203857422e-01,7.879706621170043945e-01
1.799661964178085327e-01,-6.102252602577209473e-01,1.088608980178833008e+00,-1.880519688129425049e-01,9.298191070556640625e-01,9.514811038970947266e-01,1.049472093582153320e+00,2.438772022724151611e-01,-7.306904792785644531e-01,1.007836982607841492e-01,1.149749755859375000e+00,4.394999444484710693e-01,8.868497610092163086e-01,8.494657874107360840e-01
6.858747601509094238e-01,-4.897851049900054932e-01,4.234867691993713379e-01,4.005781114101409912e-01,6.521736383438110352e-01,1.352703332901000977e+00,4.628579914569854736e-01,8.426992297172546387e-01,-9.795547276735305786e-02,-3.110601603984832764e-01,1.674380421638488770e+00,-3.112025856971740723e-01,1.408927321434020996e+00,8.199750781059265137e-01
1.100258827209472656e+00,-1.503840554505586624e-02,-8.979520946741104126e-02,7.511481046676635742e-01,6.867500543594360352e-01,1.356647133827209473e+00,9.092269837856292725e-02,1.204244256019592285e+00,5.819617509841918945e-01,-7.289309501647949219e-01,1.224590301513671875e+00,-3.760376572608947754e-01,1.249205946922302246e+00,2.479151040315628052e-01
1.439235568046569824e+00,6.102482080459594727e-01,-6.506360173225402832e-01,9.343793392181396484e-01,1.283200681209564209e-01,1.058286666870117188e+00,-4.577096998691558838e-01,1.226506829261779785e+00,8.924772739410400391e-01,-7.970538735389709473e-01,9.928674101829528809e-01,-3.723970949649810791e-01,1.037369966506958008e+00,-1.801702380180358887e-01
1.337557315826416016e+00,9.855697154998779297e-01,-9.409924149513244629e-01,9.985291957855224609e-01,-6.151593327522277832e-01,8.234235048294067383e-01,-7.773551344871520996e-01,1.090597987174987793e+00,1.233383774757385254e+00,-3.534085452556610107e-01,4.014780223369598389e-01,1.733956784009933472e-01,5.370948910713195801e-01,-5.030642747879028320e-01
1.207640290260314941e+00,1.679403662681579590e+00,-5.792883038520812988e-01,8.479796648025512695e-01,-6.837810873985290527e-01,2.217653542757034302e-01,-5.865015387535095215e-01,7.574673891067504883e-01,9.633679389953613281e-01,3.654747903347015381e-01,-1.956782117486000061e-02,6.694416999816894531e-01,3.812902793288230896e-02,-5.747312307357788086e-01
6.351493597030639648e-01,1.438037395477294922e+00,-1.699614077806472778e-01,7.139416933059692383e-01,-1.082533240318298340e+00,-5.713874697685241699e-01,-2.652713358402252197e-01,1.288660913705825806e-01,8.250982165336608887e-01,9.897671937942504883e-01,-2.759796977043151855e-01,9.016910791397094727e-01,-6.511331796646118164e-01,-9.466215968132019043e-01
2.572380304336547852e-01,1.598548889160156250e+00,4.157094955444335938e-01,7.171483337879180908e-02,-7.720261216163635254e-01,-9.153220653533935547e-01,1.573470979928970337e-01,-5.557011961936950684e-01,4.133541285991668701e-01,1.362327575683593750e+00,-5.445478558540344238e-01,1.186035037040710449e+00,-3.861348330974578857e-01,-4.405465722084045410e-01
-5.183509588241577148e-01,1.134342789649963379e+00,5.631334185600280762e-01,-3.856744468212127686e-01,-4.935349225997924805e-01,-9.782289266586303711e-01,7.348737716674804688e-01,-1.086096525192260742e+00,-1.427362412214279175e-01,1.455530881881713867e+00,-4.759776294231414795e-01,1.137221217155456543e+00,-5.009815692901611328e-01,-1.652495414018630981e-01
-6.567297577857971191e-01,4.713316261768341064e-01,6.125383973121643066e-01,-7.571530938148498535e-01,-4.477376118302345276e-02,-1.009927392005920410e+00,6.968746781349182129e-01,-1.215805053710937500e+00,-7.623230814933776855e-01,1.251362204551696777e+00,-2.048535794019699097e-01,5.790631175041198730e-01,-2.095798403024673462e-01,4.961936473846435547e-01
-7.811052203178405762e-01,-3.247283399105072021e-01,4.230116605758666992e-01,-9.875314235687255859e-01,5.407245755195617676e-01,-5.332270860671997070e-01,8.124857544898986816e-01,-1.415942072868347168e+00,-1.214365839958190918e+00,6.926112771034240723e-01,4.877546429634094238e-01,-1.589550971984863281e-01,8.787973225116729736e-02,5.349766612052917480e-01
-6.316528916358947754e-01,-9.070709943771362305e-01,-2.506589293479919434e-01,-7.746347784996032715e-01,8.679538965225219727e-01,1.292218267917633057e-01,2.798351347446441650e-01,-1.122666478157043457e+00,-1.343854427337646484e+00,-4.667794331908226013e-03,5.959854722023010254e-01,-6.979631185531616211e-01,1.797421723604202271e-01,7.921264171600341797e-01
-4.285349845886230469e-01,-1.392808914184570312e+00,-8.909380435943603516e-01,-7.509091496467590332e-01,9.482914209365844727e-01,1.794875264167785645e-01,-3.640946149826049805e-01,-6.441171169281005859e-01,-1.021244764328002930e+00,-6.628465056419372559e-01,9.222275614738464355e-01,-1.150415062904357910e+00,6.829422712326049805e-01,6.863738894462585449e-01
2.239568345248699188e-02,-1.427645206451416016e+00,-1.414028048515319824e+00,-1.498389989137649536e-01,4.008703827857971191e-01,4.186536371707916260e-01,-8.398100137710571289e-01,-1.277887076139450073e-01,-7.995474338531494141e-01,-7.837594151496887207e-01,6.187760829925537109e-01,-1.106408834457397461e+00,4.205714166164398193e-01,3.374922573566436768e-01
3.014604151248931885e-01,-1.486598849296569824e+00,-1.791399002075195312e+00,-1.426445096731185913e-01,-1.171464752405881882e-02,3.883644640445709229e-01,-1.343663334846496582e+00,3.977737426757812500e-01,-2.842976152896881104e-01,-7.749630212783813477e-01,1.036283895373344421e-01,-9.031283855438232422e-01,1.264183223247528076e-01,-3.862324655055999756e-01
5.886701941490173340e-01,-8.432947397232055664e-01,-1.516553997993469238e+00,2.978501319885253906e-01,-4.826014041900634766e-01,8.490768820047378540e-02,-1.546026229858398438e+00,5.449262261390686035e-01,3.543384075164794922e-01,-3.431719839572906494e-01,-2.460917830467224121e-01,-3.514214158058166504e-01,-4.397421777248382568e-01,-6.504807472229003906e-01
3.541683852672576904e-01,-4.289515316486358643e-01,-1.021583795547485352e+00,3.558399677276611328e-01,-1.058624982833862305e+00,-4.265036880970001221e-01,-1.209018826484680176e+00,3.298568725585937500e-01,6.823711395263671875e-01,-6.754153966903686523e-02,-8.411062359809875488e-01,1.992989778518676758e-01,-8.516611456871032715e-01,-1.164131522178649902e+00
9.997039288282394409e-02,2.922937870025634766e-01,-2.168538570404052734e-01,1.173464283347129822e-01,-1.215327739715576172e+00,-9.974310398101806641e-01,-5.732594132423400879e-01,3.744808211922645569e-02,5.689783096313476562e-01,2.760628461837768555e-01,-1.439641952514648438e+00,4.661073386669158936e-01,-1.196399927139282227e+00,-1.113423824310302734e+00
-3.251532912254333496e-01,4.923783242702484131e-01,6.431776285171508789e-01,-7.693181931972503662e-02,-1.087625741958618164e+00,-1.182085037231445312e+00,9.182680398225784302e-02,-2.097759693861007690e-01,5.211152434349060059e-01,6.494181752204895020e-01,-1.401687622070312500e+00,7.578215599060058594e-01,-1.409167051315307617e+00,-7.383652925491333008e-01
-8.036263585090637207e-01,7.377991080284118652e-01,1.099252700805664062e+00,-3.131143450736999512e-01,-5.633581876754760742e-01,-1.325900793075561523e+00,5.655771493911743164e-01,-7.108178138732910156e-01,2.070042341947555542e-01,4.190877079963684082e-01,-1.286398410797119141e+00,3.908934295177459717e-01,-1.297525644302368164e+00,-3.872450888156890869e-01
-1.079398274421691895e+00,8.127442002296447754e-01,1.280107378959655762e+00,-5.898100137710571289e-01,-1.177678108215332031e-01,-1.248377323150634766e+00,9.575955867767333984e-01,-9.318906068801879883e-01,-3.664688467979431152e-01,-2.557243406772613525e-01,-7.407553195953369141e-01,1.228690519928932190e-02,-1.040718674659729004e+00,2.055946290493011475e-01
-1.190923452377319336e+00,6.029330492019653320e-01,9.593535065650939941e-01,-9.199103116989135742e-01,3.820521533489227295e-01,-7.259971499443054199e-01,9.647371768951416016e-01,-1.012622237205505371e+00,-5.879426002502441406e-01,-6.398803591728210449e-01,-2.328906953334808350e-01,-4.827017188072204590e-01,-4.906700253486633301e-01,5.164911150932312012e-01
-1.010100364685058594e+00,7.256083935499191284e-02,4.266799986362457275e-01,-7.674211859703063965e-01,6.502087116241455078e-01,-9.603383392095565796e-02,5.983251333236694336e-01,-5.318920016288757324e-01,-8.625881075859069824e-01,-1.269872903823852539e+00,3.212752044200897217e-01,-1.054329633712768555e+00,8.070998638868331909e-02,8.545871376991271973e-01
-7.020364999771118164e-01,-4.730723798274993896e-01,-1.214923709630966187e-01,-8.399654626846313477e-01,6.439120173454284668e-01,6.263961195945739746e-01,2.888909578323364258e-01,-1.935964375734329224e-01,-7.357210516929626465e-01,-1.617092967033386230e+00,8.431105613708496094e-01,-9.714356064796447754e-01,7.673607468605041504e-01,8.590486049652099609e-01
-1.396830081939697266e-01,-9.196088314056396484e-01,-5.854532122611999512e-01,-1.776916086673736572e-01,5.271235108375549316e-01,1.314671754837036133e+00,-1.179102882742881775e-01,4.799793958663940430e-01,-4.160941839218139648e-01,-1.496051192283630371e+00,7.222791314125061035e-01,-7.378991246223449707e-01,9.675656557083129883e-01,5.437618494033813477e-01
3.942328393459320068e-01,-1.106961965560913086e+00,-5.616296529769897461e-01,3.869587779045104980e-01,3.385487198829650879e-01,1.325849771499633789e+00,-3.850112259387969971e-01,1.101912260055541992e+00,-1.017863973975181580e-01,-1.112749695777893066e+00,5.372123718261718750e-01,-3.762522637844085693e-01,8.612572550773620605e-01,1.546085923910140991e-01
7.846835255622863770e-01,-1.109315395355224609e+00,-3.577030897140502930e-01,6.619709730148315430e-01,-1.145199760794639587e-01,1.217357039451599121e+00,-5.690018534660339355e-01,1.496039390563964844e+00,4.454120993614196777e-01,-4.703830480575561523e-01,2.872141301631927490e-01,2.181635499000549316e-01,6.538664698600769043e-01,-2.279037088155746460e-01
9.849019646644592285e-01,-8.391971588134765625e-01,1.684852540493011475e-01,1.197739481925964355e+00,-2.414209842681884766e-01,7.927559614181518555e-01,-6.141351908445358276e-02,1.499403953552246094e+00,1.293781042098999023e+00,1.745149642229080200e-01,-3.993865549564361572e-01,6.657333970069885254e-01,2.107183635234832764e-01,-4.808409810066223145e-01
8.377304673194885254e-01,-3.298072814941406250e-01,8.683223724365234375e-01,1.350767731666564941e+00,-5.929853320121765137e-01,3.233951330184936523e-01,5.010368824005126953e-01,1.392782211303710938e+00,1.467617988586425781e+00,6.026075482368469238e-01,-6.731874942779541016e-01,6.913785934448242188e-01,-1.274063140153884888e-01,-3.410345017910003662e-01
7.733474373817443848e-01,6.636295467615127563e-02,1.057133555412292480e+00,1.133265972137451172e+00,-5.891765952110290527e-01,-1.492735296487808228e-01,9.128063321113586426e-01,9.183661937713623047e-01,1.636201024055480957e+00,9.416027665138244629e-01,-8.649784922599792480e-01,4.566000998020172119e-01,-5.623439550399780273e-01,-2.877451479434967041e-01
1.020858660340309143e-01,5.197678804397583008e-01,1.273310065269470215e+00,9.404206275939941406e-01,-1.710679233074188232e-01,-6.068357825279235840e-01,1.109385967254638672e+00,1.789398044347763062e-01,1.414760351181030273e+00,6.947708129882812500e-01,-7.668929696083068848e-01,5.096971988677978516e-02,-5.374578237533569336e-01,-1.513188332319259644e-01
-7.901280187070369720e-03,8.423478603363037109e-01,1.174504995346069336e+00,3.682603240013122559e-01,5.460805296897888184e-01,-8.130416274070739746e-01,1.345786809921264648e+00,-3.400633037090301514e-01,8.663883209228515625e-01,1.979349553585052490e-01,-4.610092341899871826e-01,-7.520129680633544922e-01,-3.437617421150207520e-01,5.928503870964050293e-01
-4.297460913658142090e-01,9.308550953865051270e-01,5.876610279083251953e-01,-1.140384562313556671e-02,9.184723496437072754e-01,-4.209398925304412842e-01,9.281585812568664551e-01,-8.758113384246826172e-01,2.302051633596420288e-01,-3.581766486167907715e-01,7.476985454559326172e-03,-9.555843472480773926e-01,2.670622766017913818e-01,1.043699502944946289e+00
-9.015182256698608398e-01,7.857713699340820312e-01,-3.407738208770751953e-01,-4.322328865528106689e-01,1.388070940971374512e+00,-2.982575893402099609e-01,3.892802000045776367e-01,-9.053183794021606445e-01,-1.664755940437316895e-01,-6.217393875122070312e-01,3.667952418327331543e-01,-1.200475215911865234e+00,3.709408342838287354e-01,1.108749032020568848e+00
-9.595304131507873535e-01,3.257817625999450684e-01,-8.140200972557067871e-01,-5.175102353096008301e-01,1.245848059654235840e+00,2.662892639636993408e-01,-3.477100729942321777e-01,-8.749439120292663574e-01,-8.221698999404907227e-01,-6.985829472541809082e-01,6.787507534027099609e-01,-1.028264522552490234e+00,7.742123603820800781e-01,9.991073012351989746e-01
-4.567183256149291992e-01,-4.696103632450103760e-01,-1.348249912261962891e+00,-5.788066387176513672e-01,1.108478307723999023e+00,5.735790729522705078e-01,-7.165791988372802734e-01,-5.811864733695983887e-01,-1.174153804779052734e+00,-4.267241656780242920e-01,1.053779721260070801e+00,-5.265706777572631836e-01,1.143048405647277832e+00,5.485079288482666016e-01
8.653645217418670654e-02,-8.255819082260131836e-01,-1.199674487113952637e+00,-3.932920992374420166e-01,5.516907572746276855e-01,9.377400875091552734e-01,-1.229732632637023926e+00,-5.635063722729682922e-02,-1.036282658576965332e+00,6.970568746328353882e-02,8.081054687500000000e-01,-2.802877128124237061e-02,8.543959856033325195e-01,-2.460821866989135742e-01
4.025890827178955078e-01,-1.262324690818786621e+00,-5.815113782882690430e-01,6.644555926322937012e-02,-1.591286212205886841e-01,8.395771384239196777e-01,-1.154231667518615723e+00,3.795786499977111816e-01,-8.490161299705505371e-01,9.720157980918884277e-01,4.208865761756896973e-01,7.325373291969299316e-01,5.074120759963989258e-01,-6.996401548385620117e-01
6.298223733901977539e-01,-1.355765223503112793e+00,1.742458157241344452e-02,3.010180592536926270e-01,-7.593190073966979980e-01,3.766848444938659668e-01,-9.012626409530639648e-01,8.443915843963623047e-01,-2.968302369117736816e-01,1.152685165405273438e+00,-1.237666308879852295e-01,1.144669651985168457e+00,1.933447420597076416e-01,-1.372108578681945801e+00
7.488977909088134766e-01,-9.330682754516601562e-01,5.406615138053894043e-01,5.495557785034179688e-01,-1.212102890014648438e+00,-4.455062374472618103e-02,-5.431623458862304688e-01,7.340179681777954102e-01,-6.699527800083160400e-02,1.422222733497619629e+00,-5.984179973602294922e-01,1.071768522262573242e+00,-4.039415419101715088e-01,-1.295460224151611328e+00
8.226837515830993652e-01,-4.034110009670257568e-01,1.064364433288574219e+00,6.470258831977844238e-01,-1.149272084236145020e+00,-6.198839545249938965e-01,6.874664872884750366e-02,5.658897757530212402e-01,2.938939332962036133e-01,1.036902070045471191e+00,-8.999209403991699219e-01,8.214501738548278809e-01,-9.440983533859252930e-01,-1.144047737121582031e+00
5.620738267898559570e-01,1.537781059741973877e-01,9.460126161575317383e-01,4.448273479938507080e-01,-1.045619726181030273e+00,-8.459383249282836914e-01,4.780290424823760986e-01,5.672284960746765137e-02,5.298943519592285156e-01,8.127409815788269043e-01,-9.279565811157226562e-01,2.334673851728439331e-01,-9.727736115455627441e-01,-5.289404392242431641e-01
-3.216316690668463707e-03,9.547979831695556641e-01,8.589566349983215332e-01,-7.958699949085712433e-03,-6.705493330955505371e-01,-1.035254716873168945e+00,5.967335104942321777e-01,-3.323327004909515381e-01,3.300154805183410645e-01,8.416821062564849854e-02,-5.160629153251647949e-01,-2.973399162292480469e-01,-8.380568623542785645e-01,-2.214591354131698608e-01
-3.415163457393646240e-01,1.307839035987854004e+00,3.705237805843353271e-01,-2.705217897891998291e-01,-4.084844142198562622e-02,-1.041814088821411133e+00,4.049275815486907959e-01,-8.428478837013244629e-01,-1.219906285405158997e-02,-6.013398170471191406e-01,8.212696015834808350e-02,-3.409159183502197266e-01,-5.121728777885437012e-01,2.221697866916656494e-01
-5.384894013404846191e-01,1.715549588203430176e+00,-3.298244774341583252e-01,-6.778293251991271973e-01,2.587655782699584961e-01,-5.834525227546691895e-01,-2.296043485403060913e-01,-1.026733160018920898e+00,-4.884034693241119385e-01,-8.758481144905090332e-01,6.671372652053833008e-01,-3.058113753795623779e-01,-3.799696266651153564e-02,3.042089343070983887e-01
-6.510179638862609863e-01,1.747893452644348145e+00,-9.220392704010009766e-01,-8.397763371467590332e-01,2.625211775302886963e-01,5.920762196183204651e-02,-4.742475748062133789e-01,-9.197733402252197266e-01,-8.465394973754882812e-01,-9.594914913177490234e-01,1.113655686378479004e+00,-1.000481769442558289e-01,5.356078147888183594e-01,4.558181166648864746e-01
-5.583532452583312988e-01,1.591831326484680176e+00,-1.141356825828552246e+00,-1.131620645523071289e+00,2.685021460056304932e-01,3.407208323478698730e-01,-7.971900701522827148e-01,-7.572983503341674805e-01,-1.342048883438110352e+00,-6.542475223541259766e-01,1.342512011528015137e+00,3.716181814670562744e-01,7.775706648826599121e-01,7.906104624271392822e-02
-7.018385827541351318e-02,6.683966517448425293e-01,-1.072810530662536621e+00,-9.182804822921752930e-01,2.308195270597934723e-02,1.004454851150512695e+00,-9.888659119606018066e-01,-3.607563376426696777e-01,-1.211235880851745605e+00,3.788266703486442566e-02,1.442637085914611816e+00,1.214376688003540039e+00,9.197916388511657715e-01,-2.044781446456909180e-01
5.157927870750427246e-01,3.513564467430114746e-01,-6.968575716018676758e-01,-6.347098350524902344e-01,-4.482421875000000000e-01,9.101406335830688477e-01,-7.930662631988525391e-01,1.042219176888465881e-01,-8.546666502952575684e-01,5.435933470726013184e-01,1.065257430076599121e+00,1.277342438697814941e+00,6.275869011878967285e-01,-4.785597324371337891e-01
7.705230712890625000e-01,-3.656852841377258301e-01,-5.092547088861465454e-02,6.124563515186309814e-02,-8.882309794425964355e-01,8.713950514793395996e-01,-4.526138603687286377e-01,6.632928848266601562e-01,-5.016919970512390137e-01,8.920860886573791504e-01,4.554155766963958740e-01,1.190743446350097656e+00,1.162175685167312622e-01,-7.889657616615295410e-01
9.976114630699157715e-01,-8.229992985725402832e-01,4.083264768123626709e-01,4.201245307922363281e-01,-1.039391040802001953e+00,3.324041664600372314e-01,1.990417391061782837e-01,9.986815452575683594e-01,3.227366507053375244e-01,7.652458548545837402e-01,-8.815045654773712158e-02,7.090826630592346191e-01,-4.849768802523612976e-02,-8.007588386535644531e-01
1.076554775238037109e+00,-9.478693008422851562e-01,7.927648425102233887e-01,5.987504124641418457e-01,-1.145418763160705566e+00,-3.529213666915893555e-01,6.999160647392272949e-01,9.508771896362304688e-01,8.149745464324951172e-01,5.808659791946411133e-01,-6.275053024291992188e-01,1.410075556486845016e-02,-6.229816079139709473e-01,-3.940888941287994385e-01
9.960969090461730957e-01,-8.537400960922241211e-01,6.388590931892395020e-01,8.599126338958740234e-01,-8.317289352416992188e-01,-6.778229475021362305e-01,1.161789655685424805e+00,6.831187605857849121e-01,1.073987483978271484e+00,1.151385600678622723e-03,-6.842081546783447266e-01,-6.375303268432617188e-01,-8.690305352210998535e-01,8.024638891220092773e-02
5.516794919967651367e-01,-4.248164594173431396e-01,1.007172316312789917e-01,7.919144034385681152e-01,-1.425655782222747803e-01,-1.000189304351806641e+00,1.183591008186340332e+00,1.711448580026626587e-01,1.436743140220642090e+00,-6.015470027923583984e-01,-7.553925514221191406e-01,-9.048906564712524414e-01,-1.043712019920349121e+00,6.260824203491210938e-01
-1.280375272035598755e-01,3.175775334239006042e-02,-5.284985899925231934e-01,5.789050459861755371e-01,5.065823197364807129e-01,-1.332559347152709961e+00,8.188768625259399414e-01,-4.457608461380004883e-01,1.604214429855346680e+00,-8.923386335372924805e-01,-3.342662155628204346e-01,-1.206909060478210449e+00,-8.171188235282897949e-01,1.085483193397521973e+00
-5.834957361221313477e-01,5.048303008079528809e-01,-8.358914256095886230e-01,-4.066570848226547241e-02,1.165094017982482910e+00,-1.134898066520690918e+00,3.289024233818054199e-01,-1.044218301773071289e+00,1.039744734764099121e+00,-1.167226314544677734e+00,-1.189625337719917297e-01,-9.547542333602905273e-01,-3.159190416336059570e-01,1.339983344078063965e+00
-9.626684188842773438e-01,6.413122415542602539e-01,-1.562884092330932617e+00,-2.003299593925476074e-01,1.315172076225280762e+00,-5.844742059707641602e-01,-3.739471137523651123e-01,-1.151643514633178711e+00,5.347524881362915039e-01,-8.170934915542602539e-01,3.656622767448425293e-01,-6.768473982810974121e-01,4.322185739874839783e-02,1.287811398506164551e+00
-1.269408464431762695e+00,4.331336021423339844e-01,-1.383660912513732910e+00,-7.399414181709289551e-01,1.370607495307922363e+00,-2.626129388809204102e-01,-8.950705528259277344e-01,-1.289243578910827637e+00,1.285247504711151123e-01,-2.849129438400268555e-01,4.908299148082733154e-01,-2.543238103389739990e-01,5.729309320449829102e-01,1.119343638420104980e+00
-1.122465252876281738e+00,3.213630914688110352e-01,-8.340329527854919434e-01,-6.103615760803222656e-01,1.073404669761657715e+00,3.702937960624694824e-01,-8.264780044555664062e-01,-8.392109274864196777e-01,-3.077665865421295166e-01,4.265850484371185303e-01,4.625289738178253174e-01,4.112567901611328125e-01,5.936070084571838379e-01,3.686664998531341553e-01
-7.477039694786071777e-01,-1.713637262582778931e-01,4.329223930835723877e-02,-6.268461942672729492e-01,5.481779575347900391e-01,7.217476963996887207e-01,-6.805377602577209473e-01,-7.853705435991287231e-02,-8.674822449684143066e-01,9.223247170448303223e-01,6.889413297176361084e-02,7.548854351043701172e-01,5.534380674362182617e-01,-8.789093792438507080e-02
-4.423098266124725342e-01,-6.104472279548645020e-01,4.715539515018463135e-01,-2.561968564987182617e-01,-1.281426101922988892e-01,6.722756028175354004e-01,-3.132057189941406250e-01,2.569980323314666748e-01,-9.491547346115112305e-01,9.849751591682434082e-01,-4.062645435333251953e-01,5.357427597045898438e-01,-9.004177525639533997e-03,-3.970320224761962891e-01
2.078650705516338348e-02,-1.195927858352661133e+00,1.200442433357238770e+00,2.474399358034133911e-01,-2.907334566116333008e-01,3.492046594619750977e-01,2.734132707118988037e-01,7.857782840728759766e-01,-4.756251871585845947e-01,7.931325435638427734e-01,-7.070752978324890137e-01,2.354268729686737061e-01,-4.767382740974426270e-01,-7.736771702766418457e-01
2.030852437019348145e-01,-1.535886764526367188e+00,1.589623451232910156e+00,4.160905778408050537e-01,-6.599839925765991211e-01,2.583989799022674561e-01,7.672724127769470215e-01,1.261615872383117676e+00,-1.900137774646282196e-02,1.299450397491455078e-01,-1.367125630378723145e+00,-3.675895035266876221e-01,-5.023414492607116699e-01,-4.588462710380554199e-01
4.121764600276947021e-01,-1.530006527900695801e+00,1.600410938262939453e+00,7.558146715164184570e-01,-5.289753079414367676e-01,-3.184205591678619385e-01,9.518460035324096680e-01,1.154667019844055176e+00,1.674751788377761841e-01,-3.480385243892669678e-01,-1.474166035652160645e+00,-9.808928966522216797e-01,-1.116772174835205078e+00,-2.693968713283538818e-01
3.825436830520629883e-01,-1.544549345970153809e+00,9.577728509902954102e-01,8.477481603622436523e-01,-8.586490154266357422e-02,-5.862485170364379883e-01,1.099964261054992676e+00,1.104286313056945801e+00,7.100473046302795410e-01,-8.173844218254089355e-01,-1.407478213310241699e+00,-9.686266183853149414e-01,-9.421431422233581543e-01,6.266136467456817627e-02
9.981297701597213745e-02,-8.566139936447143555e-01,3.335074484348297119e-01,8.342673182487487793e-01,3.745488226413726807e-01,-8.193821907043457031e-01,7.823747992515563965e-01,7.066853046417236328e-01,7.992823719978332520e-01,-1.065115213394165039e+00,-9.492626786231994629e-01,-7.624378204345703125e-01,-8.692755103111267090e-01,4.717720746994018555e-01
-3.303354084491729736e-01,-2.987495623528957367e-02,-2.138034999370574951e-01,3.271355926990509033e-01,6.545491218566894531e-01,-5.369884371757507324e-01,9.879492223262786865e-02,1.324327290058135986e-01,8.814121484756469727e-01,-1.112945914268493652e+00,-4.149847328662872314e-01,-4.063274562358856201e-01,-4.049398005008697510e-01,5.365458726882934570e-01
-5.533013343811035156e-01,3.934166729450225830e-01,-5.238252878189086914e-01,5.803603678941726685e-02,7.872111201286315918e-01,8.214766159653663635e-03,-5.588154196739196777e-01,-4.263195395469665527e-01,3.467514812946319580e-01,-7.940469384193420410e-01,4.093912541866302490e-01,1.217871755361557007e-01,3.013211786746978760e-01,5.685575008392333984e-01
-6.619395613670349121e-01,1.070793032646179199e+00,-5.033018589019775391e-01,-4.530631005764007568e-01,6.454555392265319824e-01,5.901792645454406738e-01,-6.446824073791503906e-01,-5.565539002418518066e-01,-3.540569543838500977e-01,-4.311886727809906006e-01,8.817974328994750977e-01,6.639869809150695801e-01,8.796963691711425781e-01,1.686760038137435913e-01
-7.825911641120910645e-01,1.285797953605651855e+00,-1.732558608055114746e-01,-6.303167939186096191e-01,3.198512792587280273e-01,1.110366106033325195e+00,-8.697001934051513672e-01,-6.157014966011047363e-01,-6.638702154159545898e-01,1.203235834836959839e-01,1.080699801445007324e+00,8.310866355895996094e-01,1.148601293563842773e+00,-3.155634999275207520e-01
-2.007441222667694092e-01,1.132118225097656250e+00,2.173928022384643555e-01,-8.130221366882324219e-01,-2.706403136253356934e-01,1.315204858779907227e+00,-3.700233399868011475e-01,-3.195235729217529297e-01,-1.004137992858886719e+00,4.828473031520843506e-01,9.248631000518798828e-01,1.009791374206542969e+00,1.066989302635192871e+00,-8.958499431610107422e-01
-6.713449209928512573e-02,9.623327255249023438e-01,6.606368422508239746e-01,-5.369651317596435547e-01,-8.617805242538452148e-01,1.641006231307983398e+00,4.899467341601848602e-03,2.214851379394531250e-01,-1.306351065635681152e+00,4.671457707881927490e-01,5.307130813598632812e-01,3.776300847530364990e-01,1.136312842369079590e+00,-1.134911775588989258e+00
4.246430993080139160e-01,3.208803832530975342e-01,1.091871619224548340e+00,-2.032644003629684448e-01,-1.308206081390380859e+00,1.274901270866394043e+00,5.245708823204040527e-01,6.193385124206542969e-01,-1.261071681976318359e+00,2.934721112251281738e-01,2.369863986968994141e-01,-1.677609533071517944e-01,6.607811450958251953e-01,-1.221840381622314453e+00
1.011174321174621582e+00,-2.396209090948104858e-01,9.508931040763854980e-01,3.733171820640563965e-01,-1.383134245872497559e+00,7.831031084060668945e-01,9.129163026809692383e-01,9.806026220321655273e-01,-9.393851757049560547e-01,-2.116899490356445312e-01,-3.023205697536468506e-01,-7.593415975570678711e-01,4.953807219862937927e-02,-1.032088637351989746e+00
1.286416172981262207e+00,-5.809399485588073730e-01,4.663345217704772949e-01,6.538758277893066406e-01,-1.239115238189697266e+00,7.737056910991668701e-02,9.428769350051879883e-01,8.818989992141723633e-01,-2.376136630773544312e-01,-6.490132808685302734e-01,-6.575801968574523926e-01,-1.070684194564819336e+00,-2.836985886096954346e-01,-5.391383171081542969e-01
1.245779275894165039e+00,-1.134274482727050781e+00,-2.352707087993621826e-01,7.740842700004577637e-01,-1.022470116615295410e+00,-4.781513512134552002e-01,8.584855794906616211e-01,7.510681152343750000e-01,3.524792492389678955e-01,-9.739598631858825684e-01,-3.688880503177642822e-01,-1.106825590133666992e+00,-3.579989075660705566e-01,1.088041290640830994e-01
8.716985583305358887e-01,-1.219021677970886230e+00,-1.024286031723022461e+00,8.149325251579284668e-01,-2.393782734870910645e-01,-7.608563899993896484e-01,1.371260136365890503e-01,3.171292245388031006e-01,8.242698907852172852e-01,-9.467088580131530762e-01,-2.234474271535873413e-01,-6.371306777000427246e-01,-3.917191922664642334e-01,5.658645033836364746e-01
4.825323522090911865e-01,-1.026117324829101562e+00,-1.590293765068054199e+00,8.399626612663269043e-01,3.941459357738494873e-01,-1.183047175407409668e+00,-3.418487012386322021e-01,-3.016836047172546387e-01,1.033493161201477051e+00,-4.465557634830474854e-01,1.668782830238342285e-01,-9.667062014341354370e-02,-3.893298283219337463e-02,8.688275814056396484e-01
1.389076858758926392e-01,-5.724890828132629395e-01,-1.642362713813781738e+00,2.580410242080688477e-01,7.928294539451599121e-01,-1.017409563064575195e+00,-9.972569346427917480e-01,-9.689186215400695801e-01,9.667432308197021484e-01,1.779651641845703125e-02,6.191368699073791504e-01,2.824783623218536377e-01,1.401829719543457031e-01,1.067984700202941895e+00
-4.968512952327728271e-01,4.673753306269645691e-02,-1.458271026611328125e+00,-7.886597514152526855e-02,7.654439210891723633e-01,-8.903374075889587402e-01,-1.255018591880798340e+00,-1.521075129508972168e+00,7.865983843803405762e-01,6.851224899291992188e-01,1.075821042060852051e+00,8.860158920288085938e-01,5.955016016960144043e-01,7.529823780059814453e-01
-6.646435856819152832e-01,6.238970756530761719e-01,-8.225775361061096191e-01,-4.722130000591278076e-01,6.772556304931640625e-01,-3.038215637207031250e-01,-1.296340823173522949e+00,-1.598740458488464355e+00,3.453205525875091553e-01,1.304767727851867676e+00,1.092607140541076660e+00,8.219846487045288086e-01,7.440334558486938477e-01,3.925376832485198975e-01
-6.809816956520080566e-01,1.237278461456298828e+00,-1.479039043188095093e-01,-1.017405152320861816e+00,1.585840433835983276e-01,2.554948255419731140e-02,-1.043530702590942383e+00,-1.497959971427917480e+00,-1.403241157531738281e-01,1.436816930770874023e+00,1.066024899482727051e+00,7.494770884513854980e-01,6.872522234916687012e-01,-2.674459218978881836e-01
-6.446759104728698730e-01,1.330758929252624512e+00,4.804516434669494629e-01,-1.002685904502868652e+00,-2.970008850097656250e-01,4.337739348411560059e-01,-3.780122697353363037e-01,-1.182583808898925781e+00,-8.149132728576660156e-01,1.268434762954711914e+00,5.553407073020935059e-01,2.273758500814437866e-01,4.555007219314575195e-01,-4.450878798961639404e-01
-3.573801219463348389e-01,1.084411621093750000e+00,9.176951646804809570e-01,-9.509574174880981445e-01,-6.570961475372314453e-01,4.549520611763000488e-01,-2.254036366939544678e-01,-5.951191186904907227e-01,-8.933550119400024414e-01,8.550890088081359863e-01,3.657086566090583801e-02,-1.401147693395614624e-01,2.041623592376708984e-01,-6.807834506034851074e-01
3.568928688764572144e-02,9.204508662223815918e-01,1.008617639541625977e+00,-8.313283920288085938e-01,-6.185768246650695801e-01,-1.694649830460548401e-02,4.977324604988098145e-01,-3.614185005426406860e-02,-1.043943285942077637e+00,2.667911946773529053e-01,-5.686112642288208008e-01,-3.989205062389373779e-01,-4.410432875156402588e-01,-5.337615013122558594e-01
6.044389009475708008e-01,6.276078820228576660e-01,3.831929266452789307e-01,-2.465864270925521851e-01,-5.055096149444580078e-01,-3.251906633377075195e-01,4.592415690422058105e-01,7.304280996322631836e-01,-7.082562446594238281e-01,-2.801488339900970459e-01,-8.339832425117492676e-01,-4.671686887741088867e-01,-9.589124321937561035e-01,-9.471657872200012207e-02
8.927619457244873047e-01,-5.597430747002363205e-03,7.481088489294052124e-02,1.632992774248123169e-01,-8.171713352203369141e-02,-9.042679667472839355e-01,5.244550704956054688e-01,8.952329158782958984e-01,-4.855580627918243408e-01,-5.028250813484191895e-01,-9.368825554847717285e-01,-1.250604987144470215e-01,-1.400284290313720703e+00,3.784994184970855713e-01
9.021391868591308594e-01,-4.112759232521057129e-01,-4.034000039100646973e-01,3.832762241363525391e-01,1.284184306859970093e-01,-1.204157590866088867e+00,2.345586270093917847e-01,9.480829238891601562e-01,3.588137924671173096e-01,-5.139045715332031250e-01,-7.893596291542053223e-01,3.156657218933105469e-01,-1.189359545707702637e+00,7.658845186233520508e-01
6.299850344657897949e-01,-4.629979133605957031e-01,-8.150833249092102051e-01,4.546440541744232178e-01,8.202621340751647949e-01,-1.020449280738830566e+00,-2.406517267227172852e-01,9.095790982246398926e-01,8.780471086502075195e-01,-8.063604682683944702e-02,-5.168123841285705566e-01,7.885025739669799805e-01,-1.161986827850341797e+00,1.026842951774597168e+00
2.707264125347137451e-01,-6.265528202056884766e-01,-7.005172371864318848e-01,4.689173400402069092e-01,1.127085566520690918e+00,-7.315157651901245117e-01,-6.851874589920043945e-01,3.277344703674316406e-01,1.134328365325927734e+00,3.202229738235473633e-01,3.826303780078887939e-01,1.344276189804077148e+00,-8.183181285858154297e-01,8.106098175048828125e-01
-1.773757189512252808e-01,-3.053527772426605225e-01,-4.337617456912994385e-01,1.519066691398620605e-01,1.127014875411987305e+00,-4.968930184841156006e-01,-5.722111463546752930e-01,-2.908902466297149658e-01,8.731868863105773926e-01,6.801185011863708496e-01,7.080264687538146973e-01,1.494990468025207520e+00,1.005098409950733185e-02,4.825104475021362305e-01
-6.046535372734069824e-01,2.142934650182723999e-01,2.687140107154846191e-01,-7.848406583070755005e-02,1.091545462608337402e+00,3.651887178421020508e-02,-4.465210735797882080e-01,-4.305177330970764160e-01,8.763332366943359375e-01,8.574064373970031738e-01,1.031201362609863281e+00,1.049374461174011230e+00,2.624163925647735596e-01,3.096314892172813416e-02
-8.403696417808532715e-01,6.643836498260498047e-01,7.065964937210083008e-01,-2.586383521556854248e-01,2.855730652809143066e-01,7.180098295211791992e-01,-6.762254983186721802e-02,-5.842509865760803223e-01,4.318078160285949707e-01,7.030983567237854004e-01,1.050504803657531738e+00,5.462676286697387695e-01,5.319115519523620605e-01,-2.646884024143218994e-01
-7.439950108528137207e-01,1.179753184318542480e+00,1.109406352043151855e+00,-4.524028003215789795e-01,-2.105909436941146851e-01,1.249208331108093262e+00,5.126662850379943848e-01,-4.367136955261230469e-01,-1.552793290466070175e-02,2.505218088626861572e-01,7.259355187416076660e-01,-3.101799786090850830e-01,6.906780600547790527e-01,-7.749221324920654297e-01
-5.119919180870056152e-01,1.263963818550109863e+00,1.212024450302124023e+00,-7.219064235687255859e-01,-7.230253815650939941e-01,1.240182280540466309e+00,1.182394623756408691e+00,-5.224063247442245483e-02,-2.876673340797424316e-01,-3.383523225784301758e-01,2.891830503940582275e-01,-8.805979490280151367e-01,6.152555346488952637e-01,-8.263878822326660156e-01
-6.223361007869243622e-03,1.115973949432373047e+00,1.077110052108764648e+00,-2.897778451442718506e-01,-1.003479599952697754e+00,1.049069285392761230e+00,1.567518830299377441e+00,5.003356933593750000e-01,-6.400993466377258301e-01,-1.049612760543823242e+00,-3.447682857513427734e-01,-1.213360786437988281e+00,2.323177456855773926e-01,-7.786635160446166992e-01
3.358850479125976562e-01,6.989174485206604004e-01,3.691934645175933838e-01,1.417603641748428345e-01,-8.597199916839599609e-01,6.685337424278259277e-01,1.441734910011291504e+00,8.276835680007934570e-01,-7.817473411560058594e-01,-1.348483800888061523e+00,-8.012727499008178711e-01,-1.063489675521850586e+00,-4.566440880298614502e-01,-3.724331557750701904e-01
7.903944253921508789e-01,9.237650781869888306e-02,-4.009145200252532959e-01,4.607684016227722168e-01,-7.940304279327392578e-01,8.677915483713150024e-02,1.148279547691345215e+00,9.617998003959655762e-01,-5.932294726371765137e-01,-1.513867855072021484e+00,-9.153733253479003906e-01,-7.430096268653869629e-01,-5.172541737556457520e-01,1.215098947286605835e-01
7.245427370071411133e-01,-8.027106523513793945e-01,-8.928582072257995605e-01,8.846396207809448242e-01,-5.087899789214134216e-02,-3.667809367179870605e-01,4.876686632633209229e-01,1.138772964477539062e+00,-8.388229459524154663e-02,-1.266628384590148926e+00,-9.993163943290710449e-01,-2.972244620323181152e-01,-5.717955231666564941e-01,6.950299143791198730e-01
7.199378609657287598e-01,-1.136855125427246094e+00,-1.315914034843444824e+00,1.195345520973205566e+00,6.012250185012817383e-01,-7.082575559616088867e-01,-1.211034655570983887e-01,9.457380771636962891e-01,3.508200645446777344e-01,-5.543445944786071777e-01,-8.783990740776062012e-01,1.268700808286666870e-01,-3.827007412910461426e-01,8.450324535369873047e-01
2.575802206993103027e-01,-1.579345226287841797e+00,-8.073884844779968262e-01,1.272283673286437988e+00,7.387124300003051758e-01,-6.895554065704345703e-01,-6.596615314483642578e-01,4.356943964958190918e-01,7.350928783416748047e-01,-3.565879911184310913e-02,-1.792226284742355347e-01,5.777243971824645996e-01,-1.085082814097404480e-01,7.212827801704406738e-01
-1.233631595969200134e-01,-1.906513810157775879e+00,-6.053877472877502441e-01,9.410389661788940430e-01,8.467156887054443359e-01,-6.138482093811035156e-01,-9.372962713241577148e-01,-1.001637130975723267e-01,9.126480817794799805e-01,4.917361736297607422e-01,1.002949774265289307e-01,3.892639279365539551e-01,2.003731876611709595e-01,4.721073806285858154e-01
-7.052570581436157227e-01,-1.525965809822082520e+00,2.303644418716430664e-01,6.860167980194091797e-01,9.214670062065124512e-01,-2.223153114318847656e-01,-6.684412956237792969e-01,-6.028400063514709473e-01,1.044990539550781250e+00,5.594021677970886230e-01,5.504441857337951660e-01,1.920034736394882202e-02,6.965421438217163086e-01,4.690044000744819641e-02
-1.041905403137207031e+00,-1.231295943260192871e+00,9.065002202987670898e-01,1.786833405494689941e-01,1.832206100225448608e-01,3.708197474479675293e-01,-5.059898495674133301e-01,-9.906211495399475098e-01,7.335628271102905273e-01,3.843900263309478760e-01,4.507030844688415527e-01,-4.090231060981750488e-01,9.658923149108886719e-01,-3.358231484889984131e-01
-1.313978672027587891e+00,-6.888729333877563477e-01,1.262362480163574219e+00,-2.904897630214691162e-01,-2.577649354934692383e-01,6.733084917068481445e-01,-1.283609718084335327e-01,-1.210185050964355469e+00,4.395197033882141113e-01,2.160285972058773041e-02,2.870668172836303711e-01,-8.901022076606750488e-01,8.149312138557434082e-01,-7.111623883247375488e-01
-1.286394357681274414e+00,-1.659408397972583771e-02,1.384639739990234375e+00,-8.424683809280395508e-01,-6.360900998115539551e-01,1.064408540725708008e+00,1.579693853855133057e-01,-1.005779266357421875e+00,-2.234896123409271240e-01,-5.193092226982116699e-01,-3.771232962608337402e-01,-1.150741577148437500e+00,5.349966287612915039e-01,-8.816099762916564941e-01
-9.758036136627197266e-01,6.414100527763366699e-01,1.129844307899475098e+00,-7.315919995307922363e-01,-9.149964451789855957e-01,9.300378561019897461e-01,4.454475641250610352e-01,-5.254518389701843262e-01,-9.546512961387634277e-01,-7.940598726272583008e-01,-8.918080925941467285e-01,-8.498458862304687500e-01,2.656358778476715088e-01,-7.357684969902038574e-01
-3.589037060737609863e-01,8.545654416084289551e-01,3.613744974136352539e-01,-8.757293820381164551e-01,-8.206124305725097656e-01,8.519497513771057129e-01,3.444093167781829834e-01,9.728705137968063354e-02,-1.533174753189086914e+00,-1.111280441284179688e+00,-1.298174262046813965e+00,-5.786840915679931641e-01,-3.710111081600189209e-01,-3.739495277404785156e-01
4.262831807136535645e-02,8.321182727813720703e-01,-3.201394379138946533e-01,-5.927891135215759277e-01,-4.602269530296325684e-01,1.636672019958496094e-01,-6.122564896941184998e-02,7.157366275787353516e-01,-1.624660134315490723e+00,-7.356534600257873535e-01,-1.467236638069152832e+00,1.286318451166152954e-01,-6.269769668579101562e-01,2.504280805587768555e-01
4.616626799106597900e-01,6.960371136665344238e-01,-7.316696047782897949e-01,-4.124097526073455811e-02,-9.694285690784454346e-02,-1.285615265369415283e-01,-4.310942590236663818e-01,6.720193624496459961e-01,-1.275392055511474609e+00,-2.982943654060363770e-01,-1.310682654380798340e+00,7.081189751625061035e-01,-6.563463211059570312e-01,5.666030049324035645e-01
8.128440976142883301e-01,3.520407378673553467e-01,-8.950581550598144531e-01,1.098683625459671021e-01,4.140078127384185791e-01,-7.823221683502197266e-01,-9.018585681915283203e-01,1.021859884262084961e+00,-7.645756602287292480e-01,4.331144690513610840e-01,-9.031554460525512695e-01,9.570516943931579590e-01,-8.836019039154052734e-01,7.328384518623352051e-01
7.735448479652404785e-01,-1.589355915784835815e-01,-9.843800067901611328e-01,3.802779018878936768e-01,6.970041394233703613e-01,-1.013651371002197266e+00,-1.295528650283813477e+00,7.321060895919799805e-01,-5.247058868408203125e-01,9.186171293258666992e-01,-2.093748152256011963e-01,8.677506446838378906e-01,-4.823488891124725342e-01,7.517912983894348145e-01
6.025710105895996094e-01,-6.870808005332946777e-01,-3.044799268245697021e-01,3.483114838600158691e-01,8.945316672325134277e-01,-7.354156374931335449e-01,-1.059200882911682129e+00,3.277906179428100586e-01,1.730878800153732300e-01,1.192219734191894531e+00,4.903783500194549561e-01,8.001648783683776855e-01,-1.872177794575691223e-02,3.250978291034698486e-01
3.529507815837860107e-01,-8.982326984405517578e-01,8.344954252243041992e-02,2.613101899623870850e-01,5.879572033882141113e-01,-3.307303190231323242e-01,-7.768493890762329102e-01,-1.351209580898284912e-01,6.468766927719116211e-01,1.183337092399597168e+00,9.996809959411621094e-01,3.458175063133239746e-01,5.654251575469970703e-01,-1.074740067124366760e-01
4.859561845660209656e-02,-8.513668179512023926e-01,8.387759327888488770e-01,-1.366672664880752563e-01,2.401982992887496948e-01,-2.478901296854019165e-02,-3.084627985954284668e-01,-7.768811583518981934e-01,9.397902488708496094e-01,6.844247579574584961e-01,1.310537576675415039e+00,-4.890710711479187012e-01,6.121101379394531250e-01,-4.495890140533447266e-01
-3.636136651039123535e-01,-4.452322423458099365e-01,5.432149767875671387e-01,-1.752693057060241699e-01,-4.793218374252319336e-01,6.065678596496582031e-01,3.481264114379882812e-01,-1.058034777641296387e+00,7.312074899673461914e-01,1.619570553302764893e-01,1.220575213432312012e+00,-8.201439380645751953e-01,9.551757574081420898e-01,-8.607865571975708008e-01
-4.055898785591125488e-01,4.355365410447120667e-02,5.390177369117736816e-01,-6.917929053306579590e-01,-7.593286633491516113e-01,9.259186983108520508e-01,8.302437067031860352e-01,-1.098194360733032227e+00,4.717438817024230957e-01,-2.658174932003021240e-01,8.081626296043395996e-01,-9.223229289054870605e-01,8.837412595748901367e-01,-9.860069155693054199e-01
-7.085344195365905762e-02,4.251394569873809814e-01,-1.033273153007030487e-02,-8.953140377998352051e-01,-8.753513097763061523e-01,1.141753673553466797e+00,1.174148440361022949e+00,-8.539345264434814453e-01,5.565779283642768860e-02,-8.026105165481567383e-01,3.668546974658966064e-01,-7.668192982673645020e-01,5.941140651702880859e-01,-7.805587053298950195e-01
3.719027340412139893e-02,6.676695346832275391e-01,-8.303440809249877930e-01,-1.039463281631469727e+00,-1.005009055137634277e+00,6.785908937454223633e-01,1.002314448356628418e+00,-4.318859279155731201e-01,-4.010954499244689941e-01,-7.780230641365051270e-01,-2.385197393596172333e-02,-1.946903020143508911e-01,1.051059812307357788e-01,-3.336912989616394043e-01
5.710331797599792480e-01,1.189540982246398926e+00,-1.229733943939208984e+00,-7.615215778350830078e-01,-9.457631111145019531e-01,1.998075395822525024e-01,6.553547382354736328e-01,-1.548050343990325928e-01,-4.485892057418823242e-01,-6.838512420654296875e-01,-2.137347012758255005e-01,2.959723770618438721e-01,-5.496890544891357422e-01,1.258938759565353394e-01
9.409204125404357910e-01,1.166849851608276367e+00,-1.809583783149719238e+00,-4.209625422954559326e-01,-2.713594138622283936e-01,-5.878635048866271973e-01,2.647766768932342529e-01,4.329691529273986816e-01,-6.513000726699829102e-01,-2.347767353057861328e-02,-5.041005015373229980e-01,7.618887424468994141e-01,-6.601341962814331055e-01,7.575438618659973145e-01
1.101420521736145020e+00,8.816668987274169922e-01,-1.426554679870605469e+00,2.560392618179321289e-01,4.646133780479431152e-01,-1.038836479187011719e+00,-3.099700212478637695e-01,6.774197220802307129e-01,-2.478329837322235107e-01,3.318578004837036133e-01,-2.562538385391235352e-01,8.770765662193298340e-01,-7.210654616355895996e-01,7.389563322067260742e-01
1.313046574592590332e+00,5.490752458572387695e-01,-1.142744541168212891e+00,5.953626632690429688e-01,5.987120270729064941e-01,-1.300756812095642090e+00,-9.142248630523681641e-01,6.885617971420288086e-01,1.615080833435058594e-01,1.059401631355285645e+00,2.842424251139163971e-02,5.545234084129333496e-01,-6.181740164756774902e-01,1.165506124496459961e+00
1.027524709701538086e+00,1.062288582324981689e-01,-4.372952282428741455e-01,1.021923184394836426e+00,1.057220816612243652e+00,-1.298665285110473633e+00,-6.574739813804626465e-01,4.307464659214019775e-01,6.019651293754577637e-01,9.064219594001770020e-01,5.137304067611694336e-01,5.036157965660095215e-01,-2.331474721431732178e-01,8.516758680343627930e-01
5.132018923759460449e-01,-4.454841017723083496e-01,3.093372583389282227e-01,1.134672045707702637e+00,8.048418164253234863e-01,-1.359500050544738770e+00,-3.497246801853179932e-01,1.153855919837951660e-01,9.400298595428466797e-01,6.700940728187561035e-01,1.002727985382080078e+00,8.484507352113723755e-02,1.287590712308883667e-01,6.311872601509094238e-01
7.539501786231994629e-02,-1.277982234954833984e+00,9.467154145240783691e-01,8.138085603713989258e-01,6.888502836227416992e-01,-7.157893180847167969e-01,2.402190566062927246e-01,-5.890102386474609375e-01,1.836380004882812500e+00,8.643294125795364380e-02,9.745082855224609375e-01,-4.708470106124877930e-01,4.398470818996429443e-01,-3.593212738633155823e-02
-5.195900201797485352e-01,-1.209443807601928711e+00,1.245296955108642578e+00,6.535997390747070312e-01,3.713037446141242981e-02,-2.986692488193511963e-01,6.407744884490966797e-01,-6.787692904472351074e-01,1.542887687683105469e+00,-2.768304347991943359e-01,7.493894696235656738e-01,-6.630337238311767578e-01,6.315909028053283691e-01,-3.194345533847808838e-01
-8.801237344741821289e-01,-8.242074251174926758e-01,1.068397164344787598e+00,3.250684738159179688e-01,-2.388531118631362915e-01,2.923446595668792725e-01,7.389094233512878418e-01,-9.861222505569458008e-01,1.290401101112365723e+00,-7.414187192916870117e-01,4.481998383998870850e-01,-3.101647198200225830e-01,5.079671740531921387e-01,-3.167618811130523682e-01
-1.123526811599731445e+00,-4.107023179531097412e-01,5.409828424453735352e-01,-4.486382603645324707e-01,-3.506429493427276611e-01,7.027040719985961914e-01,8.391206264495849609e-01,-7.869271636009216309e-01,1.000149965286254883e+00,-8.965241909027099609e-01,-1.497951596975326538e-01,1.567211300134658813e-01,2.800703234970569611e-02,-3.561374843120574951e-01
-9.968600273132324219e-01,3.400637768208980560e-03,2.301376163959503174e-01,-5.781766176223754883e-01,-4.515804350376129150e-01,7.428432703018188477e-01,9.832483530044555664e-01,-4.216374754905700684e-01,3.874067589640617371e-02,-5.080662965774536133e-01,-6.063575148582458496e-01,6.548101902008056641e-01,-3.124729692935943604e-01,-1.360727995634078979e-01
-9.823076725006103516e-01,8.247753381729125977e-01,-2.021513134241104126e-01,-8.217313289642333984e-01,-2.561599314212799072e-01,6.051623821258544922e-01,2.416729629039764404e-01,8.790650963783264160e-02,-6.260116100311279297e-01,-3.707088530063629150e-02,-1.109826326370239258e+00,1.140549063682556152e+00,-6.911120414733886719e-01,1.663639545440673828e-01
-1.693481355905532837e-01,1.221557617187500000e+00,-2.004492878913879395e-01,-7.211333513259887695e-01,5.138704776763916016e-01,2.126992791891098022e-01,-2.654417753219604492e-01,8.632689118385314941e-01,-1.082393169403076172e+00,4.258766770362854004e-01,-1.293670296669006348e+00,1.377666473388671875e+00,-1.302027344703674316e+00,5.471934080123901367e-01
1.273608654737472534e-01,1.520566463470458984e+00,-1.071196943521499634e-01,-3.509010672569274902e-01,5.063332915306091309e-01,-1.971285641193389893e-01,-9.722937941551208496e-01,1.323492407798767090e+00,-1.412025690078735352e+00,1.088363766670227051e+00,-1.305016040802001953e+00,1.344509720802307129e+00,-1.385782599449157715e+00,8.217052817344665527e-01
3.411642611026763916e-01,1.371643662452697754e+00,2.317522466182708740e-02,2.231362164020538330e-01,1.039570212364196777e+00,-5.302917957305908203e-01,-8.882246017456054688e-01,1.508954167366027832e+00,-1.473802208900451660e+00,1.272666692733764648e+00,-6.461464762687683105e-01,5.000848174095153809e-01,-1.188052296638488770e+00,8.831544518470764160e-01
6.910771727561950684e-01,1.114959359169006348e+00,6.719517707824707031e-01,3.300453424453735352e-01,1.212754249572753906e+00,-6.802409291267395020e-01,-8.274767398834228516e-01,1.722486495971679688e+00,-1.372293949127197266e+00,8.664356470108032227e-01,-1.646057814359664917e-01,-1.652231961488723755e-01,-5.767477750778198242e-01,5.715017914772033691e-01
3.698152899742126465e-01,4.304247200489044189e-01,1.483823180198669434e+00,6.495904326438903809e-01,8.749167919158935547e-01,-3.889220952987670898e-01,-5.719220638275146484e-01,1.091792225837707520e+00,-7.326875329017639160e-01,3.968645334243774414e-01,5.137816071510314941e-01,-4.654219746589660645e-01,-2.480783015489578247e-01,-8.940968662500381470e-02
2.526158988475799561e-01,-8.650832623243331909e-02,1.349101781845092773e+00,9.287670254707336426e-01,5.731131434440612793e-01,-8.195772022008895874e-02,1.950979828834533691e-01,5.592875480651855469e-01,-1.010873005725443363e-03,-1.157841533422470093e-01,8.301489353179931641e-01,-9.526926875114440918e-01,4.210044443607330322e-01,-7.137911915779113770e-01
-3.846712037920951843e-02,-7.051916122436523438e-01,1.190539002418518066e+00,5.792381763458251953e-01,2.969582378864288330e-02,5.720053315162658691e-01,5.422882437705993652e-01,-3.233307972550392151e-02,4.281154870986938477e-01,-5.834933519363403320e-01,7.230258584022521973e-01,-9.307325482368469238e-01,9.947746396064758301e-01,-1.173011183738708496e+00
-6.463690400123596191e-01,-1.146261811256408691e+00,4.963298439979553223e-01,5.950897336006164551e-01,-7.798253893852233887e-01,9.908170700073242188e-01,1.000652670860290527e+00,-5.896914601325988770e-01,3.423653542995452881e-01,-1.076448202133178711e+00,6.420279741287231445e-01,-8.076658844947814941e-01,8.657991886138916016e-01,-1.465439677238464355e+00
-7.688827514648437500e-01,-1.444930076599121094e+00,-4.249313846230506897e-02,5.804672255180776119e-04,-1.246405005455017090e+00,1.515128374099731445e+00,1.093374252319335938e+00,-7.157171964645385742e-01,4.527567327022552490e-01,-1.190944075584411621e+00,3.779523670673370361e-01,-4.136725366115570068e-01,8.707844614982604980e-01,-1.377139806747436523e+00
-8.117635846138000488e-01,-1.145842432975769043e+00,-9.003224968910217285e-01,-3.110874295234680176e-01,-1.301023244857788086e+00,1.376438021659851074e+00,6.783230900764465332e-01,-1.071906447410583496e+00,2.018401622772216797e-01,-8.524047732353210449e-01,-2.076933532953262329e-01,1.091614067554473877e-01,6.562498211860656738e-01,-8.442735075950622559e-01
-7.427858710289001465e-01,-8.347603082656860352e-01,-1.139535903930664062e+00,-6.420796513557434082e-01,-1.301860928535461426e+00,1.063834309577941895e+00,3.427097797393798828e-01,-6.779050230979919434e-01,-1.233030483126640320e-01,-5.402469635009765625e-01,-7.619253396987915039e-01,3.715797662734985352e-01,2.807669639587402344e-01,-3.601161241531372070e-01
-4.346286356449127197e-01,-3.070414960384368896e-01,-1.541705608367919922e+00,-6.310468912124633789e-01,-8.781034350395202637e-01,7.990540266036987305e-01,-1.595291346311569214e-01,-4.931166768074035645e-01,-4.783077538013458252e-01,2.338133305311203003e-01,-1.014617681503295898e+00,2.271014302968978882e-01,-1.376903951168060303e-01,1.832992881536483765e-01
1.139929443597793579e-01,3.374508917331695557e-01,-1.138842821121215820e+00,-5.728882551193237305e-01,-5.270303487777709961e-01,5.978498607873916626e-02,-8.137578368186950684e-01,-1.413834095001220703e-01,-9.285954236984252930e-01,3.958596885204315186e-01,-8.537685275077819824e-01,6.352020055055618286e-02,-4.055874645709991455e-01,4.319874942302703857e-01
6.259177327156066895e-01,3.401067256927490234e-01,-5.301570296287536621e-01,-3.523382842540740967e-01,2.031451910734176636e-01,-5.443918704986572266e-01,-1.028977513313293457e+00,1.103223264217376709e-01,-1.074747920036315918e+00,4.743708968162536621e-01,-6.513128876686096191e-01,-5.802901387214660645e-01,-3.581290543079376221e-01,7.973648905754089355e-01
7.583860754966735840e-01,6.275179982185363770e-01,2.968231961131095886e-02,1.378291547298431396e-01,4.627130627632141113e-01,-9.299598336219787598e-01,-1.146044135093688965e+00,4.188500046730041504e-01,-8.049313426017761230e-01,8.690004050731658936e-02,-9.227560460567474365e-02,-9.966837763786315918e-01,-1.369094103574752808e-01,5.854621529579162598e-01
7.161448597908020020e-01,2.499774992465972900e-01,6.915952563285827637e-01,4.615075588226318359e-01,3.760392665863037109e-01,-1.324688553810119629e+00,-6.238089799880981445e-01,3.665194213390350342e-01,-3.006942868232727051e-01,-5.739886760711669922e-01,2.886584401130676270e-01,-1.264806032180786133e+00,3.453384041786193848e-01,2.163591682910919189e-01
6.303803324699401855e-01,2.463049255311489105e-02,1.029860615730285645e+00,6.432928442955017090e-01,2.838152647018432617e-01,-1.005270838737487793e+00,-5.102622136473655701e-02,8.643150329589843750e-02,1.174683570861816406e-01,-9.097394943237304688e-01,6.125571131706237793e-01,-1.236346840858459473e+00,7.290370464324951172e-01,4.757891409099102020e-03
2.259563356637954712e-01,-6.412619352340698242e-01,8.910370469093322754e-01,9.149362444877624512e-01,-2.845181850716471672e-03,-8.785418272018432617e-01,4.032477736473083496e-01,-4.616469442844390869e-01,8.940015435218811035e-01,-1.204542875289916992e+00,6.881912350654602051e-01,-7.675921320915222168e-01,9.997140765190124512e-01,-4.903803169727325439e-01
-2.499626278877258301e-01,-9.487227797508239746e-01,2.548035979270935059e-01,7.253217101097106934e-01,-6.100085377693176270e-01,-2.028934508562088013e-01,5.423281192779541016e-01,-1.159068584442138672e+00,1.271560549736022949e+00,-1.068994522094726562e+00,5.309972167015075684e-01,-9.537201374769210815e-03,1.110849022865295410e+00,-4.933345913887023926e-01
-6.467067599296569824e-01,-1.415270566940307617e+00,-2.415548861026763916e-01,1.977111846208572388e-01,-6.893971562385559082e-01,2.923383414745330811e-01,6.135148406028747559e-01,-1.253050446510314941e+00,1.661844849586486816e+00,-1.032868981361389160e+00,1.708684861660003662e-01,4.339505136013031006e-01,6.837530732154846191e-01,-4.305027723312377930e-01
-1.070124387741088867e+00,-1.273863196372985840e+00,-8.397491574287414551e-01,-4.351896345615386963e-01,-9.620888829231262207e-01,3.467926979064941406e-01,1.828997582197189331e-01,-1.370527505874633789e+00,1.309984326362609863e+00,-4.846536517143249512e-01,-2.166635692119598389e-01,7.260339856147766113e-01,3.367300331592559814e-01,-1.554374843835830688e-01
-9.711047410964965820e-01,-1.146890282630920410e+00,-1.077844738960266113e+00,-7.430307865142822266e-01,-6.394614577293395996e-01,4.808006882667541504e-01,-3.017560243606567383e-01,-8.357815146446228027e-01,1.101610779762268066e+00,3.626765906810760498e-01,-8.581617474555969238e-01,1.152904987335205078e+00,-3.309069573879241943e-02,4.917292892932891846e-01
-6.570039987564086914e-01,-4.187397658824920654e-01,-1.132261276245117188e+00,-1.144644021987915039e+00,-2.261612713336944580e-01,2.697069048881530762e-01,-7.153901457786560059e-01,-4.692019522190093994e-01,7.310962080955505371e-01,8.077999353408813477e-01,-1.210933089256286621e+00,9.197039008140563965e-01,-7.391734123229980469e-01,9.817559719085693359e-01
-3.082003295421600342e-01,-4.219302535057067871e-02,-7.176302671432495117e-01,-9.800461530685424805e-01,4.803162813186645508e-01,-1.611343026161193848e-01,-1.015385031700134277e+00,7.757581025362014771e-02,-2.729402482509613037e-01,1.209729313850402832e+00,-1.205519676208496094e+00,6.094728708267211914e-01,-1.084132313728332520e+00,1.350218057632446289e+00
2.177145481109619141e-01,8.373416662216186523e-01,1.973363012075424194e-02,-1.101429104804992676e+00,1.163261651992797852e+00,-6.580047011375427246e-01,-8.357870578765869141e-01,8.831533789634704590e-01,-6.552966237068176270e-01,9.558137655258178711e-01,-8.847028613090515137e-01,4.650286957621574402e-02,-1.082295656204223633e+00,1.219140768051147461e+00
6.418336033821105957e-01,1.494940519332885742e+00,5.332748889923095703e-01,-6.003847122192382812e-01,1.223122715950012207e+00,-8.977641463279724121e-01,-7.566730380058288574e-01,1.269938826560974121e+00,-8.032113909721374512e-01,7.522464394569396973e-01,-3.247063159942626953e-01,-7.087036967277526855e-01,-1.105748414993286133e+00,9.386942982673645020e-01
9.063898921012878418e-01,1.663402915000915527e+00,9.497318863868713379e-01,-3.791425824165344238e-01,1.430481791496276855e+00,-1.076241850852966309e+00,2.927592583000659943e-02,1.381351351737976074e+00,-1.004559397697448730e+00,3.055764436721801758e-01,4.481483697891235352e-01,-8.811557888984680176e-01,-6.333518028259277344e-01,6.596941947937011719e-01
1.197493195533752441e+00,1.691844344139099121e+00,9.570173025131225586e-01,1.477237194776535034e-01,1.362253904342651367e+00,-7.651036381721496582e-01,5.638881325721740723e-01,1.582126140594482422e+00,-7.421053647994995117e-01,-1.094902008771896362e-01,9.047083258628845215e-01,-6.173182129859924316e-01,-1.132475361227989197e-01,-6.348796933889389038e-02
1.018234491348266602e+00,1.264302015304565430e+00,4.201125800609588623e-01,6.894288063049316406e-01,9.146061539649963379e-01,-4.663304984569549561e-01,1.202905058860778809e+00,8.365170955657958984e-01,-2.558261752128601074e-01,-2.161108851432800293e-01,1.384312391281127930e+00,-1.823791712522506714e-01,3.233578205108642578e-01,-4.304050803184509277e-01
6.575031280517578125e-01,1.019717693328857422e+00,9.434656053781509399e-02,7.154111266136169434e-01,1.392933577299118042e-01,2.060301369056105614e-03,1.528654813766479492e+00,3.834575116634368896e-01,1.520919501781463623e-01,-1.773351728916168213e-01,1.392951369285583496e+00,5.324424803256988525e-02,7.933903336524963379e-01,-8.609023690223693848e-01
1.950543373823165894e-01,4.042324051260948181e-02,-6.303502321243286133e-01,7.459903359413146973e-01,-4.583927989006042480e-01,5.812689661979675293e-01,1.421021819114685059e+00,-2.724621593952178955e-01,5.924411416053771973e-01,6.240051984786987305e-02,1.153607606887817383e+00,4.742756783962249756e-01,6.990537047386169434e-01,-8.147935271263122559e-01
-1.784842833876609802e-02,-4.890785813331604004e-01,-1.121897816658020020e+00,4.660901129245758057e-01,-4.544446468353271484e-01,9.982753992080688477e-01,8.394907712936401367e-01,-5.019665956497192383e-01,9.933735728263854980e-01,5.661713480949401855e-01,5.719044804573059082e-01,1.009056568145751953e+00,5.442345142364501953e-01,-8.853085041046142578e-01
-4.901106953620910645e-01,-7.249080538749694824e-01,-1.271289706230163574e+00,1.497475057840347290e-01,-4.996361136436462402e-01,1.161379456520080566e+00,3.035186529159545898e-01,-7.084677815437316895e-01,8.790332078933715820e-01,1.013338923454284668e+00,2.370139956474304199e-01,7.333020567893981934e-01,1.683374643325805664e-01,-2.280747145414352417e-01
-7.112030386924743652e-01,-8.893218040466308594e-01,-8.962175846099853516e-01,-1.929004490375518799e-01,-3.826369643211364746e-01,9.789875149726867676e-01,-2.412189245223999023e-01,-5.715454816818237305e-01,6.793912053108215332e-01,1.285853624343872070e+00,-1.878666430711746216e-01,4.669447243213653564e-01,-3.536432385444641113e-01,1.195730268955230713e-01
-4.138841032981872559e-01,-8.894450664520263672e-01,-2.183674424886703491e-01,-2.928881645202636719e-01,-1.457886993885040283e-01,5.406680703163146973e-01,-3.993313014507293701e-01,-3.782774209976196289e-01,2.955808937549591064e-01,1.106564044952392578e+00,-5.945413112640380859e-01,-3.779099881649017334e-02,-6.004124283790588379e-01,3.914142549037933350e-01
1.158900111913681030e-01,-6.368489861488342285e-01,3.980385959148406982e-01,-2.890751063823699951e-01,4.151436388492584229e-01,-1.711314320564270020e-01,-5.865092277526855469e-01,2.415454536676406860e-01,-5.504196882247924805e-01,7.777281999588012695e-01,-5.144145488739013672e-01,-5.032464265823364258e-01,-7.789787650108337402e-01,5.306366086006164551e-01
4.325300753116607666e-01,-5.863213911652565002e-02,1.076222896575927734e+00,-2.636350095272064209e-01,5.650128126144409180e-01,-5.458139181137084961e-01,-2.729342877864837646e-01,7.139756679534912109e-01,-1.046679973602294922e+00,2.023924142122268677e-01,7.767796982079744339e-03,-7.269446849822998047e-01,-8.187711238861083984e-01,3.487085402011871338e-01
6.528528928756713867e-01,5.320385694503784180e-01,1.310685157775878906e+00,1.780017465353012085e-01,4.719611108303070068e-01,-1.008790493011474609e+00,1.728437244892120361e-01,9.371527433395385742e-01,-1.122710227966308594e+00,-5.853291749954223633e-01,3.859641849994659424e-01,-8.665304780006408691e-01,-2.755413949489593506e-01,1.150557696819305420e-01
7.159077525138854980e-01,9.790957570075988770e-01,1.538822412490844727e+00,2.965098023414611816e-01,3.346218168735504150e-01,-1.001040935516357422e+00,3.565649092197418213e-01,8.993366360664367676e-01,-9.093242287635803223e-01,-9.922326803207397461e-01,6.623691916465759277e-01,-3.564105331897735596e-01,-6.934527307748794556e-02,-4.684591293334960938e-01
5.745071172714233398e-01,1.122843146324157715e+00,9.438549280166625977e-01,8.530281186103820801e-01,-2.601824998855590820e-01,-1.018650889396667480e+00,7.864024043083190918e-01,6.962870955467224121e-01,-7.932738065719604492e-01,-1.041802525520324707e+00,9.437953233718872070e-01,2.572378218173980713e-01,4.989138245582580566e-01,-9.547024965286254883e-01
2.098482698202133179e-01,8.549765944480895996e-01,5.508709549903869629e-01,9.850955009460449219e-01,-7.812221050262451172e-01,-2.751806676387786865e-01,6.775401830673217773e-01,2.033551484346389771e-01,-2.620188891887664795e-01,-8.698559403419494629e-01,7.867654561996459961e-01,8.993697762489318848e-01,9.414905905723571777e-01,-1.141498208045959473e+00
-6.911014765501022339e-02,7.794075608253479004e-01,-1.221639141440391541e-01,1.036898851394653320e+00,-1.115855216979980469e+00,3.198180794715881348e-01,4.457462131977081299e-01,-3.377340435981750488e-01,2.482297420501708984e-01,-5.398722290992736816e-01,4.945870339870452881e-01,1.232340455055236816e+00,7.544405460357666016e-01,-8.488732576370239258e-01
-6.302115321159362793e-01,2.554193735122680664e-01,-2.721219658851623535e-01,8.812122344970703125e-01,-1.476981520652770996e+00,6.773934960365295410e-01,-1.669584512710571289e-01,-6.693593263626098633e-01,5.671520233154296875e-01,2.632362022995948792e-02,-1.246661841869354248e-01,1.197705745697021484e+00,7.092627286911010742e-01,-3.864793181419372559e-01
-1.017614722251892090e+00,-3.470213115215301514e-01,-4.509526789188385010e-01,5.468855500221252441e-01,-1.342930674552917480e+00,1.052921891212463379e+00,-6.557670235633850098e-01,-1.000006318092346191e+00,9.078274965286254883e-01,5.402852296829223633e-01,-7.530046701431274414e-01,1.047959566116333008e+00,2.415811568498611450e-01,2.667609043419361115e-02
-1.296594977378845215e+00,-7.989193797111511230e-01,-3.462604284286499023e-01,-1.327193677425384521e-01,-8.903928399085998535e-01,1.085823416709899902e+00,-1.280109524726867676e+00,-1.026261925697326660e+00,8.350750207901000977e-01,5.667645335197448730e-01,-1.169924378395080566e+00,4.203672409057617188e-01,-3.216376602649688721e-01,5.174365043640136719e-01
-1.263295769691467285e+00,-8.599513173103332520e-01,-4.146599397063255310e-02,-6.744866967201232910e-01,-2.955324649810791016e-01,6.898851394653320312e-01,-1.440290570259094238e+00,-9.539443850517272949e-01,4.878611266613006592e-01,4.813181757926940918e-01,-1.594915270805358887e+00,-1.459477096796035767e-01,-4.592678546905517578e-01,9.104049801826477051e-01
-1.195806264877319336e+00,-9.573656320571899414e-01,6.773048043251037598e-01,-9.521180391311645508e-01,3.455156981945037842e-01,5.328493714332580566e-01,-1.199600338935852051e+00,-2.571519017219543457e-01,1.052652969956398010e-01,-8.653208613395690918e-02,-1.269363641738891602e+00,-9.693730473518371582e-01,-7.778131365776062012e-01,9.089139699935913086e-01
-5.839470028877258301e-01,-7.526450157165527344e-01,1.040456652641296387e+00,-1.213906526565551758e+00,7.395471334457397461e-01,-3.362262994050979614e-02,-1.064096808433532715e+00,1.052477583289146423e-01,-3.816587924957275391e-01,-5.004981160163879395e-01,-8.487519621849060059e-01,-8.653437495231628418e-01,-8.045053482055664062e-01,9.363028407096862793e-01
-6.083895638585090637e-02,-2.370114326477050781e-01,1.033754706382751465e+00,-1.042334318161010742e+00,1.071687221527099609e+00,-4.261417686939239502e-01,-4.741362035274505615e-01,7.482522130012512207e-01,-7.719581723213195801e-01,-9.249594211578369141e-01,-2.752853929996490479e-01,-7.948174476623535156e-01,-5.491027832031250000e-01,5.372282266616821289e-01
4.050489366054534912e-01,1.914935857057571411e-01,5.804740786552429199e-01,-7.810588479042053223e-01,8.917831778526306152e-01,-7.594419717788696289e-01,3.231288194656372070e-01,1.017852425575256348e+00,-1.158746004104614258e+00,-1.034833788871765137e+00,9.462705254554748535e-02,-3.853091299533843994e-01,-2.792142629623413086e-01,1.304462850093841553e-01
7.890747189521789551e-01,8.776568174362182617e-01,-2.091493308544158936e-01,-3.932495117187500000e-01,5.793595314025878906e-01,-4.653267860412597656e-01,6.869053840637207031e-01,8.725520968437194824e-01,-1.093619465827941895e+00,-7.658086419105529785e-01,6.192404627799987793e-01,1.256718486547470093e-01,3.866676986217498779e-01,-4.064451158046722412e-01
6.978269815444946289e-01,8.681025505065917969e-01,-8.220699429512023926e-01,-4.425046592950820923e-02,2.668519914150238037e-01,-2.431698739528656006e-01,9.052832722663879395e-01,6.874358057975769043e-01,-9.588681459426879883e-01,-3.948310911655426025e-01,9.081971049308776855e-01,3.600590527057647705e-01,6.469064354896545410e-01,-6.977892518043518066e-01
5.989045500755310059e-01,9.223940372467041016e-01,-1.509410738945007324e+00,2.918067574501037598e-01,-2.603662312030792236e-01,7.716389000415802002e-02,8.784487247467041016e-01,2.309473156929016113e-01,-3.081670701503753662e-01,6.817986816167831421e-02,7.779925465583801270e-01,3.479234576225280762e-01,1.118016839027404785e+00,-6.238673925399780273e-01
1.919266432523727417e-01,6.070888638496398926e-01,-1.752218246459960938e+00,4.880300760269165039e-01,-4.737083017826080322e-01,6.604568362236022949e-01,3.132552802562713623e-01,-3.428525328636169434e-01,3.078426122665405273e-01,8.671945929527282715e-01,4.188017547130584717e-01,2.654481828212738037e-01,9.901193976402282715e-01,-3.429309725761413574e-01
-4.655314981937408447e-02,-1.373693048954010010e-01,-1.813113689422607422e+00,2.432999759912490845e-01,-6.539763212203979492e-01,7.940654754638671875e-01,-9.500076621770858765e-02,-8.037943243980407715e-01,6.549901962280273438e-01,1.156872034072875977e+00,-8.063200861215591431e-02,-8.900959789752960205e-02,9.335246682167053223e-01,-1.538086496293544769e-02
-3.152570426464080811e-01,-6.075806021690368652e-01,-1.066907048225402832e+00,5.654177814722061157e-02,-2.925597429275512695e-01,9.716575741767883301e-01,-4.294422864913940430e-01,-1.461034178733825684e+00,1.210188031196594238e+00,8.441254496574401855e-01,-5.085631012916564941e-01,-7.522383928298950195e-01,3.704055547714233398e-01,1.376058310270309448e-01
-7.729983925819396973e-01,-1.174183368682861328e+00,-4.350677132606506348e-01,-1.194622963666915894e-01,-5.031038075685501099e-02,6.196880340576171875e-01,-5.628039836883544922e-01,-1.413647532463073730e+00,1.363834261894226074e+00,6.137818694114685059e-01,-8.061130642890930176e-01,-1.085256576538085938e+00,-9.190014004707336426e-02,6.406151652336120605e-01
-4.177630841732025146e-01,-1.702531695365905762e+00,2.705106735229492188e-01,-8.556718826293945312e-01,6.136353611946105957e-01,-5.025620758533477783e-02,-3.485404253005981445e-01,-9.666135907173156738e-01,1.273163795471191406e+00,-1.990140043199062347e-02,-8.972730040550231934e-01,-1.442140340805053711e+00,-5.557860136032104492e-01,8.657371401786804199e-01
-2.576144635677337646e-01,-1.648587822914123535e+00,7.832179665565490723e-01,-9.444465041160583496e-01,1.121780633926391602e+00,-5.310372710227966309e-01,2.175119817256927490e-01,-5.003563761711120605e-01,8.362188339233398438e-01,-4.808444678783416748e-01,-5.462049841880798340e-01,-1.220001339912414551e+00,-5.746389627456665039e-01,7.625718116760253906e-01
2.752299606800079346e-01,-1.669581770896911621e+00,1.059800863265991211e+00,-6.960572600364685059e-01,1.001586914062500000e+00,-8.914068937301635742e-01,4.225568771362304688e-01,1.192136108875274658e-02,4.080747067928314209e-01,-7.297526001930236816e-01,-3.104301914572715759e-02,-5.875221490859985352e-01,-5.183063745498657227e-01,3.997983336448669434e-01
6.503084897994995117e-01,-1.183079719543457031e+00,7.579330205917358398e-01,-5.265098214149475098e-01,9.904088377952575684e-01,-1.425770521163940430e+00,1.158763885498046875e+00,6.757051348686218262e-01,-3.060888051986694336e-01,-9.388144612312316895e-01,4.435665011405944824e-01,1.021129786968231201e-01,-1.347936838865280151e-01,-5.934707820415496826e-02
9.291463494300842285e-01,-5.499128103256225586e-01,9.825587272644042969e-02,-1.522417813539505005e-01,4.439032673835754395e-01,-1.607452750205993652e+00,1.314565777778625488e+00,8.988734483718872070e-01,-5.340195298194885254e-01,-7.211395502090454102e-01,7.431331872940063477e-01,8.009067773818969727e-01,2.631177604198455811e-01,-4.917553663253784180e-01
1.015586853027343750e+00,4.000959917902946472e-02,-2.963235974311828613e-01,4.621716737747192383e-01,-6.335055828094482422e-02,-1.352686882019042969e+00,1.086742281913757324e+00,9.092701077461242676e-01,-5.860031247138977051e-01,-2.914763391017913818e-01,8.047459125518798828e-01,8.690770864486694336e-01,5.027800202369689941e-01,-8.191357254981994629e-01
8.034498095512390137e-01,8.736056089401245117e-01,-6.513323187828063965e-01,7.443890571594238281e-01,-5.764969587326049805e-01,-7.217155694961547852e-01,6.534728407859802246e-01,7.329035401344299316e-01,-2.448273897171020508e-01,4.567296504974365234e-01,9.306201338768005371e-01,1.029093146324157715e+00,7.275385260581970215e-01,-8.453865051269531250e-01
5.549704432487487793e-01,1.402835965156555176e+00,-6.674731969833374023e-01,8.946865797042846680e-01,-8.226332068443298340e-01,-2.115074545145034790e-01,8.266841620206832886e-02,2.255638390779495239e-01,-2.655129730701446533e-01,8.537254333496093750e-01,5.032984018325805664e-01,6.424224376678466797e-01,6.671940684318542480e-01,-4.355866909027099609e-01
-6.541574746370315552e-02,1.208731889724731445e+00,-6.207159757614135742e-01,1.155893206596374512e+00,-1.099465727806091309e+00,2.733027338981628418e-01,-5.376912951469421387e-01,-8.216855674982070923e-02,2.214360088109970093e-01,9.046585559844970703e-01,-1.513155456632375717e-02,9.471336007118225098e-02,4.028871357440948486e-01,-1.368757933378219604e-01
-4.624378979206085205e-01,1.098755955696105957e+00,1.338275969028472900e-01,9.506533145904541016e-01,-6.831079721450805664e-01,7.500413656234741211e-01,-9.870746731758117676e-01,-2.615661323070526123e-01,7.366049289703369141e-01,6.812222003936767578e-01,-4.382604956626892090e-01,-1.955391317605972290e-01,-1.424958407878875732e-01,4.033974707126617432e-01
-6.331003904342651367e-01,8.545359373092651367e-01,7.412090301513671875e-01,4.891886115074157715e-01,-3.748764693737030029e-01,8.505779504776000977e-01,-9.807916879653930664e-01,-4.135838150978088379e-01,1.050704717636108398e+00,2.881558537483215332e-01,-9.043836593627929688e-01,-6.176450848579406738e-01,-6.470575928688049316e-01,8.318973183631896973e-01
-9.954063892364501953e-01,2.357232570648193359e-01,1.181827902793884277e+00,1.619382202625274658e-01,5.886420980095863342e-02,9.343166947364807129e-01,-6.170960664749145508e-01,-3.898222446441650391e-01,8.258243203163146973e-01,-3.796645700931549072e-01,-1.101965904235839844e+00,-6.513571143150329590e-01,-1.185846567153930664e+00,8.038609623908996582e-01
-6.937890648841857910e-01,-3.283883929252624512e-01,1.491080522537231445e+00,-3.084093928337097168e-01,7.083870768547058105e-01,3.833663165569305420e-01,-6.026971340179443359e-01,-6.303954124450683594e-02,5.700932741165161133e-01,-7.756438255310058594e-01,-7.997865676879882812e-01,-2.561755478382110596e-01,-1.407023191452026367e+00,7.284018397331237793e-01
-4.247843623161315918e-01,-4.003939032554626465e-01,1.295879006385803223e+00,-6.428643465042114258e-01,8.028067350387573242e-01,-8.322459459304809570e-02,3.940380811691284180e-01,5.652596950531005859e-01,9.291283041238784790e-02,-8.867931365966796875e-01,-1.266832351684570312e-01,2.577630579471588135e-01,-1.539832353591918945e+00,4.450260102748870850e-01
-2.341246232390403748e-02,-5.733343362808227539e-01,6.662651300430297852e-01,-7.668397426605224609e-01,8.097122907638549805e-01,-3.576215207576751709e-01,5.628720521926879883e-01,1.008414149284362793e+00,-5.228527188301086426e-01,-5.174915790557861328e-01,3.121462464332580566e-01,8.073640465736389160e-01,-9.538531899452209473e-01,-1.361325532197952271e-01
4.097479283809661865e-01,-1.924208998680114746e-01,6.093240901827812195e-02,-4.044043123722076416e-01,4.787639975547790527e-01,-5.058649182319641113e-01,8.664602041244506836e-01,1.287712097167968750e+00,-1.210647106170654297e+00,-1.756141930818557739e-01,8.840048313140869141e-01,1.081347465515136719e+00,-4.522243440151214600e-01,-7.375233769416809082e-01
9.703833460807800293e-01,1.078088134527206421e-01,-6.761428713798522949e-01,-3.520272672176361084e-01,8.756866306066513062e-02,-3.170977830886840820e-01,6.483452916145324707e-01,1.356068015098571777e+00,-1.558962225914001465e+00,5.058042407035827637e-01,1.205529332160949707e+00,1.004011869430541992e+00,1.117147430777549744e-01,-8.181946873664855957e-01
1.164614677429199219e+00,7.526743412017822266e-01,-1.085096836090087891e+00,-1.213667215779423714e-03,-4.272367358207702637e-01,-1.675702482461929321e-01,5.450417995452880859e-01,1.295935034751892090e+00,-1.575286984443664551e+00,1.053979396820068359e+00,1.269645571708679199e+00,5.246201753616333008e-01,4.066657721996307373e-01,-1.027645945549011230e+00
8.319041132926940918e-01,9.125472903251647949e-01,-9.789352416992187500e-01,2.772286832332611084e-01,-9.852419495582580566e-01,4.885615110397338867e-01,-2.878308892250061035e-01,8.171637058258056641e-01,-1.385230302810668945e+00,1.259076833724975586e+00,9.331441521644592285e-01,1.614782959222793579e-01,6.876390576362609863e-01,-7.187746763229370117e-01
4.976480007171630859e-01,1.181371808052062988e+00,-8.188502192497253418e-01,8.300793766975402832e-01,-8.563751578330993652e-01,8.262665867805480957e-01,-5.383778214454650879e-01,2.026076912879943848e-01,-9.263336062431335449e-01,1.516679763793945312e+00,5.185000896453857422e-01,-3.452502191066741943e-01,7.002018094062805176e-01,-3.211615085601806641e-01
1.078648790717124939e-01,1.096784114837646484e+00,-2.286980003118515015e-01,7.660717964172363281e-01,-5.930591821670532227e-01,1.227650284767150879e+00,-9.559517502784729004e-01,-5.436392426490783691e-01,-5.259732007980346680e-01,9.509205222129821777e-01,3.923600912094116211e-02,-9.060211181640625000e-01,4.195028245449066162e-01,2.384715341031551361e-02
