AF3,F7,F3,FC5,T7,P7,O1,O2,P8,T8,FC6,F4,F8,AF4
-3.130432963371276855e-01,-4.171591699123382568e-01,-8.133127540349960327e-02,-9.500523656606674194e-02,-9.900611639022827148e-01,1.638988703489303589e-01,2.619509100914001465e-01,1.552896201610565186e-01,-6.063570380210876465e-01,2.219779342412948608e-01,3.809621632099151611e-01,-2.037846744060516357e-01,1.052245870232582092e-01,-2.630865573883056641e-01
-2.925492227077484131e-01,-2.753889262676239014e-01,5.031981319189071655e-02,4.040692374110221863e-02,-8.580793142318725586e-01,-7.284256815910339355e-02,1.162363290786743164e-01,1.845528930425643921e-01,-2.392868995666503906e-01,1.368997991085052490e-01,3.097660541534423828e-01,-3.281259909272193909e-03,-1.508342623710632324e-01,-8.875235915184020996e-02
-3.418189585208892822e-01,-1.130461916327476501e-01,-7.879582792520523071e-02,1.404620409011840820e-01,-8.705420494079589844e-01,-6.374488025903701782e-02,2.308007478713989258e-01,8.938962966203689575e-02,-3.056053221225738525e-01,2.572226822376251221e-01,2.409963458776473999e-01,2.150717228651046753e-01,6.042831018567085266e-02,-1.477407664060592651e-01
-1.402630507946014404e-01,-3.373509347438812256e-01,-4.540984053164720535e-03,1.109187975525856018e-01,-7.186708450317382812e-01,-1.904744468629360199e-02,2.607813477516174316e-01,2.296406328678131104e-01,-1.816667914390563965e-01,1.650576889514923096e-01,6.153502464294433594e-01,6.978707015514373779e-02,6.751883029937744141e-02,-4.067320749163627625e-02
-1.698544621467590332e-01,9.618120267987251282e-03,8.657414466142654419e-02,2.828845940530300140e-02,-5.552157163619995117e-01,-2.019847035408020020e-01,4.888958930969238281e-01,4.181832075119018555e-02,-1.622782498598098755e-01,1.934709250926971436e-01,4.977373480796813965e-01,1.470528393983840942e-01,4.941718187183141708e-03,-4.169720783829689026e-02
-1.157692400738596916e-03,-2.238531969487667084e-02,-4.789766296744346619e-02,9.649863466620445251e-03,-5.616264939308166504e-01,-2.074847519397735596e-01,4.274659454822540283e-01,2.873561084270477295e-01,-3.373084217309951782e-02,3.745824098587036133e-01,6.633343100547790527e-01,2.676303088665008545e-01,-1.382595859467983246e-02,-1.516960412263870239e-01
1.704802066087722778e-01,-1.258853077888488770e-01,1.310610622167587280e-01,-4.496338218450546265e-02,-7.241593599319458008e-01,-2.151261419057846069e-01,3.742817640304565430e-01,4.275965988636016846e-01,-1.122045293450355530e-01,4.511532783508300781e-01,7.485702633857727051e-01,3.359012305736541748e-01,2.396553009748458862e-02,1.214528977870941162e-01
1.548335105180740356e-01,9.840662591159343719e-03,1.194174513220787048e-01,-1.965938210487365723e-01,-6.150270700454711914e-01,-1.119746938347816467e-01,5.224683880805969238e-01,3.841829299926757812e-01,-5.053070187568664551e-02,3.566342592239379883e-01,7.066345810890197754e-01,2.891898453235626221e-01,-1.750738471746444702e-01,1.316709816455841064e-01
2.285472154617309570e-01,1.998433619737625122e-01,3.595198094844818115e-01,-7.016556710004806519e-02,-5.308212637901306152e-01,-3.001001775264739990e-01,7.614959478378295898e-01,3.483318090438842773e-01,2.987121604382991791e-02,4.846828877925872803e-01,8.846143484115600586e-01,2.806056439876556396e-01,-6.087175384163856506e-02,4.386476799845695496e-02
2.616471946239471436e-01,2.508475482463836670e-01,2.265330702066421509e-01,-1.246198788285255432e-01,-4.140251874923706055e-01,-4.400509297847747803e-01,7.032106518745422363e-01,2.707528173923492432e-01,-1.080923080444335938e-01,6.469171047210693359e-01,6.744603514671325684e-01,5.509732365608215332e-01,2.850809507071971893e-02,5.772666539996862411e-03
4.920443594455718994e-01,1.344899237155914307e-01,4.663933217525482178e-01,-3.807790577411651611e-01,-2.483415901660919189e-01,-5.053979754447937012e-01,6.491594910621643066e-01,4.133931696414947510e-01,6.017213454470038414e-04,5.061964988708496094e-01,7.799430489540100098e-01,6.309861540794372559e-01,-8.755974471569061279e-02,-7.619843631982803345e-02
2.742123901844024658e-01,-5.001091212034225464e-02,4.610292017459869385e-01,-2.557825446128845215e-01,-1.783482432365417480e-01,-5.033298730850219727e-01,7.530507445335388184e-01,4.923646152019500732e-01,-1.116731762886047363e-01,5.068808197975158691e-01,7.997012138366699219e-01,5.341839194297790527e-01,-2.510545849800109863e-01,-1.795670390129089355e-01
4.287758469581604004e-01,-1.058080419898033142e-01,5.020852088928222656e-01,-3.700699508190155029e-01,7.623159885406494141e-02,-3.325327336788177490e-01,7.077762484550476074e-01,4.601414799690246582e-01,-1.089093834161758423e-02,6.311305761337280273e-01,7.630757093429565430e-01,5.100528597831726074e-01,-8.575014024972915649e-02,-2.208575755357742310e-01
3.879265785217285156e-01,-4.400652274489402771e-02,3.539201617240905762e-01,-3.836347460746765137e-01,-2.053370922803878784e-01,-4.248431921005249023e-01,7.533046603202819824e-01,7.531421184539794922e-01,4.095473513007164001e-02,6.353191733360290527e-01,6.694948077201843262e-01,4.341736733913421631e-01,-1.813966035842895508e-01,-1.559503227472305298e-01
4.578470885753631592e-01,2.640585601329803467e-02,4.574545025825500488e-01,-4.153894484043121338e-01,-9.053165465593338013e-02,-3.109775185585021973e-01,7.100729346275329590e-01,5.746134519577026367e-01,7.315887510776519775e-02,7.025093436241149902e-01,9.462733864784240723e-01,4.563373029232025146e-01,-5.674429982900619507e-02,-2.613417208194732666e-01
3.837717771530151367e-01,1.481501311063766479e-01,6.644057035446166992e-01,-5.217030644416809082e-01,1.969201862812042236e-01,-2.224056422710418701e-01,6.237948536872863770e-01,4.936980605125427246e-01,-2.240062057971954346e-01,7.452781796455383301e-01,8.384162187576293945e-01,3.693067431449890137e-01,-1.261290311813354492e-01,-1.846227794885635376e-01
3.384775221347808838e-01,1.062558591365814209e-01,6.348779797554016113e-01,-4.348474740982055664e-01,1.269599497318267822e-01,-3.166233003139495850e-01,6.620328426361083984e-01,7.519860863685607910e-01,-7.135599106550216675e-02,4.486344456672668457e-01,8.640074729919433594e-01,3.950567245483398438e-01,-1.470370800234377384e-03,-2.722215056419372559e-01
3.163457810878753662e-01,-2.752473950386047363e-01,5.704349875450134277e-01,-4.224521815776824951e-01,-1.493535041809082031e-01,-2.214114516973495483e-01,5.242777466773986816e-01,5.807984471321105957e-01,-4.658643901348114014e-02,5.004338622093200684e-01,7.472884654998779297e-01,4.175618886947631836e-01,-2.779584378004074097e-03,-2.671064734458923340e-01
2.755349278450012207e-01,4.790670424699783325e-02,6.648626327514648438e-01,-4.564648270606994629e-01,-2.744347751140594482e-01,-2.222083359956741333e-01,6.557210683822631836e-01,8.130815625190734863e-01,-3.957777097821235657e-02,4.731210172176361084e-01,1.088827013969421387e+00,2.526845037937164307e-01,1.186929792165756226e-01,-2.438524216413497925e-01
2.933969199657440186e-01,1.989433318376541138e-01,8.052282929420471191e-01,-3.577066063880920410e-01,-1.418282091617584229e-01,-1.302308440208435059e-01,3.639523386955261230e-01,7.102816700935363770e-01,-1.041622906923294067e-01,3.830196261405944824e-01,9.093591570854187012e-01,2.475381642580032349e-01,1.952640525996685028e-02,-3.134291768074035645e-01
3.220564723014831543e-01,-3.195378230884671211e-03,8.208455443382263184e-01,-4.783974587917327881e-01,-2.688988149166107178e-01,-1.375392973423004150e-01,3.183571100234985352e-01,6.356268525123596191e-01,1.610611081123352051e-01,3.230920135974884033e-01,1.215032935142517090e+00,4.914597272872924805e-01,2.861173078417778015e-02,-1.289449930191040039e-01
2.092996239662170410e-01,7.800319045782089233e-02,7.790130376815795898e-01,-2.384132444858551025e-01,-2.557772994041442871e-01,1.852219104766845703e-01,3.095759153366088867e-01,7.305244803428649902e-01,-1.089262813329696655e-01,2.606957554817199707e-01,9.606641530990600586e-01,2.961820065975189209e-01,-2.180378697812557220e-02,-5.076697841286659241e-02
2.869913280010223389e-01,3.059925884008407593e-02,7.637434601783752441e-01,-2.359585911035537720e-01,-2.016844749450683594e-01,1.207984387874603271e-01,2.009251266717910767e-01,5.032587051391601562e-01,1.525349467992782593e-01,2.623285949230194092e-01,1.018010616302490234e+00,2.909287810325622559e-01,-3.623678907752037048e-02,-3.752565756440162659e-02
5.205696448683738708e-02,1.181410849094390869e-01,7.903748154640197754e-01,-1.852598488330841064e-01,-3.296725451946258545e-01,-7.733233273029327393e-02,1.952742636203765869e-01,6.367657780647277832e-01,2.960461080074310303e-01,2.885111570358276367e-01,9.873469471931457520e-01,3.516888618469238281e-01,-5.187326297163963318e-02,-9.182079881429672241e-02
2.100247591733932495e-01,7.663208991289138794e-02,8.716945648193359375e-01,-3.468509018421173096e-01,-2.541669607162475586e-01,1.647232323884963989e-01,2.398318052291870117e-01,5.578342676162719727e-01,2.707051858305931091e-02,1.050800010561943054e-01,1.051615953445434570e+00,-6.203684490174055099e-03,2.152573019266128540e-01,-1.002084314823150635e-01
1.602838784456253052e-01,2.292421013116836548e-01,1.106765031814575195e+00,-1.262780576944351196e-01,-3.594398796558380127e-01,2.030505612492561340e-02,5.015481710433959961e-01,5.431025028228759766e-01,5.250104889273643494e-02,-4.412733018398284912e-02,7.303540706634521484e-01,5.264849215745925903e-02,7.808253169059753418e-02,4.021916911005973816e-02
-4.426332935690879822e-02,1.861892640590667725e-02,9.660344123840332031e-01,-1.990977376699447632e-01,-3.884071707725524902e-01,1.193097159266471863e-01,4.950975179672241211e-01,6.524264812469482422e-01,1.020570769906044006e-01,-3.955617547035217285e-02,6.584023833274841309e-01,1.095722708851099014e-02,1.606214195489883423e-01,2.582291662693023682e-01
-3.883329918608069420e-03,1.652843058109283447e-01,9.220444560050964355e-01,-1.158156096935272217e-01,-2.133427709341049194e-01,1.894257515668869019e-01,4.109388291835784912e-01,4.745836257934570312e-01,3.405439481139183044e-02,-9.338432922959327698e-03,6.892389059066772461e-01,-7.097323238849639893e-02,-5.169314518570899963e-02,2.368424683809280396e-01
6.526492536067962646e-02,1.177534162998199463e-01,7.261567115783691406e-01,8.464182168245315552e-02,-2.754942178726196289e-01,3.261224627494812012e-01,5.939119458198547363e-01,3.485447764396667480e-01,-1.529996544122695923e-01,1.096904128789901733e-01,6.968747377395629883e-01,-8.736728876829147339e-02,1.673210645094513893e-03,3.599725961685180664e-01
-2.364477962255477905e-01,1.830157637596130371e-02,8.088595271110534668e-01,1.849340088665485382e-02,-2.552649378776550293e-01,3.213014602661132812e-01,6.343463659286499023e-01,2.715952098369598389e-01,-5.705089122056961060e-02,-8.600153028964996338e-02,3.933493196964263916e-01,-2.182780206203460693e-01,-8.922164887189865112e-02,3.431399464607238770e-01
-9.746398776769638062e-02,1.963012367486953735e-01,7.115726470947265625e-01,-1.397911459207534790e-01,-2.261543869972229004e-01,3.768063187599182129e-01,7.011308670043945312e-01,1.897423714399337769e-01,2.321889996528625488e-01,-7.413079589605331421e-02,4.740924239158630371e-01,-5.513487011194229126e-02,-1.230644360184669495e-01,4.134467244148254395e-01
-3.500167131423950195e-01,2.948164939880371094e-03,6.523233056068420410e-01,9.378784149885177612e-02,-1.269517540931701660e-01,3.511421382427215576e-01,6.056278944015502930e-01,2.626045048236846924e-01,1.339722424745559692e-03,-1.274879574775695801e-01,1.454470902681350708e-01,-1.158178746700286865e-01,-2.502657175064086914e-01,4.828073382377624512e-01
-1.912573426961898804e-01,2.879995703697204590e-01,7.141558527946472168e-01,1.989382356405258179e-01,-4.678808897733688354e-02,5.618851780891418457e-01,6.695228815078735352e-01,1.710930019617080688e-01,1.821384578943252563e-01,5.209256708621978760e-02,1.073472574353218079e-01,-2.255384624004364014e-01,-4.107273817062377930e-01,3.713780045509338379e-01
-4.675324857234954834e-01,2.671649158000946045e-01,3.310791254043579102e-01,2.113114744424819946e-01,6.421904265880584717e-02,4.946543574333190918e-01,7.476271986961364746e-01,1.032897755503654480e-01,3.883346021175384521e-01,3.511172905564308167e-02,5.429995805025100708e-02,-1.446759402751922607e-01,-4.842290580272674561e-01,5.196771025657653809e-01
-3.044138252735137939e-01,2.914723157882690430e-01,4.855536222457885742e-01,1.218969151377677917e-01,6.646879017353057861e-03,4.040685892105102539e-01,8.126502633094787598e-01,1.699034869670867920e-01,2.948111891746520996e-01,7.261313032358884811e-03,-4.555972665548324585e-02,-2.806349098682403564e-01,-4.854180216789245605e-01,5.909258127212524414e-01
-4.556704461574554443e-01,2.054878175258636475e-01,5.606918931007385254e-01,2.804934382438659668e-01,-1.894509643316268921e-01,4.300286769866943359e-01,8.075091242790222168e-01,1.451697498559951782e-01,3.071600794792175293e-01,1.091974601149559021e-01,9.337730705738067627e-02,-1.843153834342956543e-01,-6.343190670013427734e-01,4.436610043048858643e-01
-5.615695714950561523e-01,4.829359352588653564e-01,3.139581680297851562e-01,3.031478524208068848e-01,9.153235703706741333e-02,4.986306130886077881e-01,8.155326843261718750e-01,4.586221873760223389e-01,4.027276337146759033e-01,3.701699897646903992e-02,1.549743711948394775e-01,-4.745172262191772461e-01,-8.758501410484313965e-01,8.323419690132141113e-01
-5.615904331207275391e-01,7.032364606857299805e-01,1.331064403057098389e-01,3.256447017192840576e-01,2.171859443187713623e-01,5.753589272499084473e-01,9.896004199981689453e-01,5.756118893623352051e-01,6.199849247932434082e-01,6.264114379882812500e-02,8.373989164829254150e-02,-2.039295285940170288e-01,-9.539014697074890137e-01,7.666782736778259277e-01
-5.591263771057128906e-01,5.235296487808227539e-01,3.937144204974174500e-02,3.804827928543090820e-01,1.077443584799766541e-01,4.781616330146789551e-01,8.375083208084106445e-01,3.387416601181030273e-01,3.789779841899871826e-01,1.021928861737251282e-01,6.704895943403244019e-02,-2.127506434917449951e-01,-9.025449156761169434e-01,7.716801762580871582e-01
-6.500751376152038574e-01,8.565134406089782715e-01,1.622821837663650513e-01,5.816993713378906250e-01,9.050440788269042969e-02,3.710466027259826660e-01,8.771853446960449219e-01,4.482354819774627686e-01,4.981997609138488770e-01,3.503662347793579102e-02,-1.535938680171966553e-01,-3.655586838722229004e-01,-9.540082812309265137e-01,9.733383655548095703e-01
-3.889954090118408203e-01,8.068001270294189453e-01,2.213977873325347900e-01,5.182170867919921875e-01,3.816343247890472412e-01,4.471660852432250977e-01,9.013752341270446777e-01,4.155572652816772461e-01,8.145110607147216797e-01,5.940340086817741394e-02,1.485259383916854858e-01,-4.141398072242736816e-01,-9.339738488197326660e-01,8.906880021095275879e-01
-5.574359297752380371e-01,5.567268729209899902e-01,2.932528257369995117e-01,6.164692044258117676e-01,1.205980777740478516e-01,3.302761912345886230e-01,7.263688445091247559e-01,6.170611977577209473e-01,6.968485116958618164e-01,1.241912841796875000e-01,-7.741651684045791626e-02,-6.540729999542236328e-01,-1.006394863128662109e+00,1.010638236999511719e+00
-3.177249431610107422e-01,8.630534410476684570e-01,1.865089684724807739e-02,6.275637745857238770e-01,3.265995383262634277e-01,3.511173725128173828e-01,8.905559182167053223e-01,7.481537461280822754e-01,7.512720823287963867e-01,1.086907312273979187e-01,8.478031307458877563e-02,-2.637481093406677246e-01,-1.073464989662170410e+00,1.028221368789672852e+00
-4.515998661518096924e-01,7.054297327995300293e-01,-2.543910965323448181e-02,5.490584373474121094e-01,1.988116800785064697e-01,2.101752758026123047e-01,8.371165394783020020e-01,6.954313516616821289e-01,7.013747692108154297e-01,1.148419827222824097e-02,3.640922605991363525e-01,-5.999175459146499634e-02,-9.782485961914062500e-01,1.006532907485961914e+00
-4.862296879291534424e-01,6.544685363769531250e-01,1.822638064622879028e-01,3.772890865802764893e-01,1.957878023386001587e-01,2.022799104452133179e-01,6.792665123939514160e-01,6.116837263107299805e-01,8.609257936477661133e-01,2.296788692474365234e-01,1.122253835201263428e-01,-1.597078889608383179e-01,-7.598255872726440430e-01,1.013565182685852051e+00
-2.356237322092056274e-01,4.116649329662322998e-01,2.195324897766113281e-01,2.357301115989685059e-01,3.990619480609893799e-01,1.261626482009887695e-01,5.540623664855957031e-01,7.422485351562500000e-01,1.049548864364624023e+00,2.292887270450592041e-01,3.056929409503936768e-01,-2.652623653411865234e-01,-8.319712877273559570e-01,9.352952837944030762e-01
-2.530675530433654785e-01,4.689148664474487305e-01,1.925128251314163208e-01,6.010451316833496094e-01,3.276062905788421631e-01,-8.391503989696502686e-02,6.746996641159057617e-01,7.086486816406250000e-01,7.093495130538940430e-01,2.845855057239532471e-01,2.837465107440948486e-01,-1.554676294326782227e-01,-4.942019581794738770e-01,1.177229046821594238e+00
-7.536255568265914917e-02,4.142525792121887207e-01,1.796792298555374146e-01,3.484331369400024414e-01,5.706334710121154785e-01,-1.512290835380554199e-01,5.513448119163513184e-01,7.946033477783203125e-01,6.268059611320495605e-01,3.628196120262145996e-01,6.633111089468002319e-02,-1.628625541925430298e-01,-8.283957242965698242e-01,9.246528744697570801e-01
-2.122168987989425659e-01,3.558855354785919189e-01,2.420880645513534546e-01,4.462486803531646729e-01,4.267953634262084961e-01,6.914319097995758057e-02,7.161961197853088379e-01,1.027550578117370605e+00,5.107263326644897461e-01,2.947311103343963623e-01,9.091623872518539429e-02,-2.519165277481079102e-01,-7.963342666625976562e-01,8.979674577713012695e-01
-2.005770429968833923e-02,3.907545506954193115e-01,3.849038481712341309e-01,2.195501476526260376e-01,4.700200855731964111e-01,-1.218187808990478516e-01,5.359762907028198242e-01,7.358423471450805664e-01,4.756011962890625000e-01,2.875723838806152344e-01,1.351854056119918823e-01,-1.832762807607650757e-01,-7.566667199134826660e-01,8.397049307823181152e-01
1.173188835382461548e-01,1.591939628124237061e-01,4.347468018531799316e-01,2.791171073913574219e-01,2.199233472347259521e-01,-1.334579475224018097e-02,5.185300111770629883e-01,7.424172759056091309e-01,5.539293885231018066e-01,5.676993727684020996e-01,1.998338699340820312e-01,-1.051151230931282043e-01,-5.514664649963378906e-01,7.297141551971435547e-01
3.900960832834243774e-02,1.157798618078231812e-01,2.147918641567230225e-01,1.097692847251892090e-01,2.433941513299942017e-01,-3.265489339828491211e-01,3.396337926387786865e-01,6.968100070953369141e-01,2.810567021369934082e-01,5.517164468765258789e-01,2.974701300263404846e-02,-2.534483075141906738e-01,-6.221688985824584961e-01,5.666767954826354980e-01
-2.314162701368331909e-01,2.091516703367233276e-01,2.798179686069488525e-01,1.769303381443023682e-01,4.372763335704803467e-01,-6.527213007211685181e-02,4.915931224822998047e-01,4.272559881210327148e-01,2.368025928735733032e-01,4.038975536823272705e-01,1.065978556871414185e-01,-1.021899133920669556e-01,-5.274035334587097168e-01,4.970771372318267822e-01
-2.207452356815338135e-01,-4.958870634436607361e-02,3.510181009769439697e-01,2.341486066579818726e-01,3.557111024856567383e-01,-1.758072674274444580e-01,3.543858826160430908e-01,6.566544771194458008e-01,7.533539086580276489e-02,3.644575178623199463e-01,1.326096951961517334e-01,-2.362864613533020020e-01,-6.010526418685913086e-01,5.685613155364990234e-01
-1.793620884418487549e-01,-1.320850253105163574e-01,1.638820618391036987e-01,2.027139812707901001e-01,4.201950728893280029e-01,-1.678816527128219604e-01,2.971006929874420166e-01,4.875302314758300781e-01,2.498469799757003784e-01,3.121585249900817871e-01,3.068685233592987061e-01,-2.855676412582397461e-01,-5.655484795570373535e-01,3.557633161544799805e-01
-2.729552686214447021e-01,-1.673549711704254150e-01,4.181041419506072998e-01,3.090777695178985596e-01,2.897252440452575684e-01,-1.736459136009216309e-01,1.905725449323654175e-01,5.592206716537475586e-01,1.784946024417877197e-01,4.469527006149291992e-01,-1.171394810080528259e-01,-3.180768489837646484e-01,-2.735199630260467529e-01,3.981514871120452881e-01
-2.312560379505157471e-01,-3.729493319988250732e-01,1.904222816228866577e-01,3.581660687923431396e-01,1.240386441349983215e-01,4.576672613620758057e-02,1.078769937157630920e-01,5.544946789741516113e-01,2.007487267255783081e-01,2.909300029277801514e-01,-1.331908851861953735e-01,-3.129089772701263428e-01,-6.187322735786437988e-01,5.050851702690124512e-01
-2.900865375995635986e-01,-1.857994198799133301e-01,6.640513986349105835e-02,3.304488062858581543e-01,1.370819360017776489e-01,-5.204097554087638855e-02,-4.067587107419967651e-02,4.239850044250488281e-01,2.520504966378211975e-02,4.535448178648948669e-02,5.408180132508277893e-02,-2.399533689022064209e-01,-3.044380247592926025e-01,2.461535483598709106e-01
-2.106684446334838867e-01,-2.919439375400543213e-01,1.842268258333206177e-01,3.346241116523742676e-01,-5.697544664144515991e-02,1.153543591499328613e-01,-1.171311885118484497e-01,7.814299464225769043e-01,2.755689620971679688e-01,2.590740323066711426e-01,5.452112480998039246e-02,-6.226896643638610840e-01,-3.971882164478302002e-01,4.040134847164154053e-01
-5.223976969718933105e-01,-2.147476524114608765e-01,7.302130758762359619e-02,4.686392843723297119e-01,-4.460305720567703247e-02,1.731585562229156494e-01,-2.815052270889282227e-01,5.456594824790954590e-01,1.995058059692382812e-01,4.458663612604141235e-02,5.431356653571128845e-02,-7.590100169181823730e-01,-3.174240291118621826e-01,4.646821320056915283e-01
-4.567720890045166016e-01,-1.564181894063949585e-01,-3.144912794232368469e-02,3.005171716213226318e-01,-2.231340259313583374e-01,7.390528917312622070e-02,-2.241714596748352051e-01,3.960795104503631592e-01,1.682195365428924561e-01,-2.268042266368865967e-01,1.055891513824462891e-01,-6.626830101013183594e-01,-4.497216343879699707e-01,4.083108007907867432e-01
-5.081868171691894531e-01,-1.038238704204559326e-01,8.496522158384323120e-02,4.876353144645690918e-01,-1.558294594287872314e-01,1.131016463041305542e-01,-4.854040145874023438e-01,3.958248496055603027e-01,6.768128275871276855e-02,-7.997134327888488770e-02,9.167753159999847412e-02,-7.653514742851257324e-01,-2.584162354469299316e-01,5.774493217468261719e-01
-3.414857089519500732e-01,-3.707695007324218750e-01,5.240215919911861420e-03,6.476565599441528320e-01,-2.704094648361206055e-01,1.863237321376800537e-01,-2.553483843803405762e-01,3.118050694465637207e-01,8.589806407690048218e-02,-1.602098941802978516e-01,4.535580053925514221e-02,-7.842155694961547852e-01,-3.308792412281036377e-01,4.858340919017791748e-01
-5.891007781028747559e-01,-1.148329898715019226e-01,-4.858769476413726807e-02,7.703396081924438477e-01,-3.266496360301971436e-01,5.787319689989089966e-02,-2.246690988540649414e-01,2.550867199897766113e-01,2.549884021282196045e-01,-2.779411077499389648e-01,8.754588663578033447e-02,-8.865036368370056152e-01,-2.964406907558441162e-01,5.518771409988403320e-01
-5.229595899581909180e-01,-4.390181601047515869e-02,-1.167121008038520813e-01,7.170749902725219727e-01,-3.833549022674560547e-01,-6.447875872254371643e-03,-5.227568745613098145e-01,2.095579802989959717e-01,3.191804587841033936e-01,-3.372349739074707031e-01,3.644378110766410828e-02,-8.288762569427490234e-01,-2.373330146074295044e-01,6.358298063278198242e-01
-5.042796134948730469e-01,-6.033069640398025513e-02,1.280612032860517502e-02,6.237015724182128906e-01,-2.983365952968597412e-01,-1.036663278937339783e-01,-3.023094832897186279e-01,3.332534730434417725e-01,1.383106112480163574e-01,-2.872419059276580811e-01,-1.472889482975006104e-01,-7.269326448440551758e-01,-3.161213397979736328e-01,6.051146388053894043e-01
-5.644683837890625000e-01,1.189037505537271500e-02,-7.581828534603118896e-02,7.520821094512939453e-01,-4.507137537002563477e-01,-1.160342171788215637e-01,-4.740091562271118164e-01,2.053042948246002197e-01,1.307355761528015137e-01,-2.565807998180389404e-01,-9.585862979292869568e-03,-6.342478394508361816e-01,-1.660774797201156616e-01,6.804232001304626465e-01
-3.611737191677093506e-01,-1.459378302097320557e-01,5.635800771415233612e-03,9.537473917007446289e-01,-5.720353126525878906e-01,-1.878842413425445557e-01,-2.771854400634765625e-01,2.196003645658493042e-01,1.519048959016799927e-01,-2.211109101772308350e-01,-9.557072818279266357e-02,-8.408119082450866699e-01,-4.323204755783081055e-01,6.418838500976562500e-01
-4.440140724182128906e-01,5.262754112482070923e-02,-2.678693830966949463e-01,7.675919532775878906e-01,-2.736364901065826416e-01,-9.985697269439697266e-02,-5.664267018437385559e-02,5.264182761311531067e-02,3.924289345741271973e-01,-1.750339418649673462e-01,-3.223442137241363525e-01,-8.040751218795776367e-01,-2.782225310802459717e-01,5.195775032043457031e-01
-4.940502047538757324e-01,-1.052409633994102478e-01,-2.121465504169464111e-01,6.329644918441772461e-01,-6.282386183738708496e-01,-2.150379419326782227e-01,-2.398694008588790894e-01,1.432659290730953217e-02,2.638393044471740723e-01,-2.664602398872375488e-01,-3.178407847881317139e-01,-7.234038710594177246e-01,-1.471059918403625488e-01,6.372187733650207520e-01
-4.657529294490814209e-01,-1.244036704301834106e-01,-2.340612411499023438e-01,7.896749973297119141e-01,-3.406500220298767090e-01,-3.773798942565917969e-01,-9.929291903972625732e-02,1.611552238464355469e-01,2.705744802951812744e-01,1.823073811829090118e-02,-1.836037486791610718e-01,-6.103394627571105957e-01,-4.182374477386474609e-01,3.679148554801940918e-01
-4.722697138786315918e-01,3.311961516737937927e-02,-1.458240449428558350e-01,8.762608170509338379e-01,-4.306695461273193359e-01,-4.221406579017639160e-01,7.460218667984008789e-02,1.803476065397262573e-01,3.604550957679748535e-01,-4.246764630079269409e-02,-7.550330460071563721e-02,-5.445644855499267578e-01,-2.351708412170410156e-01,4.924039542675018311e-01
-4.353799223899841309e-01,-1.620726585388183594e-01,-3.288768827915191650e-01,7.384824156761169434e-01,-1.891636699438095093e-01,-2.680501639842987061e-01,1.162106245756149292e-01,4.380498081445693970e-02,4.328062832355499268e-01,5.178480595350265503e-02,-3.578202426433563232e-01,-6.828415393829345703e-01,-3.548633456230163574e-01,4.804733991622924805e-01
-3.536441624164581299e-01,6.146188452839851379e-02,-3.841209113597869873e-01,7.122280597686767578e-01,-1.412621140480041504e-01,-1.357183456420898438e-01,-1.689263284206390381e-01,-2.232210338115692139e-02,4.931328296661376953e-01,2.951714396476745605e-02,-1.246792748570442200e-01,-6.949563622474670410e-01,-4.415923357009887695e-01,3.130696415901184082e-01
-2.943924665451049805e-01,2.356302142143249512e-01,-4.825359582901000977e-01,6.042247414588928223e-01,-1.514780223369598389e-01,-4.659240543842315674e-01,-1.267183423042297363e-01,-4.592699930071830750e-02,3.423434793949127197e-01,2.799137234687805176e-01,-1.685293167829513550e-01,-6.648944020271301270e-01,-5.308007001876831055e-01,4.146631658077239990e-01
-3.867454528808593750e-01,-1.294633448123931885e-01,-5.598328113555908203e-01,6.938072443008422852e-01,-1.309462338685989380e-01,-6.649957895278930664e-01,1.663722842931747437e-01,2.259411811828613281e-01,6.409194469451904297e-01,6.366997957229614258e-02,-2.695796489715576172e-01,-5.720738172531127930e-01,-5.830065608024597168e-01,5.282689929008483887e-01
-5.586792826652526855e-01,6.354182958602905273e-02,-6.085158586502075195e-01,7.113412022590637207e-01,-7.517344504594802856e-02,-5.361726284027099609e-01,-1.426120698451995850e-01,2.982446849346160889e-01,4.158902466297149658e-01,2.485886514186859131e-01,4.706517606973648071e-02,-4.214662611484527588e-01,-7.531735301017761230e-01,5.582836270332336426e-01
-3.579849302768707275e-01,1.219094768166542053e-01,-4.288641214370727539e-01,4.417973756790161133e-01,-9.230323135852813721e-02,-3.635815680027008057e-01,-3.037323951721191406e-01,3.021645247936248779e-01,6.568636894226074219e-01,1.503769904375076294e-01,1.125804986804723740e-02,-5.125589370727539062e-01,-5.099657773971557617e-01,4.104451835155487061e-01
-3.444407880306243896e-01,5.423738434910774231e-02,-7.472742199897766113e-01,4.915286302566528320e-01,-1.836579740047454834e-01,-8.386105298995971680e-01,-1.360848993062973022e-01,5.434734821319580078e-01,4.581722319126129150e-01,1.600928604602813721e-01,-4.592309147119522095e-02,-4.407495558261871338e-01,-4.165961444377899170e-01,3.307982385158538818e-01
-2.437166720628738403e-01,-1.410502754151821136e-02,-6.030436754226684570e-01,4.795751273632049561e-01,-1.377876251935958862e-01,-6.548000574111938477e-01,-1.207392439246177673e-01,4.738102853298187256e-01,5.411823391914367676e-01,2.229986488819122314e-01,8.492738753557205200e-02,-3.927503228187561035e-01,-3.068484961986541748e-01,2.266633808612823486e-01
-3.689570724964141846e-01,2.937283813953399658e-01,-4.684148728847503662e-01,4.725005626678466797e-01,-1.386030912399291992e-01,-6.695970296859741211e-01,-1.641009449958801270e-01,5.182807445526123047e-01,6.049952507019042969e-01,1.182590872049331665e-01,2.377554774284362793e-01,-4.042366743087768555e-01,-1.272981762886047363e-01,4.073520004749298096e-01
9.728848934173583984e-03,1.265031844377517700e-01,-6.319671869277954102e-01,2.855499386787414551e-01,-2.103380411863327026e-01,-5.256954431533813477e-01,-4.982912838459014893e-01,4.632204771041870117e-01,4.395072758197784424e-01,2.081402838230133057e-01,3.183225095272064209e-01,-2.867927551269531250e-01,-2.906958162784576416e-01,3.227901160717010498e-01
-1.373152285814285278e-01,2.651916742324829102e-01,-3.291924893856048584e-01,3.349017798900604248e-01,-6.460374593734741211e-02,-9.037057757377624512e-01,-4.178497195243835449e-01,6.129043698310852051e-01,5.565536022186279297e-01,2.932910323143005371e-01,4.487941265106201172e-01,-9.009285271167755127e-02,-3.681210055947303772e-02,3.666137456893920898e-01
-7.762204855680465698e-02,2.830430567264556885e-01,-9.933453798294067383e-02,1.483488678932189941e-01,-1.611587107181549072e-01,-7.841010689735412598e-01,-3.709941804409027100e-01,3.826848864555358887e-01,5.913310050964355469e-01,8.861906081438064575e-02,4.453088939189910889e-01,-2.012936323881149292e-01,5.195056274533271790e-02,1.427530199289321899e-01
1.256005913019180298e-01,-1.386893447488546371e-02,-1.995493024587631226e-01,1.230957210063934326e-01,-1.039897799491882324e-01,-1.041813373565673828e+00,-3.120969533920288086e-01,2.070475965738296509e-01,3.649544119834899902e-01,3.085289299488067627e-01,6.182798147201538086e-01,8.503298275172710419e-03,3.296680282801389694e-03,6.693354994058609009e-02
2.152920812368392944e-01,-2.963228151202201843e-02,-1.557347476482391357e-01,2.398697584867477417e-01,-1.505836248397827148e-01,-8.229555487632751465e-01,-6.303599476814270020e-01,4.138890206813812256e-01,4.285332560539245605e-01,1.136086657643318176e-01,6.485963463783264160e-01,5.950257182121276855e-02,3.862817883491516113e-01,1.581537574529647827e-01
2.232852727174758911e-01,5.548245087265968323e-02,-8.496335893869400024e-02,-1.418190263211727142e-02,-1.562993228435516357e-01,-9.374347925186157227e-01,-4.879036247730255127e-01,3.728010058403015137e-01,7.055186629295349121e-01,1.287358701229095459e-01,6.564556360244750977e-01,3.469076752662658691e-01,2.383160591125488281e-01,4.055504500865936279e-02
2.388692945241928101e-01,1.003711577504873276e-02,-1.510771512985229492e-01,-3.057113848626613617e-02,-2.114218175411224365e-01,-1.091487169265747070e+00,-3.876438736915588379e-01,4.038661718368530273e-01,4.460182785987854004e-01,2.594307363033294678e-01,7.237193584442138672e-01,-4.718947410583496094e-02,3.476143181324005127e-01,1.217709761112928391e-02
2.673458456993103027e-01,-6.633472442626953125e-02,1.011809427291154861e-02,-3.031971454620361328e-01,-1.428776681423187256e-01,-9.979158043861389160e-01,-3.665225505828857422e-01,1.407074928283691406e-01,2.596001923084259033e-01,2.008854001760482788e-01,6.505857110023498535e-01,1.506924182176589966e-01,2.660739719867706299e-01,-7.046569883823394775e-02
2.732074558734893799e-01,-1.799331605434417725e-01,1.514740195125341415e-02,-1.437492221593856812e-01,-2.023515105247497559e-01,-9.585739374160766602e-01,-5.326870679855346680e-01,5.754823610186576843e-02,7.575156539678573608e-02,2.103505581617355347e-01,7.821649909019470215e-01,1.837195456027984619e-01,3.199854195117950439e-01,-1.196302175521850586e-01
1.724469810724258423e-01,-1.847139447927474976e-01,-2.144698798656463623e-01,-3.956728577613830566e-01,-2.484849989414215088e-01,-8.859726190567016602e-01,-4.621982276439666748e-01,-1.716967821121215820e-01,1.626984775066375732e-01,4.339862763881683350e-01,6.179243922233581543e-01,1.438748538494110107e-01,4.265131652355194092e-01,-1.095182001590728760e-01
7.794505357742309570e-02,-2.495850771665573120e-01,5.044436082243919373e-03,-3.346750736236572266e-01,-2.541173994541168213e-01,-8.047055602073669434e-01,-8.413100242614746094e-01,5.042016878724098206e-02,4.666121676564216614e-02,1.321424841880798340e-01,6.126482486724853516e-01,2.128602117300033569e-01,1.670112311840057373e-01,-4.245295226573944092e-01
5.881483852863311768e-02,-3.356750905513763428e-01,-1.476547308266162872e-02,-4.552298188209533691e-01,-4.747967422008514404e-01,-6.886059045791625977e-01,-4.167318940162658691e-01,-6.580688804388046265e-02,2.201079204678535461e-02,1.500737369060516357e-01,5.717427134513854980e-01,1.413709223270416260e-01,4.408126175403594971e-01,-1.733514368534088135e-01
1.605805754661560059e-01,-2.755579948425292969e-01,7.421983778476715088e-02,-2.230864912271499634e-01,-3.742546737194061279e-01,-7.223328351974487305e-01,-4.833571910858154297e-01,-2.138561457395553589e-01,-4.664174467325210571e-02,1.986514478921890259e-01,4.433440268039703369e-01,3.551088506355881691e-03,5.127370357513427734e-01,-1.205020099878311157e-01
4.601645842194557190e-02,-4.344779849052429199e-01,-9.982245415449142456e-02,-3.208743929862976074e-01,-3.003365099430084229e-01,-6.521487236022949219e-01,-5.123530030250549316e-01,-1.080483794212341309e-01,-1.724846959114074707e-01,1.275812685489654541e-01,4.849795103073120117e-01,1.966735720634460449e-01,4.021646380424499512e-01,-3.213224709033966064e-01
-1.130822747945785522e-01,-2.300864607095718384e-01,-1.226919516921043396e-01,-2.530494034290313721e-01,-3.740850389003753662e-01,-6.292240023612976074e-01,-5.721694231033325195e-01,-5.276851058006286621e-01,-3.497381508350372314e-01,1.897987425327301025e-01,3.994516730308532715e-01,9.843420982360839844e-02,3.567263185977935791e-01,-3.733358979225158691e-01
-2.142932824790477753e-02,-4.037728309631347656e-01,-1.410464197397232056e-01,-1.770677566528320312e-01,-4.635593295097351074e-01,-5.145117640495300293e-01,-3.856093287467956543e-01,-2.837348580360412598e-01,-2.595449388027191162e-01,2.076402753591537476e-01,4.973419010639190674e-01,9.620446711778640747e-02,2.717911601066589355e-01,-3.405628800392150879e-01
-1.177222356200218201e-01,-1.941000819206237793e-01,-2.515479326248168945e-01,-1.856711804866790771e-01,-4.927083551883697510e-01,-4.194392859935760498e-01,-5.363881587982177734e-01,-2.828087508678436279e-01,1.894332002848386765e-03,1.804073899984359741e-01,3.091452121734619141e-01,-2.845813930034637451e-01,2.135234028100967407e-01,-1.450157761573791504e-01
-1.371151655912399292e-01,-2.901821434497833252e-01,-3.641088306903839111e-01,-1.751122623682022095e-01,-4.993566870689392090e-01,-2.182682752609252930e-01,-3.403768241405487061e-01,-3.499854207038879395e-01,-1.906505376100540161e-01,2.369323074817657471e-01,4.670610725879669189e-01,-1.540868431329727173e-01,3.891865313053131104e-01,-2.278025448322296143e-01
-2.119562029838562012e-01,-1.463996618986129761e-01,-3.838174641132354736e-01,-2.101126164197921753e-01,-3.664043247699737549e-01,-1.209053099155426025e-01,-4.595767855644226074e-01,-5.625409483909606934e-01,1.384044885635375977e-01,1.156334429979324341e-01,2.551248371601104736e-01,-1.852233856916427612e-01,2.101862132549285889e-01,-1.991691142320632935e-01
-3.688558340072631836e-01,-9.513811208307743073e-03,-4.732106029987335205e-01,-7.418252527713775635e-02,-6.654747724533081055e-01,-2.168264687061309814e-01,-2.633028328418731689e-01,-2.266031652688980103e-01,-1.134219467639923096e-01,-1.525525934994220734e-02,4.628370106220245361e-01,-7.866367697715759277e-02,1.887574344873428345e-01,-5.917245522141456604e-03
-3.930783271789550781e-01,-1.267573684453964233e-01,-5.160789489746093750e-01,1.590290293097496033e-02,-7.205410003662109375e-01,4.750181734561920166e-02,-5.381485223770141602e-01,-4.732176959514617920e-01,1.725564599037170410e-01,1.366374790668487549e-01,5.678806900978088379e-01,-2.261916399002075195e-01,2.149195820093154907e-01,1.374372281134128571e-02
-2.749428451061248779e-01,1.373871564865112305e-01,-5.958518385887145996e-01,7.426153868436813354e-02,-7.312348484992980957e-01,-1.871195286512374878e-01,-4.197038710117340088e-01,-3.922029733657836914e-01,-5.983731243759393692e-04,-1.595734432339668274e-02,3.360597491264343262e-01,-1.090817302465438843e-01,1.379518508911132812e-01,8.525946736335754395e-02
-4.337149262428283691e-01,1.792951226234436035e-01,-5.652455687522888184e-01,9.451588988304138184e-02,-7.616409063339233398e-01,-1.703181415796279907e-01,-9.541795402765274048e-02,-3.825549781322479248e-01,2.391437143087387085e-01,1.826480329036712646e-01,4.067305028438568115e-01,3.016944276168942451e-03,1.579283624887466431e-01,9.081257507205009460e-03
-2.434020638465881348e-01,6.100222468376159668e-02,-5.697256326675415039e-01,-1.466449163854122162e-02,-6.036287546157836914e-01,-2.500037252902984619e-01,-2.703159749507904053e-01,-3.700746297836303711e-01,2.537358701229095459e-01,9.721732884645462036e-02,4.305460155010223389e-01,-7.894810289144515991e-02,-1.697527468204498291e-01,1.474768072366714478e-01
-3.889895975589752197e-01,4.882128164172172546e-02,-5.764902234077453613e-01,3.119282796978950500e-02,-7.346914410591125488e-01,-2.477434426546096802e-01,-2.379612773656845093e-01,-5.175901651382446289e-01,2.060920745134353638e-01,1.246827021241188049e-01,2.765401303768157959e-01,-9.359674900770187378e-02,-1.838518828153610229e-01,3.819116950035095215e-01
-1.086623519659042358e-01,2.395246922969818115e-01,-4.921309053897857666e-01,2.708939313888549805e-01,-6.413821578025817871e-01,-1.867303401231765747e-01,-6.138899549841880798e-02,-5.810776948928833008e-01,9.573201835155487061e-02,1.567006409168243408e-01,4.566749036312103271e-01,-6.695250421762466431e-02,-5.199216306209564209e-02,3.940578699111938477e-01
-9.216320514678955078e-02,3.544370830059051514e-01,-5.089176893234252930e-01,2.194035500288009644e-01,-5.040114521980285645e-01,-1.362815499305725098e-01,-3.408691287040710449e-02,-5.072714686393737793e-01,1.461901664733886719e-01,3.350634872913360596e-01,1.925908625125885010e-01,3.640409186482429504e-02,-1.548494100570678711e-01,3.218124806880950928e-01
1.065573422238230705e-03,2.099740952253341675e-01,-6.477545499801635742e-01,9.434931725263595581e-02,-3.300292789936065674e-01,-4.409113526344299316e-01,8.359707891941070557e-02,-4.737289547920227051e-01,1.088687255978584290e-01,1.472766548395156860e-01,1.293423026800155640e-01,-1.560623049736022949e-01,-5.991569533944129944e-02,4.500326216220855713e-01
-3.835722804069519043e-02,4.928745031356811523e-01,-4.042072892189025879e-01,1.914810389280319214e-01,-3.439109623432159424e-01,-2.382666766643524170e-01,2.053242176771163940e-01,-2.926487922668457031e-01,3.557165339589118958e-02,4.915691316127777100e-01,2.063737958669662476e-01,3.435975313186645508e-01,-1.901335418224334717e-01,4.266597628593444824e-01
-2.364121749997138977e-02,3.315210342407226562e-01,-4.961013197898864746e-01,8.813752979040145874e-02,-3.047486841678619385e-01,-2.581420242786407471e-01,1.465624421834945679e-01,-2.037299573421478271e-01,1.709704995155334473e-01,5.989904999732971191e-01,3.000987470149993896e-01,1.190217882394790649e-01,-3.219409883022308350e-01,4.158007204532623291e-01
1.937613636255264282e-01,3.487701416015625000e-01,-6.291267871856689453e-01,-1.749502271413803101e-01,-2.075240612030029297e-01,-2.254899144172668457e-01,3.891614377498626709e-01,-3.935486078262329102e-01,5.613167583942413330e-02,6.323802471160888672e-01,9.514712542295455933e-02,8.859425038099288940e-02,-4.439730048179626465e-01,2.463976293802261353e-01
1.984737664461135864e-01,3.972821533679962158e-01,-6.220297813415527344e-01,2.535227499902248383e-02,-7.551535964012145996e-02,-3.498567044734954834e-01,3.746581077575683594e-01,-4.766408801078796387e-01,-3.769997507333755493e-02,6.361476182937622070e-01,7.193937152624130249e-02,3.452496528625488281e-01,-4.156794250011444092e-01,4.245748817920684814e-01
-9.644125401973724365e-02,3.489765822887420654e-01,-5.615320801734924316e-01,1.605289988219738007e-02,-2.787691354751586914e-02,-5.305891036987304688e-01,3.943023681640625000e-01,-5.014992356300354004e-01,-2.352998964488506317e-02,8.364507555961608887e-01,1.093064025044441223e-01,1.173011213541030884e-01,-4.146259427070617676e-01,1.009382829070091248e-01
1.109979376196861267e-01,3.078462481498718262e-01,-3.943972885608673096e-01,7.171522080898284912e-02,1.390264034271240234e-01,-4.877530932426452637e-01,3.422768414020538330e-01,-3.653529584407806396e-01,1.201828196644783020e-02,7.869070768356323242e-01,2.990390658378601074e-01,3.242536783218383789e-01,-5.296800136566162109e-01,2.686018049716949463e-01
2.187101244926452637e-01,2.383684664964675903e-01,-5.595210790634155273e-01,-2.765709757804870605e-01,-1.004479825496673584e-01,-3.916573822498321533e-01,3.052214980125427246e-01,-1.989146918058395386e-01,-1.639750413596630096e-02,9.759294986724853516e-01,2.754324972629547119e-01,1.957048624753952026e-01,-4.788560569286346436e-01,2.713769078254699707e-01
3.625795841217041016e-01,2.611985504627227783e-01,-4.852965176105499268e-01,-1.018249392509460449e-01,-3.710279986262321472e-02,-2.910080254077911377e-01,2.174701392650604248e-01,-2.346681803464889526e-01,-1.490933448076248169e-01,9.233455657958984375e-01,3.594399690628051758e-01,2.503924965858459473e-01,-4.853879511356353760e-01,1.621385812759399414e-01
2.121511250734329224e-01,2.131767868995666504e-01,-5.262816548347473145e-01,-1.699267029762268066e-01,-1.719345301389694214e-01,-4.359368979930877686e-01,2.476498931646347046e-01,-1.439617127180099487e-01,1.051639467477798462e-01,1.003768682479858398e+00,3.465569913387298584e-01,3.390630483627319336e-01,-4.624465107917785645e-01,7.293465733528137207e-02
5.113304853439331055e-01,1.224724426865577698e-01,-2.607106268405914307e-01,5.602555349469184875e-02,-3.453134745359420776e-02,-4.986230134963989258e-01,3.412584662437438965e-01,-7.120416313409805298e-02,2.200166285037994385e-01,9.396054148674011230e-01,3.820534348487854004e-01,1.612606197595596313e-01,-4.685973525047302246e-01,7.618012279272079468e-02
5.104761719703674316e-01,2.686064243316650391e-01,-4.875153303146362305e-01,-2.345169037580490112e-01,-6.843500584363937378e-02,-2.189027667045593262e-01,1.466087400913238525e-01,9.576183557510375977e-02,3.432694077491760254e-02,9.541872739791870117e-01,4.586651325225830078e-01,4.806230962276458740e-02,-5.106863379478454590e-01,8.245841413736343384e-02
5.054987668991088867e-01,1.565520763397216797e-01,-3.159685432910919189e-01,-2.035894989967346191e-02,-1.187077462673187256e-01,-4.100847840309143066e-01,7.187534123659133911e-02,8.957117795944213867e-02,-4.065527021884918213e-02,9.466972351074218750e-01,5.159295201301574707e-01,2.743831872940063477e-01,-4.343613088130950928e-01,1.180084515362977982e-02
4.260524213314056396e-01,2.028050124645233154e-01,-3.721896409988403320e-01,1.222802177071571350e-01,-9.962578862905502319e-02,-3.847352862358093262e-01,2.449145168066024780e-02,4.565126076340675354e-02,-2.223622798919677734e-01,9.071194529533386230e-01,5.526368618011474609e-01,1.811131685972213745e-01,-2.090025544166564941e-01,8.523980528116226196e-02
7.045410275459289551e-01,1.420633941888809204e-01,-1.027523875236511230e-01,-1.845352947711944580e-01,-9.102889895439147949e-02,-4.362586438655853271e-01,-8.207233250141143799e-02,4.847957193851470947e-02,3.705377504229545593e-02,8.280472755432128906e-01,6.100299358367919922e-01,2.298639267683029175e-01,-2.203000932931900024e-01,9.217992424964904785e-03
6.048359870910644531e-01,2.733327150344848633e-01,-3.004108071327209473e-01,1.763953268527984619e-02,-2.301997989416122437e-01,-4.662377536296844482e-01,-8.739325404167175293e-02,-7.271663099527359009e-02,-3.607108071446418762e-02,8.332132101058959961e-01,6.592917442321777344e-01,1.463435292243957520e-01,-1.663700640201568604e-01,-6.496395915746688843e-02
6.738223433494567871e-01,1.122338995337486267e-01,-2.213641256093978882e-01,6.133079528808593750e-02,-3.954994380474090576e-01,-2.561427652835845947e-01,-1.164729595184326172e-01,-1.854137331247329712e-01,4.288376495242118835e-02,7.382076978683471680e-01,6.956935524940490723e-01,9.263182431459426880e-02,-6.941869854927062988e-02,6.615396123379468918e-03
6.823093891143798828e-01,-5.725279822945594788e-02,8.589673787355422974e-02,-8.313149958848953247e-02,-3.281625211238861084e-01,-4.746857881546020508e-01,-2.038711756467819214e-01,-6.671964377164840698e-02,-1.082187071442604065e-01,6.847394704818725586e-01,6.714755296707153320e-01,2.764420509338378906e-01,-1.076462417840957642e-01,-3.492416739463806152e-01
7.454841732978820801e-01,1.139492541551589966e-01,-4.968300089240074158e-02,7.559843361377716064e-02,-2.495369762182235718e-01,-3.625783026218414307e-01,-1.676098257303237915e-01,-2.027701437473297119e-01,-2.595027089118957520e-01,6.479285359382629395e-01,6.857311129570007324e-01,3.063048422336578369e-01,-3.431539237499237061e-02,-6.751812994480133057e-02
8.388256430625915527e-01,3.866243362426757812e-02,1.989236325025558472e-01,7.284273207187652588e-02,-2.860589921474456787e-01,-2.825560271739959717e-01,-2.067072391510009766e-01,-2.053793817758560181e-01,-4.817427098751068115e-01,6.466909050941467285e-01,4.750812053680419922e-01,1.045642793178558350e-02,-2.643077671527862549e-01,-1.019452791661024094e-02
6.411420702934265137e-01,-3.220526874065399170e-02,3.587280958890914917e-02,8.117735385894775391e-02,-3.489783108234405518e-01,-3.380655348300933838e-01,-1.822790205478668213e-01,-3.264304995536804199e-01,-2.670538723468780518e-01,7.828983068466186523e-01,6.301691532135009766e-01,5.625387281179428101e-02,-8.457246422767639160e-02,6.081879884004592896e-02
5.516425967216491699e-01,-1.425626687705516815e-02,9.746315330266952515e-02,8.229657262563705444e-02,-3.977228999137878418e-01,-2.636456787586212158e-01,-4.767572507262229919e-02,-2.986573278903961182e-01,-2.589068710803985596e-01,4.481264054775238037e-01,4.347196817398071289e-01,-7.903140038251876831e-02,-1.313905268907546997e-01,-8.724551647901535034e-02
6.290345191955566406e-01,2.539608813822269440e-02,3.794773668050765991e-02,1.048178747296333313e-01,-1.157344579696655273e-01,-2.257999032735824585e-01,-1.535902619361877441e-01,-4.437470734119415283e-01,-3.578557372093200684e-01,5.621427297592163086e-01,6.053425669670104980e-01,-1.503190100193023682e-01,-1.502195894718170166e-01,-6.687717884778976440e-02
8.106927871704101562e-01,1.063984259963035583e-02,6.503959745168685913e-02,5.559713020920753479e-02,-3.958678841590881348e-01,7.032272964715957642e-02,-6.695143133401870728e-02,-1.628251820802688599e-01,-3.828109502792358398e-01,6.863911747932434082e-01,4.429547488689422607e-01,-2.806527614593505859e-01,-1.191371902823448181e-01,-1.288378797471523285e-02
5.346660614013671875e-01,5.481078848242759705e-02,2.236591428518295288e-01,1.502819359302520752e-01,-5.744045376777648926e-01,-1.093652695417404175e-01,2.430853247642517090e-02,-3.970625102519989014e-01,-3.228192329406738281e-01,3.695282638072967529e-01,2.801998853683471680e-01,-2.297675907611846924e-01,-2.810073792934417725e-01,-1.970355808734893799e-01
4.988068342208862305e-01,-1.004200652241706848e-01,-3.578446060419082642e-02,3.044034540653228760e-01,-2.535871267318725586e-01,1.385218277573585510e-02,1.177680119872093201e-02,-2.241311371326446533e-01,-4.458380639553070068e-01,6.635011434555053711e-01,1.738370805978775024e-01,-5.153657197952270508e-01,-1.388111859560012817e-01,3.321572393178939819e-02
3.936424851417541504e-01,2.241554111242294312e-01,1.044832915067672729e-01,2.628984749317169189e-01,-2.757545709609985352e-01,8.810761570930480957e-02,-1.512765791267156601e-02,-2.240113914012908936e-01,-6.159763336181640625e-01,4.371259808540344238e-01,8.656796813011169434e-02,-2.793566882610321045e-01,-4.749218225479125977e-01,-7.164096832275390625e-02
3.252632021903991699e-01,3.539077341556549072e-01,-1.206460893154144287e-01,3.117811679840087891e-01,-3.932501375675201416e-01,-2.025485597550868988e-02,7.427220046520233154e-02,-3.923662006855010986e-01,-2.556969225406646729e-01,2.682681679725646973e-01,1.473810374736785889e-01,-4.266005456447601318e-01,-3.818580508232116699e-01,-5.666142702102661133e-02
3.311932682991027832e-01,1.588245630264282227e-01,-1.661939471960067749e-01,5.461236238479614258e-01,-3.386820554733276367e-01,1.505421251058578491e-01,-1.807736009359359741e-01,-2.316088229417800903e-01,-2.812621295452117920e-01,3.348865807056427002e-01,6.767255812883377075e-02,-6.528234481811523438e-01,-4.931543171405792236e-01,7.323062419891357422e-02
3.214800655841827393e-01,4.177007675170898438e-01,-1.593998074531555176e-01,3.822750747203826904e-01,-3.988234996795654297e-01,2.136604785919189453e-01,-7.447902858257293701e-02,-1.183672621846199036e-01,-2.485751062631607056e-01,3.548723161220550537e-01,3.186118975281715393e-02,-6.375885605812072754e-01,-4.892865419387817383e-01,6.908021122217178345e-02
1.563295125961303711e-01,3.879729509353637695e-01,-1.356439143419265747e-01,4.916662871837615967e-01,-3.118580281734466553e-01,2.616122066974639893e-01,4.951018374413251877e-03,-9.100212901830673218e-02,7.884584367275238037e-02,3.554869294166564941e-01,-2.367172949016094208e-02,-4.071510136127471924e-01,-4.886695146560668945e-01,2.564759552478790283e-01
3.077354431152343750e-01,5.926323533058166504e-01,-1.523866653442382812e-01,5.822551846504211426e-01,-2.982145547866821289e-01,4.638378024101257324e-01,1.180424634367227554e-02,-1.054287925362586975e-01,1.295010149478912354e-01,4.377176463603973389e-01,1.400579661130905151e-01,-7.422037720680236816e-01,-8.164194226264953613e-01,2.088284939527511597e-01
3.426135480403900146e-01,5.350712537765502930e-01,-4.142038524150848389e-01,6.217498183250427246e-01,-3.940320312976837158e-01,3.092876374721527100e-01,-1.599412709474563599e-01,8.932911604642868042e-02,6.589083373546600342e-02,3.156375288963317871e-01,-3.757225722074508667e-02,-5.439881682395935059e-01,-6.200499534606933594e-01,2.365061491727828979e-01
3.090255260467529297e-01,7.688892483711242676e-01,-2.355641275644302368e-01,7.110884785652160645e-01,-3.205505013465881348e-01,1.759561151266098022e-01,-1.616772860288619995e-01,1.747906394302845001e-02,2.772413790225982666e-01,2.342479825019836426e-01,2.438951730728149414e-01,-6.148279309272766113e-01,-5.263354182243347168e-01,2.939460575580596924e-01
4.176729619503021240e-01,7.030269503593444824e-01,-8.358760736882686615e-03,8.317122459411621094e-01,-2.270887345075607300e-01,2.369352877140045166e-01,3.054578043520450592e-02,1.084573045372962952e-01,1.559785604476928711e-01,3.120410628616809845e-02,2.335619479417800903e-01,-5.954853892326354980e-01,-5.054402351379394531e-01,3.133763372898101807e-01
4.010125398635864258e-01,9.636157751083374023e-01,-1.995211243629455566e-01,9.708669781684875488e-01,-5.957834795117378235e-02,2.638065218925476074e-01,7.465782761573791504e-02,2.629591822624206543e-01,3.664265871047973633e-01,1.274255365133285522e-01,1.535555273294448853e-01,-6.680157184600830078e-01,-5.608545541763305664e-01,4.876922965049743652e-01
5.546553134918212891e-01,7.083263993263244629e-01,-9.686867892742156982e-02,8.180083036422729492e-01,-2.375847548246383667e-01,4.179891645908355713e-01,1.565317958593368530e-01,1.953108310699462891e-01,5.084082484245300293e-01,3.137099146842956543e-01,2.644744813442230225e-01,-5.698965787887573242e-01,-6.223964095115661621e-01,6.004725694656372070e-01
7.375232577323913574e-01,8.680763840675354004e-01,1.892231702804565430e-01,7.942164540290832520e-01,-3.331613540649414062e-02,1.270400136709213257e-01,1.319920122623443604e-01,7.960757613182067871e-02,6.737022399902343750e-01,2.862081229686737061e-01,7.959353923797607422e-02,-5.165065526962280273e-01,-5.584597587585449219e-01,4.368179142475128174e-01
5.807907581329345703e-01,9.727832078933715820e-01,-1.846688836812973022e-01,6.673579216003417969e-01,-1.408183127641677856e-01,5.592111498117446899e-02,1.302231699228286743e-01,2.757763564586639404e-01,4.459633827209472656e-01,3.336955606937408447e-01,-5.442157387733459473e-02,-4.170891046524047852e-01,-5.386373400688171387e-01,6.064199209213256836e-01
4.996058940887451172e-01,9.494888186454772949e-01,-7.297518104314804077e-02,6.726748347282409668e-01,2.492874115705490112e-01,-9.935266524553298950e-02,7.373516261577606201e-02,1.179075762629508972e-01,6.350321769714355469e-01,3.118742108345031738e-01,2.106842100620269775e-01,-1.755562275648117065e-01,-4.981592595577239990e-01,6.266224384307861328e-01
6.966737508773803711e-01,8.796063661575317383e-01,8.424116671085357666e-02,4.272466003894805908e-01,1.556046456098556519e-01,-1.536238342523574829e-01,1.590951681137084961e-01,2.796245180070400238e-02,5.937477946281433105e-01,3.095484673976898193e-01,-6.855335831642150879e-02,-1.809214949607849121e-01,-4.956203103065490723e-01,4.306088984012603760e-01
7.511658668518066406e-01,8.980477452278137207e-01,1.472165137529373169e-01,5.725513696670532227e-01,3.403545022010803223e-01,9.813578799366950989e-03,1.148304194211959839e-01,2.212452590465545654e-01,5.681774020195007324e-01,3.391040861606597900e-01,2.261919677257537842e-01,-3.684411048889160156e-01,-6.988261342048645020e-01,4.161539077758789062e-01
6.885091662406921387e-01,8.490097522735595703e-01,2.486223727464675903e-01,4.859930276870727539e-01,4.129937589168548584e-01,3.162973746657371521e-02,1.238991618156433105e-01,3.881248235702514648e-01,3.812781870365142822e-01,3.075220882892608643e-01,7.169570773839950562e-02,-2.499671727418899536e-01,-7.407370805740356445e-01,4.113509356975555420e-01
7.626329064369201660e-01,8.353264927864074707e-01,4.499008134007453918e-02,4.865734279155731201e-01,4.227212369441986084e-01,-7.716840505599975586e-02,2.099030911922454834e-01,2.712611258029937744e-01,4.988055825233459473e-01,2.658448815345764160e-01,8.925572037696838379e-02,-1.757027506828308105e-01,-4.999035894870758057e-01,3.344087600708007812e-01
8.495875000953674316e-01,8.197932839393615723e-01,2.652146518230438232e-01,6.480149030685424805e-01,4.694620072841644287e-01,8.994838595390319824e-02,1.369353532791137695e-01,4.148901700973510742e-01,4.843869209289550781e-01,2.228480726480484009e-01,1.957024484872817993e-01,4.346932843327522278e-02,-5.719761848449707031e-01,3.386250138282775879e-01
7.221382856369018555e-01,6.503074765205383301e-01,7.950512319803237915e-02,3.796352148056030273e-01,6.807149648666381836e-01,-2.390704862773418427e-02,1.104940325021743774e-01,6.365323066711425781e-01,3.538865149021148682e-01,2.512981891632080078e-01,6.929694116115570068e-02,-1.453006416559219360e-01,-4.075704216957092285e-01,2.066009640693664551e-01
6.894147992134094238e-01,7.083131670951843262e-01,-1.183373481035232544e-02,3.326244056224822998e-01,5.576959848403930664e-01,-5.537637695670127869e-02,2.703142352402210236e-02,4.927553236484527588e-01,4.280391931533813477e-01,1.642298549413681030e-01,2.407401800155639648e-01,-2.305305749177932739e-01,-4.207255244255065918e-01,3.478074073791503906e-02
7.905958294868469238e-01,6.584635376930236816e-01,6.454645097255706787e-02,1.649256050586700439e-01,6.851353049278259277e-01,-4.853986203670501709e-02,-1.405905093997716904e-02,3.703726232051849365e-01,4.634968638420104980e-01,3.982438743114471436e-01,2.870155274868011475e-01,-2.077865749597549438e-01,-4.684747755527496338e-01,1.293169260025024414e-01
8.502163887023925781e-01,7.140440344810485840e-01,1.650032699108123779e-01,2.437857389450073242e-01,6.731005311012268066e-01,-2.359525300562381744e-02,4.781118407845497131e-02,5.771080255508422852e-01,5.038272738456726074e-01,7.787196338176727295e-02,5.595080554485321045e-02,-2.365207225084304810e-01,-5.125217437744140625e-01,5.137201864272356033e-03
6.339987516403198242e-01,4.816193878650665283e-01,7.922370731830596924e-02,4.893848896026611328e-01,5.158704519271850586e-01,5.585793033242225647e-02,-2.259700149297714233e-01,5.763116478919982910e-01,4.614190757274627686e-01,4.829710349440574646e-02,2.224472165107727051e-01,-4.354415088891983032e-02,-2.447078973054885864e-01,-5.983849242329597473e-02
6.928684115409851074e-01,6.487696170806884766e-01,4.016214311122894287e-01,2.127029299736022949e-01,5.683152079582214355e-01,4.360346123576164246e-02,-3.328834176063537598e-01,4.800344407558441162e-01,5.790210962295532227e-01,1.025367751717567444e-01,3.600096106529235840e-01,-2.329083383083343506e-01,-2.402548640966415405e-01,1.418391168117523193e-01
6.445994377136230469e-01,6.850134730339050293e-01,1.287965476512908936e-01,1.712512671947479248e-01,5.476852059364318848e-01,2.174540907144546509e-01,-2.625602781772613525e-01,6.208509802818298340e-01,3.078884780406951904e-01,-1.216341853141784668e-01,2.967114448547363281e-01,-3.785433173179626465e-01,-2.515356540679931641e-01,1.339515596628189087e-01
4.009325504302978516e-01,5.950782299041748047e-01,3.828133940696716309e-01,2.824912369251251221e-01,4.992150664329528809e-01,2.096290886402130127e-01,-4.634164273738861084e-01,5.276954174041748047e-01,4.251172840595245361e-01,-1.230899170041084290e-01,2.616673111915588379e-01,-3.830800652503967285e-01,-2.925829589366912842e-01,2.260733768343925476e-02
4.485372304916381836e-01,7.125386595726013184e-01,3.744781017303466797e-01,3.005363643169403076e-01,4.037429690361022949e-01,2.322460561990737915e-01,-4.460588991641998291e-01,5.249040126800537109e-01,5.320283174514770508e-01,-3.527885377407073975e-01,2.764366269111633301e-01,-4.132716059684753418e-01,5.108296871185302734e-02,1.172855868935585022e-01
4.765090346336364746e-01,8.147507905960083008e-01,3.084105253219604492e-01,2.415984272956848145e-01,2.611127495765686035e-01,4.975458681583404541e-01,-4.731873273849487305e-01,4.366341829299926758e-01,5.500152111053466797e-01,-3.301093578338623047e-01,1.650199443101882935e-01,-3.913912773132324219e-01,-2.030577659606933594e-01,-1.013007760047912598e-02
4.011634290218353271e-01,6.523993015289306641e-01,3.748266100883483887e-01,2.891211509704589844e-01,3.473265767097473145e-01,3.676350712776184082e-01,-5.772954821586608887e-01,3.043733239173889160e-01,5.821032524108886719e-01,-5.547518730163574219e-01,8.960780501365661621e-02,-2.692774832248687744e-01,-5.925177782773971558e-02,7.393927127122879028e-02
4.076653420925140381e-01,6.470496058464050293e-01,4.248768389225006104e-01,4.668123126029968262e-01,3.241499364376068115e-01,2.216310799121856689e-01,-5.882447361946105957e-01,2.205008715391159058e-01,5.083613991737365723e-01,-5.614778995513916016e-01,-2.680508233606815338e-02,-1.385817825794219971e-01,-1.590349674224853516e-01,1.243534684181213379e-01
2.473217844963073730e-01,4.178227782249450684e-01,4.845331013202667236e-01,3.146180808544158936e-01,2.949576079845428467e-01,3.635771274566650391e-01,-5.261556506156921387e-01,1.230761110782623291e-01,4.672431051731109619e-01,-5.286839604377746582e-01,8.837763965129852295e-02,-4.697544872760772705e-01,2.064269781112670898e-01,1.996208280324935913e-01
7.114693522453308105e-02,4.386131763458251953e-01,2.377357631921768188e-01,3.843850195407867432e-01,3.066484332084655762e-01,2.976775467395782471e-01,-4.815301597118377686e-01,-2.818383090198040009e-02,3.675044476985931396e-01,-6.402691602706909180e-01,1.100583281368017197e-02,-2.049486935138702393e-01,-2.791525237262248993e-02,2.137745916843414307e-01
1.021107137203216553e-01,5.558112263679504395e-01,3.446630835533142090e-01,5.084898471832275391e-01,4.305566847324371338e-01,3.387840986251831055e-01,-5.611243844032287598e-01,-8.273543417453765869e-02,5.714199542999267578e-01,-5.452059507369995117e-01,-9.175361692905426025e-02,-4.425784647464752197e-01,4.081792430952191353e-04,3.820577859878540039e-01
1.976879239082336426e-01,4.483817219734191895e-01,8.924020081758499146e-02,4.612892270088195801e-01,3.885128200054168701e-01,4.735415279865264893e-01,-2.924056053161621094e-01,-2.155140787363052368e-01,4.360830783843994141e-01,-7.098672986030578613e-01,-3.809021115303039551e-01,-4.275487363338470459e-01,1.115785390138626099e-01,3.081489205360412598e-01
2.131941765546798706e-01,5.642191171646118164e-01,9.989765286445617676e-02,5.624693632125854492e-01,1.791822165250778198e-01,3.640987277030944824e-01,-4.019955694675445557e-01,-1.721826344728469849e-01,2.924337089061737061e-01,-5.555965304374694824e-01,-2.829309105873107910e-01,-2.744100689888000488e-01,-2.712782286107540131e-02,4.206475317478179932e-01
1.189167872071266174e-01,6.898403763771057129e-01,1.814749650657176971e-02,6.535326242446899414e-01,5.009321570396423340e-01,5.906310677528381348e-01,-2.792562842369079590e-01,-2.291378825902938843e-01,8.241747319698333740e-02,-5.394676923751831055e-01,-5.060880184173583984e-01,-3.923012614250183105e-01,-6.309313327074050903e-02,3.386865556240081787e-01
2.335307896137237549e-01,6.305271387100219727e-01,-8.467832580208778381e-03,4.643264412879943848e-01,6.165392398834228516e-01,6.758536100387573242e-01,-1.002235710620880127e-01,-2.899941802024841309e-01,4.015354514122009277e-01,-6.974267363548278809e-01,-5.438888669013977051e-01,-5.080863237380981445e-01,-1.506929248571395874e-01,5.223135352134704590e-01
1.855922937393188477e-01,4.554035961627960205e-01,-1.650408841669559479e-02,5.888766646385192871e-01,5.513867139816284180e-01,6.374533176422119141e-01,-2.537888586521148682e-01,-3.947260975837707520e-01,4.031848907470703125e-01,-4.416526556015014648e-01,-5.636252164840698242e-01,-4.628677666187286377e-01,-1.730092316865921021e-01,4.481559693813323975e-01
-1.580478101968765259e-01,4.974101483821868896e-01,-2.850078642368316650e-01,6.441486477851867676e-01,5.217243432998657227e-01,4.367821812629699707e-01,-5.322488397359848022e-02,-3.465978801250457764e-01,2.494450658559799194e-01,-5.286067128181457520e-01,-6.874879002571105957e-01,-4.773866236209869385e-01,-1.210120916366577148e-01,1.960840672254562378e-01
-2.082006186246871948e-01,6.255139112472534180e-01,-4.620800912380218506e-02,4.222904741764068604e-01,5.540546178817749023e-01,5.680888891220092773e-01,-2.315175905823707581e-02,-4.039339423179626465e-01,2.317951917648315430e-01,-5.093449950218200684e-01,-8.205465674400329590e-01,-5.204506516456604004e-01,-3.513450324535369873e-01,3.751632273197174072e-01
-4.170015156269073486e-01,7.447307109832763672e-01,-3.102672696113586426e-01,3.879173696041107178e-01,5.998615622520446777e-01,5.809354782104492188e-01,-2.360110878944396973e-01,-3.034213185310363770e-01,3.934479653835296631e-01,-5.444998145103454590e-01,-6.055986881256103516e-01,-7.514321804046630859e-01,-4.807918369770050049e-01,4.576095342636108398e-01
-4.853383600711822510e-01,7.466264367103576660e-01,-6.313248276710510254e-01,5.296134948730468750e-01,6.900028586387634277e-01,6.055461168289184570e-01,5.142514035105705261e-02,-3.696182072162628174e-01,4.640163481235504150e-01,-5.670195817947387695e-01,-7.185448408126831055e-01,-6.315105557441711426e-01,-4.904979169368743896e-01,4.940736293792724609e-01
-6.118133068084716797e-01,7.555115818977355957e-01,-4.644452929496765137e-01,3.906396329402923584e-01,4.671154618263244629e-01,7.050799131393432617e-01,1.081307902932167053e-01,-1.379043012857437134e-01,4.843351542949676514e-01,-4.264593124389648438e-01,-8.506914973258972168e-01,-4.125635921955108643e-01,-5.205082893371582031e-01,4.507327377796173096e-01
-2.814496755599975586e-01,6.702897548675537109e-01,-6.092694997787475586e-01,4.750179052352905273e-01,6.796582341194152832e-01,7.259199619293212891e-01,-1.802466996014118195e-02,-4.542404711246490479e-01,6.351867318153381348e-01,-4.461594521999359131e-01,-8.981831669807434082e-01,-6.253504753112792969e-01,-5.945973992347717285e-01,5.966811776161193848e-01
-1.596638113260269165e-01,6.052815914154052734e-01,-7.961695194244384766e-01,5.923492312431335449e-01,7.521488070487976074e-01,4.692889750003814697e-01,-4.272039979696273804e-02,-1.885696202516555786e-01,5.066362619400024414e-01,-4.688763022422790527e-01,-7.800623178482055664e-01,-4.055109918117523193e-01,-4.588492512702941895e-01,6.209548711776733398e-01
-4.452868700027465820e-01,6.752099394798278809e-01,-6.243569254875183105e-01,5.451751351356506348e-01,8.317998051643371582e-01,4.032206833362579346e-01,-6.042117625474929810e-02,-1.141673699021339417e-01,5.605576038360595703e-01,-3.704495429992675781e-01,-8.117340207099914551e-01,-4.358170032501220703e-01,-4.428394436836242676e-01,3.988403379917144775e-01
-4.391050636768341064e-01,7.594676613807678223e-01,-8.071730136871337891e-01,6.479500532150268555e-01,6.132548451423645020e-01,4.674002528190612793e-01,-2.292957603931427002e-01,4.293012246489524841e-02,5.678736567497253418e-01,-2.597646713256835938e-01,-6.340265870094299316e-01,-2.549481093883514404e-01,-4.965063929557800293e-01,5.663344264030456543e-01
-4.543426632881164551e-01,7.228605151176452637e-01,-5.758795142173767090e-01,8.862353563308715820e-01,6.824186444282531738e-01,2.106576412916183472e-01,-1.893542259931564331e-01,-1.372087299823760986e-01,6.074794530868530273e-01,-4.578922688961029053e-01,-6.180324554443359375e-01,-2.986184954643249512e-01,-3.094767034053802490e-01,4.861600995063781738e-01
-2.817268669605255127e-01,6.066090464591979980e-01,-5.756571888923645020e-01,5.865861177444458008e-01,6.240261793136596680e-01,2.750490307807922363e-01,-3.252455294132232666e-01,-1.174512878060340881e-01,5.637418627738952637e-01,-3.932834267616271973e-01,-4.251720607280731201e-01,-3.086601793766021729e-01,-2.662853300571441650e-01,6.983901858329772949e-01
-1.241999641060829163e-01,5.281795859336853027e-01,-5.231280326843261719e-01,6.240758895874023438e-01,5.375002622604370117e-01,1.056559905409812927e-01,-3.230955302715301514e-01,-2.338202204555273056e-03,5.482622981071472168e-01,-1.913586854934692383e-01,-6.624511480331420898e-01,-1.169803962111473083e-01,-2.913681864738464355e-01,4.242539405822753906e-01
-1.010652035474777222e-01,6.376100182533264160e-01,-5.506704449653625488e-01,5.148445963859558105e-01,4.967947304248809814e-01,4.866527765989303589e-02,-1.032643988728523254e-01,-7.067682594060897827e-02,5.111418962478637695e-01,-2.302851378917694092e-01,-5.518087744712829590e-01,-8.812876790761947632e-02,-3.051558136940002441e-01,2.715942263603210449e-01
-9.911353886127471924e-02,4.290203452110290527e-01,-4.092735946178436279e-01,3.637400269508361816e-01,4.934294819831848145e-01,2.275392860174179077e-01,-2.208199799060821533e-01,-2.248050123453140259e-01,5.526105165481567383e-01,-2.029036879539489746e-01,-5.424892306327819824e-01,1.049409434199333191e-01,-1.087348908185958862e-01,2.783917188644409180e-01
1.959263384342193604e-01,2.124465703964233398e-01,-4.727391004562377930e-01,3.565115630626678467e-01,7.073318362236022949e-01,-3.234382718801498413e-02,-3.412220180034637451e-01,-9.282674640417098999e-02,5.920749902725219727e-01,4.400121048092842102e-02,-5.422946810722351074e-01,-5.473761260509490967e-02,-5.849023535847663879e-02,4.170512259006500244e-01
-2.261561527848243713e-02,4.071365594863891602e-01,-5.894561409950256348e-01,2.596729993820190430e-01,6.024063825607299805e-01,8.580585569143295288e-02,-3.270412683486938477e-01,-1.689301729202270508e-01,4.317896962165832520e-01,-1.423248201608657837e-01,-4.141274392604827881e-01,9.293844550848007202e-02,-2.749958932399749756e-01,2.657489180564880371e-01
2.445553243160247803e-02,1.636172086000442505e-01,-3.321744501590728760e-01,4.044899046421051025e-01,7.584003806114196777e-01,-6.673880666494369507e-02,-2.924104928970336914e-01,-2.900803089141845703e-02,4.038532078266143799e-02,-1.152180656790733337e-01,-3.749199509620666504e-01,5.159009620547294617e-02,-5.215751752257347107e-02,4.133670628070831299e-01
-7.000970840454101562e-02,-4.603795707225799561e-02,-4.005555510520935059e-01,2.919985353946685791e-01,7.345371246337890625e-01,-2.437872588634490967e-01,-2.883588671684265137e-01,-3.828191161155700684e-01,1.478397566825151443e-02,2.154826745390892029e-02,-5.266333222389221191e-01,1.114324331283569336e-01,-8.957328647375106812e-02,-1.705671474337577820e-02
-6.759283691644668579e-02,3.500727936625480652e-02,-5.132479071617126465e-01,1.500411480665206909e-01,7.988882660865783691e-01,-2.501380741596221924e-01,-3.207284212112426758e-01,-5.526630952954292297e-02,3.983222320675849915e-02,2.410790175199508667e-01,-3.738158345222473145e-01,9.499643743038177490e-02,9.302864223718643188e-02,3.994076326489448547e-02
7.389583438634872437e-02,-7.789586484432220459e-02,-2.856242954730987549e-01,-1.092311218380928040e-01,7.326720356941223145e-01,-9.811846911907196045e-02,-4.559321999549865723e-01,-3.604310750961303711e-01,-1.218357160687446594e-01,3.926339372992515564e-02,-2.770678997039794922e-01,4.442544281482696533e-02,1.429953873157501221e-01,-1.985737979412078857e-01
3.902986645698547363e-02,-2.039020955562591553e-01,-4.561555087566375732e-01,-3.080029413104057312e-02,5.515004992485046387e-01,-2.293874621391296387e-01,-4.010333716869354248e-01,-3.035730421543121338e-01,-1.831012964248657227e-01,1.043721884489059448e-01,-4.830373823642730713e-01,1.277050375938415527e-01,1.369429528713226318e-01,-2.069564163684844971e-01
8.518512547016143799e-02,-3.483498096466064453e-01,-3.887646496295928955e-01,-2.064925432205200195e-01,4.622468948364257812e-01,-2.069399356842041016e-01,-4.788393080234527588e-01,-3.889282941818237305e-01,-3.354881405830383301e-01,-2.327491156756877899e-02,-3.821176588535308838e-01,2.023219019174575806e-01,1.316241323947906494e-01,-2.733452916145324707e-01
-1.862542354501783848e-03,-4.327148497104644775e-01,-5.540058612823486328e-01,5.098778754472732544e-02,5.878125429153442383e-01,-1.534062474966049194e-01,-6.286936402320861816e-01,-3.054919242858886719e-01,-2.019951939582824707e-01,6.555957347154617310e-02,-3.557506799697875977e-01,-1.439386755228042603e-01,2.574748694896697998e-01,-3.065634667873382568e-01
-5.076607316732406616e-02,-3.903858959674835205e-01,-5.625792145729064941e-01,-2.143651247024536133e-01,3.465771377086639404e-01,-5.769217852503061295e-03,-5.347693562507629395e-01,-3.964560329914093018e-01,-4.475976526737213135e-01,-2.034344375133514404e-01,-3.903372287750244141e-01,-1.418094187974929810e-01,3.121125698089599609e-01,-4.339819252490997314e-01
-1.724352687597274780e-01,-4.596761763095855713e-01,-4.949413537979125977e-01,-1.356613337993621826e-01,2.624056041240692139e-01,1.146043464541435242e-01,-8.737862706184387207e-01,-5.819038152694702148e-01,-4.769622087478637695e-01,-1.698077768087387085e-01,-4.120188057422637939e-01,-3.541393950581550598e-02,1.339671611785888672e-01,-5.092059969902038574e-01
1.145309419371187687e-03,-4.476649463176727295e-01,-4.560503959655761719e-01,-1.065563112497329712e-01,1.076436489820480347e-01,6.816393136978149414e-02,-6.009374260902404785e-01,-6.334875822067260742e-01,-4.825899302959442139e-01,-9.963252395391464233e-02,-2.826129198074340820e-01,-2.357251942157745361e-01,3.262411653995513916e-01,-4.804680049419403076e-01
-6.956714391708374023e-02,-4.919191598892211914e-01,-5.521649122238159180e-01,-7.551373541355133057e-02,2.256117612123489380e-01,1.141946837306022644e-01,-9.696009755134582520e-01,-3.974286615848541260e-01,-4.392792880535125732e-01,-1.830418705940246582e-01,-4.253818094730377197e-01,-1.523020863533020020e-01,4.104664921760559082e-01,-3.473538160324096680e-01
-1.822203993797302246e-01,-4.345228970050811768e-01,-5.151528120040893555e-01,1.947308480739593506e-01,9.490749798715114594e-03,3.198828548192977905e-02,-8.494125604629516602e-01,-6.445331573486328125e-01,-4.686670303344726562e-01,-3.344408571720123291e-01,-1.313116252422332764e-01,-2.377716898918151855e-01,4.223155379295349121e-01,-4.150220453739166260e-01
-1.680704355239868164e-01,-2.475063353776931763e-01,-4.238326251506805420e-01,1.865408867597579956e-01,1.324340403079986572e-01,7.988029718399047852e-02,-9.557316899299621582e-01,-5.704123377799987793e-01,-4.617571234703063965e-01,-5.192884206771850586e-01,-2.492631524801254272e-01,-1.949428915977478027e-01,4.989890456199645996e-01,-3.579171597957611084e-01
-2.476027458906173706e-01,-3.505595326423645020e-01,-5.197019577026367188e-01,2.190503329038619995e-01,-6.744592636823654175e-02,1.016406565904617310e-01,-8.825254440307617188e-01,-4.557840526103973389e-01,-5.368319153785705566e-01,-3.913701772689819336e-01,-2.377625703811645508e-01,-1.962811052799224854e-01,5.350596308708190918e-01,-4.170360267162322998e-01
-1.235986351966857910e-01,-2.324637770652770996e-01,-6.496492028236389160e-01,2.999590337276458740e-01,-2.074483186006546021e-01,-4.058250784873962402e-02,-7.198016643524169922e-01,-8.382731676101684570e-01,-3.946140706539154053e-01,-6.415302157402038574e-01,-2.863935530185699463e-01,-2.548489272594451904e-01,3.136662840843200684e-01,-3.088857829570770264e-01
-4.472790658473968506e-01,-3.447657227516174316e-01,-2.373412847518920898e-01,4.262021481990814209e-01,-1.351317465305328369e-01,9.474533796310424805e-02,-7.254071831703186035e-01,-5.584421753883361816e-01,-3.831868767738342285e-01,-4.493702352046966553e-01,-3.461204171180725098e-01,-3.600765466690063477e-01,6.627129912376403809e-01,-4.450204074382781982e-01
-2.987855970859527588e-01,-3.375159204006195068e-01,-4.608147442340850830e-01,3.108626902103424072e-01,-3.865995109081268311e-01,1.189973670989274979e-02,-8.144876360893249512e-01,-7.864599227905273438e-01,-5.288615822792053223e-01,-4.161343574523925781e-01,-3.441741168498992920e-01,-2.123816758394241333e-01,5.175688862800598145e-01,-3.830811977386474609e-01
-9.774573147296905518e-02,-3.861974477767944336e-01,-4.990009665489196777e-01,3.867983818054199219e-01,-3.077370226383209229e-01,-5.323807708919048309e-03,-7.035213708877563477e-01,-8.003723621368408203e-01,-3.819981813430786133e-01,-4.268763959407806396e-01,-3.225634098052978516e-01,-2.328801155090332031e-01,6.015489697456359863e-01,-4.015438258647918701e-01
-1.182244494557380676e-01,-4.274935722351074219e-01,-3.916794359683990479e-01,2.790310680866241455e-01,-2.350575327873229980e-01,-8.302519470453262329e-02,-7.702104449272155762e-01,-1.021599888801574707e+00,-3.753647208213806152e-01,-3.885396420955657959e-01,-1.525343656539916992e-01,-1.334835290908813477e-01,5.788090825080871582e-01,-1.725752055644989014e-01
9.974998235702514648e-02,-3.899482786655426025e-01,-4.609774053096771240e-01,1.004012823104858398e-01,-4.558628499507904053e-01,-5.343384668231010437e-02,-5.323887467384338379e-01,-8.712480664253234863e-01,-2.994453608989715576e-01,-5.549101233482360840e-01,-3.897725343704223633e-01,-3.702699393033981323e-02,4.578496813774108887e-01,-1.573066115379333496e-01
-6.601078808307647705e-02,-2.517939507961273193e-01,-7.610129117965698242e-01,2.741288542747497559e-01,-1.734317690134048462e-01,3.825136274099349976e-02,-9.005783796310424805e-01,-1.001389384269714355e+00,-5.961827635765075684e-01,-1.433756649494171143e-01,-3.627682328224182129e-01,-5.213809385895729065e-02,4.089615941047668457e-01,-2.555202543735504150e-01
-2.289196401834487915e-01,-1.834329664707183838e-01,-5.378144383430480957e-01,1.788026690483093262e-01,-2.370580285787582397e-01,-2.366790771484375000e-01,-5.106135010719299316e-01,-5.121605992317199707e-01,-2.244680076837539673e-01,-2.878436148166656494e-01,-4.332431256771087646e-01,-8.189341984689235687e-03,2.875814735889434814e-01,-4.335822165012359619e-01
-1.566532552242279053e-01,-1.228689625859260559e-01,-5.773822069168090820e-01,2.027271240949630737e-01,-1.544107943773269653e-01,-9.197065234184265137e-02,-4.052665829658508301e-01,-9.982910752296447754e-01,-4.640280604362487793e-01,-1.635045558214187622e-01,-5.763592720031738281e-01,6.763297319412231445e-02,3.478938937187194824e-01,-5.419349670410156250e-01
-8.063084632158279419e-02,-5.082061886787414551e-02,-7.062945365905761719e-01,6.714663654565811157e-02,-1.108201295137405396e-01,-1.789688616991043091e-01,-3.998225629329681396e-01,-7.277981042861938477e-01,-4.144786596298217773e-01,-2.261140346527099609e-01,-4.845871031284332275e-01,1.087731793522834778e-01,3.990626335144042969e-01,-3.146660625934600830e-01
-1.274105608463287354e-01,-2.306552678346633911e-01,-6.236236095428466797e-01,-8.612038940191268921e-02,-1.154838651418685913e-01,-2.740314602851867676e-01,-2.833305895328521729e-01,-6.829258203506469727e-01,-5.285698175430297852e-01,7.457081973552703857e-02,-4.635583460330963135e-01,3.039079159498214722e-02,3.069164156913757324e-01,-4.827160239219665527e-01
-2.723775804042816162e-01,-3.128870129585266113e-01,-7.148848772048950195e-01,9.288550168275833130e-02,3.691341355443000793e-02,-2.447393387556076050e-01,-1.656981408596038818e-01,-6.511062383651733398e-01,-4.167452156543731689e-01,-8.201675862073898315e-02,-1.868326365947723389e-01,4.440780356526374817e-02,2.205896228551864624e-01,-5.993497371673583984e-01
1.003578975796699524e-01,-9.849443286657333374e-02,-6.522147059440612793e-01,1.244079321622848511e-01,1.360207051038742065e-01,3.273254726082086563e-03,-4.209746122360229492e-01,-6.541498303413391113e-01,-3.767628371715545654e-01,5.887477844953536987e-02,-3.588325083255767822e-01,1.226677596569061279e-01,1.000142320990562439e-01,-5.670513510704040527e-01
7.105412334203720093e-02,4.147947207093238831e-02,-7.429556846618652344e-01,-1.405503451824188232e-01,6.531821191310882568e-02,-1.740260869264602661e-01,-2.828519046306610107e-01,-4.982159733772277832e-01,-2.210596948862075806e-01,1.137929558753967285e-01,-1.394059807062149048e-01,6.487877666950225830e-02,1.574374735355377197e-01,-4.133270084857940674e-01
7.400985062122344971e-02,8.556197583675384521e-02,-6.256806850433349609e-01,-1.155832223594188690e-02,-1.076155081391334534e-01,-6.150580942630767822e-02,-1.784567385911941528e-01,-4.627474546432495117e-01,-2.687269151210784912e-01,1.408819556236267090e-01,-3.663534820079803467e-01,2.211267352104187012e-01,3.085426390171051025e-01,-5.677860975265502930e-01
1.596197634935379028e-01,5.547335743904113770e-02,-4.975992441177368164e-01,-2.179876863956451416e-01,-5.975652486085891724e-02,-1.975038945674896240e-01,-3.552575707435607910e-01,-3.181644976139068604e-01,-1.761447042226791382e-01,1.831599138677120209e-02,-1.693335324525833130e-01,2.501450479030609131e-01,3.018589913845062256e-01,-4.796022474765777588e-01
1.285567879676818848e-01,-1.246961858123540878e-02,-5.836617350578308105e-01,-2.707819640636444092e-02,2.987035550177097321e-02,-3.305843174457550049e-01,-3.894928991794586182e-01,-3.268192708492279053e-01,-3.893434405326843262e-01,1.423589885234832764e-01,4.406802356243133545e-02,2.657240331172943115e-01,2.178600728511810303e-01,-6.048858165740966797e-01
1.907370537519454956e-01,1.162194758653640747e-01,-4.809883832931518555e-01,-1.350277811288833618e-01,9.258441627025604248e-02,-1.789779663085937500e-01,-4.296675920486450195e-01,-4.051770567893981934e-01,-1.813488155603408813e-01,2.978106029331684113e-03,1.048151403665542603e-01,4.827422499656677246e-01,2.359055876731872559e-01,-4.899294972419738770e-01
2.125003337860107422e-01,8.873552829027175903e-02,-2.926558554172515869e-01,-3.046784698963165283e-01,-4.449175670742988586e-02,-3.470479547977447510e-01,-3.869935572147369385e-01,-3.040369749069213867e-01,-2.535472512245178223e-01,-2.672698348760604858e-02,2.748652696609497070e-01,5.769665837287902832e-01,2.482904046773910522e-01,-5.308931469917297363e-01
3.565392494201660156e-01,-1.517779827117919922e-01,-3.036865592002868652e-01,-4.078921675682067871e-01,-3.325861319899559021e-02,-2.440023720264434814e-01,-4.070022106170654297e-01,-2.724768035113811493e-02,4.098981618881225586e-02,9.608136862516403198e-02,3.391945064067840576e-01,4.574267566204071045e-01,4.654194116592407227e-01,-6.237381696701049805e-01
7.015478610992431641e-01,5.777171626687049866e-02,-7.917468249797821045e-02,-2.520326077938079834e-01,7.145607471466064453e-02,-4.993118941783905029e-01,-3.508187234401702881e-01,-2.763092815876007080e-01,-1.751215010881423950e-01,4.791588522493839264e-03,4.424136579036712646e-01,6.775978803634643555e-01,8.000051379203796387e-01,-5.884855985641479492e-01
5.200215578079223633e-01,1.266087144613265991e-01,6.317395251244306564e-03,-5.087839365005493164e-01,-2.042713947594165802e-02,-4.608383178710937500e-01,-3.580950796604156494e-01,-5.931119993329048157e-02,-2.564026415348052979e-01,2.902062609791755676e-02,2.363110780715942383e-01,7.079796195030212402e-01,5.289768576622009277e-01,-9.115393161773681641e-01
5.889377593994140625e-01,6.766930222511291504e-02,1.057214438915252686e-01,-4.508710503578186035e-01,6.344707682728767395e-03,-5.060061812400817871e-01,-3.102811574935913086e-01,-1.036577075719833374e-01,-1.724602431058883667e-01,2.445132881402969360e-01,5.234537124633789062e-01,7.146121263504028320e-01,7.538325190544128418e-01,-6.699960231781005859e-01
6.260809898376464844e-01,8.217289112508296967e-03,-8.793015778064727783e-02,-4.092930257320404053e-01,1.044509559869766235e-01,-2.823665142059326172e-01,-2.277671247720718384e-01,-1.858742535114288330e-01,-3.807655572891235352e-01,1.096098124980926514e-01,7.721340060234069824e-01,7.744939327239990234e-01,8.726385235786437988e-01,-7.909191250801086426e-01
6.980009675025939941e-01,-4.415567032992839813e-03,1.732863932847976685e-01,-5.316932201385498047e-01,1.268286406993865967e-01,-3.364976942539215088e-01,-5.744683146476745605e-01,-1.418546140193939209e-01,-4.815755486488342285e-01,1.310113910585641861e-02,6.267712712287902832e-01,7.594541311264038086e-01,7.690121531486511230e-01,-7.314310669898986816e-01
7.979664206504821777e-01,-1.850807517766952515e-01,2.250151634216308594e-01,-6.911116838455200195e-01,1.343223601579666138e-01,-2.408903986215591431e-01,-2.958495616912841797e-01,-3.555869460105895996e-01,-5.520917177200317383e-01,1.362445503473281860e-01,5.786918401718139648e-01,8.503671884536743164e-01,7.063597440719604492e-01,-7.667736411094665527e-01
7.662055492401123047e-01,-1.762110143899917603e-01,2.423981279134750366e-01,-6.455627679824829102e-01,1.784249581396579742e-02,-8.163525164127349854e-02,-2.168571650981903076e-01,-3.893337845802307129e-01,-5.393769741058349609e-01,1.192755177617073059e-01,6.639094948768615723e-01,8.851721882820129395e-01,7.941608428955078125e-01,-9.637775421142578125e-01
4.441910386085510254e-01,-8.125683665275573730e-02,5.172464251518249512e-01,-9.750466942787170410e-01,1.310029476881027222e-01,-3.016360998153686523e-01,-2.419811040163040161e-01,-3.582531511783599854e-01,-5.954633951187133789e-01,-5.492901802062988281e-02,4.799506366252899170e-01,8.947026729583740234e-01,8.315589427947998047e-01,-8.410067558288574219e-01
5.505783557891845703e-01,-2.935142815113067627e-01,1.750900745391845703e-01,-7.231359481811523438e-01,1.791739761829376221e-01,-4.507311582565307617e-01,-2.470108121633529663e-01,-6.501931548118591309e-01,-4.371077120304107666e-01,-1.350862532854080200e-01,5.068488121032714844e-01,8.843360543251037598e-01,8.291697502136230469e-01,-9.281162023544311523e-01
6.168778538703918457e-01,-3.579494655132293701e-01,3.604718744754791260e-01,-6.304455399513244629e-01,1.198405027389526367e-01,-1.910867244005203247e-01,-3.113688528537750244e-01,-3.911196291446685791e-01,-8.706586360931396484e-01,-6.515882164239883423e-02,2.828913331031799316e-01,8.476092815399169922e-01,1.036149144172668457e+00,-8.248742818832397461e-01
5.140863656997680664e-01,-3.521538674831390381e-01,2.191039770841598511e-01,-8.371948003768920898e-01,-5.416266620159149170e-02,-6.683047115802764893e-02,-3.157562017440795898e-01,-4.147151410579681396e-01,-9.863954782485961914e-01,1.004860773682594299e-01,1.499940007925033569e-01,7.378879189491271973e-01,7.261334657669067383e-01,-1.055388212203979492e+00
2.123834341764450073e-01,-3.509650826454162598e-01,6.323790550231933594e-02,-6.919539570808410645e-01,6.215448305010795593e-02,-7.571791112422943115e-02,-2.297116070985794067e-01,-4.927834570407867432e-01,-9.139567613601684570e-01,-4.188684374094009399e-02,3.879344463348388672e-01,6.649301648139953613e-01,6.899915337562561035e-01,-9.801920652389526367e-01
2.668893337249755859e-01,-5.985040068626403809e-01,2.474287748336791992e-01,-7.162997126579284668e-01,6.415225565433502197e-02,2.579432129859924316e-01,-2.099629938602447510e-01,-4.165276885032653809e-01,-9.587019085884094238e-01,-2.759524881839752197e-01,2.902211546897888184e-01,6.679831743240356445e-01,7.915589213371276855e-01,-1.034574985504150391e+00
2.354447543621063232e-01,-4.191299676895141602e-01,2.877281904220581055e-01,-5.005105733871459961e-01,9.172189980745315552e-02,1.663879603147506714e-01,-1.603920906782150269e-01,-4.951367974281311035e-01,-6.705982685089111328e-01,-1.259456872940063477e-01,1.911761015653610229e-01,5.973812937736511230e-01,6.934006214141845703e-01,-8.257425427436828613e-01
1.564612686634063721e-01,-1.300030648708343506e-01,1.596064865589141846e-01,-4.415481686592102051e-01,-8.153186179697513580e-03,4.064715206623077393e-01,-1.101708710193634033e-01,-5.039479136466979980e-01,-8.019375205039978027e-01,-2.043617516756057739e-01,1.310900151729583740e-01,5.271349549293518066e-01,5.472857356071472168e-01,-9.439335465431213379e-01
3.943865001201629639e-02,4.488567635416984558e-02,2.353218197822570801e-01,-6.090705394744873047e-01,-2.045610696077346802e-01,5.421597361564636230e-01,-1.697828471660614014e-01,-3.460638821125030518e-01,-6.627583503723144531e-01,-3.520733416080474854e-01,1.091552004218101501e-01,5.724676847457885742e-01,5.109597444534301758e-01,-8.566623330116271973e-01
3.960622474551200867e-02,-1.504103988409042358e-01,8.152256906032562256e-02,-4.115610122680664062e-01,-9.167625755071640015e-02,4.193516969680786133e-01,-8.559729158878326416e-02,-5.249519944190979004e-01,-6.755794286727905273e-01,-2.376152575016021729e-01,2.249670475721359253e-01,4.407415091991424561e-01,4.937210977077484131e-01,-6.000968813896179199e-01
1.952847540378570557e-01,1.085751652717590332e-01,1.576671302318572998e-01,-3.896580636501312256e-01,-7.782491855323314667e-03,5.475463271141052246e-01,-1.106893941760063171e-01,-3.565088808536529541e-01,-5.701776146888732910e-01,-3.976390957832336426e-01,2.742742896080017090e-01,5.776644349098205566e-01,4.501384496688842773e-01,-5.911400318145751953e-01
-7.964672148227691650e-02,3.406960964202880859e-01,-9.071484208106994629e-03,-4.988516867160797119e-01,-1.164508908987045288e-01,7.727681994438171387e-01,7.009555120021104813e-03,-5.592942237854003906e-01,-5.375867486000061035e-01,-2.900231480598449707e-01,1.353060007095336914e-01,3.860331475734710693e-01,3.352571427822113037e-01,-5.296413302421569824e-01
-1.047910004854202271e-01,2.021080702543258667e-01,-4.400510340929031372e-03,-2.507252991199493408e-01,-3.220389783382415771e-02,7.857476472854614258e-01,-2.610825747251510620e-02,-5.002294778823852539e-01,-4.979360997676849365e-01,-1.412531584501266479e-01,1.311455219984054565e-01,4.032985866069793701e-01,2.557890117168426514e-01,-4.391424357891082764e-01
-1.466192156076431274e-01,2.403763830661773682e-01,8.442671597003936768e-02,-3.368425369262695312e-01,-3.276381492614746094e-01,6.783874630928039551e-01,1.560368984937667847e-01,-4.970530271530151367e-01,-2.949898540973663330e-01,-4.535667002201080322e-01,6.952268630266189575e-02,1.618626713752746582e-01,2.316768020391464233e-01,-4.153468310832977295e-01
1.295887082815170288e-01,3.614878356456756592e-01,2.626281976699829102e-02,-1.320310533046722412e-01,-4.464976117014884949e-02,7.952716946601867676e-01,2.248730212450027466e-01,-5.803813934326171875e-01,-2.441622763872146606e-01,-3.072037398815155029e-01,-1.863242499530315399e-02,2.666712105274200439e-01,1.677993088960647583e-01,-2.511887848377227783e-01
1.536898016929626465e-01,3.344064652919769287e-01,1.140586212277412415e-01,-1.021134108304977417e-01,4.740510135889053345e-03,6.063633561134338379e-01,1.571097075939178467e-01,-7.037301063537597656e-01,-1.863008290529251099e-01,-2.974461615085601807e-01,7.481880486011505127e-02,4.297850728034973145e-01,2.034458518028259277e-01,3.472999110817909241e-02
5.477055162191390991e-02,5.798413753509521484e-01,7.443892955780029297e-02,-1.872629821300506592e-01,9.097107686102390289e-03,5.643057227134704590e-01,4.139106571674346924e-01,-4.816730618476867676e-01,-3.967000544071197510e-01,-2.415758967399597168e-01,-2.762155234813690186e-01,3.813445270061492920e-01,1.744295805692672729e-01,5.829135701060295105e-02
8.780119568109512329e-02,4.193978607654571533e-01,8.482583798468112946e-03,-1.542712748050689697e-01,1.153905689716339111e-01,7.921243906021118164e-01,3.024263381958007812e-01,-4.218816757202148438e-01,-3.602799773216247559e-02,-1.678456217050552368e-01,-5.669276788830757141e-02,4.668557941913604736e-01,2.288092672824859619e-01,6.734776496887207031e-02
6.749251484870910645e-02,2.765283882617950439e-01,6.131009757518768311e-02,5.013491958379745483e-02,1.340535581111907959e-01,8.425946831703186035e-01,4.458754956722259521e-01,-4.958390593528747559e-01,-1.099424734711647034e-01,-5.664829164743423462e-03,-1.492877583950757980e-02,5.873132944107055664e-01,1.140569671988487244e-01,4.966080561280250549e-02
-1.135750487446784973e-02,4.112100601196289062e-01,-3.917410224676132202e-02,-2.469646632671356201e-01,1.852690130472183228e-01,6.728468537330627441e-01,6.177616715431213379e-01,-3.748239278793334961e-01,-1.189591363072395325e-01,-1.453240662813186646e-01,-2.483014464378356934e-01,6.826042532920837402e-01,-7.704012095928192139e-02,1.566456854343414307e-01
8.716364204883575439e-02,3.198340237140655518e-01,7.428320497274398804e-02,-1.774825602769851685e-01,2.879937291145324707e-01,6.569009423255920410e-01,7.789182066917419434e-01,-1.724075376987457275e-01,-7.211711257696151733e-02,-4.999224096536636353e-02,-2.239295095205307007e-01,6.011516451835632324e-01,1.601214855909347534e-01,1.846151649951934814e-01
1.671633124351501465e-01,2.915902733802795410e-01,-4.750074073672294617e-02,-1.382729560136795044e-01,5.323510766029357910e-01,4.957122206687927246e-01,7.659280896186828613e-01,-2.752451896667480469e-01,-1.839919239282608032e-01,7.825457304716110229e-02,-2.182508856058120728e-01,6.972317695617675781e-01,-5.453114584088325500e-02,-7.416327297687530518e-02
1.023076027631759644e-01,2.702795267105102539e-01,3.522075340151786804e-02,2.084943279623985291e-02,6.921348571777343750e-01,5.616874098777770996e-01,6.231497526168823242e-01,-2.946378588676452637e-01,-3.727988898754119873e-01,2.273073643445968628e-01,-4.483467936515808105e-01,5.790368914604187012e-01,-2.939417362213134766e-01,7.944871485233306885e-02
2.915257215499877930e-01,4.141744375228881836e-01,6.805688142776489258e-02,-1.790961772203445435e-01,5.563911199569702148e-01,5.280153155326843262e-01,7.789515852928161621e-01,-2.157945930957794189e-01,-2.980173528194427490e-01,2.349553555250167847e-01,-1.910091936588287354e-01,7.240484356880187988e-01,-1.393199563026428223e-01,-1.418754309415817261e-01
1.765855103731155396e-01,4.887551963329315186e-01,6.984844803810119629e-02,-2.002869844436645508e-01,6.532725691795349121e-01,5.752189755439758301e-01,1.015376567840576172e+00,-1.737632229924201965e-02,-2.321538478136062622e-01,3.318136036396026611e-01,-3.466342687606811523e-01,5.706121325492858887e-01,-4.045487940311431885e-01,-2.802505195140838623e-01
7.708801329135894775e-02,2.627279460430145264e-01,8.942525088787078857e-02,-2.440290004014968872e-01,6.403788328170776367e-01,5.512073040008544922e-01,6.833943128585815430e-01,-9.929006546735763550e-02,-4.724460467696189880e-02,2.956669926643371582e-01,-1.063054949045181274e-01,4.774759113788604736e-01,-3.374308347702026367e-01,1.097452268004417419e-01
2.202980369329452515e-01,3.160155117511749268e-01,2.245515733957290649e-01,-2.703011631965637207e-01,5.858107805252075195e-01,6.190793514251708984e-01,7.617942094802856445e-01,6.986062228679656982e-02,-4.040475785732269287e-01,5.605964660644531250e-01,-1.969381868839263916e-01,2.407415509223937988e-01,-4.086213707923889160e-01,-3.698966652154922485e-02
1.521923393011093140e-01,3.136671483516693115e-01,1.358032375574111938e-01,-2.097887098789215088e-01,6.137679815292358398e-01,6.167574524879455566e-01,6.008750796318054199e-01,-4.719329625368118286e-02,-2.743896245956420898e-01,4.718100726604461670e-01,4.838003218173980713e-02,5.328202247619628906e-01,-2.512656748294830322e-01,4.371897876262664795e-02
1.184646114706993103e-01,3.044545352458953857e-01,2.638361155986785889e-01,-2.028890550136566162e-01,7.683230638504028320e-01,6.518607735633850098e-01,6.238636374473571777e-01,2.115071564912796021e-01,-3.991175442934036255e-02,4.587852060794830322e-01,-1.213931664824485779e-01,5.074984431266784668e-01,-5.224674344062805176e-01,-3.093144856393337250e-02
3.392958641052246094e-01,3.847657740116119385e-01,1.297281235456466675e-01,-3.870009481906890869e-01,6.809736490249633789e-01,6.733323335647583008e-01,6.087721586227416992e-01,3.059377148747444153e-02,-2.959625124931335449e-01,3.158366084098815918e-01,3.610734269022941589e-02,7.186568975448608398e-01,-2.263787835836410522e-01,-8.927615731954574585e-02
3.108762502670288086e-01,2.120126932859420776e-01,1.619705110788345337e-01,-2.649229466915130615e-01,5.592232942581176758e-01,6.044326424598693848e-01,5.145598649978637695e-01,4.898651838302612305e-01,-2.300761789083480835e-01,2.987109124660491943e-01,-8.549579232931137085e-02,4.244284629821777344e-01,-3.119304180145263672e-01,-5.278518423438072205e-02
1.350643336772918701e-01,2.313327938318252563e-01,3.329914510250091553e-01,-3.072679974138736725e-03,5.489380359649658203e-01,6.273539662361145020e-01,4.094381928443908691e-01,1.060146018862724304e-01,-1.136400848627090454e-01,1.872814609669148922e-03,-7.333736866712570190e-02,4.687113165855407715e-01,-1.731593012809753418e-01,-1.687555462121963501e-01
1.571831703186035156e-01,3.723011910915374756e-01,3.355592191219329834e-01,7.806564122438430786e-02,5.623133182525634766e-01,5.204114317893981934e-01,2.036798149347305298e-01,1.989602595567703247e-01,-2.321836203336715698e-01,1.247529014945030212e-01,2.379713654518127441e-01,4.240898489952087402e-01,-9.751339256763458252e-02,-2.676720619201660156e-01
4.091725349426269531e-01,1.202071011066436768e-01,3.192801773548126221e-01,-2.735650837421417236e-01,5.890241265296936035e-01,7.458291053771972656e-01,5.034315586090087891e-01,2.770719528198242188e-01,-2.661308348178863525e-01,-4.517364501953125000e-02,1.507349759340286255e-01,2.977437973022460938e-01,-5.727794766426086426e-02,-1.755670085549354553e-02
5.082047581672668457e-01,7.397434115409851074e-02,6.269615888595581055e-01,9.282447397708892822e-02,6.711496114730834961e-01,4.821211695671081543e-01,4.799913465976715088e-01,2.341116070747375488e-01,-4.817842245101928711e-01,-4.883473366498947144e-02,3.629111498594284058e-02,2.501923143863677979e-01,6.244687363505363464e-03,-1.246074587106704712e-01
2.808485925197601318e-01,-9.612459689378738403e-02,3.732478618621826172e-01,-1.732599884271621704e-01,3.949751555919647217e-01,5.802149176597595215e-01,2.975083291530609131e-01,1.481852829456329346e-01,-4.395704865455627441e-01,-1.807864308357238770e-01,1.394781619310379028e-01,4.095246493816375732e-01,1.314203590154647827e-01,-2.247724533081054688e-01
3.154087662696838379e-01,-3.205325305461883545e-01,6.768829226493835449e-01,-9.238979220390319824e-02,5.095978975296020508e-01,4.460252225399017334e-01,2.016536146402359009e-01,1.314673870801925659e-01,-3.495873510837554932e-01,-1.237827092409133911e-01,7.036309689283370972e-02,1.845269948244094849e-01,4.772450402379035950e-02,-8.197440207004547119e-02
3.714281022548675537e-01,-2.018066197633743286e-01,6.824584603309631348e-01,-2.123266458511352539e-01,5.172434449195861816e-01,4.381125569343566895e-01,2.301294952630996704e-01,1.050510406494140625e-01,-4.768503606319427490e-01,-9.601139277219772339e-02,-6.267651915550231934e-02,3.086614012718200684e-01,2.465514540672302246e-01,-1.465284824371337891e-01
3.424957394599914551e-01,-4.212754368782043457e-01,6.538618206977844238e-01,-9.549146145582199097e-02,3.929418027400970459e-01,2.224405407905578613e-01,1.045714467763900757e-01,9.051204472780227661e-02,-4.026020765304565430e-01,-3.201004266738891602e-01,2.018747925758361816e-01,2.647398710250854492e-01,7.989081740379333496e-02,-3.795955702662467957e-02
3.444724977016448975e-01,-2.927393615245819092e-01,5.101159811019897461e-01,2.366666644811630249e-01,3.338734805583953857e-01,5.759204030036926270e-01,1.952224820852279663e-01,7.632550597190856934e-02,-4.225597083568572998e-01,-3.309716284275054932e-01,-8.259343355894088745e-02,1.595868468284606934e-01,1.257361173629760742e-01,-1.847141981124877930e-01
2.168631851673126221e-01,-8.609773218631744385e-02,6.051670312881469727e-01,3.436695411801338196e-02,2.635290920734405518e-01,5.664483904838562012e-01,2.188951671123504639e-01,-6.961002200841903687e-02,-3.727384507656097412e-01,-2.727809548377990723e-01,-1.486579030752182007e-01,9.560250677168369293e-03,3.135317265987396240e-01,-1.725291013717651367e-01
1.914577037096023560e-01,-1.877743303775787354e-01,5.880662202835083008e-01,9.489495307207107544e-02,3.634080290794372559e-01,5.487357974052429199e-01,4.250884652137756348e-01,-6.150485947728157043e-02,-5.686197876930236816e-01,-2.702012658119201660e-01,-2.251589149236679077e-01,4.215200617909431458e-02,9.926748275756835938e-02,-2.622793614864349365e-01
4.129655286669731140e-02,-2.601431906223297119e-01,7.802355885505676270e-01,9.240686148405075073e-02,3.079402148723602295e-01,6.656107902526855469e-01,1.168454885482788086e-01,-1.147797424346208572e-02,-4.244532585144042969e-01,-2.524600028991699219e-01,-4.712334275245666504e-01,-5.201746150851249695e-02,6.752306222915649414e-02,-2.516166567802429199e-01
4.435857385396957397e-02,-3.433850109577178955e-01,5.334311127662658691e-01,1.864834874868392944e-01,1.820861399173736572e-01,6.725063920021057129e-01,2.994486689567565918e-01,-1.554092615842819214e-01,-3.283742964267730713e-01,-2.342315912246704102e-01,-2.522871792316436768e-01,-2.223732322454452515e-01,-1.407798379659652710e-01,-2.560953497886657715e-01
-1.323541402816772461e-01,-3.988455235958099365e-01,5.127209424972534180e-01,2.120779681717976928e-04,2.584978938102722168e-01,6.552560329437255859e-01,1.680413186550140381e-01,7.241828739643096924e-02,-3.818416297435760498e-01,-5.444126725196838379e-01,-4.419470429420471191e-01,-1.623609662055969238e-01,-2.162415161728858948e-02,-4.953688755631446838e-02
-2.725243270397186279e-01,-3.745968937873840332e-01,2.770110368728637695e-01,1.781131327152252197e-01,2.137783169746398926e-01,8.867170214653015137e-01,1.331996321678161621e-01,-1.215813905000686646e-01,-4.518366158008575439e-01,-5.130644440650939941e-01,-4.213597774505615234e-01,-3.658892214298248291e-01,-1.429826021194458008e-01,-7.122284919023513794e-02
-2.136300206184387207e-01,-3.484519720077514648e-01,4.286355376243591309e-01,3.057357668876647949e-01,2.904750704765319824e-01,9.573670625686645508e-01,2.082861214876174927e-01,-4.558476805686950684e-02,-4.096507430076599121e-01,-5.045658946037292480e-01,-5.161802172660827637e-01,-3.002694249153137207e-01,5.234063044190406799e-02,-3.178387135267257690e-02
-2.922462224960327148e-01,9.542217850685119629e-02,2.974996268749237061e-01,1.385100781917572021e-01,2.870938181877136230e-01,8.833686709403991699e-01,3.101473748683929443e-01,6.699696183204650879e-02,-2.444812208414077759e-01,-7.831050157546997070e-01,-5.230842828750610352e-01,-5.347879528999328613e-01,-1.107187792658805847e-01,1.049450710415840149e-01
-4.628279507160186768e-01,-1.407233625650405884e-01,3.158210813999176025e-01,4.820658862590789795e-01,8.629967272281646729e-02,9.954336881637573242e-01,1.169468462467193604e-01,1.466969549655914307e-01,-3.196866214275360107e-01,-5.659457445144653320e-01,-5.437235832214355469e-01,-5.757350921630859375e-01,-8.295221626758575439e-02,-9.428358636796474457e-03
-5.938944816589355469e-01,1.675576530396938324e-02,1.987957209348678589e-01,4.330104589462280273e-01,1.346500515937805176e-01,6.907926201820373535e-01,1.562701463699340820e-01,1.432728022336959839e-01,-1.489955633878707886e-01,-5.967041850090026855e-01,-6.325503587722778320e-01,-5.108862519264221191e-01,-1.965024471282958984e-01,7.544611394405364990e-02
-3.384360373020172119e-01,2.588630318641662598e-01,1.413613259792327881e-01,5.694959759712219238e-01,3.589160144329071045e-01,7.937613725662231445e-01,3.244914487004280090e-02,2.632026672363281250e-01,-1.090904548764228821e-01,-5.647400617599487305e-01,-6.862300038337707520e-01,-3.918922841548919678e-01,-2.610866129398345947e-01,1.137014776468276978e-01
-3.776853084564208984e-01,1.396628916263580322e-01,2.849211990833282471e-01,5.464640855789184570e-01,1.978124976158142090e-01,8.390060663223266602e-01,1.811235100030899048e-01,3.286268115043640137e-01,-8.537908643484115601e-02,-6.073092818260192871e-01,-5.266657471656799316e-01,-5.155417323112487793e-01,-1.366183310747146606e-01,1.671046614646911621e-01
-4.679544866085052490e-01,2.373019605875015259e-01,1.324803531169891357e-01,6.072804331779479980e-01,2.059197276830673218e-01,7.024730443954467773e-01,3.064733445644378662e-01,3.223139643669128418e-01,2.119137644767761230e-01,-4.911088645458221436e-01,-4.517356157302856445e-01,-4.774864614009857178e-01,-6.704998761415481567e-02,9.380491822957992554e-02
-8.541458100080490112e-02,2.802953124046325684e-01,1.723277866840362549e-01,3.402999341487884521e-01,2.420388013124465942e-01,4.684905707836151123e-01,4.105120599269866943e-01,3.659284114837646484e-01,1.330780833959579468e-01,-7.722848057746887207e-01,-5.627631545066833496e-01,-3.941600918769836426e-01,-1.293391138315200806e-01,4.276449680328369141e-01
-4.334544241428375244e-01,3.489581644535064697e-01,4.306969940662384033e-01,4.954448044300079346e-01,3.193478286266326904e-01,6.937902569770812988e-01,2.633589506149291992e-01,4.124418795108795166e-01,4.234327673912048340e-01,-6.195183396339416504e-01,-3.186158835887908936e-01,-3.789503574371337891e-01,-1.887980103492736816e-01,2.893897593021392822e-01
-5.417761802673339844e-01,3.941555917263031006e-01,2.323752045631408691e-01,3.840034306049346924e-01,4.704041481018066406e-01,4.819674491882324219e-01,3.543703258037567139e-01,4.001660346984863281e-01,3.340973556041717529e-01,-6.786057949066162109e-01,-2.744034528732299805e-01,-2.132053673267364502e-01,1.870135404169559479e-02,2.890862822532653809e-01
-1.566823571920394897e-01,2.749184966087341309e-01,3.663824796676635742e-01,5.484250783920288086e-01,3.242206871509552002e-01,4.144328832626342773e-01,2.177853286266326904e-01,4.250454008579254150e-01,3.160745203495025635e-01,-5.116103291511535645e-01,-3.363463282585144043e-01,-8.915185183286666870e-02,7.023216038942337036e-02,3.572071790695190430e-01
-2.150499671697616577e-01,3.144411742687225342e-01,3.238144516944885254e-01,2.917237579822540283e-01,3.339251875877380371e-01,3.650534749031066895e-01,4.037361741065979004e-01,4.094428122043609619e-01,3.382333517074584961e-01,-5.857841372489929199e-01,-1.124816015362739563e-01,4.750116169452667236e-02,-1.573984026908874512e-01,1.987282782793045044e-01
7.335207425057888031e-03,3.065470457077026367e-01,1.841593384742736816e-01,2.667561769485473633e-01,4.409596920013427734e-01,3.003201782703399658e-01,2.896827459335327148e-01,3.816829323768615723e-01,2.605749368667602539e-01,-5.257988572120666504e-01,-2.452163100242614746e-01,-9.343195706605911255e-02,-7.323239743709564209e-02,2.361098229885101318e-01
-1.921184509992599487e-01,2.880921959877014160e-01,3.030634522438049316e-01,2.916267812252044678e-01,5.159024000167846680e-01,1.347538381814956665e-01,2.644636631011962891e-01,5.974602103233337402e-01,2.654602527618408203e-01,-3.897406458854675293e-01,-1.895416975021362305e-01,1.783744245767593384e-01,-4.881273955106735229e-02,1.153107956051826477e-01
-1.798449307680130005e-01,3.819938004016876221e-02,2.853082418441772461e-01,5.134512856602668762e-02,7.082123756408691406e-01,8.280209451913833618e-02,3.039149940013885498e-01,4.481607973575592041e-01,1.852664351463317871e-01,-4.348535537719726562e-01,-1.969189792871475220e-01,-5.347983166575431824e-02,9.863695502281188965e-02,1.635684818029403687e-01
-9.515883773565292358e-02,3.040946722030639648e-01,4.105743765830993652e-01,1.404659897089004517e-01,6.478918790817260742e-01,-9.433938190340995789e-03,3.430263102054595947e-01,5.270767211914062500e-01,1.776183396577835083e-01,-3.036395907402038574e-01,-2.291442602872848511e-01,5.835904274135828018e-03,3.269490227103233337e-02,-6.057256460189819336e-02
-1.514577120542526245e-01,8.173312246799468994e-02,4.036910831928253174e-01,1.269467622041702271e-01,6.660020947456359863e-01,1.744989454746246338e-01,2.251355350017547607e-01,6.286554932594299316e-01,2.714320123195648193e-01,-2.963100969791412354e-01,-2.768808603286743164e-01,2.477516233921051025e-01,6.006189808249473572e-02,-6.805958598852157593e-02
5.556042771786451340e-03,1.280903816223144531e-02,3.089160025119781494e-01,-5.499565228819847107e-02,7.641666531562805176e-01,-2.384448982775211334e-02,2.590859234333038330e-01,4.431689083576202393e-01,8.327938616275787354e-02,-3.414658308029174805e-01,-8.882333338260650635e-02,3.462557196617126465e-01,-1.299753487110137939e-01,-1.380490213632583618e-01
-8.955477178096771240e-02,-1.010007262229919434e-01,4.319797754287719727e-01,-2.286716401576995850e-01,6.384912729263305664e-01,-4.306425806134939194e-03,3.014989793300628662e-01,6.643147468566894531e-01,2.591372430324554443e-01,-2.891781628131866455e-01,-1.026723608374595642e-01,1.073436737060546875e-01,2.310079783201217651e-01,-2.419029027223587036e-01
-7.355904579162597656e-02,-2.228064239025115967e-01,3.940872848033905029e-01,-1.310396343469619751e-01,6.597290039062500000e-01,2.576925158500671387e-01,2.735808724537491798e-03,7.527998089790344238e-01,1.554680466651916504e-01,-3.253139853477478027e-01,-2.022131234407424927e-01,1.810390353202819824e-01,2.047380656003952026e-01,-2.521082162857055664e-01
-1.271153986454010010e-01,-1.351114660501480103e-01,5.862896442413330078e-01,-2.593685984611511230e-01,6.936497092247009277e-01,2.162949740886688232e-01,-5.655129998922348022e-02,6.046581268310546875e-01,1.437269598245620728e-01,-5.587144494056701660e-01,-4.051388055086135864e-02,8.885078877210617065e-02,1.080304235219955444e-01,-2.608204782009124756e-01
-2.279675155878067017e-01,1.181547343730926514e-01,4.984042048454284668e-01,-1.095040664076805115e-01,5.649825334548950195e-01,9.568554162979125977e-02,-4.599184915423393250e-02,6.126952171325683594e-01,-9.125953167676925659e-02,-4.326189458370208740e-01,3.610933572053909302e-02,1.570621430873870850e-01,8.181066811084747314e-02,-1.592495441436767578e-01
-2.074295282363891602e-01,-3.788079619407653809e-01,4.977171123027801514e-01,-3.337658047676086426e-01,6.283926963806152344e-01,3.880015909671783447e-01,-7.353868335485458374e-02,7.266375422477722168e-01,-4.188489541411399841e-02,-6.828115582466125488e-01,2.164058685302734375e-01,2.764758467674255371e-01,2.032566368579864502e-01,-2.456241697072982788e-01
-3.883974850177764893e-01,-1.850938051939010620e-01,3.614205718040466309e-01,-3.196886479854583740e-01,4.122064709663391113e-01,1.009651049971580505e-01,-3.045239746570587158e-01,6.469673514366149902e-01,1.554403267800807953e-02,-5.845921635627746582e-01,2.997079193592071533e-01,3.129943013191223145e-01,4.769251942634582520e-01,-3.310079276561737061e-01
-2.449784576892852783e-01,-1.664879471063613892e-01,4.925828278064727783e-01,-3.371731936931610107e-01,4.539180994033813477e-01,4.630575422197580338e-04,-2.453593611717224121e-01,5.751023292541503906e-01,1.307959295809268951e-02,-5.905975103378295898e-01,3.510405719280242920e-01,2.789162993431091309e-01,6.456955671310424805e-01,-3.080440759658813477e-01
-2.908776998519897461e-01,-4.101985692977905273e-01,5.235338807106018066e-01,-3.763308227062225342e-01,2.985361516475677490e-01,3.797350525856018066e-01,-4.795795381069183350e-01,3.843199312686920166e-01,1.495476812124252319e-02,-7.576744556427001953e-01,3.625869378447532654e-02,-1.421398483216762543e-03,3.759201169013977051e-01,-3.725576996803283691e-01
-4.644414484500885010e-01,-2.702115178108215332e-01,5.033067464828491211e-01,-2.664064466953277588e-01,1.286005079746246338e-01,3.901093900203704834e-01,-5.285286307334899902e-01,4.546006023883819580e-01,-1.831384748220443726e-02,-8.478417396545410156e-01,1.528374999761581421e-01,2.147731781005859375e-01,6.261389255523681641e-01,-1.851116716861724854e-01
-5.214650034904479980e-01,-2.973345220088958740e-01,6.692851185798645020e-01,-3.515537083148956299e-01,2.832933068275451660e-01,1.791406720876693726e-01,-3.830291628837585449e-01,3.273915350437164307e-01,6.096769124269485474e-02,-9.429008960723876953e-01,1.500519216060638428e-01,3.043816089630126953e-01,5.867630243301391602e-01,-2.043657004833221436e-01
-3.006092905998229980e-01,-2.358244359493255615e-01,3.759919106960296631e-01,-3.872393071651458740e-01,2.062744051218032837e-01,3.005585372447967529e-01,-2.517102956771850586e-01,1.924248039722442627e-01,-1.236939132213592529e-01,-8.491582274436950684e-01,1.678697019815444946e-01,2.974323034286499023e-01,5.290994644165039062e-01,-3.312084078788757324e-01
-4.310846924781799316e-01,-2.815402150154113770e-01,4.679021537303924561e-01,-1.874729990959167480e-01,1.961589753627777100e-01,2.591903507709503174e-01,-2.087029516696929932e-01,1.250683516263961792e-01,1.386207342147827148e-01,-8.735459446907043457e-01,2.396179437637329102e-01,1.555529534816741943e-01,7.620145678520202637e-01,-7.681227475404739380e-02
-5.857110619544982910e-01,-3.309390842914581299e-01,1.816240996122360229e-01,-1.764619499444961548e-01,1.245579123497009277e-01,1.537901610136032104e-01,-2.133675813674926758e-01,2.892129123210906982e-01,-6.462530046701431274e-02,-7.868195176124572754e-01,1.524216085672378540e-01,2.784551084041595459e-01,6.785429120063781738e-01,-2.320553809404373169e-01
-6.128677725791931152e-01,-5.521291494369506836e-01,5.088077783584594727e-01,-3.288759291172027588e-01,1.045308262109756470e-01,9.359470009803771973e-02,-1.519715338945388794e-01,1.603569090366363525e-01,-1.561880111694335938e-01,-8.102689981460571289e-01,-5.825334414839744568e-02,2.160182744264602661e-01,8.571082353591918945e-01,-1.470852494239807129e-01
-6.870181560516357422e-01,-3.112179338932037354e-01,2.281422615051269531e-01,-2.581681013107299805e-01,3.510046377778053284e-02,3.035734295845031738e-01,-2.890600860118865967e-01,-1.342234434559941292e-03,-1.677230596542358398e-01,-8.807048797607421875e-01,-6.577969994395971298e-03,1.523807793855667114e-01,7.297101020812988281e-01,-4.104195535182952881e-01
-7.714772224426269531e-01,-2.366546243429183960e-01,1.852759271860122681e-01,-2.137426435947418213e-01,2.484847232699394226e-02,2.803264930844306946e-02,-1.353892683982849121e-01,-1.337477564811706543e-01,-2.932941615581512451e-01,-8.314107060432434082e-01,-6.056145206093788147e-02,2.739047706127166748e-01,9.010483622550964355e-01,-2.689279317855834961e-01
-7.968015670776367188e-01,-4.465711414813995361e-01,1.023834347724914551e-01,-4.383270442485809326e-01,-1.364599019289016724e-01,3.793837428092956543e-01,6.724580656737089157e-03,-1.710268706083297729e-01,-3.012400567531585693e-01,-7.744781374931335449e-01,-1.812543869018554688e-01,1.201740726828575134e-01,6.264451146125793457e-01,-2.198221832513809204e-01
-9.233716130256652832e-01,-3.907791972160339355e-01,1.615932136774063110e-01,-3.786132037639617920e-01,8.137755841016769409e-02,2.567089498043060303e-01,-6.964003294706344604e-02,-3.644264340400695801e-01,-1.810204386711120605e-01,-7.599825859069824219e-01,-3.910725712776184082e-01,3.138107955455780029e-01,6.645700931549072266e-01,-8.056518854573369026e-04
-1.060355305671691895e+00,-6.133353710174560547e-01,6.892078369855880737e-02,-3.787091672420501709e-01,1.906080394983291626e-01,1.541115641593933105e-01,1.821397542953491211e-01,-3.186916708946228027e-01,-3.792720735073089600e-01,-8.098615407943725586e-01,-3.149069547653198242e-01,3.990435600280761719e-01,3.132722079753875732e-01,-2.496304512023925781e-01
-9.281344413757324219e-01,-6.041807532310485840e-01,6.766454130411148071e-02,-2.791441380977630615e-01,2.999983355402946472e-02,3.443717658519744873e-01,4.265408217906951904e-02,-2.875099480152130127e-01,1.864943839609622955e-02,-5.899925827980041504e-01,-3.849469423294067383e-01,6.629880517721176147e-02,4.203059673309326172e-01,5.992458201944828033e-03
-9.149025678634643555e-01,-5.432375669479370117e-01,-1.126567646861076355e-01,-2.594276070594787598e-01,2.956032752990722656e-01,4.179743528366088867e-01,3.032056689262390137e-01,-4.410843551158905029e-01,-4.817149788141250610e-02,-5.393187403678894043e-01,-2.657397389411926270e-01,3.240798041224479675e-02,3.707543909549713135e-01,5.694145709276199341e-02
-1.011065483093261719e+00,-3.571255803108215332e-01,-2.411709725856781006e-01,-4.335309863090515137e-01,8.212819695472717285e-02,4.686892628669738770e-01,1.659558564424514771e-01,-3.756793439388275146e-01,-2.951865792274475098e-01,-5.124691724777221680e-01,-4.125221371650695801e-01,3.746452927589416504e-02,3.278242647647857666e-01,2.037820965051651001e-02
-9.676057696342468262e-01,-4.195692539215087891e-01,-3.091402649879455566e-01,-1.013840436935424805e-01,-6.240973249077796936e-02,4.387240707874298096e-01,2.882299423217773438e-01,-4.767156839370727539e-01,-1.362992227077484131e-01,-6.262879967689514160e-01,-2.489887624979019165e-01,-1.549800764769315720e-02,3.976166546344757080e-01,-9.732270985841751099e-02
-1.063794732093811035e+00,-3.865806162357330322e-01,-3.279105722904205322e-01,-4.747086465358734131e-01,4.101396072655916214e-03,3.032814562320709229e-01,3.049649894237518311e-01,-3.432888090610504150e-01,2.021146379411220551e-02,-5.457189679145812988e-01,-3.061416447162628174e-01,1.077129468321800232e-01,1.815476417541503906e-01,4.922000691294670105e-02
-9.339702725410461426e-01,-2.378763705492019653e-01,-2.732738256454467773e-01,-8.514424413442611694e-02,1.455877125263214111e-01,3.053532838821411133e-01,3.486481904983520508e-01,-1.449624300003051758e-01,-1.710648275911808014e-02,-3.714619278907775879e-01,-1.872357130050659180e-01,2.819104790687561035e-01,-1.805850118398666382e-02,-1.091307308524847031e-02
-9.862303137779235840e-01,-1.386562436819076538e-01,-2.298459559679031372e-01,-2.115518599748611450e-01,6.940979510545730591e-02,2.932397425174713135e-01,4.516629278659820557e-01,-1.000417098402976990e-01,-1.259540673345327377e-02,-2.510157525539398193e-01,-2.375300526618957520e-01,1.398968249559402466e-01,1.281682848930358887e-01,1.979213654994964600e-01
-9.072220325469970703e-01,-2.369935065507888794e-01,-3.528178334236145020e-01,-3.605951070785522461e-01,-1.894693635404109955e-02,9.122117608785629272e-02,1.521030515432357788e-01,-1.242491826415061951e-01,1.040953323245048523e-01,-2.025544792413711548e-01,-2.830772399902343750e-01,7.119216024875640869e-02,1.819636970758438110e-01,2.699984610080718994e-01
-8.576120734214782715e-01,-1.040724068880081177e-01,-4.234194755554199219e-01,-2.109267115592956543e-01,7.260876893997192383e-02,8.385819382965564728e-03,1.001218631863594055e-01,-9.568516910076141357e-02,3.861201228573918343e-03,-1.608692705631256104e-01,-6.456397939473390579e-03,3.135461211204528809e-01,4.558902978897094727e-02,1.273922529071569443e-02
-7.984755039215087891e-01,-1.835787296295166016e-01,-3.493127226829528809e-01,-4.484864324331283569e-02,9.103628247976303101e-02,-1.107446253299713135e-01,2.304673045873641968e-01,-4.859225358814001083e-03,-5.713466182351112366e-02,-5.621363595128059387e-02,1.585993915796279907e-02,2.944785356521606445e-01,9.082031250000000000e-02,1.236928254365921021e-01
-7.385861873626708984e-01,-1.624611318111419678e-01,-5.049471855163574219e-01,-1.996329724788665771e-01,7.408941537141799927e-02,1.624426059424877167e-02,4.128454327583312988e-01,-2.818658761680126190e-02,1.014859303832054138e-01,-1.589532494544982910e-01,1.073571518063545227e-01,6.703977584838867188e-01,3.449389636516571045e-01,3.606029152870178223e-01
-6.808837652206420898e-01,-1.725925654172897339e-01,-3.398289084434509277e-01,-3.671722114086151123e-01,1.890201568603515625e-01,-1.660752743482589722e-01,3.627310693264007568e-01,-3.189688920974731445e-02,-1.392221003770828247e-01,-2.130967192351818085e-02,1.472360044717788696e-01,4.711468815803527832e-01,3.491457700729370117e-01,2.914596199989318848e-01
-5.823690295219421387e-01,-1.483808606863021851e-01,-2.084568142890930176e-01,-1.946893930435180664e-01,-8.229482918977737427e-03,-2.526862323284149170e-01,2.383046150207519531e-01,-2.524098157882690430e-01,-3.480366244912147522e-02,6.867610663175582886e-02,3.674599528312683105e-02,8.377790451049804688e-01,2.901161015033721924e-01,-2.750986628234386444e-02
-4.211625158786773682e-01,-4.230980873107910156e-01,1.605812646448612213e-02,-6.233090758323669434e-01,-8.654369041323661804e-03,-2.674022018909454346e-01,3.306168913841247559e-01,-1.606359481811523438e-01,-1.657004952430725098e-01,1.158549338579177856e-01,1.565764248371124268e-01,5.613360404968261719e-01,2.971159517765045166e-01,-5.973332002758979797e-02
-4.214988648891448975e-01,-4.808172881603240967e-01,-1.830420345067977905e-01,-4.627585113048553467e-01,1.544747650623321533e-01,-1.293133795261383057e-01,1.471855193376541138e-01,-9.428701549768447876e-02,-2.355517894029617310e-01,1.303230226039886475e-01,2.907128930091857910e-01,8.094131946563720703e-01,2.132948189973831177e-01,-2.410689294338226318e-01
-4.277772903442382812e-01,-4.269337654113769531e-01,-5.331894755363464355e-02,-5.745508670806884766e-01,1.151927411556243896e-01,-4.800437390804290771e-01,9.440299123525619507e-02,-1.134251207113265991e-01,-2.644434869289398193e-01,1.423519104719161987e-01,2.075643688440322876e-01,9.262089729309082031e-01,3.880011737346649170e-01,1.884877681732177734e-02
-2.893790602684020996e-01,-6.650921702384948730e-01,-4.049033671617507935e-02,-5.347325205802917480e-01,-5.064016580581665039e-02,-3.832344114780426025e-01,1.716243922710418701e-01,-1.412731111049652100e-01,-3.370297551155090332e-01,1.789889633655548096e-01,2.499015629291534424e-01,9.805449843406677246e-01,1.665600389242172241e-01,-2.019768357276916504e-01
-1.941736638545989990e-01,-6.341877579689025879e-01,3.546825796365737915e-02,-6.394644379615783691e-01,1.064380034804344177e-01,-6.009045839309692383e-01,3.900608122348785400e-01,-3.171544149518013000e-02,-2.953040599822998047e-01,3.084466159343719482e-01,1.478678882122039795e-01,1.007982254028320312e+00,3.189872205257415771e-01,-2.352916747331619263e-01
-2.885376811027526855e-01,-7.770996093750000000e-01,8.204259723424911499e-02,-6.275211572647094727e-01,1.984548866748809814e-01,-3.455605804920196533e-01,2.059001028537750244e-01,-3.500025570392608643e-01,-6.664692759513854980e-01,3.324221074581146240e-01,2.660776376724243164e-01,7.196288704872131348e-01,4.622526168823242188e-01,-3.478271886706352234e-02
-3.370250165462493896e-01,-9.195669889450073242e-01,-2.180082499980926514e-01,-8.995115160942077637e-01,8.627194911241531372e-02,-5.411033630371093750e-01,3.430961370468139648e-01,-1.245770826935768127e-01,-5.105744600296020508e-01,4.578093886375427246e-01,1.250851303339004517e-01,8.659507036209106445e-01,3.930870592594146729e-01,-4.520364105701446533e-01
-2.562230825424194336e-01,-9.992602467536926270e-01,9.734169580042362213e-03,-7.312548756599426270e-01,-1.149160042405128479e-01,-5.066425204277038574e-01,1.378532946109771729e-01,2.311378018930554390e-03,-7.325586080551147461e-01,4.126409292221069336e-01,2.175980806350708008e-01,6.316873431205749512e-01,3.698252439498901367e-01,-5.033061504364013672e-01
-2.815116941928863525e-01,-1.012966036796569824e+00,-2.867928706109523773e-02,-7.952097058296203613e-01,-8.858282119035720825e-02,-2.389590293169021606e-01,1.955658644437789917e-01,-2.409187406301498413e-01,-7.690556645393371582e-01,6.092848181724548340e-01,3.539899587631225586e-01,7.359009981155395508e-01,3.136357367038726807e-01,-4.106394648551940918e-01
-2.601932287216186523e-01,-9.159423112869262695e-01,6.844282895326614380e-02,-8.007402420043945312e-01,-1.885478198528289795e-01,-3.977987468242645264e-01,-6.254417449235916138e-02,-1.936830580234527588e-01,-9.189769625663757324e-01,3.217418789863586426e-01,4.001133143901824951e-01,7.195160388946533203e-01,2.595204114913940430e-01,-6.241484284400939941e-01
