AF3,F7,F3,FC5,T7,P7,O1,O2,P8,T8,FC6,F4,F8,AF4
-4.936169087886810303e-01,4.324694275856018066e-01,-6.342381834983825684e-01,-3.577296435832977295e-01,8.343674987554550171e-02,2.739363722503185272e-02,1.285300403833389282e-01,1.591276675462722778e-01,-3.063725531101226807e-01,4.396105706691741943e-01,-3.836581707000732422e-01,2.566610574722290039e-01,-6.023861933499574661e-04,-8.189963102340698242e-01
-7.070388793945312500e-01,4.041776061058044434e-02,-7.232335209846496582e-01,-8.270989358425140381e-02,2.664504945278167725e-01,2.450285553932189941e-01,2.323145419359207153e-02,3.784257173538208008e-01,-3.828926980495452881e-01,5.197773575782775879e-01,-5.266458988189697266e-01,1.369344592094421387e-01,-8.749387413263320923e-02,-7.375977635383605957e-01
-5.297223329544067383e-01,1.454354524612426758e-01,-8.221998214721679688e-01,-4.094008803367614746e-01,1.180222183465957642e-01,2.516259253025054932e-01,-1.386883407831192017e-01,2.312370538711547852e-01,-2.588770687580108643e-01,5.035234689712524414e-01,-4.049878716468811035e-01,5.583107471466064453e-02,-6.186921149492263794e-02,-7.098428010940551758e-01
-8.720144629478454590e-01,1.000552847981452942e-01,-7.012487649917602539e-01,3.974428109358996153e-04,1.645856648683547974e-01,1.504023224115371704e-01,-6.535297632217407227e-02,1.660405695438385010e-01,-2.569811642169952393e-01,4.376647174358367920e-01,-3.310283124446868896e-01,2.631026208400726318e-01,1.867001652717590332e-01,-9.463556408882141113e-01
-7.661263942718505859e-01,2.221213877201080322e-01,-8.166391253471374512e-01,-1.077766343951225281e-01,2.568278275430202484e-02,7.801236212253570557e-02,1.459615826606750488e-01,1.827085465192794800e-01,-5.442671179771423340e-01,4.836370646953582764e-01,-6.323980093002319336e-01,1.030421108007431030e-01,3.099539875984191895e-01,-7.059990167617797852e-01
-7.197985649108886719e-01,2.069472521543502808e-01,-4.182210266590118408e-01,-2.427899837493896484e-01,6.590308994054794312e-02,4.791691005229949951e-01,-2.107042632997035980e-02,-1.090433076024055481e-02,-5.347604155540466309e-01,5.683528184890747070e-01,-6.184669137001037598e-01,1.580043137073516846e-01,2.449497580528259277e-01,-6.336613893508911133e-01
-8.946880698204040527e-01,-9.833424538373947144e-02,-7.609959244728088379e-01,-2.660502195358276367e-01,9.727157652378082275e-02,3.987751901149749756e-01,-6.814607977867126465e-02,-2.403120696544647217e-01,-5.028998851776123047e-01,3.673964738845825195e-01,-4.591944813728332520e-01,-9.465330839157104492e-02,3.195261955261230469e-01,-4.018965065479278564e-01
-6.361835002899169922e-01,1.662364602088928223e-01,-4.800929725170135498e-01,-2.736735343933105469e-01,-4.234472662210464478e-02,1.717181801795959473e-01,-1.989824324846267700e-02,-1.576589792966842651e-01,-4.349125325679779053e-01,2.704826295375823975e-01,-5.883556604385375977e-01,8.718625456094741821e-02,3.830784559249877930e-01,-4.299826622009277344e-01
-8.757666945457458496e-01,3.896566331386566162e-01,-5.173856019973754883e-01,4.735986143350601196e-02,1.580307334661483765e-01,2.927711606025695801e-01,-6.578081101179122925e-02,-2.904965579509735107e-01,-7.308445572853088379e-01,3.048927485942840576e-01,-4.314076304435729980e-01,-8.035875856876373291e-02,3.349966406822204590e-01,-3.140419721603393555e-01
-7.940961718559265137e-01,1.819539517164230347e-01,-4.750881493091583252e-01,-2.706109881401062012e-01,1.272378563880920410e-01,2.830533981323242188e-01,-6.621899455785751343e-02,-3.603162765502929688e-01,-6.439471840858459473e-01,3.766202628612518311e-01,-3.645111024379730225e-01,-3.104131296277046204e-02,2.091094702482223511e-01,-1.623673141002655029e-01
-8.860881924629211426e-01,2.229740321636199951e-01,-4.889633357524871826e-01,1.242544315755367279e-02,8.051270991563796997e-02,2.763759195804595947e-01,-3.581637144088745117e-01,-4.868746399879455566e-01,-9.704049825668334961e-01,3.056127429008483887e-01,-1.789406538009643555e-01,-2.536638453602790833e-02,4.059361219406127930e-01,-1.748183369636535645e-01
-7.136344909667968750e-01,2.461064606904983521e-01,-3.476487994194030762e-01,9.788446128368377686e-02,2.147697508335113525e-01,5.500035285949707031e-01,-2.593722939491271973e-01,-2.988091409206390381e-01,-7.944718003273010254e-01,3.218674659729003906e-01,-3.327076137065887451e-01,-1.162093803286552429e-01,3.429925143718719482e-01,1.153753921389579773e-01
-6.667665243148803711e-01,2.329870015382766724e-01,-5.061796903610229492e-01,-1.092877537012100220e-01,1.691180318593978882e-01,3.776652812957763672e-01,-3.357853889465332031e-01,-7.035125494003295898e-01,-7.878842949867248535e-01,2.087786197662353516e-01,-2.737855613231658936e-01,-2.854878902435302734e-01,3.151602149009704590e-01,-4.986073076725006104e-02
-6.648066043853759766e-01,9.605669230222702026e-02,-3.566755354404449463e-01,-2.859953232109546661e-02,2.775031924247741699e-01,1.926215440034866333e-01,-1.801927536725997925e-01,-5.313966274261474609e-01,-7.943506240844726562e-01,3.813877701759338379e-01,-4.503957629203796387e-01,-1.635800451040267944e-01,3.422397971153259277e-01,1.015852391719818115e-01
-6.814906597137451172e-01,3.357671499252319336e-01,-3.936253190040588379e-01,-1.729439944028854370e-01,2.140107452869415283e-01,2.802827954292297363e-01,-3.399953246116638184e-01,-6.632874011993408203e-01,-7.394896745681762695e-01,3.060940206050872803e-01,-4.798589646816253662e-01,-9.407985210418701172e-02,2.018219530582427979e-01,2.359581291675567627e-01
-5.891406536102294922e-01,3.232474625110626221e-01,-5.090295672416687012e-01,-1.084163114428520203e-01,-4.500775784254074097e-02,9.302820079028606415e-03,-2.214668393135070801e-01,-7.806789875030517578e-01,-8.877725005149841309e-01,7.771410793066024780e-02,-3.677861392498016357e-01,-2.044444903731346130e-03,2.951319515705108643e-01,2.663312554359436035e-01
-5.161074995994567871e-01,4.048680663108825684e-01,-5.045333504676818848e-01,-1.458896398544311523e-01,1.613169461488723755e-01,1.082340534776449203e-02,-2.972847223281860352e-01,-6.619281768798828125e-01,-7.512305974960327148e-01,1.007577870041131973e-02,-5.176461935043334961e-01,-3.130019903182983398e-01,2.173659801483154297e-01,3.436356782913208008e-03
-5.939363241195678711e-01,3.190766870975494385e-01,-5.205058455467224121e-01,-5.701516866683959961e-01,1.603951305150985718e-01,-2.218495458364486694e-01,-1.750964820384979248e-01,-7.202144265174865723e-01,-8.981883525848388672e-01,-5.526186898350715637e-02,-4.528279900550842285e-01,-2.808824777603149414e-01,4.078863859176635742e-01,4.075264930725097656e-02
-5.338217020034790039e-01,5.234263539314270020e-01,-4.283139705657958984e-01,-4.007697403430938721e-01,1.522211451083421707e-02,5.231223627924919128e-02,-1.815727949142456055e-01,-7.684997916221618652e-01,-7.994830012321472168e-01,-1.805220544338226318e-01,-6.213525533676147461e-01,-4.728142917156219482e-01,5.333828926086425781e-01,3.392670676112174988e-02
-4.057539999485015869e-01,4.777384996414184570e-01,-5.153927803039550781e-01,-2.993165254592895508e-01,8.543011546134948730e-02,-2.749933898448944092e-01,-7.818861305713653564e-02,-5.056260824203491211e-01,-8.470047116279602051e-01,-3.483626246452331543e-02,-7.775223851203918457e-01,-3.658940196037292480e-01,2.583127915859222412e-01,1.039839163422584534e-01
-1.880574375391006470e-01,5.559198856353759766e-01,-6.191102266311645508e-01,-2.418257296085357666e-01,2.118272036314010620e-01,-3.191307783126831055e-01,-2.247180938720703125e-01,-4.557331800460815430e-01,-6.084579825401306152e-01,-3.102458119392395020e-01,-7.672324776649475098e-01,-3.243267536163330078e-01,1.948659121990203857e-01,-4.799556452780961990e-03
-4.437402486801147461e-01,6.019930839538574219e-01,-5.013568997383117676e-01,-4.690781533718109131e-01,-3.953681513667106628e-02,-2.672750949859619141e-01,3.695206344127655029e-02,-4.292484521865844727e-01,-9.005185961723327637e-01,-2.905391454696655273e-01,-9.689454436302185059e-01,-3.432833254337310791e-01,3.421245217323303223e-01,-2.040207386016845703e-01
-4.069803953170776367e-01,6.248851418495178223e-01,-4.223147034645080566e-01,-3.214400112628936768e-01,-8.880998194217681885e-02,-1.268946379423141479e-01,-1.028615757822990417e-01,-2.829026281833648682e-01,-7.106928229331970215e-01,-4.532339870929718018e-01,-7.058671116828918457e-01,-4.126714169979095459e-01,2.153818607330322266e-01,-1.255392879247665405e-01
-3.779679834842681885e-01,6.962550282478332520e-01,-3.884180784225463867e-01,-2.956235408782958984e-01,1.238706931471824646e-01,-3.098717033863067627e-01,1.757156997919082642e-01,-2.878443300724029541e-01,-5.356622934341430664e-01,-3.075504601001739502e-01,-7.499937415122985840e-01,-2.627762258052825928e-01,2.142857909202575684e-01,-1.797157227993011475e-01
-3.583092689514160156e-01,7.126405239105224609e-01,-5.740377902984619141e-01,-5.578120052814483643e-02,3.228125274181365967e-01,-2.277931720018386841e-01,2.154913693666458130e-01,-1.228390187025070190e-01,-5.448526740074157715e-01,-2.213590592145919800e-01,-1.011164665222167969e+00,-3.419010043144226074e-01,2.649541385471820831e-02,-3.985644280910491943e-01
-3.411654233932495117e-01,6.892991662025451660e-01,-4.940184950828552246e-01,-6.551656126976013184e-02,3.216274976730346680e-01,-1.977473646402359009e-01,4.488138258457183838e-01,-2.334695607423782349e-01,-5.854006409645080566e-01,-3.349528312683105469e-01,-7.956886291503906250e-01,-3.165923058986663818e-01,1.547735929489135742e-01,-2.867237329483032227e-01
-3.009733855724334717e-01,7.597556114196777344e-01,-6.393766999244689941e-01,9.334972500801086426e-02,2.054234147071838379e-01,1.357608847320079803e-02,3.207345902919769287e-01,-1.684633642435073853e-01,-4.977752566337585449e-01,-3.442497551441192627e-01,-7.651996612548828125e-01,-2.721854448318481445e-01,2.989145927131175995e-02,-3.675586879253387451e-01
-1.079608723521232605e-01,6.848931908607482910e-01,-2.639984190464019775e-01,-5.997347086668014526e-02,3.116378784179687500e-01,-1.895013898611068726e-01,3.543568551540374756e-01,-1.535685658454895020e-01,-5.499854087829589844e-01,-2.520853579044342041e-01,-7.731649279594421387e-01,-4.724738895893096924e-01,5.924330279231071472e-02,-2.870116531848907471e-01
-1.628195866942405701e-02,7.785792946815490723e-01,-4.293060898780822754e-01,1.587037742137908936e-01,4.606201350688934326e-01,-7.515708357095718384e-02,3.435094654560089111e-01,-3.308190107345581055e-01,-1.537612527608871460e-01,-3.267500698566436768e-01,-6.433031558990478516e-01,-2.248980402946472168e-01,-1.941177845001220703e-01,-2.781249880790710449e-01
1.153556406497955322e-01,7.413484454154968262e-01,-6.139435172080993652e-01,2.047179043292999268e-01,5.136746764183044434e-01,-1.206507459282875061e-01,2.581895291805267334e-01,-2.417379468679428101e-01,-3.653880953788757324e-01,-9.973549842834472656e-02,-4.287653267383575439e-01,-3.321792781352996826e-01,-2.237249612808227539e-01,-2.247077971696853638e-01
1.256007701158523560e-01,6.797507405281066895e-01,-4.255687296390533447e-01,3.219797313213348389e-01,5.078855156898498535e-01,4.335244651883840561e-03,3.342493772506713867e-01,-4.098190963268280029e-01,-2.806998491287231445e-01,-1.628779768943786621e-01,-6.637716293334960938e-01,-2.631157934665679932e-01,-3.741998970508575439e-02,-2.959281504154205322e-01
3.480982035398483276e-02,5.139521360397338867e-01,-5.319209694862365723e-01,4.365037381649017334e-01,7.378965020179748535e-01,2.107750177383422852e-01,2.078933417797088623e-01,-2.087844163179397583e-01,-2.511233687400817871e-01,1.543639302253723145e-01,-3.375526368618011475e-01,6.053522156435064971e-05,-3.010622859001159668e-01,-3.824001252651214600e-01
6.464087963104248047e-02,7.117143273353576660e-01,-6.203356385231018066e-01,2.736406922340393066e-01,7.430339455604553223e-01,5.689090490341186523e-02,2.825893461704254150e-01,-1.084109842777252197e-01,-2.138935625553131104e-01,1.642300002276897430e-02,-2.876780629158020020e-01,-6.540578603744506836e-02,-9.647864103317260742e-02,-1.281282752752304077e-01
-4.035662114620208740e-02,7.708147764205932617e-01,-6.753107905387878418e-01,5.050672888755798340e-01,9.608677029609680176e-01,3.185946345329284668e-01,1.250648777931928635e-02,-1.672229170799255371e-01,-2.205096334218978882e-01,2.431057989597320557e-01,-2.935175895690917969e-01,-9.861851483583450317e-02,-2.903197892010211945e-03,-1.448850631713867188e-01
-7.251529395580291748e-02,6.849334239959716797e-01,-3.994449973106384277e-01,3.896071016788482666e-01,7.110451459884643555e-01,-2.301456872373819351e-03,1.917885988950729370e-01,-9.668454527854919434e-02,-9.055773168802261353e-02,1.676571369171142578e-01,-2.575893998146057129e-01,-1.422440707683563232e-01,1.897656172513961792e-02,-3.264849781990051270e-01
-1.020246744155883789e-01,3.920204639434814453e-01,-6.604845523834228516e-01,4.858125150203704834e-01,7.908545732498168945e-01,-2.032847888767719269e-02,6.115482654422521591e-03,-2.788030505180358887e-01,-1.263260841369628906e-01,3.016317822039127350e-02,-1.576403737999498844e-03,6.622862070798873901e-02,-1.420857161283493042e-01,-1.784759759902954102e-01
-3.998203203082084656e-02,4.597098231315612793e-01,-4.638303816318511963e-01,3.734053075313568115e-01,7.841382026672363281e-01,5.736703053116798401e-02,1.389358341693878174e-01,-1.446844190359115601e-01,-1.126004010438919067e-01,-1.428938955068588257e-01,-4.742636531591415405e-02,9.231268614530563354e-02,1.411567330360412598e-01,-7.213946431875228882e-02
-3.919871151447296143e-02,5.373673439025878906e-01,-5.229393243789672852e-01,3.447752892971038818e-01,5.980902910232543945e-01,-5.717026442289352417e-02,1.687332689762115479e-01,-5.692889541387557983e-02,6.418797373771667480e-02,8.492812514305114746e-02,1.089186873286962509e-02,6.696198135614395142e-02,2.128188312053680420e-01,-1.972321122884750366e-01
-2.550359964370727539e-01,2.176527231931686401e-01,-4.630248546600341797e-01,2.718358039855957031e-01,6.098474860191345215e-01,4.533494822680950165e-03,-1.462053805589675903e-01,-1.395329684019088745e-01,-4.889864102005958557e-02,1.540722101926803589e-01,-2.145715802907943726e-02,4.768954589962959290e-02,2.348189502954483032e-01,-2.709524929523468018e-01
-3.860017657279968262e-01,1.560252457857131958e-01,-6.832470297813415527e-01,2.388322055339813232e-01,4.476376175880432129e-01,1.569633334875106812e-01,-1.737617552280426025e-01,-2.948694229125976562e-01,1.328366398811340332e-01,-2.071634978055953979e-01,-1.822149455547332764e-01,1.065386906266212463e-01,3.203874528408050537e-01,-3.672370687127113342e-02
-2.940910756587982178e-01,1.929625421762466431e-01,-5.013731718063354492e-01,2.993002235889434814e-01,2.634022235870361328e-01,4.013748466968536377e-02,-3.101330399513244629e-01,-7.440112531185150146e-02,-6.240478530526161194e-02,-2.119676321744918823e-01,4.352124780416488647e-02,-1.160250529646873474e-01,4.669983685016632080e-01,-1.339347213506698608e-01
-5.013622641563415527e-01,2.041579037904739380e-01,-3.879198133945465088e-01,2.399666160345077515e-01,3.764759898185729980e-01,9.610726684331893921e-02,3.840319439768791199e-02,-1.099372282624244690e-01,7.430359255522489548e-03,-3.096641600131988525e-02,-2.537772357463836670e-01,1.301196813583374023e-01,5.351617336273193359e-01,-6.092051416635513306e-02
-5.716221332550048828e-01,1.227627843618392944e-01,-2.538351714611053467e-01,2.784231305122375488e-01,4.416752755641937256e-01,1.821738928556442261e-01,-4.095073640346527100e-01,-9.926323778927326202e-03,6.032880768179893494e-02,-3.187469244003295898e-01,-1.493097096681594849e-01,-1.364163756370544434e-01,3.640739321708679199e-01,-1.069934964179992676e-01
-3.395330905914306641e-01,8.616312593221664429e-02,-2.650794982910156250e-01,2.653072178363800049e-01,2.168083488941192627e-01,3.489289283752441406e-01,-3.247719705104827881e-01,-2.206378132104873657e-01,1.143508106470108032e-01,-2.834016084671020508e-01,-2.715407609939575195e-01,-3.845679387450218201e-02,5.330358743667602539e-01,-1.294988542795181274e-01
-3.330656588077545166e-01,1.031092703342437744e-01,-2.600144445896148682e-01,1.186190620064735413e-01,1.622070968151092529e-01,5.468559265136718750e-01,-5.372816920280456543e-01,-2.506025731563568115e-01,-3.390217944979667664e-02,-3.268689513206481934e-01,-8.213672041893005371e-02,-1.194505468010902405e-01,5.203945040702819824e-01,-1.007958725094795227e-01
-3.442941009998321533e-01,-5.378390476107597351e-02,-4.889106377959251404e-02,1.823051273822784424e-01,-8.000750094652175903e-02,5.268070697784423828e-01,-5.384898781776428223e-01,-2.022278904914855957e-01,-1.070545390248298645e-01,-4.130881428718566895e-01,-2.596833109855651855e-01,-3.813314735889434814e-01,2.466730475425720215e-01,4.736332595348358154e-02
-2.824867665767669678e-01,2.041816338896751404e-02,-4.536104388535022736e-03,1.345739215612411499e-01,-1.151631921529769897e-01,3.398984670639038086e-01,-4.729714393615722656e-01,1.210020259022712708e-01,-2.160139381885528564e-01,-5.932544469833374023e-01,-7.814773917198181152e-02,-1.534997820854187012e-01,3.402708470821380615e-01,1.564008556306362152e-02
-1.462278068065643311e-01,1.700016558170318604e-01,2.146011292934417725e-01,1.396151036024093628e-01,-1.177929267287254333e-01,3.401624783873558044e-02,-7.366791963577270508e-01,-2.380471825599670410e-01,-2.299541532993316650e-01,-5.187302231788635254e-01,-1.281782686710357666e-01,-2.808704674243927002e-01,1.585523188114166260e-01,4.625851511955261230e-01
-8.382092416286468506e-02,1.783054172992706299e-01,3.843922615051269531e-01,1.257360875606536865e-01,-8.794776350259780884e-02,3.363396227359771729e-01,-6.372046470642089844e-01,-1.205683648586273193e-01,-1.770003437995910645e-01,-4.660930633544921875e-01,-4.093248248100280762e-01,-3.735955059528350830e-01,2.911334335803985596e-01,2.245018035173416138e-01
2.209588289260864258e-01,2.535229921340942383e-01,3.317162692546844482e-01,-1.130213290452957153e-01,-6.309755146503448486e-02,3.069615364074707031e-01,-6.979755759239196777e-01,-1.913383901119232178e-01,-4.349313676357269287e-01,-4.583699703216552734e-01,-2.835857570171356201e-01,-4.381782412528991699e-01,1.513978838920593262e-01,5.124361515045166016e-01
-3.887302009388804436e-03,2.239571660757064819e-01,4.059867262840270996e-01,1.532679516822099686e-02,-1.305263340473175049e-01,8.619256317615509033e-02,-7.815060615539550781e-01,-4.064528942108154297e-01,-3.238220512866973877e-01,-4.716758728027343750e-01,-3.432694077491760254e-01,-6.079001426696777344e-01,1.491328179836273193e-01,4.617271423339843750e-01
9.822840243577957153e-02,5.270670652389526367e-01,3.786821365356445312e-01,-2.040703445672988892e-01,-1.898726373910903931e-01,2.498524338006973267e-01,-5.612136721611022949e-01,-1.342720240354537964e-01,-3.591559231281280518e-01,-3.316150307655334473e-01,-2.935508191585540771e-01,-6.328674554824829102e-01,2.375427633523941040e-01,6.320731639862060547e-01
3.726791217923164368e-02,4.828107357025146484e-01,5.471052527427673340e-01,-1.779421716928482056e-01,-1.324363350868225098e-01,2.947133779525756836e-01,-6.158511638641357422e-01,-1.042174324393272400e-01,-2.570871412754058838e-01,-4.994695782661437988e-01,-2.995849251747131348e-01,-4.965109825134277344e-01,6.924555450677871704e-02,5.476332902908325195e-01
1.917282193899154663e-01,5.854370594024658203e-01,7.200819849967956543e-01,-3.388531506061553955e-01,-1.008146628737449646e-01,2.596606127917766571e-02,-7.829418182373046875e-01,-2.578294575214385986e-01,-5.361801385879516602e-01,-5.997779369354248047e-01,-2.274496257305145264e-01,-4.897316694259643555e-01,4.343150183558464050e-02,5.692193508148193359e-01
2.690016031265258789e-01,4.576631784439086914e-01,3.829811811447143555e-01,-4.271861910820007324e-01,1.542725116014480591e-01,-8.354228734970092773e-02,-6.062195897102355957e-01,7.225476671010255814e-03,-5.385290980339050293e-01,-7.008895277976989746e-01,-3.249224126338958740e-01,-5.239437818527221680e-01,-1.587325781583786011e-01,4.145384430885314941e-01
1.852374076843261719e-01,4.142835736274719238e-01,5.024968981742858887e-01,-2.655680477619171143e-01,-9.689634293317794800e-02,-5.020863190293312073e-02,-7.225374579429626465e-01,-4.294634237885475159e-02,-4.128608107566833496e-01,-6.649857759475708008e-01,-1.591315120458602905e-01,-5.605826973915100098e-01,-1.777544319629669189e-01,6.969278454780578613e-01
4.682222008705139160e-01,4.768136739730834961e-01,5.845300555229187012e-01,-4.223614633083343506e-01,-1.447903364896774292e-01,-2.216601669788360596e-01,-7.720020413398742676e-01,-1.142331631854176521e-03,-3.897609710693359375e-01,-5.338968634605407715e-01,-2.632009088993072510e-01,-4.911576807498931885e-01,-1.377140730619430542e-01,5.071647167205810547e-01
4.696671068668365479e-01,5.793176293373107910e-01,4.644076228141784668e-01,-5.615621805191040039e-01,-2.497065812349319458e-01,2.006817050278186798e-02,-7.983614802360534668e-01,2.621426880359649658e-01,-2.363778203725814819e-01,-5.278641581535339355e-01,-3.869777619838714600e-01,-6.003385186195373535e-01,-2.029914110898971558e-01,6.705000400543212891e-01
2.502234578132629395e-01,4.493816196918487549e-01,4.652920365333557129e-01,-6.243867874145507812e-01,7.482690364122390747e-02,2.549710683524608612e-02,-6.610163450241088867e-01,4.064427912235260010e-01,-2.032919079065322876e-01,-6.425710320472717285e-01,-8.431173115968704224e-02,-5.349516868591308594e-01,-1.880194693803787231e-01,3.324658572673797607e-01
3.035290241241455078e-01,3.993358314037322998e-01,4.841528534889221191e-01,-4.145374596118927002e-01,-1.580266207456588745e-01,-6.281674653291702271e-02,-7.910030484199523926e-01,2.715000808238983154e-01,-8.909263461828231812e-02,-7.349454164505004883e-01,-3.904127180576324463e-01,-6.191695928573608398e-01,-4.298288747668266296e-02,3.486045598983764648e-01
2.328113764524459839e-01,5.094492435455322266e-01,4.995517730712890625e-01,-6.922549009323120117e-01,-1.999347656965255737e-01,-5.409191250801086426e-01,-7.075798511505126953e-01,4.783480465412139893e-01,-2.398259192705154419e-01,-7.116705179214477539e-01,-3.053384125232696533e-01,-6.446895003318786621e-01,-2.802885770797729492e-01,2.173710763454437256e-01
3.751191794872283936e-01,2.879011631011962891e-01,3.530809283256530762e-01,-5.298385024070739746e-01,-6.466078013181686401e-02,-2.016953527927398682e-01,-4.889091849327087402e-01,4.248911440372467041e-01,-2.911632880568504333e-02,-6.528930664062500000e-01,-1.236727088689804077e-01,-5.774199962615966797e-01,-1.844550967216491699e-01,2.435426265001296997e-01
3.897926807403564453e-01,5.722163915634155273e-01,4.916017949581146240e-01,-5.684077143669128418e-01,-3.488492071628570557e-01,-1.755007207393646240e-01,-4.015176296234130859e-01,6.320071220397949219e-01,4.797758907079696655e-02,-7.541998624801635742e-01,-3.460537493228912354e-01,-6.860370039939880371e-01,-1.680054813623428345e-01,2.907123267650604248e-01
2.801796495914459229e-01,5.357455015182495117e-01,4.951384067535400391e-01,-4.812121987342834473e-01,-1.399979442358016968e-01,-2.607546448707580566e-01,-3.770067691802978516e-01,6.922575235366821289e-01,-6.875805556774139404e-02,-7.010707855224609375e-01,-1.345698982477188110e-01,-7.218105196952819824e-01,-2.178097665309906006e-01,6.948546320199966431e-02
4.067375063896179199e-01,3.098900318145751953e-01,4.080567657947540283e-01,-6.151275038719177246e-01,-2.217411547899246216e-01,-2.614139318466186523e-01,-4.494175016880035400e-01,6.615719199180603027e-01,1.500348187983036041e-02,-6.222193241119384766e-01,-5.541189759969711304e-02,-5.977164506912231445e-01,-1.090027764439582825e-01,-1.247643455862998962e-01
3.549292087554931641e-01,5.976811051368713379e-01,5.801382660865783691e-01,-5.067959427833557129e-01,-1.915691494941711426e-01,8.661319315433502197e-02,-3.946615457534790039e-01,6.078117489814758301e-01,1.975559443235397339e-01,-5.019347071647644043e-01,1.316096186637878418e-01,-6.256440281867980957e-01,-2.218967080116271973e-01,-9.093830594792962074e-04
3.110807240009307861e-01,3.560274839401245117e-01,4.445390701293945312e-01,-3.430163562297821045e-01,1.215668246150016785e-01,7.324911653995513916e-03,-3.334209620952606201e-01,4.361237883567810059e-01,9.703618288040161133e-02,-5.058352351188659668e-01,1.217691898345947266e-01,-5.473036766052246094e-01,-1.695809513330459595e-01,8.426212519407272339e-02
4.861282408237457275e-01,4.239264428615570068e-01,3.520602881908416748e-01,-2.555358409881591797e-01,-1.320025622844696045e-01,1.697824448347091675e-01,-3.701006770133972168e-01,6.679201722145080566e-01,1.310906112194061279e-01,-4.317051768302917480e-01,8.997260034084320068e-02,-5.301344394683837891e-01,-1.351900696754455566e-01,-5.199478939175605774e-02
3.979902863502502441e-01,4.548580646514892578e-01,4.388863146305084229e-01,-3.920525312423706055e-01,8.430810272693634033e-02,3.142690956592559814e-01,-4.652597308158874512e-01,7.920777201652526855e-01,-1.293827081099152565e-03,-2.849927544593811035e-01,-2.290727198123931885e-02,-6.468191146850585938e-01,-1.693466305732727051e-01,1.867059767246246338e-01
4.381859898567199707e-01,4.248190224170684814e-01,1.508848369121551514e-01,-2.389452159404754639e-01,1.782708466053009033e-01,3.240328431129455566e-01,-4.312594830989837646e-01,3.971088528633117676e-01,1.528352349996566772e-01,-1.977951675653457642e-01,2.425858378410339355e-01,-6.282142996788024902e-01,-1.499136835336685181e-01,1.414410620927810669e-01
3.246439397335052490e-01,4.086947143077850342e-01,3.890458643436431885e-01,-2.070786356925964355e-01,1.381589174270629883e-01,3.495556414127349854e-01,-5.937130451202392578e-01,2.664631605148315430e-01,1.342767477035522461e-01,-3.312222063541412354e-01,2.811090946197509766e-01,-5.440222620964050293e-01,-3.685207068920135498e-01,8.178284019231796265e-02
4.037306308746337891e-01,4.538899958133697510e-01,3.880769610404968262e-01,-2.592287659645080566e-01,9.995540976524353027e-02,2.943398356437683105e-01,-6.577746272087097168e-01,4.012719392776489258e-01,1.889605373144149780e-01,-2.879917323589324951e-01,4.139958322048187256e-01,-4.119387865066528320e-01,-3.364501595497131348e-01,1.234113872051239014e-01
3.726365268230438232e-01,5.885365977883338928e-02,4.533946812152862549e-01,3.879710659384727478e-02,-1.419775281101465225e-02,3.633017241954803467e-01,-6.893939971923828125e-01,3.276278376579284668e-01,2.590017020702362061e-01,-1.589320227503776550e-02,4.627929329872131348e-01,-5.452847480773925781e-01,-1.288188248872756958e-01,2.821532487869262695e-01
1.432465910911560059e-01,2.126134373247623444e-02,2.895208299160003662e-01,-8.826973289251327515e-02,7.701226323843002319e-02,5.082590579986572266e-01,-7.977793216705322266e-01,3.725773692131042480e-01,4.062750041484832764e-01,-2.002169042825698853e-01,4.719807207584381104e-01,-4.115376174449920654e-01,4.469773266464471817e-03,-1.627773232758045197e-02
3.630252182483673096e-01,2.276474088430404663e-01,4.728668630123138428e-01,-1.626591831445693970e-01,1.034005079418420792e-02,4.401631355285644531e-01,-8.421877622604370117e-01,3.697450160980224609e-01,4.883884191513061523e-01,-7.577275484800338745e-02,5.238122344017028809e-01,-3.311707675457000732e-01,4.780605807900428772e-02,3.108831346035003662e-01
3.517513573169708252e-01,9.518202394247055054e-03,3.984310925006866455e-01,-2.332497686147689819e-01,-1.074308604001998901e-01,5.366773009300231934e-01,-9.273442029953002930e-01,1.068314462900161743e-01,2.894180715084075928e-01,-2.192906737327575684e-01,6.982916593551635742e-01,-2.450628876686096191e-01,1.055110245943069458e-01,2.887002527713775635e-01
1.535852700471878052e-01,5.582885816693305969e-03,2.871109843254089355e-01,-2.989996075630187988e-01,-1.235036924481391907e-01,6.226972341537475586e-01,-8.554776906967163086e-01,-1.161316111683845520e-01,2.097708433866500854e-01,-3.420401513576507568e-01,5.424911379814147949e-01,-2.269178777933120728e-01,-7.329318206757307053e-03,2.918729186058044434e-01
-7.911511510610580444e-02,3.801093902438879013e-03,3.535165488719940186e-01,-3.636811971664428711e-01,-2.978387176990509033e-01,4.828590154647827148e-01,-8.119323849678039551e-01,-1.856578588485717773e-01,3.993351459503173828e-01,-2.542245090007781982e-01,7.973989248275756836e-01,-3.422092497348785400e-01,1.470242142677307129e-01,3.257480263710021973e-01
6.946139037609100342e-02,-1.204465627670288086e-01,5.103139281272888184e-01,-4.357706606388092041e-01,-2.049645185470581055e-01,6.569161415100097656e-01,-9.351835250854492188e-01,7.798293232917785645e-02,2.817201018333435059e-01,-4.720948338508605957e-01,4.572964906692504883e-01,-3.894037008285522461e-01,3.894888460636138916e-01,3.166158497333526611e-01
8.873821049928665161e-02,-3.480404317378997803e-01,2.520025074481964111e-01,-4.481955766677856445e-01,-1.230533570051193237e-01,7.537964582443237305e-01,-8.808322548866271973e-01,-4.159551486372947693e-02,2.311890721321105957e-01,-6.183926463127136230e-01,3.439448177814483643e-01,-4.329754412174224854e-01,3.013024330139160156e-01,5.450606942176818848e-01
-1.273965686559677124e-01,-3.695547878742218018e-01,4.541152119636535645e-01,-4.719544947147369385e-01,-2.747978568077087402e-01,6.296427249908447266e-01,-8.274545073509216309e-01,-5.241869017481803894e-02,2.704295516014099121e-01,-5.163448452949523926e-01,2.802847027778625488e-01,-2.502383887767791748e-01,3.314949572086334229e-02,3.846940994262695312e-01
7.182221859693527222e-02,-2.834361195564270020e-01,2.467007189989089966e-01,-5.002640485763549805e-01,-3.994666635990142822e-01,7.646725773811340332e-01,-8.280156850814819336e-01,-1.566130518913269043e-01,2.704343497753143311e-01,-7.596089839935302734e-01,1.658793836832046509e-01,-3.428348600864410400e-01,3.946935236454010010e-01,3.781761825084686279e-01
3.434435725212097168e-01,-3.647997379302978516e-01,4.541201889514923096e-01,-6.494674682617187500e-01,-3.854302763938903809e-01,5.187074542045593262e-01,-6.704877614974975586e-01,7.390820235013961792e-02,1.772686988115310669e-01,-7.560914754867553711e-01,2.253177613019943237e-01,-3.545459210872650146e-01,2.538688480854034424e-01,3.834140598773956299e-01
7.765501737594604492e-03,-4.300149381160736084e-01,5.011029243469238281e-01,-5.740422606468200684e-01,-4.646107554435729980e-01,7.285906672477722168e-01,-5.100810527801513672e-01,-1.705711185932159424e-01,-2.924587763845920563e-02,-6.318586468696594238e-01,2.481640577316284180e-01,-4.695884287357330322e-01,2.535044848918914795e-01,4.327502548694610596e-01
1.757338196039199829e-01,-3.225997984409332275e-01,4.804845452308654785e-01,-6.490619778633117676e-01,-3.319428265094757080e-01,6.292638778686523438e-01,-7.757777571678161621e-01,5.400947853922843933e-02,1.261990144848823547e-02,-7.960083484649658203e-01,-4.280684888362884521e-02,-5.907581448554992676e-01,2.734414935111999512e-01,3.831478059291839600e-01
2.229830771684646606e-01,-3.880045413970947266e-01,7.214275002479553223e-01,-5.118010640144348145e-01,-2.736574709415435791e-01,5.440024137496948242e-01,-5.567696094512939453e-01,-2.751228213310241699e-01,-1.160648092627525330e-01,-7.617555260658264160e-01,3.253745660185813904e-02,-7.345318198204040527e-01,4.159805774688720703e-01,4.137830734252929688e-01
2.436356395483016968e-01,-1.078702583909034729e-01,5.931815505027770996e-01,-7.155838012695312500e-01,-5.759416818618774414e-01,6.024585366249084473e-01,-6.770765185356140137e-01,-2.281037569046020508e-01,-5.113723129034042358e-02,-9.455564022064208984e-01,2.819101512432098389e-02,-7.566016912460327148e-01,1.419426500797271729e-01,2.595162987709045410e-01
4.732267260551452637e-01,-3.282552063465118408e-01,6.472598314285278320e-01,-6.481812000274658203e-01,-2.677946686744689941e-01,6.845917701721191406e-01,-5.040692687034606934e-01,-2.453555017709732056e-01,3.281601890921592712e-02,-8.930380940437316895e-01,4.921550303697586060e-02,-8.109170794486999512e-01,-7.192195206880569458e-02,3.763594627380371094e-01
4.353961944580078125e-01,-2.938375771045684814e-01,7.482032775878906250e-01,-5.896233320236206055e-01,-5.020214915275573730e-01,6.549021005630493164e-01,-2.501057088375091553e-01,-3.764290809631347656e-01,-1.267003566026687622e-01,-9.891760349273681641e-01,-1.919210851192474365e-01,-5.953012108802795410e-01,-9.942813217639923096e-02,4.357542097568511963e-01
4.425855576992034912e-01,-6.460223346948623657e-02,6.852152347564697266e-01,-5.937560200691223145e-01,-2.517263889312744141e-01,5.768551230430603027e-01,-3.671466410160064697e-01,-2.266250252723693848e-01,-1.360208392143249512e-01,-7.003391385078430176e-01,-1.821864694356918335e-01,-6.370348930358886719e-01,-1.864029318094253540e-01,3.606352210044860840e-01
7.113721370697021484e-01,-1.458570826798677444e-03,7.787380218505859375e-01,-4.317743480205535889e-01,5.219113081693649292e-03,5.551833510398864746e-01,-4.398582279682159424e-01,-1.559032350778579712e-01,-1.290008574724197388e-01,-6.601431369781494141e-01,-5.724303796887397766e-02,-7.940739393234252930e-01,-1.136744618415832520e-01,3.456415235996246338e-01
7.469347119331359863e-01,-3.874721750617027283e-02,6.258679032325744629e-01,-5.992298722267150879e-01,5.862178280949592590e-03,7.147471904754638672e-01,-3.251447081565856934e-01,-2.727632522583007812e-01,-5.253359675407409668e-03,-7.079424858093261719e-01,7.052398473024368286e-02,-6.727693676948547363e-01,-4.842512607574462891e-01,4.892394840717315674e-01
8.058905601501464844e-01,-1.292942836880683899e-02,5.998690128326416016e-01,-3.709854781627655029e-01,8.790347725152969360e-02,4.046038091182708740e-01,-1.628828421235084534e-02,-4.388423860073089600e-01,-3.885800763964653015e-02,-6.265177130699157715e-01,3.251087618991732597e-03,-6.949203014373779297e-01,-4.326064288616180420e-01,4.222254455089569092e-01
9.110249876976013184e-01,7.291838526725769043e-02,6.289461851119995117e-01,-3.113663196563720703e-01,4.256150126457214355e-01,5.128505825996398926e-01,-1.025614365935325623e-01,-2.915838658809661865e-01,-4.666024819016456604e-02,-7.646846175193786621e-01,-2.307933866977691650e-01,-7.192451357841491699e-01,-2.926329076290130615e-01,3.563342392444610596e-01
7.463060021400451660e-01,1.121221408247947693e-01,8.118340969085693359e-01,-3.145776689052581787e-01,1.801570355892181396e-01,5.324524044990539551e-01,-1.417003199458122253e-02,-2.176136970520019531e-01,-1.434037089347839355e-01,-6.906985044479370117e-01,-1.472435444593429565e-01,-5.109531879425048828e-01,-2.766693532466888428e-01,1.432207524776458740e-01
1.009682178497314453e+00,8.632366545498371124e-03,4.543690383434295654e-01,-4.044958353042602539e-01,3.918169140815734863e-01,5.680628418922424316e-01,-9.044978022575378418e-02,-3.442257046699523926e-01,-2.377759069204330444e-01,-6.579028964042663574e-01,-2.293605953454971313e-01,-5.128516554832458496e-01,-4.192610383033752441e-01,1.497810930013656616e-01
8.913537859916687012e-01,-2.277371138334274292e-01,3.396470844745635986e-01,-4.852494001388549805e-01,4.774243235588073730e-01,5.292624831199645996e-01,-2.046300172805786133e-01,-1.903003901243209839e-01,-1.454589515924453735e-01,-5.208030939102172852e-01,9.756225161254405975e-03,-2.832840085029602051e-01,-4.941789209842681885e-01,-4.308800771832466125e-02
8.566648364067077637e-01,-4.571738839149475098e-02,3.294342160224914551e-01,-3.817666172981262207e-01,3.879791796207427979e-01,6.182623505592346191e-01,9.415116906166076660e-02,-1.196430474519729614e-01,6.631771475076675415e-02,-2.830029726028442383e-01,2.735890448093414307e-02,-2.654688656330108643e-01,-2.147489488124847412e-01,-3.665452077984809875e-02
8.665736913681030273e-01,-2.792090736329555511e-02,2.848716974258422852e-01,-2.276250123977661133e-01,3.500472009181976318e-01,2.833158671855926514e-01,8.740696310997009277e-02,-6.075222417712211609e-02,1.667149066925048828e-01,-4.093619883060455322e-01,-1.590975970029830933e-01,-3.811174631118774414e-01,-2.577657699584960938e-01,-3.015206158161163330e-01
6.382925510406494141e-01,-5.608990788459777832e-02,3.022921681404113770e-01,-3.804777264595031738e-01,5.648906826972961426e-01,3.073007762432098389e-01,3.652305901050567627e-01,-3.197863101959228516e-01,1.820951700210571289e-01,-4.162645339965820312e-01,-1.986018717288970947e-01,-1.356405913829803467e-01,-3.124488890171051025e-01,-3.223083615303039551e-01
5.802693367004394531e-01,-2.625442445278167725e-01,1.102101206779479980e-01,-2.723948657512664795e-01,4.030589163303375244e-01,5.109821557998657227e-01,2.875490486621856689e-01,-1.476433873176574707e-01,1.717987507581710815e-01,-6.174560785293579102e-01,-3.474677503108978271e-01,1.595038026571273804e-01,-1.644909679889678955e-01,-3.065502941608428955e-01
3.360475897789001465e-01,-3.862200379371643066e-01,3.808776736259460449e-01,-4.033199846744537354e-01,5.529509782791137695e-01,4.051038622856140137e-01,4.323692023754119873e-01,3.052166663110256195e-02,4.148949086666107178e-01,-4.123991429805755615e-01,-1.866877079010009766e-01,1.606511883437633514e-02,-3.248119950294494629e-01,-4.863649904727935791e-01
4.977740645408630371e-01,-2.075666785240173340e-01,9.006386995315551758e-02,-1.150836818851530552e-03,6.702350378036499023e-01,4.111812412738800049e-01,1.654980778694152832e-01,-2.548092007637023926e-01,3.461652994155883789e-01,-3.497966825962066650e-01,-2.021010369062423706e-01,-4.219709709286689758e-02,-1.862716227769851685e-01,-6.522822976112365723e-01
3.621233105659484863e-01,-4.326939880847930908e-01,-5.910426005721092224e-02,6.613681092858314514e-03,5.101795196533203125e-01,4.623925387859344482e-01,4.752964377403259277e-01,1.278746221214532852e-02,3.697738349437713623e-01,-2.178790569305419922e-01,-1.510189473628997803e-01,2.142574638128280640e-01,-8.246354758739471436e-02,-6.636895537376403809e-01
4.056060314178466797e-01,-3.473049402236938477e-01,-7.000261545181274414e-02,-1.665037125349044800e-01,6.263790130615234375e-01,6.701416373252868652e-01,3.812731206417083740e-01,-1.053746864199638367e-01,2.083310782909393311e-01,-1.138036996126174927e-01,-1.953140646219253540e-01,2.309352010488510132e-01,-6.776022911071777344e-02,-6.022128462791442871e-01
4.689400792121887207e-01,-4.020771682262420654e-01,-2.544801533222198486e-01,8.689886331558227539e-02,6.290873289108276367e-01,7.742285132408142090e-01,4.199663698673248291e-01,-6.959941983222961426e-02,3.809598088264465332e-01,-2.889622449874877930e-01,-2.711894810199737549e-01,4.393446072936058044e-02,-1.512872129678726196e-01,-6.966297626495361328e-01
4.068893194198608398e-01,-4.338626265525817871e-01,1.369177270680665970e-02,1.069106236100196838e-01,8.046311140060424805e-01,7.370916604995727539e-01,3.718940019607543945e-01,-2.016917020082473755e-01,2.140247821807861328e-01,-7.809979468584060669e-02,-1.618684232234954834e-01,2.349606454372406006e-01,-1.406298577785491943e-01,-4.756095707416534424e-01
4.469487369060516357e-01,-2.945999801158905029e-01,5.964868888258934021e-02,3.653351962566375732e-01,9.564769268035888672e-01,6.555703282356262207e-01,5.637933611869812012e-01,-3.204651772975921631e-01,1.735284626483917236e-01,4.953451082110404968e-02,-1.066402643918991089e-01,4.048016667366027832e-01,-6.867274641990661621e-02,-5.318433046340942383e-01
4.304147958755493164e-01,-4.109770655632019043e-01,1.935137808322906494e-01,3.339545428752899170e-01,8.612774610519409180e-01,7.327956557273864746e-01,3.319010138511657715e-01,-3.002743422985076904e-01,2.574701309204101562e-01,-4.327386990189552307e-02,-1.649115979671478271e-01,3.994022607803344727e-01,-8.854653686285018921e-02,-4.842589795589447021e-01
4.827270507812500000e-01,-2.676338255405426025e-01,1.191650256514549255e-01,3.076260089874267578e-01,7.167549729347229004e-01,4.603822231292724609e-01,1.786649674177169800e-01,-3.027601242065429688e-01,9.739196300506591797e-02,1.319658905267715454e-01,4.873850196599960327e-02,4.797289669513702393e-01,4.339702054858207703e-02,-2.061436474323272705e-01
2.300909906625747681e-01,-3.428945839405059814e-01,1.925405710935592651e-01,3.006060719490051270e-01,9.649425148963928223e-01,5.311330556869506836e-01,2.890262007713317871e-01,-5.365412831306457520e-01,-6.757283583283424377e-03,3.770148158073425293e-01,-4.116117022931575775e-03,3.211148977279663086e-01,2.198976129293441772e-01,-3.788999319076538086e-01
2.369311302900314331e-01,-4.209066629409790039e-01,5.304352045059204102e-01,3.781917095184326172e-01,8.845927119255065918e-01,9.213784337043762207e-01,1.183840483427047729e-01,-7.431943416595458984e-01,-2.196401357650756836e-01,7.687711715698242188e-02,-2.324988543987274170e-01,4.176463186740875244e-01,2.720670700073242188e-01,-2.628654241561889648e-01
1.075354963541030884e-01,-3.213526308536529541e-01,3.402117192745208740e-01,3.084850311279296875e-01,9.303058981895446777e-01,7.225460410118103027e-01,7.619632780551910400e-02,-6.200270652770996094e-01,-2.201167792081832886e-01,-1.740836165845394135e-02,-8.292811363935470581e-02,4.353674948215484619e-01,6.191509217023849487e-02,3.716008737683296204e-02
3.527032434940338135e-01,-4.487736821174621582e-01,2.421751022338867188e-01,2.717720568180084229e-01,6.671839356422424316e-01,9.572700858116149902e-01,1.151046343147754669e-02,-7.889521121978759766e-01,-2.383447289466857910e-01,-4.811094142496585846e-03,-4.123205691576004028e-02,4.239160418510437012e-01,1.967479437589645386e-01,-1.191118657588958740e-01
1.840594857931137085e-01,-4.104798734188079834e-01,2.777057290077209473e-01,2.368469238281250000e-01,5.220757126808166504e-01,6.270876526832580566e-01,1.281974092125892639e-02,-8.350255489349365234e-01,-2.766924500465393066e-01,2.868635952472686768e-01,-5.592377111315727234e-02,5.377051234245300293e-01,1.619043052196502686e-01,-3.238773941993713379e-01
1.733295917510986328e-01,-4.658111929893493652e-01,8.440019935369491577e-02,1.551984250545501709e-02,5.043806433677673340e-01,4.415171444416046143e-01,1.028239205479621887e-01,-8.569404482841491699e-01,-1.912933290004730225e-01,1.910792887210845947e-01,-2.177739441394805908e-01,5.756066441535949707e-01,4.642043709754943848e-01,2.678131498396396637e-02
2.302572280168533325e-01,-4.269274473190307617e-01,2.173050194978713989e-01,1.052120104432106018e-01,6.184191107749938965e-01,3.386269211769104004e-01,1.330726146697998047e-01,-9.208533763885498047e-01,-2.473031729459762573e-01,7.367730140686035156e-02,-2.502813339233398438e-01,6.381117105484008789e-01,5.235486626625061035e-01,1.491769123822450638e-02
-8.690236508846282959e-02,-2.919116616249084473e-01,3.940886855125427246e-01,1.830848157405853271e-01,4.219489693641662598e-01,4.673848152160644531e-01,1.257724463939666748e-01,-8.701770901679992676e-01,-3.299353122711181641e-01,2.021572291851043701e-01,-3.879120051860809326e-01,3.884892463684082031e-01,2.293816953897476196e-01,-4.832191392779350281e-02
-1.405472606420516968e-01,-2.993960380554199219e-01,2.666001319885253906e-01,1.022365093231201172e-01,5.454992055892944336e-01,1.227736473083496094e-01,9.298393130302429199e-02,-7.433561682701110840e-01,-3.959843516349792480e-01,1.324813216924667358e-01,-2.700085043907165527e-01,5.495983958244323730e-01,3.742962181568145752e-01,6.863405555486679077e-02
2.124061435461044312e-02,-3.170454800128936768e-01,2.963831126689910889e-01,-1.326600164175033569e-01,5.050274729728698730e-01,8.304558694362640381e-02,-7.678081840276718140e-02,-8.062216043472290039e-01,-1.321735084056854248e-01,3.333791494369506836e-01,-3.453452587127685547e-01,5.922693610191345215e-01,4.178743958473205566e-01,1.332828868180513382e-02
-1.283342242240905762e-01,-3.422466814517974854e-01,2.820228934288024902e-01,-8.062873780727386475e-02,3.335041105747222900e-01,1.788932681083679199e-01,-1.225846409797668457e-01,-8.157445192337036133e-01,-3.098380267620086670e-01,1.684536635875701904e-01,-4.741624295711517334e-01,5.595911145210266113e-01,4.369004964828491211e-01,-2.381757274270057678e-02
1.992969959974288940e-02,-3.169409632682800293e-01,4.438693523406982422e-01,-9.256085753440856934e-02,3.533270061016082764e-01,4.309013858437538147e-02,1.494690030813217163e-01,-6.832836866378784180e-01,-5.267329216003417969e-01,1.585249304771423340e-01,-5.676367878913879395e-01,4.577285051345825195e-01,4.977811872959136963e-01,-1.113586872816085815e-01
9.829095005989074707e-02,-2.462691664695739746e-01,4.029708206653594971e-01,-2.166426181793212891e-02,4.116871356964111328e-01,-1.783109605312347412e-01,3.667004108428955078e-01,-6.511837244033813477e-01,-4.425662159919738770e-01,-2.549500763416290283e-02,-7.406007647514343262e-01,3.060772418975830078e-01,4.667831957340240479e-01,-2.404128573834896088e-02
-2.351886928081512451e-01,-2.580477297306060791e-01,3.372429907321929932e-01,-2.564041614532470703e-01,4.231572449207305908e-01,-1.075450256466865540e-01,2.837424576282501221e-01,-5.589586496353149414e-01,-5.382015109062194824e-01,-1.421069949865341187e-01,-8.485738039016723633e-01,5.667054653167724609e-01,2.846104502677917480e-01,-2.825117297470569611e-02
-9.448783099651336670e-02,-5.326160416007041931e-02,3.005806505680084229e-01,-7.009702175855636597e-02,2.688549458980560303e-01,-2.234786450862884521e-01,4.857663214206695557e-01,-4.073627591133117676e-01,-6.047762036323547363e-01,7.929991185665130615e-02,-7.769509553909301758e-01,3.779517114162445068e-01,4.651182591915130615e-01,8.936960995197296143e-02
7.873254269361495972e-02,-8.178941160440444946e-02,3.655431270599365234e-01,2.980626821517944336e-01,4.473913013935089111e-01,-1.941935718059539795e-01,3.518019020557403564e-01,-5.496682524681091309e-01,-5.931031107902526855e-01,-6.079756468534469604e-02,-7.462369203567504883e-01,1.184827610850334167e-01,3.714136779308319092e-01,-1.355822756886482239e-02
1.230731159448623657e-01,1.012877672910690308e-01,3.051680624485015869e-01,-2.260707132518291473e-02,4.311918616294860840e-01,-2.578847706317901611e-01,4.191730916500091553e-01,-3.725293874740600586e-01,-4.180255234241485596e-01,1.457142084836959839e-01,-7.994368672370910645e-01,2.599960267543792725e-01,5.262031555175781250e-01,-1.784195192158222198e-02
-8.801115304231643677e-02,3.857572078704833984e-01,4.387675523757934570e-01,-1.415874343365430832e-02,4.021624922752380371e-01,-3.498944938182830811e-01,4.229250252246856689e-01,-3.118214607238769531e-01,-6.696551442146301270e-01,2.424214333295822144e-01,-7.607710957527160645e-01,1.803740113973617554e-01,3.407488167285919189e-01,7.153584808111190796e-02
-1.320485956966876984e-02,1.745292991399765015e-01,3.540219068527221680e-01,5.350927263498306274e-02,5.196774005889892578e-01,-3.943916559219360352e-01,4.531646966934204102e-01,-5.376450419425964355e-01,-4.628748297691345215e-01,1.252701878547668457e-01,-7.801547646522521973e-01,1.671778112649917603e-01,2.120292633771896362e-01,1.351158618927001953e-01
-3.057553619146347046e-02,5.084461569786071777e-01,2.513422369956970215e-01,3.731752932071685791e-02,5.705049633979797363e-01,-4.811457693576812744e-01,4.343588650226593018e-01,-3.873406052589416504e-01,-5.184085965156555176e-01,1.794018596410751343e-01,-4.588051438331604004e-01,2.174339443445205688e-01,3.219724893569946289e-01,-4.153385013341903687e-02
4.304644763469696045e-01,3.573170006275177002e-01,3.108514249324798584e-01,1.485027223825454712e-01,7.483595013618469238e-01,-3.803464174270629883e-01,5.622869133949279785e-01,-3.940246999263763428e-01,-5.157340764999389648e-01,3.666611909866333008e-01,-5.204637050628662109e-01,3.330653309822082520e-01,2.266833186149597168e-01,2.700640261173248291e-01
8.824577182531356812e-02,3.497835099697113037e-01,5.234237387776374817e-02,1.047922298312187195e-01,6.495665907859802246e-01,-5.077938437461853027e-01,8.188224434852600098e-01,-5.417327284812927246e-01,-5.793405175209045410e-01,4.045331776142120361e-01,-5.161135792732238770e-01,2.520574331283569336e-01,1.061859652400016785e-01,3.122683465480804443e-01
8.010426908731460571e-02,4.264054298400878906e-01,3.473309874534606934e-01,1.696466803550720215e-01,7.716824412345886230e-01,-3.442425727844238281e-01,5.774578452110290527e-01,-2.119941562414169312e-01,-5.889028310775756836e-01,4.156332910060882568e-01,-2.129017263650894165e-01,2.195696532726287842e-01,1.418703347444534302e-01,1.128166317939758301e-01
-8.623001724481582642e-02,4.011863172054290771e-01,4.672679677605628967e-02,3.877994418144226074e-01,7.852985262870788574e-01,-6.738023161888122559e-01,5.558294653892517090e-01,-2.382177412509918213e-01,-5.603754520416259766e-01,4.712922871112823486e-01,-1.948392987251281738e-01,5.357201695442199707e-01,1.815313845872879028e-01,3.308937326073646545e-02
6.658107042312622070e-02,5.851240754127502441e-01,3.248529136180877686e-01,3.375606834888458252e-01,8.590259552001953125e-01,-6.470242738723754883e-01,3.679717183113098145e-01,-4.914840161800384521e-01,-1.939611881971359253e-01,6.103006005287170410e-01,-3.688474185764789581e-03,5.082232356071472168e-01,3.725875616073608398e-01,1.301299631595611572e-01
-2.799734473228454590e-02,4.955417215824127197e-01,-1.962648006156086922e-03,4.105536043643951416e-01,9.218977093696594238e-01,-6.391174197196960449e-01,3.835071921348571777e-01,-2.693135440349578857e-01,-5.889673233032226562e-01,7.127456068992614746e-01,-7.183075696229934692e-02,4.274772703647613525e-01,2.192578911781311035e-01,2.948991358280181885e-01
-9.811006486415863037e-02,4.963942170143127441e-01,-1.526202857494354248e-01,3.653435111045837402e-01,8.508865833282470703e-01,-4.144154191017150879e-01,3.899258077144622803e-01,-5.065286755561828613e-01,-3.098504245281219482e-01,6.739800572395324707e-01,6.964503321796655655e-03,6.106654405593872070e-01,3.599119484424591064e-01,7.606368511915206909e-02
-2.186408787965774536e-01,3.215700089931488037e-01,-7.071697711944580078e-02,4.584672749042510986e-01,7.660186290740966797e-01,-5.774210095405578613e-01,5.886129140853881836e-01,-1.383192986249923706e-01,-1.268242895603179932e-01,4.911546707153320312e-01,1.649069227278232574e-02,7.575611472129821777e-01,6.445016264915466309e-01,9.505005925893783569e-02
-1.503618806600570679e-01,2.276958674192428589e-01,-5.478750467300415039e-01,1.809323281049728394e-01,9.667105674743652344e-01,-5.483757257461547852e-01,2.715682983398437500e-01,-3.398236334323883057e-01,-1.568171195685863495e-02,6.177604198455810547e-01,-3.004460409283638000e-02,4.765262305736541748e-01,6.750320792198181152e-01,1.864660996943712234e-03
-3.154421448707580566e-01,3.643900156021118164e-01,-1.743441671133041382e-01,5.729491710662841797e-01,8.690073490142822266e-01,-6.361542344093322754e-01,4.398917257785797119e-01,6.049874424934387207e-02,4.070787504315376282e-02,5.381481051445007324e-01,7.964406162500381470e-02,6.782712936401367188e-01,4.950392246246337891e-01,8.264397270977497101e-03
-3.794139325618743896e-01,4.044058322906494141e-01,-1.662547290325164795e-01,3.427794277667999268e-01,8.239353895187377930e-01,-6.474745273590087891e-01,4.269291758537292480e-01,-1.859953701496124268e-01,1.488117575645446777e-01,4.688774347305297852e-01,1.938723400235176086e-02,6.972653865814208984e-01,6.960201263427734375e-01,3.981956839561462402e-02
-3.553237318992614746e-01,1.205562949180603027e-01,-4.589653909206390381e-01,5.429365634918212891e-01,7.068185210227966309e-01,-3.401343524456024170e-01,3.978827297687530518e-01,-1.905020624399185181e-01,1.817299872636795044e-01,6.900551319122314453e-01,-7.001135963946580887e-05,3.615452051162719727e-01,8.622842431068420410e-01,1.236672028899192810e-01
-3.975127637386322021e-01,7.964293658733367920e-02,-3.157031834125518799e-01,4.794673621654510498e-01,6.185486316680908203e-01,-2.814880609512329102e-01,2.067607790231704712e-01,2.206013724207878113e-02,1.969873756170272827e-01,7.130035758018493652e-01,7.671479135751724243e-02,5.920597910881042480e-01,8.396625518798828125e-01,2.327972203493118286e-01
-4.727042019367218018e-01,2.899333536624908447e-01,-3.370837271213531494e-01,6.864139437675476074e-01,5.797240138053894043e-01,-4.553944468498229980e-01,1.908792555332183838e-01,-1.327096521854400635e-01,1.732397079467773438e-01,3.595236837863922119e-01,2.295067757368087769e-01,5.854874253273010254e-01,9.112899899482727051e-01,1.628380864858627319e-01
-5.139274597167968750e-01,7.412178814411163330e-02,-1.948338896036148071e-01,5.830343365669250488e-01,7.405484318733215332e-01,-2.657437920570373535e-01,2.519435882568359375e-01,-2.908293008804321289e-01,1.125493720173835754e-01,3.579153716564178467e-01,2.092309892177581787e-01,7.332361936569213867e-01,7.919642925262451172e-01,2.415167838335037231e-01
-4.984202384948730469e-01,1.619379669427871704e-01,-3.614454865455627441e-01,6.657224297523498535e-01,5.966721177101135254e-01,-2.664892077445983887e-01,3.850694298744201660e-01,-2.152711451053619385e-01,4.062879458069801331e-02,4.338080883026123047e-01,2.630674839019775391e-01,5.501139163970947266e-01,8.307181000709533691e-01,3.787642419338226318e-01
-6.185380220413208008e-01,2.532388865947723389e-01,-2.496966421604156494e-01,6.135412454605102539e-01,4.431786835193634033e-01,-2.209976911544799805e-01,-8.294340223073959351e-03,-1.153361145406961441e-02,-5.209606513381004333e-02,4.188905060291290283e-01,5.677527785301208496e-01,3.629611730575561523e-01,9.662054777145385742e-01,3.301858007907867432e-01
-3.555492758750915527e-01,1.697806715965270996e-01,-3.276786580681800842e-02,6.006981134414672852e-01,6.457399129867553711e-01,-1.134221255779266357e-01,2.802866101264953613e-01,-3.682947456836700439e-01,1.022064834833145142e-01,3.093199431896209717e-01,2.627504169940948486e-01,2.776318192481994629e-01,9.176746606826782227e-01,4.360576868057250977e-01
-4.845362603664398193e-01,1.368413418531417847e-01,-2.772463858127593994e-02,6.031605005264282227e-01,4.626929759979248047e-01,-2.232504785060882568e-01,4.448170214891433716e-02,-5.310022234916687012e-01,1.267348527908325195e-01,2.758123278617858887e-01,4.217266142368316650e-01,2.078428864479064941e-01,9.059764146804809570e-01,7.413501739501953125e-01
-5.323604345321655273e-01,2.013214677572250366e-01,3.364946320652961731e-02,9.352051019668579102e-01,4.524647295475006104e-01,-6.336057931184768677e-02,9.318514168262481689e-02,-3.881199955940246582e-01,-5.051050335168838501e-02,3.875014185905456543e-01,2.460775971412658691e-01,5.119990706443786621e-01,8.280758857727050781e-01,6.580178141593933105e-01
-5.082721114158630371e-01,1.908366084098815918e-01,1.002674922347068787e-01,7.109857201576232910e-01,3.308255374431610107e-01,-1.621459871530532837e-01,-2.129747420549392700e-01,-6.063926219940185547e-01,9.954056143760681152e-02,2.202921658754348755e-01,4.434472024440765381e-01,1.598161160945892334e-01,9.188339710235595703e-01,6.540468931198120117e-01
-3.284210562705993652e-01,1.748029887676239014e-01,1.570052504539489746e-01,7.362496256828308105e-01,3.125478327274322510e-01,-1.255717575550079346e-01,-9.641518443822860718e-02,-8.920239806175231934e-01,-1.193380355834960938e-01,6.515903025865554810e-02,4.831197559833526611e-01,1.132504865527153015e-01,7.628871202468872070e-01,7.949258685111999512e-01
-5.238059759140014648e-01,1.360741555690765381e-01,1.733730584383010864e-01,7.200601696968078613e-01,3.145150542259216309e-01,-3.250050246715545654e-01,-1.200403645634651184e-01,-5.890197157859802246e-01,-1.398631930351257324e-01,2.072574496269226074e-01,3.033551871776580811e-01,1.539636403322219849e-01,9.143825173377990723e-01,9.151497483253479004e-01
-4.075390398502349854e-01,1.429903060197830200e-01,2.238512188196182251e-01,6.321985721588134766e-01,2.110308706760406494e-01,-2.667547464370727539e-01,-2.398046106100082397e-01,-7.460187673568725586e-01,3.484495356678962708e-02,1.455274075269699097e-01,4.749265909194946289e-01,7.100445032119750977e-02,8.653053641319274902e-01,1.053874373435974121e+00
-3.547703921794891357e-01,2.740457952022552490e-01,3.195873498916625977e-01,3.270322978496551514e-01,1.129313260316848755e-01,-2.526230812072753906e-01,-1.152837797999382019e-01,-7.654364109039306641e-01,-1.608800292015075684e-01,-1.717060804367065430e-01,5.030329227447509766e-01,2.024750038981437683e-02,8.187222480773925781e-01,1.002457499504089355e+00
-3.597700893878936768e-01,2.552888393402099609e-01,1.061891168355941772e-01,3.654903173446655273e-01,2.147342264652252197e-01,-3.132101297378540039e-01,-1.699312925338745117e-01,-8.813067674636840820e-01,-3.117796406149864197e-02,-3.149352967739105225e-02,4.921877980232238770e-01,1.348191201686859131e-01,6.320799589157104492e-01,9.077486395835876465e-01
-2.302337139844894409e-01,8.136452734470367432e-02,2.881043553352355957e-01,1.810117661952972412e-01,1.991224288940429688e-01,-3.546023070812225342e-01,-6.608258932828903198e-02,-5.807759165763854980e-01,-1.637432575225830078e-01,-4.448812082409858704e-02,3.670338988304138184e-01,8.654272556304931641e-02,6.210772991180419922e-01,1.093093395233154297e+00
-1.153850927948951721e-01,-2.044436708092689514e-02,2.627158761024475098e-01,4.620512127876281738e-01,3.412912786006927490e-01,-4.834484755992889404e-01,-7.209702581167221069e-02,-7.522644996643066406e-01,1.260133534669876099e-01,-6.955602020025253296e-02,3.584684729576110840e-01,4.059460386633872986e-02,7.420837879180908203e-01,9.613503813743591309e-01
-2.560605406761169434e-01,1.113174855709075928e-01,3.454288840293884277e-01,1.163429841399192810e-01,2.389748096466064453e-01,-4.696964919567108154e-01,-8.255520462989807129e-02,-6.252993941307067871e-01,2.389649301767349243e-02,-2.597403824329376221e-01,3.898836970329284668e-01,1.610667072236537933e-02,7.653339505195617676e-01,9.542553424835205078e-01
-1.363992989063262939e-01,5.130759626626968384e-02,3.468903303146362305e-01,3.163626492023468018e-01,1.176024004817008972e-01,-4.219042062759399414e-01,-4.841009154915809631e-02,-7.604453563690185547e-01,2.998315393924713135e-01,-4.342755675315856934e-01,2.496791929006576538e-01,-7.162220031023025513e-02,5.040209293365478516e-01,7.943664193153381348e-01
1.025584787130355835e-01,9.718450158834457397e-02,2.685589790344238281e-01,8.731830120086669922e-02,6.261197477579116821e-02,-4.620143175125122070e-01,5.408463254570960999e-02,-4.513155221939086914e-01,2.981256246566772461e-01,-4.473057091236114502e-01,2.576036453247070312e-01,-7.013966143131256104e-02,7.339227199554443359e-01,5.488525032997131348e-01
4.084299132227897644e-02,1.583189219236373901e-01,2.920065820217132568e-01,2.920241355895996094e-01,2.144474387168884277e-01,-5.991985797882080078e-01,5.277539789676666260e-02,-4.191097021102905273e-01,2.514699101448059082e-01,-6.722251772880554199e-01,6.787663698196411133e-02,-1.331568658351898193e-01,4.855668246746063232e-01,6.438651084899902344e-01
1.290157288312911987e-01,1.837230920791625977e-01,1.136164218187332153e-01,2.104870080947875977e-01,6.015582382678985596e-02,-4.809322059154510498e-01,9.485074877738952637e-02,-2.724185287952423096e-01,3.269817531108856201e-01,-4.099069237709045410e-01,1.589581817388534546e-01,-1.619835346937179565e-01,4.764623641967773438e-01,8.369996547698974609e-01
1.737974733114242554e-01,1.670721918344497681e-01,1.641010940074920654e-01,3.075009882450103760e-01,7.179964333772659302e-02,-6.858544349670410156e-01,2.378507554531097412e-01,-2.029169499874114990e-01,2.924059331417083740e-01,-6.259703636169433594e-01,9.377243369817733765e-02,-2.869745194911956787e-01,5.314083099365234375e-01,7.598502635955810547e-01
2.496536448597908020e-02,1.978553235530853271e-01,1.707358956336975098e-01,2.836335003376007080e-01,3.026364743709564209e-01,-6.278241276741027832e-01,3.148032724857330322e-01,-7.579241693019866943e-02,3.671355545520782471e-01,-5.905418992042541504e-01,1.052572429180145264e-01,-1.900196075439453125e-01,4.442889690399169922e-01,8.637350201606750488e-01
2.401441335678100586e-01,2.153962105512619019e-01,2.294871807098388672e-01,2.718096077442169189e-01,1.185664609074592590e-01,-2.569421827793121338e-01,3.701140582561492920e-01,-2.394559383392333984e-01,3.386077880859375000e-01,-6.597355008125305176e-01,2.498548030853271484e-01,-2.905678935348987579e-02,2.429548352956771851e-01,7.136642932891845703e-01
1.840939074754714966e-01,2.115718573331832886e-01,1.504238992929458618e-01,6.870500445365905762e-01,2.990390360355377197e-01,-4.476751983165740967e-01,3.086300194263458252e-01,8.142629265785217285e-02,4.644590914249420166e-01,-2.786439359188079834e-01,1.627935767173767090e-01,-3.801594078540802002e-01,1.379342079162597656e-01,4.575641155242919922e-01
2.450644522905349731e-01,1.722928136587142944e-01,1.653711795806884766e-01,5.362777113914489746e-01,4.382871687412261963e-01,-5.224790573120117188e-01,5.207724571228027344e-01,-1.632050611078739166e-02,6.001048684120178223e-01,-3.600382804870605469e-01,3.609453737735748291e-01,-3.206164836883544922e-01,2.309733331203460693e-01,4.692148566246032715e-01
4.622922539710998535e-01,1.751239299774169922e-01,3.150753974914550781e-01,5.503888726234436035e-01,4.606997072696685791e-01,-6.315398216247558594e-01,3.683623075485229492e-01,1.883026063442230225e-01,4.377045929431915283e-01,-4.032982885837554932e-01,4.551377594470977783e-01,-3.270621597766876221e-01,1.065353900194168091e-01,5.886860489845275879e-01
4.760194718837738037e-01,1.177857816219329834e-01,1.314636468887329102e-01,6.454175114631652832e-01,4.925959706306457520e-01,-3.108043670654296875e-01,3.613035678863525391e-01,8.629269897937774658e-02,3.859562873840332031e-01,-2.760320007801055908e-01,4.007543623447418213e-01,-7.810486853122711182e-02,7.247420400381088257e-02,4.603328108787536621e-01
4.899214804172515869e-01,2.221875339746475220e-01,2.430191487073898315e-01,6.424635052680969238e-01,5.667304396629333496e-01,-2.702759206295013428e-01,3.276309072971343994e-01,-2.131081558763980865e-02,4.810500442981719971e-01,-1.045857071876525879e-01,5.502915978431701660e-01,-1.727368086576461792e-01,-1.892379224300384521e-01,2.857282459735870361e-01
6.220525503158569336e-01,2.709295451641082764e-01,5.105127394199371338e-02,8.002967834472656250e-01,5.873687863349914551e-01,-3.619713783264160156e-01,4.329151511192321777e-01,1.360519975423812866e-01,6.501473784446716309e-01,-1.820243299007415771e-01,5.382508635520935059e-01,-1.294848173856735229e-01,-1.014506593346595764e-01,3.899080157279968262e-01
7.174742221832275391e-01,-9.359347075223922729e-02,1.946364641189575195e-01,5.838347077369689941e-01,4.280917346477508545e-01,-1.966422796249389648e-01,2.749134302139282227e-01,1.654139310121536255e-01,6.196079254150390625e-01,8.324821479618549347e-03,6.484293937683105469e-01,-8.132293820381164551e-02,-6.078924611210823059e-02,5.210568904876708984e-01
5.123005509376525879e-01,-1.170476675033569336e-01,2.632985115051269531e-01,7.171202898025512695e-01,4.090119600296020508e-01,-1.544607728719711304e-01,3.359171748161315918e-01,1.718060523271560669e-01,7.367874383926391602e-01,6.735527515411376953e-02,5.683125257492065430e-01,1.117071509361267090e-01,-1.737737059593200684e-01,4.920069277286529541e-01
5.013796091079711914e-01,9.823652915656566620e-03,8.425144106149673462e-02,8.273294568061828613e-01,7.023224234580993652e-01,-6.560551375150680542e-02,1.837896704673767090e-01,3.069509752094745636e-02,6.776133775711059570e-01,-1.723574288189411163e-02,8.717049360275268555e-01,3.261706531047821045e-01,-2.182764112949371338e-01,4.361613392829895020e-01
3.542602360248565674e-01,-2.918889224529266357e-01,2.247450500726699829e-01,6.104749441146850586e-01,5.866999626159667969e-01,-4.117808118462562561e-02,1.743727028369903564e-01,-2.315246127545833588e-02,6.060281991958618164e-01,2.810710109770298004e-02,6.429200172424316406e-01,1.411664038896560669e-01,-2.193592637777328491e-01,1.949657052755355835e-01
2.884502112865447998e-01,-4.222726225852966309e-01,3.133821785449981689e-01,7.317677736282348633e-01,4.269589483737945557e-01,-1.912397146224975586e-01,2.343617826700210571e-01,1.152746751904487610e-01,9.671554565429687500e-01,-1.018640100955963135e-01,8.347141146659851074e-01,4.374797046184539795e-01,-7.862202823162078857e-02,2.674784958362579346e-01
3.172990083694458008e-01,-4.925467073917388916e-01,4.809300974011421204e-02,4.060436189174652100e-01,3.895276486873626709e-01,5.130457878112792969e-02,1.331677734851837158e-01,2.773180902004241943e-01,1.080875873565673828e+00,1.682150736451148987e-02,8.220534920692443848e-01,3.535869419574737549e-01,1.527301669120788574e-01,1.204188540577888489e-01
3.978866934776306152e-01,-5.021544694900512695e-01,2.449573250487446785e-03,7.193142771720886230e-01,3.307306468486785889e-01,-8.733097463846206665e-02,-2.605555020272731781e-02,1.829627752304077148e-01,9.939310550689697266e-01,-7.646202296018600464e-02,8.012775182723999023e-01,3.748574256896972656e-01,9.503337740898132324e-02,4.105462729930877686e-01
-1.265081670135259628e-02,-5.303221344947814941e-01,-3.531667962670326233e-02,6.091514229774475098e-01,1.893360018730163574e-01,-9.103412739932537079e-03,1.523956358432769775e-01,2.847224175930023193e-01,9.719877243041992188e-01,-4.893471021205186844e-03,7.818876504898071289e-01,1.581973880529403687e-01,-5.843808874487876892e-02,3.005940020084381104e-01
3.197871446609497070e-01,-6.246220469474792480e-01,4.134121164679527283e-02,6.548818349838256836e-01,1.506534665822982788e-01,-2.388795837759971619e-02,-2.740406990051269531e-01,3.226464092731475830e-01,9.838410019874572754e-01,-1.965480893850326538e-01,6.263747811317443848e-01,3.004698157310485840e-01,2.107899487018585205e-01,4.695980548858642578e-01
3.143568336963653564e-02,-1.027211427688598633e+00,9.933768212795257568e-02,5.209923982620239258e-01,-4.154894500970840454e-02,-3.775819018483161926e-02,6.623487919569015503e-02,-4.517653211951255798e-02,1.204144954681396484e+00,-9.693937003612518311e-02,6.295454502105712891e-01,2.619693577289581299e-01,1.110959723591804504e-01,3.038590550422668457e-01
-1.245350483804941177e-02,-9.597498178482055664e-01,1.935278177261352539e-01,4.540120661258697510e-01,-6.336835213005542755e-03,3.952895477414131165e-02,-6.055808812379837036e-02,2.108053117990493774e-01,9.317751526832580566e-01,-1.703767329454421997e-01,5.958539843559265137e-01,3.766960203647613525e-01,8.253549784421920776e-02,1.202737260609865189e-02
2.076668888330459595e-01,-9.550850987434387207e-01,3.566191196441650391e-01,6.408074498176574707e-01,-5.644961819052696228e-02,6.458467990159988403e-02,-1.478889286518096924e-01,2.816151380538940430e-01,7.455418705940246582e-01,-2.966833412647247314e-01,6.622221469879150391e-01,2.587611973285675049e-01,1.854968667030334473e-01,3.627105057239532471e-01
1.032841801643371582e-01,-8.507038950920104980e-01,4.409832060337066650e-01,3.859362006187438965e-01,-8.905033767223358154e-02,3.045084178447723389e-01,-2.952475845813751221e-02,4.630023241043090820e-01,7.837803959846496582e-01,-2.562508881092071533e-01,5.986164808273315430e-01,6.736101955175399780e-02,4.816585779190063477e-02,1.353919059038162231e-01
1.206364408135414124e-01,-7.542315125465393066e-01,5.384832620620727539e-01,4.795058369636535645e-01,-1.914286315441131592e-01,1.968802958726882935e-01,-2.320306897163391113e-01,1.681036353111267090e-01,7.642073631286621094e-01,-2.344692051410675049e-01,7.513640522956848145e-01,4.748832061886787415e-02,1.084458902478218079e-01,2.285514622926712036e-01
2.148386389017105103e-01,-8.628138303756713867e-01,7.171090841293334961e-01,2.105035632848739624e-01,-3.263520598411560059e-01,-6.312147527933120728e-02,-9.590642899274826050e-02,1.295751333236694336e-01,7.473477125167846680e-01,-4.753175079822540283e-01,4.986418783664703369e-01,2.378693036735057831e-02,-6.025080755352973938e-02,4.337777793407440186e-01
-3.135771676898002625e-02,-7.087452411651611328e-01,5.885900855064392090e-01,4.348342120647430420e-01,-1.546613126993179321e-01,-2.468759194016456604e-02,-1.792719513177871704e-01,1.591791212558746338e-01,6.155046820640563965e-01,-1.918643414974212646e-01,3.529214560985565186e-01,7.023614645004272461e-02,2.194647444412112236e-03,2.513725757598876953e-01
3.249228894710540771e-01,-6.458187103271484375e-01,7.875398993492126465e-01,3.373218178749084473e-01,-3.239934146404266357e-01,1.022748649120330811e-01,-9.274617582559585571e-02,8.865190297365188599e-02,5.360493063926696777e-01,-2.385136336088180542e-01,2.639758586883544922e-01,-1.298813521862030029e-01,-2.159750759601593018e-01,3.748683333396911621e-01
2.276060879230499268e-01,-7.500438690185546875e-01,7.434397339820861816e-01,1.477657556533813477e-01,-1.979077607393264771e-01,8.818743377923965454e-02,-2.054019421339035034e-01,4.162004590034484863e-02,4.102537631988525391e-01,-2.803995013236999512e-01,3.372360169887542725e-01,-1.761619150638580322e-01,-1.964696794748306274e-01,6.092270612716674805e-01
4.218207299709320068e-01,-6.504048705101013184e-01,9.946419596672058105e-01,-3.706362098455429077e-02,-1.789671480655670166e-01,2.099118530750274658e-01,-2.394291013479232788e-01,-1.098693441599607468e-02,3.081152141094207764e-01,-3.206912577152252197e-01,4.193739891052246094e-01,-1.230618283152580261e-01,-3.104813992977142334e-01,5.265729427337646484e-01
5.930545926094055176e-01,-8.242766857147216797e-01,1.084852337837219238e+00,1.243308037519454956e-01,-3.266371786594390869e-01,5.114303529262542725e-02,-1.440115422010421753e-01,4.219688475131988525e-02,2.265838682651519775e-01,-2.868719398975372314e-01,3.647384047508239746e-01,-1.226030886173248291e-01,-3.455572426319122314e-01,3.859025239944458008e-01
4.226749241352081299e-01,-5.435009002685546875e-01,1.049408912658691406e+00,1.488115452229976654e-02,-1.827338486909866333e-01,1.289067119359970093e-01,-2.256608604511711746e-05,2.390483170747756958e-01,1.696949303150177002e-01,-6.044111400842666626e-02,4.381586313247680664e-01,8.518389659002423286e-04,-2.815623283386230469e-01,4.650973379611968994e-01
4.937687218189239502e-01,-5.875723361968994141e-01,9.257097244262695312e-01,6.862453371286392212e-02,-4.157687425613403320e-01,9.563887864351272583e-02,-2.839588522911071777e-01,1.034309566020965576e-01,2.125417143106460571e-01,-9.659607708454132080e-02,2.725964486598968506e-01,-1.259242892265319824e-01,-2.458871006965637207e-01,5.430893301963806152e-01
5.520437955856323242e-01,-4.384939074516296387e-01,1.005083799362182617e+00,-2.744374573230743408e-01,-3.742259740829467773e-01,-6.074878200888633728e-02,-1.546916067600250244e-01,1.297423988580703735e-01,2.777042686939239502e-01,-3.091758489608764648e-01,1.681575179100036621e-01,-2.163908630609512329e-01,-3.698683381080627441e-01,5.436721444129943848e-01
4.418492615222930908e-01,-5.052443146705627441e-01,9.226802587509155273e-01,-2.589654326438903809e-01,-2.838986217975616455e-01,-1.739056110382080078e-01,-5.119003821164369583e-03,7.620884478092193604e-02,1.660809367895126343e-01,4.543877765536308289e-02,2.179689407348632812e-01,-6.686492264270782471e-02,-4.202730357646942139e-01,4.214906096458435059e-01
4.719672203063964844e-01,-3.298034965991973877e-01,1.056803703308105469e+00,-3.530505895614624023e-01,-2.370135337114334106e-01,-3.057880997657775879e-01,-7.487392425537109375e-02,2.142324894666671753e-01,1.925762742757797241e-01,-2.518959715962409973e-02,3.191543817520141602e-01,-9.224792569875717163e-02,-3.412281870841979980e-01,2.399439066648483276e-01
5.143024325370788574e-01,-5.134847164154052734e-01,8.295924663543701172e-01,-5.222433209419250488e-01,-2.659162878990173340e-01,-2.661074399948120117e-01,5.045764520764350891e-02,2.527817785739898682e-01,2.293026000261306763e-01,-5.026414059102535248e-03,3.001054227352142334e-01,-2.016619406640529633e-02,-4.327775239944458008e-01,1.583935916423797607e-01
4.570603072643280029e-01,-4.195227921009063721e-01,7.543342113494873047e-01,-6.072431206703186035e-01,-1.986460387706756592e-01,-5.104979872703552246e-01,-1.497881766408681870e-02,2.663021683692932129e-01,4.617106914520263672e-01,-2.200199067592620850e-01,2.491584867238998413e-01,-5.302421003580093384e-02,-4.395950138568878174e-01,3.544639945030212402e-01
3.978456556797027588e-01,-5.659635663032531738e-01,7.341445684432983398e-01,-3.469445705413818359e-01,-5.017065405845642090e-01,-3.726432025432586670e-01,-6.555893924087285995e-05,4.217801392078399658e-01,3.903315663337707520e-01,-1.396774202585220337e-01,1.858367919921875000e-01,-1.216582655906677246e-01,-5.247169137001037598e-01,1.923795193433761597e-01
4.783571660518646240e-01,-5.587052702903747559e-01,7.033752799034118652e-01,-3.057570457458496094e-01,-3.077493309974670410e-01,-3.184385299682617188e-01,2.201689630746841431e-01,3.134936988353729248e-01,5.065852999687194824e-01,-1.343333423137664795e-01,1.436199694871902466e-01,-2.392769604921340942e-02,-4.282525181770324707e-01,-2.390540391206741333e-02
3.529517948627471924e-01,-5.911806225776672363e-01,7.012661099433898926e-01,-4.855233728885650635e-01,-1.104556322097778320e-01,-2.191633433103561401e-01,2.240698337554931641e-01,5.475558042526245117e-01,4.759014248847961426e-01,-1.224689111113548279e-01,1.031959056854248047e-01,1.053466871380805969e-01,-4.864910542964935303e-01,-1.407088488340377808e-01
3.626096546649932861e-01,-5.208539962768554688e-01,5.325054526329040527e-01,-3.578270077705383301e-01,-1.458691656589508057e-01,-3.983347415924072266e-01,7.343654334545135498e-02,5.167062878608703613e-01,4.137545228004455566e-01,1.760049015283584595e-01,2.691690996289253235e-02,-4.711856320500373840e-02,-4.644713401794433594e-01,8.354968577623367310e-02
3.031274974346160889e-01,-4.035726189613342285e-01,4.577013850212097168e-01,-4.781038463115692139e-01,-2.899296581745147705e-01,-4.314291179180145264e-01,1.453646123409271240e-01,5.521839857101440430e-01,4.087305068969726562e-01,5.438564345240592957e-02,3.272805213928222656e-01,4.763486981391906738e-02,-6.829208135604858398e-01,-5.846407264471054077e-02
2.893041074275970459e-01,-3.743343353271484375e-01,4.451131522655487061e-01,-1.985958516597747803e-01,-8.897345513105392456e-02,-4.514844715595245361e-01,3.672370016574859619e-01,6.300129294395446777e-01,4.788943827152252197e-01,-3.748047351837158203e-02,-7.177690416574478149e-02,7.433265447616577148e-02,-4.472677111625671387e-01,-1.239411756396293640e-01
2.778065204620361328e-01,-5.112400054931640625e-01,5.730183124542236328e-01,-5.029031261801719666e-02,-2.487240731716156006e-01,-4.955319166183471680e-01,2.994966208934783936e-01,8.025649785995483398e-01,3.419096171855926514e-01,2.371843904256820679e-01,4.111319482326507568e-01,-3.173681721091270447e-02,-6.454411745071411133e-01,-2.569487504661083221e-02
1.380057334899902344e-01,-6.220804452896118164e-01,3.745445013046264648e-01,-1.747334301471710205e-01,-1.473163515329360962e-01,-1.411578208208084106e-01,1.312450766563415527e-01,7.776556015014648438e-01,4.288400113582611084e-01,1.787539422512054443e-01,2.253644764423370361e-01,-2.135886810719966888e-02,-4.331066608428955078e-01,-1.565467417240142822e-01
2.893011271953582764e-01,-5.391584634780883789e-01,3.437995910644531250e-01,-1.178541705012321472e-01,1.474634557962417603e-02,-3.919751569628715515e-02,4.358236491680145264e-01,7.410153746604919434e-01,3.162585496902465820e-01,2.698751091957092285e-01,2.770002186298370361e-01,1.317216902971267700e-01,-5.246168375015258789e-01,-2.623316645622253418e-01
2.272417396306991577e-01,-3.185454010963439941e-01,1.729771643877029419e-01,-4.676397517323493958e-02,3.541347756981849670e-02,-2.528245449066162109e-01,2.304306924343109131e-01,7.098739147186279297e-01,4.479480385780334473e-01,4.444265365600585938e-01,2.543619275093078613e-01,1.863975822925567627e-01,-2.281002700328826904e-01,-1.306543648242950439e-01
2.152097076177597046e-01,-4.447681307792663574e-01,4.124153554439544678e-01,-2.979395724833011627e-02,5.927678942680358887e-02,1.331093758344650269e-01,2.948165535926818848e-01,5.511263012886047363e-01,4.141922593116760254e-01,4.453078210353851318e-01,3.839072585105895996e-01,2.833218574523925781e-01,-4.360024929046630859e-01,-2.890322506427764893e-01
1.743971407413482666e-01,-3.284285962581634521e-01,3.960316181182861328e-01,1.929157078266143799e-01,-4.642206430435180664e-02,2.154037728905677795e-02,4.479135870933532715e-01,5.754024982452392578e-01,4.550033211708068848e-01,6.240339875221252441e-01,5.079414844512939453e-01,2.210554331541061401e-01,-4.080604314804077148e-01,-1.601343750953674316e-01
1.048100367188453674e-01,-3.745832741260528564e-01,3.704744279384613037e-01,3.129654228687286377e-01,1.176606118679046631e-01,1.980949193239212036e-01,3.392914533615112305e-01,3.980999588966369629e-01,4.266295135021209717e-01,4.122229516506195068e-01,5.366069674491882324e-01,2.105393558740615845e-01,-2.391930222511291504e-01,-1.039432883262634277e-01
-7.658120989799499512e-02,-4.529307484626770020e-01,2.213295102119445801e-01,1.081856787204742432e-01,2.294221147894859314e-02,7.528021931648254395e-02,2.603757381439208984e-01,3.138969838619232178e-01,4.966408610343933105e-01,6.630337238311767578e-01,3.838631212711334229e-01,3.673517107963562012e-01,-1.828987896442413330e-01,-2.922665774822235107e-01
-9.956745803356170654e-02,-6.418262124061584473e-01,2.840187251567840576e-01,-6.348847877234220505e-03,8.818679302930831909e-02,1.583561003208160400e-01,2.176532708108425140e-02,1.084029376506805420e-01,4.134925603866577148e-01,7.122534513473510742e-01,6.805149316787719727e-01,6.917273402214050293e-01,-1.421523243188858032e-01,-1.612229049205780029e-01
-3.087328188121318817e-02,-5.540355443954467773e-01,3.045141994953155518e-01,2.343623340129852295e-01,1.733398735523223877e-01,5.808468163013458252e-02,-2.366702631115913391e-02,1.602027416229248047e-01,4.744790494441986084e-01,6.947060227394104004e-01,6.162117719650268555e-01,4.585340023040771484e-01,-1.368148922920227051e-01,-3.227812945842742920e-01
-4.136790037155151367e-01,-7.019914388656616211e-01,4.806433618068695068e-02,1.661197692155838013e-01,-7.813254743814468384e-02,2.175710946321487427e-01,-1.039939373731613159e-01,-1.026634797453880310e-01,4.253693819046020508e-01,9.059032797813415527e-01,6.033181548118591309e-01,4.699219763278961182e-01,-1.317480653524398804e-01,-4.478082805871963501e-02
-2.203264981508255005e-01,-7.997995018959045410e-01,-1.184992492198944092e-02,1.027687173336744308e-02,7.863450795412063599e-02,2.105105817317962646e-01,7.983520627021789551e-02,-9.058962017297744751e-02,4.546068310737609863e-01,6.517710089683532715e-01,5.862243771553039551e-01,4.287540614604949951e-01,-1.028427705168724060e-01,-1.233139187097549438e-01
-2.625340819358825684e-01,-8.182723522186279297e-01,-1.699844188988208771e-02,-6.065284833312034607e-02,-6.259737908840179443e-02,3.133555650711059570e-01,5.326703563332557678e-02,-7.914309203624725342e-02,2.546260952949523926e-01,4.304625988006591797e-01,6.143813729286193848e-01,5.945093035697937012e-01,-2.548564923927187920e-03,-4.046326875686645508e-02
-6.997265815734863281e-01,-7.731400132179260254e-01,-1.041066870093345642e-01,1.460909545421600342e-01,-2.379736863076686859e-02,1.925117671489715576e-01,2.990762703120708466e-03,4.357004072517156601e-03,3.014676272869110107e-01,4.357219636440277100e-01,4.612229466438293457e-01,6.372732520103454590e-01,2.606388181447982788e-02,-1.361843645572662354e-01
-3.902346789836883545e-01,-7.356645464897155762e-01,3.391289338469505310e-02,1.822914741933345795e-02,-2.442228943109512329e-01,4.348343238234519958e-03,-1.651270240545272827e-01,-2.814126908779144287e-01,3.290451765060424805e-01,4.446714222431182861e-01,6.496303081512451172e-01,4.420813024044036865e-01,3.486693799495697021e-01,-5.468977615237236023e-02
-6.675589084625244141e-01,-7.614974379539489746e-01,-1.661143600940704346e-01,-4.237016290426254272e-02,-2.411653846502304077e-01,4.197246581315994263e-02,1.127602010965347290e-01,1.598395407199859619e-02,8.499983698129653931e-02,3.829374909400939941e-01,4.076499044895172119e-01,4.619427621364593506e-01,1.322157233953475952e-01,-1.696555018424987793e-01
-4.220978021621704102e-01,-6.752492785453796387e-01,-5.474258586764335632e-02,-2.094000577926635742e-01,-1.131760030984878540e-01,6.814204156398773193e-02,2.130738198757171631e-01,-1.669423282146453857e-01,2.282346636056900024e-01,3.843117058277130127e-01,3.868467211723327637e-01,3.152401149272918701e-01,3.020112216472625732e-01,-1.038667261600494385e-01
-6.186211109161376953e-01,-6.414698958396911621e-01,4.581840708851814270e-03,-1.123150959610939026e-01,-1.829989105463027954e-01,-6.535889953374862671e-02,7.824615389108657837e-02,-2.103688865900039673e-01,3.176950514316558838e-01,1.782490611076354980e-01,2.378781735897064209e-01,3.296038806438446045e-01,2.136531323194503784e-01,-5.782117601484060287e-03
-4.637759625911712646e-01,-6.928441524505615234e-01,2.955002337694168091e-02,-1.384418159723281860e-01,-4.362238049507141113e-01,3.788686171174049377e-02,6.692745536565780640e-02,-8.066967874765396118e-02,2.375093474984169006e-02,3.320544660091400146e-01,2.227094322443008423e-01,2.163011282682418823e-01,2.286101728677749634e-01,-3.923458606004714966e-02
-5.828328132629394531e-01,-8.617862462997436523e-01,-1.324778944253921509e-01,-1.155129224061965942e-01,-2.205167114734649658e-01,-1.158261671662330627e-02,2.585029304027557373e-01,-1.593742221593856812e-01,1.241682320833206177e-01,2.585136294364929199e-01,2.024249546229839325e-02,3.357519805431365967e-01,7.744266837835311890e-02,-5.025578662753105164e-02
-5.305747389793395996e-01,-6.977244615554809570e-01,1.516667306423187256e-01,-1.609792374074459076e-02,-4.655948579311370850e-01,-7.868500798940658569e-02,6.451672315597534180e-02,-1.187260597944259644e-01,-1.057548522949218750e-01,1.032713726162910461e-01,-4.166940227150917053e-02,1.785637140274047852e-01,1.933368295431137085e-01,9.039374068379402161e-03
-3.510004878044128418e-01,-4.616947472095489502e-01,9.867500513792037964e-02,-1.849324554204940796e-01,-4.552255868911743164e-01,-3.788395971059799194e-02,4.428366720676422119e-01,-4.356068372726440430e-01,-6.868437677621841431e-02,5.374420061707496643e-02,-2.695135772228240967e-01,8.881420362740755081e-04,1.473923772573471069e-01,1.223003417253494263e-01
-5.046027898788452148e-01,-5.146961212158203125e-01,1.389484256505966187e-01,-7.185399532318115234e-02,-2.394503802061080933e-01,-1.653957813978195190e-01,4.234966933727264404e-01,-1.457391083240509033e-01,-2.864532470703125000e-01,2.271778434514999390e-01,-2.055016756057739258e-01,5.112605541944503784e-02,2.397806644439697266e-01,4.871258139610290527e-02
-3.616373538970947266e-01,-6.245862245559692383e-01,1.487363278865814209e-01,1.837913244962692261e-01,-1.448562145233154297e-01,-7.062110304832458496e-02,4.936247766017913818e-01,-3.300891816616058350e-01,-1.532287597656250000e-01,3.726520240306854248e-01,-1.178843379020690918e-01,-1.831801086664199829e-01,-1.428088694810867310e-01,-1.685991734266281128e-01
-9.875850379467010498e-02,-5.193119049072265625e-01,1.936143189668655396e-01,6.685166060924530029e-02,-1.681991070508956909e-01,-1.315171569585800171e-01,5.012814998626708984e-01,-1.559280902147293091e-01,-1.809688210487365723e-01,3.938382118940353394e-02,-2.606289088726043701e-01,-2.728844620287418365e-02,-1.959035694599151611e-01,-1.514542941004037857e-02
-1.856618821620941162e-01,-2.029073089361190796e-01,6.788712739944458008e-02,-1.362859853543341160e-03,6.814413238316774368e-03,-6.095417216420173645e-02,5.925799012184143066e-01,-3.180794715881347656e-01,-3.633660376071929932e-01,3.697496652603149414e-01,-8.258900791406631470e-02,6.707490980625152588e-02,-1.205187588930130005e-01,4.250946640968322754e-02
-5.933103710412979126e-02,-1.862256675958633423e-01,2.676498889923095703e-02,8.657810091972351074e-02,1.163344383239746094e-01,-1.302825212478637695e-01,5.674617886543273926e-01,-3.982926607131958008e-01,-2.534262835979461670e-01,3.473949730396270752e-01,-2.732344269752502441e-01,-1.219008564949035645e-01,-2.140834033489227295e-01,-9.399023652076721191e-02
-2.219530045986175537e-01,-2.202291637659072876e-01,1.537647247314453125e-01,4.202753771096467972e-03,2.092320322990417480e-01,-2.726848423480987549e-01,5.697574019432067871e-01,-4.346249103546142578e-01,-4.224600791931152344e-01,3.010703027248382568e-01,-9.799831360578536987e-02,1.214210614562034607e-01,-2.645296156406402588e-01,-2.151133567094802856e-01
-1.630933284759521484e-01,-7.726245559751987457e-03,-2.010281980037689209e-01,1.889120787382125854e-02,3.373005986213684082e-01,-1.622314751148223877e-01,4.083431065082550049e-01,-2.107735425233840942e-01,-2.700014710426330566e-01,3.678763806819915771e-01,-2.821990847587585449e-01,1.694231033325195312e-01,-2.766560614109039307e-01,-2.636994123458862305e-01
6.309843808412551880e-02,-1.567258536815643311e-01,-1.445036530494689941e-01,-7.246729731559753418e-02,3.938799798488616943e-01,-3.500393331050872803e-01,5.505927801132202148e-01,-3.104856312274932861e-01,-2.667408883571624756e-01,4.104261100292205811e-01,-2.666329741477966309e-01,1.870144605636596680e-01,-1.761998087167739868e-01,-2.186161875724792480e-01
-1.321202814579010010e-01,-2.183461189270019531e-01,-3.400708436965942383e-01,6.423537433147430420e-02,2.937343418598175049e-01,-3.668743371963500977e-01,8.992487788200378418e-01,-3.084155321121215820e-01,-2.280638180673122406e-02,4.564069807529449463e-01,-1.951717138290405273e-01,1.350072920322418213e-01,-2.941963970661163330e-01,-2.035947442054748535e-01
-3.533700481057167053e-02,-3.141461014747619629e-01,-2.288215458393096924e-01,3.417016705498099327e-04,4.593097865581512451e-01,-3.217136859893798828e-01,7.012702822685241699e-01,-2.724857032299041748e-01,-9.845864027738571167e-02,5.312708616256713867e-01,-5.555484816431999207e-02,1.533961296081542969e-01,-2.986845374107360840e-01,-3.688672780990600586e-01
-3.699361905455589294e-02,-1.711319386959075928e-01,-2.886212468147277832e-01,7.087852805852890015e-02,3.956372439861297607e-01,-1.558973193168640137e-01,8.433916568756103516e-01,-3.304551243782043457e-01,-4.816728457808494568e-02,4.182141125202178955e-01,-2.012038975954055786e-01,4.009619355201721191e-01,-3.044660687446594238e-01,-4.877343475818634033e-01
-1.745871156454086304e-01,-2.022984623908996582e-01,-2.824347913265228271e-01,2.139796316623687744e-01,5.054653286933898926e-01,-4.395265579223632812e-01,8.133755326271057129e-01,-1.448121070861816406e-01,7.681921869516372681e-02,5.728132128715515137e-01,-4.709161818027496338e-01,4.557431042194366455e-01,-3.545837402343750000e-01,-4.549981653690338135e-01
-2.492042183876037598e-01,-2.278798073530197144e-01,-5.779923200607299805e-01,1.430979222059249878e-01,3.611682057380676270e-01,-4.661739170551300049e-01,1.013284325599670410e+00,-2.420842349529266357e-01,2.496454417705535889e-01,4.416723549365997314e-01,-4.318678081035614014e-01,4.243916571140289307e-01,-1.901203244924545288e-01,-5.629638433456420898e-01
-1.522847861051559448e-01,-2.046292573213577271e-01,-7.079297900199890137e-01,2.883291244506835938e-01,4.641756415367126465e-01,-3.918651640415191650e-01,8.238483071327209473e-01,2.139148535206913948e-03,1.865759342908859253e-01,5.799775123596191406e-01,-1.910746544599533081e-01,5.478802323341369629e-01,-9.024232625961303711e-02,-5.968465209007263184e-01
-2.641401290893554688e-01,-2.534514963626861572e-01,-5.973279476165771484e-01,4.865816235542297363e-01,6.181665062904357910e-01,-3.977668583393096924e-01,8.587369918823242188e-01,2.999851852655410767e-02,1.684764325618743896e-01,4.753739237785339355e-01,-3.870738148689270020e-01,5.842010974884033203e-01,-1.023477762937545776e-01,-5.985313653945922852e-01
-3.484357297420501709e-01,-1.908863335847854614e-01,-8.298289179801940918e-01,5.467811822891235352e-01,4.477333128452301025e-01,-6.260314583778381348e-01,9.148305058479309082e-01,-1.142628937959671021e-01,3.189886808395385742e-01,5.595983862876892090e-01,-3.859457373619079590e-01,6.649491190910339355e-01,-6.019485369324684143e-02,-5.735656619071960449e-01
-5.877887010574340820e-01,-3.150503635406494141e-01,-5.107926726341247559e-01,5.758479833602905273e-01,5.620418787002563477e-01,-4.296142458915710449e-01,1.187165737152099609e+00,-9.787380695343017578e-03,2.235966771841049194e-01,6.261109113693237305e-01,-3.067075014114379883e-01,7.982566952705383301e-01,-1.074194759130477905e-01,-7.651010155677795410e-01
-4.984130561351776123e-01,-2.883139550685882568e-01,-7.035509943962097168e-01,5.356931686401367188e-01,4.048947393894195557e-01,-4.136198461055755615e-01,1.114205121994018555e+00,7.784149050712585449e-02,1.059629693627357483e-01,6.849481463432312012e-01,-2.261633127927780151e-01,6.460875868797302246e-01,-2.008191049098968506e-01,-8.388673067092895508e-01
-5.356538891792297363e-01,-4.137998819351196289e-01,-6.592664718627929688e-01,5.504130125045776367e-01,3.943927288055419922e-01,-2.346543967723846436e-01,1.142566800117492676e+00,-2.337179146707057953e-02,2.447178661823272705e-01,6.109989881515502930e-01,-3.538645505905151367e-01,5.616812109947204590e-01,-3.302784403786063194e-03,-7.272840142250061035e-01
-5.264033675193786621e-01,-4.761969149112701416e-01,-5.480654835700988770e-01,5.784448385238647461e-01,6.648315787315368652e-01,-3.893036842346191406e-01,9.141629934310913086e-01,1.129078641533851624e-01,3.454783856868743896e-01,6.753220558166503906e-01,-2.443040460348129272e-01,6.021525263786315918e-01,-2.973989546298980713e-01,-7.138400673866271973e-01
-5.249806046485900879e-01,-2.921427190303802490e-01,-4.433415234088897705e-01,7.155401110649108887e-01,6.445461511611938477e-01,-1.078975051641464233e-01,9.001091718673706055e-01,-1.868831813335418701e-01,8.139090240001678467e-02,8.294801115989685059e-01,-2.782830297946929932e-01,6.252204179763793945e-01,-1.105385832488536835e-02,-5.656863451004028320e-01
-5.695007443428039551e-01,-2.089965641498565674e-01,-7.353706955909729004e-01,7.766821384429931641e-01,4.737058877944946289e-01,2.947562001645565033e-02,7.706747651100158691e-01,-3.247657120227813721e-01,1.875259429216384888e-01,7.736346125602722168e-01,-1.885128617286682129e-01,7.570486068725585938e-01,-1.458482295274734497e-01,-5.807851552963256836e-01
-5.617615580558776855e-01,-3.317520618438720703e-01,-4.149042367935180664e-01,7.534708380699157715e-01,4.723537862300872803e-01,-1.740325838327407837e-01,8.011713027954101562e-01,-2.086973339319229126e-01,1.056483313441276550e-01,8.196703195571899414e-01,-4.204471036791801453e-02,5.617729425430297852e-01,-6.571517139673233032e-02,-5.383074283599853516e-01
-4.530287086963653564e-01,-2.850555777549743652e-01,-4.958209395408630371e-01,8.550244569778442383e-01,7.972618341445922852e-01,-2.719342112541198730e-01,6.190524101257324219e-01,-2.336248606443405151e-01,6.059274822473526001e-02,9.774608612060546875e-01,-9.041234850883483887e-02,6.526962518692016602e-01,1.067944616079330444e-01,-3.401458859443664551e-01
-5.159326791763305664e-01,-2.976858913898468018e-01,-4.191684424877166748e-01,8.556288480758666992e-01,4.701347649097442627e-01,1.515683978796005249e-01,5.918006300926208496e-01,-3.053346872329711914e-01,-8.407766371965408325e-02,8.473885059356689453e-01,-1.858051270246505737e-01,6.873700022697448730e-01,1.725103408098220825e-01,-3.233030438423156738e-01
-6.719880104064941406e-01,-2.451481670141220093e-01,-3.905107080936431885e-01,8.430621623992919922e-01,4.748047292232513428e-01,-1.396540105342864990e-01,4.358131587505340576e-01,-3.358025848865509033e-01,-9.974963963031768799e-02,7.358409166336059570e-01,1.622267439961433411e-02,7.251961827278137207e-01,1.601395756006240845e-01,-2.544144988059997559e-01
-7.841562628746032715e-01,-2.074427753686904907e-01,-4.539826214313507080e-01,7.769241333007812500e-01,2.470247596502304077e-01,-3.294636309146881104e-01,4.629504978656768799e-01,-4.978124201297760010e-01,-3.074856288731098175e-02,8.376393318176269531e-01,-9.294830262660980225e-02,6.497710943222045898e-01,-2.625666558742523193e-02,-3.376884758472442627e-01
-7.694988846778869629e-01,-4.118530452251434326e-01,-3.979653418064117432e-01,7.849974632263183594e-01,4.436559379100799561e-01,-1.760764867067337036e-01,2.872081995010375977e-01,-2.647697329521179199e-01,-2.094317972660064697e-01,8.232561945915222168e-01,-6.748700141906738281e-02,8.295211195945739746e-01,1.290600746870040894e-01,-1.503236312419176102e-02
-5.862844586372375488e-01,-3.460885882377624512e-01,-4.261877834796905518e-01,5.264672636985778809e-01,4.674850702285766602e-01,-1.575731635093688965e-01,2.935435175895690918e-01,-4.912441074848175049e-01,-6.204181537032127380e-02,6.935891509056091309e-01,-7.085099816322326660e-02,6.174014806747436523e-01,-9.179187566041946411e-02,-1.965620368719100952e-01
-8.133981823921203613e-01,-2.717575430870056152e-01,-3.518491089344024658e-01,4.372520446777343750e-01,2.314702123403549194e-01,-4.387938380241394043e-01,8.100391179323196411e-02,-6.424010396003723145e-01,-1.717529296875000000e-01,6.327512860298156738e-01,-2.507288753986358643e-01,6.753989458084106445e-01,5.238075926899909973e-02,-2.006431519985198975e-01
-6.667017340660095215e-01,-2.690544426441192627e-01,-4.354452192783355713e-01,3.323458135128021240e-01,1.423788070678710938e-01,-4.215146601200103760e-01,3.460856974124908447e-01,-2.176652699708938599e-01,-2.299990803003311157e-01,6.603114008903503418e-01,-2.037637084722518921e-01,4.682515561580657959e-01,3.227761089801788330e-01,-2.372053563594818115e-01
-8.857427239418029785e-01,-3.880002498626708984e-01,-3.764625191688537598e-01,3.891276121139526367e-01,1.734468787908554077e-01,-4.559052884578704834e-01,1.657589673995971680e-01,-2.018553316593170166e-01,-2.048548460006713867e-01,6.445201039314270020e-01,-3.173485994338989258e-01,3.878041505813598633e-01,3.418940007686614990e-01,-1.418991088867187500e-01
-8.742137551307678223e-01,-2.054918855428695679e-01,-3.903946578502655029e-01,2.468158304691314697e-01,2.067306451499462128e-02,-3.812618851661682129e-01,3.034752011299133301e-01,-2.591809034347534180e-01,-2.923669293522834778e-02,5.102959275245666504e-01,-3.817726671695709229e-01,7.185212969779968262e-01,2.239415049552917480e-01,-4.993946105241775513e-02
-8.154417872428894043e-01,-3.704397082328796387e-01,-2.348091006278991699e-01,1.923721581697463989e-01,9.943476319313049316e-02,-6.164734959602355957e-01,1.514395177364349365e-01,-1.682786941528320312e-01,-4.077430665493011475e-01,5.573218464851379395e-01,-4.648105800151824951e-01,5.378116369247436523e-01,1.945118755102157593e-01,-5.338585376739501953e-02
-8.268387913703918457e-01,-1.174382716417312622e-01,-1.240982338786125183e-01,1.199772302061319351e-02,-5.445884168148040771e-02,-5.219501852989196777e-01,2.478812485933303833e-01,-1.424490362405776978e-01,-4.500257670879364014e-01,3.473719656467437744e-01,-4.294581115245819092e-01,3.782300651073455811e-01,2.893650233745574951e-01,1.610820740461349487e-02
-7.107350826263427734e-01,-3.414985537528991699e-01,-1.581375747919082642e-01,1.702989190816879272e-01,-2.062150985002517700e-01,-7.051226496696472168e-01,2.618548870086669922e-01,-1.857568174600601196e-01,-4.246559441089630127e-01,1.949207782745361328e-01,-5.312951803207397461e-01,2.218647301197052002e-01,2.342753708362579346e-01,-2.297558784484863281e-01
-7.029939889907836914e-01,-6.290595978498458862e-02,-3.983240723609924316e-01,2.932381331920623779e-01,-2.841742634773254395e-01,-7.134864330291748047e-01,2.590773999691009521e-01,-2.488170117139816284e-01,-4.054261445999145508e-01,2.153566926717758179e-01,-5.326521992683410645e-01,2.144175916910171509e-01,2.393224090337753296e-01,-5.776243284344673157e-03
-8.207314610481262207e-01,1.677015274763107300e-01,-1.929029077291488647e-02,1.250802427530288696e-01,-5.978819727897644043e-02,-8.203735351562500000e-01,1.836479902267456055e-01,1.505792886018753052e-01,-2.702887356281280518e-01,1.380174309015274048e-01,-4.400938749313354492e-01,7.332708686590194702e-02,7.962983846664428711e-02,6.758650392293930054e-02
-7.814016342163085938e-01,1.213555783033370972e-01,-2.982638403773307800e-02,1.246494501829147339e-01,-3.188800513744354248e-01,-7.671893835067749023e-01,3.507693111896514893e-01,6.917139887809753418e-02,-3.664281070232391357e-01,1.670911908149719238e-01,-6.113738417625427246e-01,2.033758759498596191e-01,-4.919217154383659363e-02,1.676763296127319336e-01
-5.239791274070739746e-01,1.952267587184906006e-01,1.501530990935862064e-03,3.054939508438110352e-01,-1.325813233852386475e-01,-8.392635583877563477e-01,5.084954500198364258e-01,2.338048219680786133e-01,-4.915095865726470947e-01,2.295163273811340332e-01,-5.510169863700866699e-01,-1.711679436266422272e-02,2.452028095722198486e-01,9.218916296958923340e-03
-5.748875141143798828e-01,2.953479588031768799e-01,-8.046720921993255615e-02,1.200472712516784668e-01,-3.280191719532012939e-01,-8.450831174850463867e-01,2.115760743618011475e-01,1.515511423349380493e-01,-3.977905809879302979e-01,5.894235521554946899e-02,-6.020261049270629883e-01,3.912085294723510742e-02,-4.932297766208648682e-02,-1.430522203445434570e-01
-3.608039915561676025e-01,2.887653410434722900e-01,1.355492603033781052e-02,2.051201164722442627e-01,-1.513651311397552490e-01,-8.390834331512451172e-01,3.108554482460021973e-01,2.452369630336761475e-01,-4.909090995788574219e-01,2.285120338201522827e-01,-5.234980583190917969e-01,-3.634796664118766785e-02,-2.109267413616180420e-01,-3.793925791978836060e-02
-4.170288741588592529e-01,5.430578589439392090e-01,1.027456484735012054e-02,9.713286906480789185e-02,-1.724178940057754517e-01,-9.568696618080139160e-01,3.099933564662933350e-01,4.698184430599212646e-01,-5.871342420578002930e-01,2.062757760286331177e-01,-3.280412852764129639e-01,7.373736798763275146e-02,-1.092126443982124329e-01,-5.268941447138786316e-02
-4.273329675197601318e-01,4.137019217014312744e-01,-1.347951591014862061e-01,2.482874691486358643e-01,1.119701340794563293e-01,-7.899892926216125488e-01,1.844104677438735962e-01,2.998864650726318359e-01,-3.057766854763031006e-01,5.109413266181945801e-01,-4.196588695049285889e-01,-2.240373641252517700e-01,-3.620211184024810791e-01,-1.320530176162719727e-01
-3.848301470279693604e-01,6.728781461715698242e-01,4.819254949688911438e-02,2.495720684528350830e-01,-8.455809950828552246e-02,-7.918416857719421387e-01,2.485374361276626587e-01,2.874563336372375488e-01,-4.512338638305664062e-01,4.694261550903320312e-01,-3.113812208175659180e-01,-1.038830503821372986e-01,-2.798724472522735596e-01,-1.124509889632463455e-02
-2.910116016864776611e-01,5.807679891586303711e-01,-1.093113720417022705e-01,1.588582545518875122e-01,-3.169377520680427551e-02,-9.366577267646789551e-01,4.136648476123809814e-01,5.921178460121154785e-01,-3.635172247886657715e-01,4.733034074306488037e-01,-4.050597175955772400e-02,-6.330715119838714600e-02,-2.980897426605224609e-01,5.361673422157764435e-03
-3.884799182415008545e-01,6.362754702568054199e-01,-2.815500795841217041e-01,3.557699164957739413e-05,-1.645514182746410370e-02,-6.125818490982055664e-01,2.750826776027679443e-01,2.017021328210830688e-01,-2.879527807235717773e-01,5.829258561134338379e-01,-2.134964615106582642e-01,-1.069768369197845459e-01,-1.398427486419677734e-01,-4.064951837062835693e-02
-3.091161251068115234e-01,6.152325272560119629e-01,-4.119024574756622314e-01,6.246174126863479614e-02,-4.726069048047065735e-02,-9.073730111122131348e-01,2.266691327095031738e-01,4.884451627731323242e-01,-1.603122204542160034e-01,5.893055796623229980e-01,-1.432162821292877197e-01,2.320903725922107697e-02,-4.057136774063110352e-01,1.307449787855148315e-01
-3.413474559783935547e-01,4.558246433734893799e-01,-1.802358627319335938e-01,1.929037868976593018e-01,-5.943597108125686646e-02,-1.012249231338500977e+00,2.971363067626953125e-01,7.514642477035522461e-01,-1.182203665375709534e-01,4.304895102977752686e-01,9.725283086299896240e-02,1.842532455921173096e-01,-2.174664735794067383e-01,-3.434474393725395203e-02
-6.419568657875061035e-01,5.304664969444274902e-01,-1.167434230446815491e-01,6.912447512149810791e-02,-1.449067592620849609e-01,-7.008386850357055664e-01,3.274484770372509956e-03,8.127612471580505371e-01,-1.888374537229537964e-01,6.397109627723693848e-01,1.448319386690855026e-02,6.593043357133865356e-02,-1.693447381258010864e-01,9.540271013975143433e-02
-4.441028237342834473e-01,2.634503245353698730e-01,-6.486643552780151367e-01,2.077122926712036133e-01,-5.740040168166160583e-02,-9.220502972602844238e-01,-3.781086206436157227e-02,7.571285963058471680e-01,-1.060418039560317993e-01,4.337945878505706787e-01,2.183884680271148682e-01,8.087112754583358765e-02,-1.831005215644836426e-01,-1.636290401220321655e-01
-6.109811663627624512e-01,3.347304165363311768e-01,-2.911872565746307373e-01,1.344495862722396851e-01,-1.309072077274322510e-01,-8.800578117370605469e-01,-1.438465714454650879e-01,6.943312287330627441e-01,3.854593038558959961e-01,5.107857584953308105e-01,3.892306387424468994e-01,-6.917453370988368988e-03,-7.516375184059143066e-02,-5.838910117745399475e-02
-7.587497234344482422e-01,3.582723140716552734e-01,-4.654518961906433105e-01,5.420448724180459976e-03,-2.377216964960098267e-01,-6.150634288787841797e-01,-3.704738989472389221e-02,6.972202658653259277e-01,2.290996015071868896e-01,4.775390028953552246e-01,7.922731339931488037e-02,7.101608067750930786e-02,-2.854260988533496857e-02,-1.758087277412414551e-01
-6.361588239669799805e-01,5.285325273871421814e-02,-5.795238018035888672e-01,3.538305163383483887e-01,-1.918115168809890747e-01,-6.002768874168395996e-01,1.575070470571517944e-01,5.362697839736938477e-01,3.522917628288269043e-01,3.978451192378997803e-01,1.811356097459793091e-01,2.849565073847770691e-02,9.119781665503978729e-03,-2.427538931369781494e-01
-6.929891109466552734e-01,2.480257451534271240e-01,-7.986481785774230957e-01,1.842936575412750244e-01,-3.259739577770233154e-01,-6.200245618820190430e-01,-1.586005389690399170e-01,7.932285070419311523e-01,4.846641719341278076e-01,4.445174038410186768e-01,2.789777219295501709e-01,5.601230263710021973e-02,-5.870802327990531921e-02,-2.922198474407196045e-01
-6.596457958221435547e-01,6.782718747854232788e-02,-7.087275981903076172e-01,2.902236580848693848e-01,-5.087092518806457520e-01,-4.823789596557617188e-01,-7.638236880302429199e-02,5.936015844345092773e-01,3.572713732719421387e-01,3.135811686515808105e-01,3.616224825382232666e-01,8.372208476066589355e-02,-7.367417961359024048e-02,-7.890056818723678589e-03
-5.690207481384277344e-01,-6.475433707237243652e-02,-3.966829776763916016e-01,4.341242313385009766e-01,-3.012781143188476562e-01,-5.727915763854980469e-01,5.440634861588478088e-02,7.478966712951660156e-01,3.943570256233215332e-01,2.368646264076232910e-01,3.624329566955566406e-01,6.396779417991638184e-02,1.111557148396968842e-02,-3.018597960472106934e-01
-8.129041194915771484e-01,1.106468737125396729e-01,-4.825572371482849121e-01,3.583814799785614014e-01,-4.764990508556365967e-01,-4.449801445007324219e-01,-1.750856935977935791e-01,6.626224517822265625e-01,4.276086986064910889e-01,1.600019931793212891e-01,2.249286174774169922e-01,-2.318692505359649658e-01,2.082208096981048584e-01,-2.091236561536788940e-01
-8.233738541603088379e-01,-5.758316442370414734e-02,-4.655943214893341064e-01,9.508466720581054688e-02,-4.033090770244598389e-01,-3.248120844364166260e-01,-2.076331526041030884e-01,6.568040251731872559e-01,3.061490058898925781e-01,1.010742038488388062e-01,2.820742428302764893e-01,-4.518331587314605713e-02,8.699016273021697998e-02,-2.205013334751129150e-01
-8.542344570159912109e-01,-1.975920237600803375e-02,-4.294713735580444336e-01,2.024686634540557861e-01,-4.685612022876739502e-01,-2.600126564502716064e-01,-1.784992665052413940e-01,7.797700166702270508e-01,1.975047886371612549e-01,2.083668857812881470e-01,3.973484933376312256e-01,-1.205544248223304749e-01,-5.807677656412124634e-02,4.713561385869979858e-02
-8.267473578453063965e-01,2.404864877462387085e-01,-5.987100005149841309e-01,1.155765503644943237e-01,-7.100228071212768555e-01,-2.707623243331909180e-01,-3.789822161197662354e-01,5.051404833793640137e-01,4.258474409580230713e-01,6.317751482129096985e-03,3.156372308731079102e-01,-3.181443810462951660e-01,9.492417424917221069e-02,4.535631835460662842e-02
-7.292671799659729004e-01,1.073266752064228058e-02,-9.579188376665115356e-02,1.797291338443756104e-01,-4.515413343906402588e-01,-8.648820221424102783e-02,-5.123604536056518555e-01,4.577451050281524658e-01,2.718904614448547363e-01,1.209665928035974503e-02,6.448572278022766113e-01,-2.664179801940917969e-01,1.450011134147644043e-01,1.166749000549316406e-01
-5.969386696815490723e-01,-2.192372977733612061e-01,-9.811860322952270508e-02,2.189769297838211060e-01,-8.145495653152465820e-01,-2.045029103755950928e-01,-4.332153499126434326e-01,4.666192233562469482e-01,1.944816261529922485e-01,5.660022050142288208e-02,4.698338210582733154e-01,-3.352732062339782715e-01,1.031940579414367676e-01,4.704573154449462891e-01
-5.146499872207641602e-01,-2.999700047075748444e-02,-2.247226089239120483e-01,1.144059821963310242e-01,-4.211664795875549316e-01,-4.639013484120368958e-02,-6.580866575241088867e-01,4.454244971275329590e-01,1.927894800901412964e-01,1.730690598487854004e-01,4.412540197372436523e-01,-2.409252524375915527e-01,-1.545830518007278442e-01,4.772522151470184326e-01
-3.611321449279785156e-01,2.929537557065486908e-03,-1.563873738050460815e-01,9.919115342199802399e-03,-7.281897664070129395e-01,-9.898915141820907593e-02,-6.230998635292053223e-01,3.755639791488647461e-01,7.419984787702560425e-02,-7.165086269378662109e-02,3.770722746849060059e-01,-5.401323437690734863e-01,-1.378993503749370575e-02,5.101687312126159668e-01
-4.698375165462493896e-01,1.367666274309158325e-01,-6.448680907487869263e-02,-1.320336610078811646e-01,-8.044711351394653320e-01,-9.044890850782394409e-02,-5.258012413978576660e-01,3.557734489440917969e-01,1.243593730032444000e-02,1.865444518625736237e-02,4.727376699447631836e-01,-5.635177493095397949e-01,-6.994573771953582764e-02,4.349247217178344727e-01
-4.558943510055541992e-01,-7.484775781631469727e-02,1.389044802635908127e-02,-9.260084480047225952e-02,-6.088041067123413086e-01,1.189289614558219910e-01,-7.080184221267700195e-01,3.616036772727966309e-01,2.039908766746520996e-01,-1.704226732254028320e-01,4.514212012290954590e-01,-5.684034228324890137e-01,5.786443501710891724e-02,6.242543458938598633e-01
-4.654408693313598633e-01,-7.378192991018295288e-02,3.354123607277870178e-02,-2.299168109893798828e-01,-8.458135724067687988e-01,1.194359138607978821e-01,-6.629641056060791016e-01,2.773963510990142822e-01,2.066613435745239258e-01,-1.881395727396011353e-01,4.383428394794464111e-01,-5.083456039428710938e-01,-3.649552538990974426e-02,4.846217632293701172e-01
-4.213690161705017090e-01,-5.527167767286300659e-02,1.806721538305282593e-01,-4.165120795369148254e-02,-7.292634248733520508e-01,-8.810574561357498169e-02,-7.262079119682312012e-01,2.107365131378173828e-01,5.783129017800092697e-03,-3.076820075511932373e-01,2.957325577735900879e-01,-6.505329608917236328e-01,9.963363409042358398e-02,3.523369431495666504e-01
-2.994025349617004395e-01,-1.355084218084812164e-02,1.203489527106285095e-01,-3.243507146835327148e-01,-8.789290189743041992e-01,-1.205623447895050049e-01,-9.230523109436035156e-01,1.596973836421966553e-01,2.862857654690742493e-02,-6.789275407791137695e-01,3.307793736457824707e-01,-5.913283824920654297e-01,-1.659472584724426270e-01,3.597025871276855469e-01
-1.984277665615081787e-01,4.773414507508277893e-02,-1.931804567575454712e-01,-2.603211700916290283e-01,-7.679252028465270996e-01,-1.341307610273361206e-01,-5.949738621711730957e-01,3.050830960273742676e-01,4.271006211638450623e-02,-4.129898250102996826e-01,2.750055193901062012e-01,-6.125327348709106445e-01,-2.287688255310058594e-01,4.548088312149047852e-01
-3.489525318145751953e-01,1.908442936837673187e-03,-7.584781944751739502e-02,-5.028279423713684082e-01,-9.872034788131713867e-01,-7.552412152290344238e-02,-4.714884757995605469e-01,3.788698017597198486e-01,-2.148132398724555969e-02,-5.867902636528015137e-01,1.705873161554336548e-01,-6.227563023567199707e-01,-4.171056747436523438e-01,3.654996156692504883e-01
-3.129201233386993408e-01,-2.822598256170749664e-02,2.855876833200454712e-02,-5.360741019248962402e-01,-9.299153089523315430e-01,-1.333679407835006714e-01,-5.226303339004516602e-01,2.065991461277008057e-01,2.113510668277740479e-01,-6.488015651702880859e-01,1.418966352939605713e-01,-9.100267887115478516e-01,-2.702723145484924316e-01,2.931384146213531494e-01
-6.340686231851577759e-02,-1.523405164480209351e-01,-9.573270380496978760e-02,-6.679828763008117676e-01,-8.002771139144897461e-01,-1.588646620512008667e-01,-2.589701414108276367e-01,4.744006395339965820e-01,2.798573374748229980e-01,-6.546596884727478027e-01,4.749846830964088440e-02,-6.519747376441955566e-01,-5.027946829795837402e-01,2.109928131103515625e-01
-1.335151493549346924e-01,-7.035236060619354248e-02,1.208014041185379028e-01,-6.660611033439636230e-01,-8.523116707801818848e-01,-4.072892367839813232e-01,-3.409544825553894043e-01,6.193872094154357910e-01,8.295261114835739136e-02,-7.590413093566894531e-01,-9.527333080768585205e-02,-7.047804594039916992e-01,-5.533201694488525391e-01,-5.057632550597190857e-02
3.891096636652946472e-02,-3.209169581532478333e-02,2.595151774585247040e-02,-6.713853478431701660e-01,-9.496007561683654785e-01,-1.772089004516601562e-01,-2.732079923152923584e-01,7.498844265937805176e-01,1.171538680791854858e-01,-4.879512488842010498e-01,-1.681713038124144077e-03,-6.755631566047668457e-01,-4.385652244091033936e-01,-3.353099524974822998e-02
1.313228905200958252e-02,-3.119193017482757568e-02,1.562585830688476562e-01,-4.318907260894775391e-01,-8.193987011909484863e-01,-1.532234698534011841e-01,-7.426542788743972778e-02,5.822675824165344238e-01,-6.475859321653842926e-03,-7.571268081665039062e-01,-3.309392556548118591e-02,-7.237944602966308594e-01,-5.729774236679077148e-01,1.340355724096298218e-01
1.009905990213155746e-02,-2.656774967908859253e-02,-4.353083670139312744e-02,-4.593495130538940430e-01,-7.969417572021484375e-01,-1.608811169862747192e-01,-1.929292380809783936e-01,6.486660242080688477e-01,1.596249938011169434e-01,-5.852954387664794922e-01,-6.742088496685028076e-02,-8.348256945610046387e-01,-5.418544411659240723e-01,-7.397109270095825195e-02
-3.219789639115333557e-02,3.947385028004646301e-02,9.114403277635574341e-03,-5.421863794326782227e-01,-6.200861930847167969e-01,-1.196578741073608398e-01,9.685789234936237335e-03,8.718318939208984375e-01,2.939291894435882568e-01,-7.736182808876037598e-01,-1.245437860488891602e-01,-7.354815006256103516e-01,-6.457657217979431152e-01,-1.915836930274963379e-01
3.468213081359863281e-01,-5.156752094626426697e-02,8.971302770078182220e-03,-4.046186506748199463e-01,-6.686600446701049805e-01,-1.018513068556785583e-01,1.630390137434005737e-01,6.750366687774658203e-01,3.151645660400390625e-01,-4.923602342605590820e-01,1.601732708513736725e-02,-8.357822895050048828e-01,-7.353683114051818848e-01,-1.687361001968383789e-01
2.396555691957473755e-01,-1.561359018087387085e-01,-4.880671203136444092e-02,-2.897462546825408936e-01,-4.062462747097015381e-01,2.351218461990356445e-02,7.481103390455245972e-02,8.629184365272521973e-01,3.815601170063018799e-01,-6.056233644485473633e-01,-6.329362094402313232e-02,-6.339164972305297852e-01,-1.056508302688598633e+00,-2.356088161468505859e-01
3.172270357608795166e-01,8.827789872884750366e-02,-4.403140395879745483e-02,-3.410422801971435547e-01,-3.180476725101470947e-01,7.563427835702896118e-02,9.673533588647842407e-02,6.232873797416687012e-01,1.438264846801757812e-01,-5.054591298103332520e-01,-1.840927749872207642e-01,-8.131352066993713379e-01,-9.658493995666503906e-01,-1.997310072183609009e-01
1.734475791454315186e-01,-3.537046909332275391e-02,6.760827451944351196e-02,-2.674449682235717773e-01,-3.683382272720336914e-01,2.676876485347747803e-01,7.355722039937973022e-02,7.394164204597473145e-01,2.483249753713607788e-01,-4.447205364704132080e-01,4.102900996804237366e-02,-6.678276658058166504e-01,-9.226242899894714355e-01,-3.622944951057434082e-01
4.197350740432739258e-01,2.816791459918022156e-02,1.412822008132934570e-01,-9.997252374887466431e-02,-1.840065866708755493e-01,1.977129727602005005e-01,2.700859680771827698e-03,6.682876348495483398e-01,1.249791830778121948e-01,-4.226071238517761230e-01,8.042687922716140747e-02,-6.286295056343078613e-01,-1.079421877861022949e+00,-2.776547670364379883e-01
4.046785831451416016e-01,-2.148641273379325867e-02,3.995331376791000366e-02,6.197986193001270294e-03,-2.648814395070075989e-02,2.878612577915191650e-01,5.800904706120491028e-02,5.121424794197082520e-01,3.662408292293548584e-01,-1.945058554410934448e-01,-2.094278112053871155e-02,-4.986097216606140137e-01,-1.071479082107543945e+00,-4.386711418628692627e-01
4.141358137130737305e-01,-9.449936449527740479e-03,-3.289453685283660889e-01,-2.562817037105560303e-01,-2.043299227952957153e-01,4.472486972808837891e-01,1.503991801291704178e-02,6.026906371116638184e-01,4.026932418346405029e-01,-1.456652134656906128e-01,4.123059809207916260e-01,-6.551440954208374023e-01,-1.059595823287963867e+00,-3.363363742828369141e-01
5.080319643020629883e-01,-1.997480392456054688e-01,-1.531288474798202515e-01,-2.670848071575164795e-01,-2.059702575206756592e-01,4.184673428535461426e-01,-9.772819280624389648e-02,5.739855766296386719e-01,3.567992448806762695e-01,-1.126588061451911926e-01,2.573347389698028564e-01,-3.025598227977752686e-01,-1.136199712753295898e+00,-6.091770529747009277e-01
1.554295420646667480e-01,-1.617543399333953857e-01,-8.839003741741180420e-02,-4.251138120889663696e-02,-1.651121377944946289e-01,3.042397499084472656e-01,-1.564177572727203369e-01,6.730577349662780762e-01,4.013191759586334229e-01,-9.027701616287231445e-02,6.401246786117553711e-02,-2.615450620651245117e-01,-9.692868590354919434e-01,-7.612202167510986328e-01
1.125349700450897217e-01,-3.078086078166961670e-01,-2.887083888053894043e-01,-2.230906039476394653e-01,7.479318976402282715e-02,5.361151695251464844e-01,-1.610735058784484863e-01,5.660617351531982422e-01,3.475809991359710693e-01,-2.678239950910210609e-03,2.013643383979797363e-01,-2.593909502029418945e-01,-8.641942143440246582e-01,-6.738587617874145508e-01
1.563245654106140137e-01,-3.986781239509582520e-01,-2.594225704669952393e-01,-4.720294103026390076e-02,-2.202734202146530151e-01,4.395905137062072754e-01,-1.856272667646408081e-01,5.991328358650207520e-01,4.286752641201019287e-01,9.422535449266433716e-02,-6.817730516195297241e-02,-5.931630358099937439e-02,-9.289270043373107910e-01,-7.436910867691040039e-01
3.141725361347198486e-01,-5.738577842712402344e-01,-4.162284731864929199e-01,-1.258588731288909912e-01,-1.201072856783866882e-01,5.149483680725097656e-01,-4.242329597473144531e-01,5.189689993858337402e-01,4.557680487632751465e-01,7.643702626228332520e-02,3.063403367996215820e-01,1.065576374530792236e-01,-7.442529201507568359e-01,-4.372170269489288330e-01
-4.449535161256790161e-02,-6.019541621208190918e-01,-3.071814179420471191e-01,-2.807136178016662598e-01,-8.712481707334518433e-02,4.436866343021392822e-01,-1.919884383678436279e-01,4.902827143669128418e-01,4.912061989307403564e-01,-1.320571452379226685e-01,4.007866606116294861e-02,-1.542425006628036499e-01,-7.859302759170532227e-01,-5.792453885078430176e-01
-1.641914364881813526e-03,-5.781307816505432129e-01,-1.517443507909774780e-01,-4.259433150291442871e-01,-1.785627454519271851e-01,6.496480107307434082e-01,-2.053738385438919067e-01,3.251491487026214600e-01,4.741434156894683838e-01,-4.122942686080932617e-02,-9.451678954064846039e-03,-1.153708100318908691e-01,-6.085708737373352051e-01,-7.134014964103698730e-01
-6.733769923448562622e-02,-7.570773959159851074e-01,-3.573578298091888428e-01,-2.783342301845550537e-01,-2.560339570045471191e-01,5.900881290435791016e-01,-2.324073612689971924e-01,5.002172589302062988e-01,4.260435700416564941e-01,-2.286549657583236694e-02,2.128071896731853485e-02,-1.113427430391311646e-02,-5.665438771247863770e-01,-6.274828910827636719e-01
-2.900457009673118591e-02,-8.432915806770324707e-01,-7.906717807054519653e-02,-3.199789226055145264e-01,-2.398186028003692627e-01,6.689403057098388672e-01,-1.982340067625045776e-01,3.593763411045074463e-01,3.729015290737152100e-01,-3.183069080114364624e-02,1.016147360205650330e-01,-2.149134129285812378e-02,-7.098346948623657227e-01,-6.239671707153320312e-01
-3.828893229365348816e-02,-7.217797040939331055e-01,-2.228736877441406250e-01,-2.600483596324920654e-01,-2.859813272953033447e-01,5.291914939880371094e-01,-1.453907489776611328e-01,3.147702217102050781e-01,2.227631807327270508e-01,-2.019401490688323975e-01,-2.035887539386749268e-01,-1.582625955343246460e-01,-5.495523810386657715e-01,-6.601386666297912598e-01
-2.304455786943435669e-01,-8.192933797836303711e-01,-1.278544515371322632e-01,-2.169776111841201782e-01,-3.861774802207946777e-01,5.231893062591552734e-01,-2.765536308288574219e-01,5.655180215835571289e-01,2.462643831968307495e-01,-6.681697070598602295e-02,-2.787404954433441162e-01,-1.031707972288131714e-01,-4.270669817924499512e-01,-5.698623061180114746e-01
-3.662891089916229248e-01,-7.804784178733825684e-01,-1.371424645185470581e-01,-2.744920849800109863e-01,-5.989639759063720703e-01,6.510813832283020020e-01,-2.483892291784286499e-01,2.440511584281921387e-01,1.824004501104354858e-01,-1.273418068885803223e-01,-9.921501576900482178e-02,-2.313215285539627075e-01,-5.221366286277770996e-01,-7.176509499549865723e-01
-8.997382968664169312e-02,-6.684353947639465332e-01,1.294136494398117065e-01,-5.380098819732666016e-01,-4.120016396045684814e-01,5.572634339332580566e-01,-3.828964233398437500e-01,2.011170238256454468e-01,8.134087175130844116e-02,-3.231395483016967773e-01,-3.086604773998260498e-01,-1.055489033460617065e-01,-4.783077836036682129e-01,-8.037934899330139160e-01
-2.494840621948242188e-01,-6.120357513427734375e-01,1.086008250713348389e-01,-3.589914441108703613e-01,-2.906182408332824707e-01,8.459800481796264648e-01,-2.929806709289550781e-01,3.160341680049896240e-01,-9.415435791015625000e-02,-2.570585906505584717e-01,-5.187304019927978516e-01,-1.398914307355880737e-01,-5.080530643463134766e-01,-5.771278738975524902e-01
-6.297294050455093384e-02,-9.130197167396545410e-01,3.423482179641723633e-01,-4.832488894462585449e-01,-4.564724564552307129e-01,1.060404300689697266e+00,-1.085003465414047241e-01,2.675399184226989746e-01,-1.381226629018783569e-01,-2.107607573270797729e-01,-3.370829820632934570e-01,-2.839255630970001221e-01,-5.236063003540039062e-01,-3.913121819496154785e-01
-1.188892275094985962e-01,-7.594559192657470703e-01,2.578646540641784668e-01,-5.766789913177490234e-01,-3.221719861030578613e-01,4.605576992034912109e-01,-2.442840188741683960e-01,1.973506659269332886e-01,-5.152150392532348633e-01,-2.872245609760284424e-01,-4.408893287181854248e-01,-3.279886841773986816e-01,-5.738472938537597656e-01,-4.597185254096984863e-01
-8.582796901464462280e-02,-3.938744366168975830e-01,4.140743613243103027e-01,-4.571424722671508789e-01,-4.305818676948547363e-01,5.316225886344909668e-01,-3.464610278606414795e-01,2.898570895195007324e-01,-4.427611529827117920e-01,-3.253743425011634827e-02,-7.063785195350646973e-01,-2.242593169212341309e-01,-4.327108561992645264e-01,-4.958805441856384277e-01
-5.924872308969497681e-02,-3.537002503871917725e-01,2.861679792404174805e-01,-5.259657502174377441e-01,-2.700281143188476562e-01,4.781216084957122803e-01,-3.481002151966094971e-01,-2.965824864804744720e-02,-3.395313024520874023e-01,-2.641006708145141602e-01,-5.919311642646789551e-01,-2.846447229385375977e-01,-7.569786310195922852e-01,-2.233513146638870239e-01
-2.038382925093173981e-02,-1.942398697137832642e-01,4.025611877441406250e-01,-5.869680047035217285e-01,-4.523398876190185547e-01,5.560325384140014648e-01,-3.887085914611816406e-01,2.751099467277526855e-01,-4.296181499958038330e-01,5.298166722059249878e-02,-3.539204299449920654e-01,-3.913755118846893311e-01,-7.648066878318786621e-01,-3.766272664070129395e-01
5.900201946496963501e-02,-3.078540265560150146e-01,4.785782992839813232e-01,-4.399864971637725830e-01,-4.064022600650787354e-01,4.761330485343933105e-01,-3.345299661159515381e-01,8.274444937705993652e-02,-5.411407947540283203e-01,-9.501396864652633667e-02,-7.407585978507995605e-01,-4.115194082260131836e-01,-8.482425808906555176e-01,-3.620146811008453369e-01
-2.355190552771091461e-02,-3.624033927917480469e-01,3.007337152957916260e-01,-7.643085718154907227e-01,-3.737049400806427002e-01,3.855009377002716064e-01,-4.568735957145690918e-01,7.851286232471466064e-02,-4.978849589824676514e-01,-6.389428675174713135e-02,-6.429136395454406738e-01,-2.344265431165695190e-01,-6.035351753234863281e-01,-2.913743257522583008e-01
-6.678204983472824097e-02,2.421388402581214905e-02,3.653688132762908936e-01,-8.126866817474365234e-01,-2.723392248153686523e-01,2.142298668622970581e-01,-2.683754563331604004e-01,-3.358594607561826706e-03,-5.695982575416564941e-01,1.035271063446998596e-01,-6.145558953285217285e-01,-2.463312894105911255e-01,-7.071120142936706543e-01,-2.668327987194061279e-01
