AF3,F7,F3,FC5,T7,P7,O1,O2,P8,T8,FC6,F4,F8,AF4
6.247987225651741028e-02,-1.435644775629043579e-01,-1.296909749507904053e-01,-3.669505566358566284e-02,-7.376321405172348022e-02,7.876411080360412598e-03,1.814727634191513062e-01,1.794225871562957764e-01,6.069944798946380615e-02,8.070854097604751587e-02,1.727426610887050629e-02,-4.089402779936790466e-02,6.964911520481109619e-02,-7.032626308500766754e-03
5.241159796714782715e-01,6.498556733131408691e-01,5.987439751625061035e-01,2.449645400047302246e-01,5.620154142379760742e-01,5.343132615089416504e-01,5.560581088066101074e-01,4.197952747344970703e-01,4.646199643611907959e-01,5.843079090118408203e-01,4.864732623100280762e-01,3.941937983036041260e-01,6.351039409637451172e-01,4.153661131858825684e-01
9.960514903068542480e-01,9.858562946319580078e-01,7.713397741317749023e-01,9.263920187950134277e-01,9.336991906166076660e-01,8.101853728294372559e-01,8.033012747764587402e-01,8.511382937431335449e-01,9.698865413665771484e-01,1.088921427726745605e+00,1.021665930747985840e+00,1.150896906852722168e+00,8.868220448493957520e-01,7.513188719749450684e-01
1.281745195388793945e+00,1.306009292602539062e+00,1.084167122840881348e+00,1.075464606285095215e+00,1.047613501548767090e+00,1.203776001930236816e+00,9.954245686531066895e-01,1.264046192169189453e+00,1.099592566490173340e+00,1.518351793289184570e+00,1.390507578849792480e+00,1.485978603363037109e+00,1.143485188484191895e+00,9.268431663513183594e-01
1.484978675842285156e+00,1.519124388694763184e+00,1.274549961090087891e+00,1.053254604339599609e+00,1.298137784004211426e+00,1.279729723930358887e+00,1.287857532501220703e+00,1.471884131431579590e+00,1.121356248855590820e+00,1.831651568412780762e+00,1.684460878372192383e+00,1.616164088249206543e+00,1.486575365066528320e+00,1.114919900894165039e+00
1.499803900718688965e+00,1.546406745910644531e+00,1.171308755874633789e+00,1.257951974868774414e+00,1.446008324623107910e+00,1.461972117424011230e+00,1.351049065589904785e+00,1.409003853797912598e+00,1.165971875190734863e+00,1.818784832954406738e+00,1.605349540710449219e+00,1.686249375343322754e+00,1.574026107788085938e+00,1.209086060523986816e+00
1.293557047843933105e+00,1.388559818267822266e+00,1.265020489692687988e+00,1.254914760589599609e+00,1.258217334747314453e+00,1.337807416915893555e+00,1.215596199035644531e+00,1.480128169059753418e+00,1.071129322052001953e+00,1.639547228813171387e+00,1.399744510650634766e+00,1.532010793685913086e+00,1.463526725769042969e+00,1.251631379127502441e+00
1.049854993820190430e+00,1.338639020919799805e+00,1.087447285652160645e+00,9.283998608589172363e-01,1.040621757507324219e+00,8.964427113533020020e-01,1.124078631401062012e+00,1.089802980422973633e+00,9.667019248008728027e-01,1.359307765960693359e+00,1.103851795196533203e+00,1.301177024841308594e+00,1.218124985694885254e+00,1.028206944465637207e+00
9.600312709808349609e-01,1.007553815841674805e+00,1.095588684082031250e+00,7.333788871765136719e-01,1.139964461326599121e+00,7.733429074287414551e-01,9.532756805419921875e-01,9.640387296676635742e-01,6.883180141448974609e-01,1.167681336402893066e+00,1.080452084541320801e+00,1.012742519378662109e+00,1.024972677230834961e+00,1.045471191406250000e+00
6.978271603584289551e-01,8.574564456939697266e-01,7.254029512405395508e-01,8.242391347885131836e-01,9.392888545989990234e-01,6.579676270484924316e-01,6.928008198738098145e-01,1.056987643241882324e+00,6.730037331581115723e-01,6.000207066535949707e-01,7.541400790214538574e-01,6.397734284400939941e-01,9.523161649703979492e-01,6.732372045516967773e-01
3.212004303932189941e-01,7.958277463912963867e-01,8.503320217132568359e-01,7.010365724563598633e-01,6.685421466827392578e-01,5.313588976860046387e-01,7.756322026252746582e-01,7.186756134033203125e-01,4.659717381000518799e-01,3.794471919536590576e-01,5.290769338607788086e-01,5.011264681816101074e-01,8.275204896926879883e-01,5.994437932968139648e-01
2.822666764259338379e-01,5.005390644073486328e-01,5.857316255569458008e-01,4.363361001014709473e-01,8.898332715034484863e-01,3.348948955535888672e-01,5.541490912437438965e-01,3.595291674137115479e-01,2.121102511882781982e-01,3.392416536808013916e-01,4.211826026439666748e-01,2.374092489480972290e-01,4.758201837539672852e-01,4.966117143630981445e-01
5.141016561537981033e-03,4.990491271018981934e-01,7.055719494819641113e-01,3.842910528182983398e-01,5.116741061210632324e-01,1.431188136339187622e-01,4.676041007041931152e-01,2.129300087690353394e-01,3.487399816513061523e-01,1.051433384418487549e-01,2.406308948993682861e-01,8.307422697544097900e-02,4.506706893444061279e-01,3.661101162433624268e-01
1.896968297660350800e-02,1.312863230705261230e-01,6.136944293975830078e-01,3.318417966365814209e-01,3.371876180171966553e-01,-1.563930064439773560e-01,4.126796722412109375e-01,2.242440283298492432e-01,2.241791337728500366e-01,-2.376796901226043701e-01,1.916633099317550659e-01,-1.086594760417938232e-01,2.803853750228881836e-01,4.487417638301849365e-01
-1.620534062385559082e-01,-2.494384348392486572e-01,2.117554247379302979e-01,8.859625458717346191e-02,1.944442540407180786e-01,-1.874936074018478394e-01,2.395951151847839355e-01,-5.500634014606475830e-02,1.842345856130123138e-02,-4.918587505817413330e-01,-2.738447189331054688e-01,-4.326123893260955811e-01,9.045583754777908325e-02,2.391472309827804565e-01
-5.543143749237060547e-01,-4.163302481174468994e-01,-8.318512886762619019e-02,-3.239375650882720947e-01,-1.384387910366058350e-01,-3.151638805866241455e-01,-5.641815438866615295e-02,-3.359823524951934814e-01,-3.944376111030578613e-01,-5.834996104240417480e-01,1.292383577674627304e-02,-3.639306426048278809e-01,-3.389812409877777100e-01,4.185287281870841980e-02
-6.311579346656799316e-01,-8.372467160224914551e-01,-4.954133033752441406e-01,-7.433145642280578613e-01,-6.373769044876098633e-01,-6.515021324157714844e-01,-2.350637763738632202e-01,-6.604205369949340820e-01,-5.130031704902648926e-01,-1.125524640083312988e+00,-1.700308769941329956e-01,-6.176924109458923340e-01,-3.673855364322662354e-01,-4.247913956642150879e-01
-7.637735605239868164e-01,-1.127962470054626465e+00,-7.847372889518737793e-01,-8.935372233390808105e-01,-9.945881962776184082e-01,-7.415004372596740723e-01,-4.606705605983734131e-01,-9.867248535156250000e-01,-7.193962335586547852e-01,-1.127662539482116699e+00,-4.765600264072418213e-01,-1.073153972625732422e+00,-6.900101304054260254e-01,-8.323780298233032227e-01
-9.844269156455993652e-01,-1.181570410728454590e+00,-1.016075015068054199e+00,-1.084418058395385742e+00,-1.308221101760864258e+00,-8.667896389961242676e-01,-6.732512116432189941e-01,-1.226798415184020996e+00,-7.298959493637084961e-01,-1.339136600494384766e+00,-5.371343493461608887e-01,-1.218828797340393066e+00,-1.150217175483703613e+00,-1.137382626533508301e+00
-8.950991630554199219e-01,-1.081082701683044434e+00,-1.016930103302001953e+00,-1.299809217453002930e+00,-1.369692683219909668e+00,-9.416691064834594727e-01,-8.962532281875610352e-01,-1.156741738319396973e+00,-7.148435711860656738e-01,-1.490859508514404297e+00,-7.448861598968505859e-01,-1.190415263175964355e+00,-1.315356135368347168e+00,-1.224443674087524414e+00
-8.199523091316223145e-01,-1.017878174781799316e+00,-9.390600323677062988e-01,-1.231282234191894531e+00,-1.270231008529663086e+00,-6.846176385879516602e-01,-9.438229203224182129e-01,-1.230492949485778809e+00,-5.310303568840026855e-01,-1.232339978218078613e+00,-6.376484632492065430e-01,-1.083225369453430176e+00,-1.239457607269287109e+00,-1.533602833747863770e+00
-7.011293172836303711e-01,-6.609462499618530273e-01,-8.456687927246093750e-01,-1.032611608505249023e+00,-1.139617562294006348e+00,-9.264189004898071289e-01,-8.740396499633789062e-01,-1.154489517211914062e+00,-3.219019472599029541e-01,-1.052894115447998047e+00,-9.061697721481323242e-01,-7.812957763671875000e-01,-1.103629112243652344e+00,-1.054545521736145020e+00
-3.277643024921417236e-01,-2.063940167427062988e-01,-4.037601947784423828e-01,-6.723546981811523438e-01,-8.888044953346252441e-01,-5.987244844436645508e-01,-8.099668025970458984e-01,-7.661820054054260254e-01,-1.768736392259597778e-01,-6.857131719589233398e-01,-5.211517810821533203e-01,-4.168432056903839111e-01,-8.951736092567443848e-01,-9.477899670600891113e-01
-2.681834399700164795e-01,2.699304223060607910e-01,-1.946455240249633789e-01,-2.770645022392272949e-01,-7.145024538040161133e-01,-9.225206822156906128e-02,-4.964236617088317871e-01,-7.012185454368591309e-01,2.541038990020751953e-01,-5.703631043434143066e-02,-1.433908641338348389e-01,4.926782846450805664e-02,-5.645141005516052246e-01,-1.002807497978210449e+00
9.708089381456375122e-02,3.422186672687530518e-01,1.491045206785202026e-01,4.815750196576118469e-02,-4.902652800083160400e-01,4.841379448771476746e-02,-8.925227820873260498e-02,-1.046236306428909302e-01,8.321198225021362305e-01,2.994064390659332275e-01,6.339205056428909302e-02,3.897140324115753174e-01,-2.263857983052730560e-02,-4.981050789356231689e-01
3.139838278293609619e-01,6.585449576377868652e-01,2.118286043405532837e-01,2.118292003870010376e-01,-2.419001013040542603e-01,4.306841790676116943e-01,2.126830220222473145e-01,6.494256108999252319e-02,5.365093350410461426e-01,5.567381381988525391e-01,3.489945232868194580e-01,5.677812099456787109e-01,5.986232683062553406e-02,-7.145382463932037354e-02
6.834102869033813477e-01,6.605381965637207031e-01,4.691472351551055908e-01,3.922818601131439209e-01,3.072291314601898193e-01,6.914435029029846191e-01,4.350407719612121582e-01,5.851800441741943359e-01,6.669768691062927246e-01,9.347789287567138672e-01,4.812687933444976807e-01,8.843727111816406250e-01,3.170969486236572266e-01,1.156161725521087646e-01
9.345034360885620117e-01,5.720968842506408691e-01,1.838096231222152710e-01,3.058290183544158936e-01,2.106890454888343811e-02,5.928999185562133789e-01,7.143147587776184082e-01,5.466976165771484375e-01,5.812507271766662598e-01,9.994568824768066406e-01,8.953748941421508789e-01,9.149482250213623047e-01,4.671778380870819092e-01,1.355857402086257935e-01
6.962127089500427246e-01,3.329039216041564941e-01,-6.357771903276443481e-02,2.416762262582778931e-01,4.404731988906860352e-01,5.209603905677795410e-01,4.418723285198211670e-01,6.248509883880615234e-01,5.075420141220092773e-01,9.970635175704956055e-01,8.876973986625671387e-01,6.721853017807006836e-01,6.030749678611755371e-01,3.812716305255889893e-01
5.536866784095764160e-01,2.270475625991821289e-01,1.807180345058441162e-01,1.991625130176544189e-01,4.003043472766876221e-01,5.358303189277648926e-01,5.148696899414062500e-01,7.496609091758728027e-01,2.400992512702941895e-01,5.754391551017761230e-01,8.500749468803405762e-01,5.660156607627868652e-01,8.229714632034301758e-01,5.404753684997558594e-01
3.420212566852569580e-01,-8.761689811944961548e-02,2.732386589050292969e-01,2.856970727443695068e-01,1.977091878652572632e-01,5.049039795994758606e-02,3.808912038803100586e-01,6.978471875190734863e-01,1.387967467308044434e-01,2.183713950216770172e-02,3.915879130363464355e-01,2.168061286211013794e-01,4.930637180805206299e-01,4.337848424911499023e-01
1.263678222894668579e-01,-1.869219690561294556e-01,2.380132675170898438e-01,2.499415725469589233e-01,3.905282318592071533e-01,-6.310916692018508911e-02,3.560439646244049072e-01,4.915902018547058105e-01,-2.764440774917602539e-01,4.710678756237030029e-02,1.755838692188262939e-01,-7.722622901201248169e-02,5.394713282585144043e-01,4.682239294052124023e-01
-1.973767876625061035e-01,1.523537002503871918e-02,1.609690040349960327e-01,2.067051380872726440e-01,5.663933753967285156e-01,-6.093112751841545105e-02,-1.170968916267156601e-02,3.618194162845611572e-01,-4.897816181182861328e-01,-4.894032776355743408e-01,-1.744305789470672607e-01,-3.654078543186187744e-01,3.531745374202728271e-01,4.623858928680419922e-01
-7.749407291412353516e-01,-1.464529037475585938e-01,2.369066476821899414e-01,3.445532619953155518e-01,6.755246520042419434e-01,-4.960169494152069092e-01,-1.436329185962677002e-01,1.429188996553421021e-01,-5.124804973602294922e-01,-4.615942835807800293e-01,-6.137596964836120605e-01,-5.338415503501892090e-01,1.467632651329040527e-01,7.190181016921997070e-01
-6.183648109436035156e-01,-2.682598531246185303e-01,3.403913676738739014e-01,2.039866000413894653e-01,5.816644430160522461e-01,-6.170200109481811523e-01,-7.968083769083023071e-02,1.925204247236251831e-01,-7.360364198684692383e-01,-4.488897919654846191e-01,-8.356452584266662598e-01,-7.184185385704040527e-01,2.063641995191574097e-01,4.650966227054595947e-01
-6.875635385513305664e-01,-5.151546597480773926e-01,1.846509128808975220e-01,2.862607836723327637e-01,6.822401881217956543e-01,-6.703619360923767090e-01,-1.089012324810028076e-01,1.040548756718635559e-01,-5.595406293869018555e-01,-7.735525965690612793e-01,-1.116548776626586914e+00,-6.559332609176635742e-01,-1.670326665043830872e-02,7.121068835258483887e-01
-9.239881038665771484e-01,-5.594970583915710449e-01,-3.184590488672256470e-02,1.863603889942169189e-01,5.986264348030090332e-01,-7.066818475723266602e-01,-1.974616497755050659e-01,8.621178567409515381e-02,-6.590301990509033203e-01,-5.222747921943664551e-01,-1.230043649673461914e+00,-6.402518153190612793e-01,3.348789215087890625e-01,6.645800471305847168e-01
-7.375016212463378906e-01,-7.896974682807922363e-01,-3.989700675010681152e-01,5.331007391214370728e-02,5.049794912338256836e-01,-3.862940669059753418e-01,-4.322347044944763184e-01,1.212666183710098267e-01,-7.071373462677001953e-01,-2.087091505527496338e-01,-1.313605427742004395e+00,-5.712010264396667480e-01,2.213511615991592407e-01,6.158167719841003418e-01
-4.915237724781036377e-01,-9.206240773200988770e-01,-6.514989733695983887e-01,-2.068482488393783569e-01,1.611762791872024536e-01,-3.120538890361785889e-01,-3.966765105724334717e-01,-8.201160281896591187e-02,-9.084748625755310059e-01,-3.589313030242919922e-01,-1.146192789077758789e+00,-3.136228024959564209e-01,-1.320861577987670898e-01,3.488816320896148682e-01
-3.917467594146728516e-01,-1.005575060844421387e+00,-9.380412101745605469e-01,-4.550534784793853760e-01,-2.411588579416275024e-01,-3.108819127082824707e-01,-5.248038172721862793e-01,-2.677968442440032959e-01,-8.662582039833068848e-01,-2.109933644533157349e-01,-1.001499295234680176e+00,-1.335803121328353882e-01,1.085888892412185669e-01,-9.461437165737152100e-02
-1.876742839813232422e-01,-9.905404448509216309e-01,-1.215982437133789062e+00,-6.625934243202209473e-01,-6.054310798645019531e-01,-1.759327352046966553e-01,-6.405371427536010742e-01,-5.065951943397521973e-01,-1.067476153373718262e+00,-2.527550160884857178e-01,-7.917271852493286133e-01,-7.782573997974395752e-02,-4.109516739845275879e-01,-3.550342097878456116e-02
-7.713825255632400513e-02,-7.339405417442321777e-01,-1.345853447914123535e+00,-7.938097119331359863e-01,-8.078680038452148438e-01,4.789603408426046371e-03,-8.159938454627990723e-01,-3.253450393676757812e-01,-7.204129099845886230e-01,-2.605777978897094727e-01,-7.046046853065490723e-01,-9.512882679700851440e-03,-5.667576789855957031e-01,-2.960152029991149902e-01
5.369218066334724426e-02,-3.856689333915710449e-01,-8.546040654182434082e-01,-7.783705592155456543e-01,-7.116330265998840332e-01,2.906565787270665169e-04,-1.060361742973327637e+00,-7.845346927642822266e-01,-5.544756054878234863e-01,1.210159659385681152e-01,-5.831359624862670898e-01,-6.279593799263238907e-03,-6.946950554847717285e-01,-4.206275343894958496e-01
3.676626682281494141e-01,1.212195083498954773e-01,-1.042399048805236816e+00,-3.964819610118865967e-01,-7.561377882957458496e-01,3.193384706974029541e-01,-9.581354260444641113e-01,-5.956735014915466309e-01,-3.502122759819030762e-01,2.589142918586730957e-01,-3.807395994663238525e-01,2.584638297557830811e-01,-5.650433897972106934e-01,-5.215461254119873047e-01
2.963817417621612549e-01,4.997404217720031738e-01,-5.971977114677429199e-01,-2.420290708541870117e-01,-6.032709479331970215e-01,5.101705193519592285e-01,-9.283267855644226074e-01,-5.120945572853088379e-01,4.098169878125190735e-02,4.322041869163513184e-01,-2.633619010448455811e-01,4.877456724643707275e-01,-6.311744451522827148e-01,-7.983106374740600586e-01
5.582415461540222168e-01,8.935862183570861816e-01,5.960226804018020630e-02,1.899735182523727417e-01,-2.320528924465179443e-01,5.510510206222534180e-01,-8.048774600028991699e-01,-3.564012944698333740e-01,4.797060787677764893e-01,8.280494809150695801e-01,-1.221277937293052673e-01,9.622853398323059082e-01,-3.991910517215728760e-01,-7.513590455055236816e-01
8.188493847846984863e-01,1.542750835418701172e+00,7.369454205036163330e-02,4.104020893573760986e-01,-1.025490276515483856e-02,7.123050689697265625e-01,-3.599709570407867432e-01,-1.522034406661987305e-02,9.510751962661743164e-01,1.143103361129760742e+00,3.168005943298339844e-01,1.142865538597106934e+00,-2.172704786062240601e-01,-4.672487676143646240e-01
9.872339367866516113e-01,1.622563600540161133e+00,1.804295033216476440e-01,6.245169639587402344e-01,1.415533870458602905e-01,1.027625560760498047e+00,-9.700544923543930054e-02,6.469786167144775391e-01,1.283610463142395020e+00,1.417230248451232910e+00,4.495531022548675537e-01,1.313386082649230957e+00,1.814395785331726074e-01,-1.962278783321380615e-01
1.212473511695861816e+00,1.719418287277221680e+00,4.789231419563293457e-01,6.448381543159484863e-01,4.622223377227783203e-01,1.148280501365661621e+00,4.269109070301055908e-01,6.311935186386108398e-01,1.509619116783142090e+00,1.512537598609924316e+00,8.293224573135375977e-01,1.597149133682250977e+00,6.903412342071533203e-01,2.861991822719573975e-01
1.265665292739868164e+00,1.483488678932189941e+00,4.834527075290679932e-01,9.188255071640014648e-01,2.918810546398162842e-01,1.264166831970214844e+00,8.245304822921752930e-01,7.139650583267211914e-01,1.350798487663269043e+00,1.569921851158142090e+00,1.109693408012390137e+00,1.369113802909851074e+00,9.926467537879943848e-01,9.859600663185119629e-02
1.340008854866027832e+00,1.266773343086242676e+00,6.302300691604614258e-01,8.303741216659545898e-01,3.301762044429779053e-01,1.000994443893432617e+00,8.962742686271667480e-01,9.206520318984985352e-01,1.202880740165710449e+00,1.182018399238586426e+00,1.592862486839294434e+00,1.236680865287780762e+00,1.125367641448974609e+00,1.154100447893142700e-01
1.367583274841308594e+00,8.914643526077270508e-01,7.274848222732543945e-01,6.226433515548706055e-01,3.694379329681396484e-01,1.007003188133239746e+00,1.167351365089416504e+00,9.557088613510131836e-01,1.166738629341125488e+00,6.540568470954895020e-01,1.742977023124694824e+00,8.458730578422546387e-01,9.353888034820556641e-01,3.585329055786132812e-01
9.385381937026977539e-01,9.868347644805908203e-01,8.821913599967956543e-01,5.818507075309753418e-01,2.980751991271972656e-01,7.451285123825073242e-01,1.389271616935729980e+00,6.580237150192260742e-01,8.447538018226623535e-01,1.103171557188034058e-01,1.718836545944213867e+00,3.696174025535583496e-01,8.716685771942138672e-01,3.301209807395935059e-01
5.621961951255798340e-01,7.214201092720031738e-01,1.180424213409423828e+00,5.153010487556457520e-01,3.084432482719421387e-01,1.258863955736160278e-01,1.544045805931091309e+00,4.467399120330810547e-01,7.014795541763305664e-01,-3.772433400154113770e-01,1.733306884765625000e+00,-8.832713961601257324e-02,6.302867531776428223e-01,1.672524809837341309e-01
8.878225088119506836e-02,6.174996495246887207e-01,1.124978780746459961e+00,6.012038588523864746e-01,6.458433270454406738e-01,-2.270263880491256714e-01,1.230358123779296875e+00,1.432997882366180420e-01,4.517856538295745850e-01,-8.989837765693664551e-01,1.437645435333251953e+00,-8.751834034919738770e-01,4.870740473270416260e-01,1.465693861246109009e-01
-2.593180537223815918e-01,3.008631169795989990e-01,1.496459841728210449e+00,4.455579817295074463e-01,6.592152118682861328e-01,-7.122311592102050781e-01,1.229304432868957520e+00,8.829842507839202881e-02,2.114822715520858765e-01,-1.514029979705810547e+00,1.181425452232360840e+00,-1.207528352737426758e+00,1.452055722475051880e-01,2.957244217395782471e-01
-9.742794036865234375e-01,6.939463317394256592e-02,1.329824447631835938e+00,4.466618001461029053e-01,8.820842504501342773e-01,-1.034875154495239258e+00,1.122891426086425781e+00,-3.694030046463012695e-01,6.257390975952148438e-02,-1.629335284233093262e+00,6.294018626213073730e-01,-1.456273674964904785e+00,-1.927904784679412842e-02,4.034062325954437256e-01
-1.036848187446594238e+00,-2.646029591560363770e-01,1.397933244705200195e+00,2.336835116147994995e-01,8.289408683776855469e-01,-1.330262541770935059e+00,9.188350439071655273e-01,-6.782719492912292480e-01,-2.202613949775695801e-01,-1.617761015892028809e+00,2.501285374164581299e-01,-1.634814023971557617e+00,-2.965701222419738770e-01,2.979646027088165283e-01
-1.396756172180175781e+00,-7.807996869087219238e-01,1.130588293075561523e+00,1.463400572538375854e-01,6.478999853134155273e-01,-1.539490103721618652e+00,9.760445356369018555e-01,-5.046976208686828613e-01,-1.356480419635772705e-01,-1.746144056320190430e+00,-2.975377142429351807e-01,-1.619761109352111816e+00,-2.077459096908569336e-01,4.012333750724792480e-01
-1.397316455841064453e+00,-1.157682776451110840e+00,6.341382861137390137e-01,-3.503941372036933899e-02,5.320723056793212891e-01,-1.497203826904296875e+00,8.159759044647216797e-01,-7.768285870552062988e-01,-2.384258359670639038e-01,-1.358555078506469727e+00,-6.028960943222045898e-01,-1.511637687683105469e+00,-6.358910799026489258e-01,4.051686823368072510e-01
-1.396857500076293945e+00,-1.477379918098449707e+00,2.349499613046646118e-01,-5.320549607276916504e-01,-7.680211216211318970e-02,-1.254946470260620117e+00,6.204976439476013184e-01,-6.679460406303405762e-01,-5.017515420913696289e-01,-1.091804504394531250e+00,-9.145238399505615234e-01,-1.391254305839538574e+00,-5.285106301307678223e-01,1.615189611911773682e-01
-1.234658241271972656e+00,-1.758612990379333496e+00,-4.512776732444763184e-01,-7.934935092926025391e-01,-6.019403934478759766e-01,-9.826747179031372070e-01,2.582891881465911865e-01,-6.775289773941040039e-01,-5.642454028129577637e-01,-9.833161234855651855e-01,-9.966331124305725098e-01,-9.533406496047973633e-01,-5.023570060729980469e-01,1.404995471239089966e-01
-1.148451328277587891e+00,-1.934839844703674316e+00,-6.839990019798278809e-01,-1.323322772979736328e+00,-5.950539112091064453e-01,-7.625930309295654297e-01,2.226424962282180786e-02,-7.837318181991577148e-01,-9.528478384017944336e-01,-6.950515508651733398e-01,-1.176583409309387207e+00,-6.777579188346862793e-01,-7.421103715896606445e-01,-3.293792307376861572e-01
-7.977200746536254883e-01,-1.781568646430969238e+00,-1.110140204429626465e+00,-1.502737998962402344e+00,-1.134198904037475586e+00,-6.791424155235290527e-01,-2.042900323867797852e-01,-8.738245964050292969e-01,-6.128820776939392090e-01,-2.868981361389160156e-01,-9.594706296920776367e-01,-1.455882638692855835e-01,-1.112813115119934082e+00,-3.846492469310760498e-01
-5.630006790161132812e-01,-1.212559342384338379e+00,-1.212442040443420410e+00,-1.456585288047790527e+00,-1.285977482795715332e+00,-2.149590402841567993e-01,-6.616593003273010254e-01,-1.118889570236206055e+00,-8.125481009483337402e-01,-1.744697093963623047e-01,-8.434788584709167480e-01,-2.937109172344207764e-01,-1.135910868644714355e+00,-5.779784917831420898e-01
-3.072082400321960449e-01,-9.817432761192321777e-01,-1.080672025680541992e+00,-1.488215208053588867e+00,-1.278821587562561035e+00,-6.224998086690902710e-02,-9.177722334861755371e-01,-9.001100659370422363e-01,-5.374137163162231445e-01,1.212199032306671143e-01,-5.263040661811828613e-01,1.536850184202194214e-01,-1.271282076835632324e+00,-1.096346497535705566e+00
-1.038111597299575806e-01,-4.752693176269531250e-01,-9.639617204666137695e-01,-1.086112976074218750e+00,-1.190078377723693848e+00,7.279735058546066284e-02,-1.202634930610656738e+00,-8.377985358238220215e-01,-2.986121475696563721e-01,4.756389260292053223e-01,-3.294618427753448486e-01,1.683389097452163696e-01,-1.431422472000122070e+00,-1.164679050445556641e+00
-4.078548401594161987e-02,1.533095538616180420e-01,-9.495320320129394531e-01,-8.066892027854919434e-01,-9.954542517662048340e-01,2.332631498575210571e-01,-1.254699945449829102e+00,-7.019786834716796875e-01,-2.503758072853088379e-01,1.078313589096069336e+00,-2.148450016975402832e-01,3.679611682891845703e-01,-1.374797224998474121e+00,-1.027930378913879395e+00
2.613892853260040283e-01,4.814604222774505615e-01,-7.261133193969726562e-01,-4.370388686656951904e-01,-4.739052951335906982e-01,5.182350277900695801e-01,-1.639470338821411133e+00,-2.628376483917236328e-01,1.064765974879264832e-01,1.183547139167785645e+00,-9.421021491289138794e-02,9.507913589477539062e-01,-9.415248036384582520e-01,-9.772967100143432617e-01
2.368616908788681030e-01,5.371037125587463379e-01,-8.829860091209411621e-01,1.250077318400144577e-02,-4.181983172893524170e-01,4.785626232624053955e-01,-1.334772348403930664e+00,-1.498434506356716156e-02,3.900710046291351318e-01,1.629226446151733398e+00,5.661619827151298523e-02,1.087851762771606445e+00,-5.601862072944641113e-01,-6.468364596366882324e-01
6.135993003845214844e-01,8.485258221626281738e-01,-7.000342607498168945e-01,1.614637225866317749e-01,-3.947919607162475586e-01,8.071003556251525879e-01,-1.116225838661193848e+00,7.385159134864807129e-01,5.365435481071472168e-01,1.836232423782348633e+00,-1.544968411326408386e-02,1.272549986839294434e+00,-4.251502454280853271e-02,-1.974550336599349976e-01
6.339251399040222168e-01,9.575468897819519043e-01,-6.973226070404052734e-01,3.480403423309326172e-01,-3.783798813819885254e-01,8.416976332664489746e-01,-9.766069054603576660e-01,9.308802485466003418e-01,7.724781036376953125e-01,1.884645938873291016e+00,-9.355716407299041748e-02,1.454231858253479004e+00,3.901481926441192627e-01,-2.350896000862121582e-01
7.121438384056091309e-01,6.201507449150085449e-01,-7.260109782218933105e-01,6.467031836509704590e-01,-1.821886003017425537e-01,1.112150311470031738e+00,-4.876163899898529053e-01,1.361124277114868164e+00,6.600156426429748535e-01,1.757188439369201660e+00,3.100102841854095459e-01,1.310513496398925781e+00,1.028936266899108887e+00,9.860787540674209595e-02
9.525542855262756348e-01,7.820768356323242188e-01,-5.150996446609497070e-01,6.045351028442382812e-01,-2.071831375360488892e-01,1.086786270141601562e+00,6.122589483857154846e-02,1.512255430221557617e+00,1.533732265233993530e-01,1.476202607154846191e+00,1.026464551687240601e-01,1.490306854248046875e+00,1.321335673332214355e+00,2.463128864765167236e-01
9.686133265495300293e-01,5.313249230384826660e-01,-1.209751293063163757e-01,7.498607635498046875e-01,1.239365860819816589e-01,8.961902260780334473e-01,-1.398487538099288940e-01,1.487926244735717773e+00,9.907779842615127563e-02,9.192343354225158691e-01,2.629530429840087891e-01,9.527188539505004883e-01,1.443413972854614258e+00,2.559260427951812744e-01
9.533622860908508301e-01,6.341181993484497070e-01,-1.150392070412635803e-01,8.771223425865173340e-01,3.465285003185272217e-01,7.145817875862121582e-01,3.852380216121673584e-01,1.484536767005920410e+00,-1.333974152803421021e-01,5.352828502655029297e-01,5.941022634506225586e-01,5.519277453422546387e-01,1.466209650039672852e+00,5.424076914787292480e-01
7.644929885864257812e-01,6.171681284904479980e-01,3.379517495632171631e-01,1.056098580360412598e+00,8.648363351821899414e-01,5.517248511314392090e-01,4.182910323143005371e-01,1.329997181892395020e+00,-4.639509022235870361e-01,-2.382767200469970703e-01,5.796311497688293457e-01,8.644561469554901123e-02,1.384301543235778809e+00,4.358882009983062744e-01
2.651914656162261963e-01,6.361705064773559570e-01,7.645788788795471191e-01,1.213882803916931152e+00,1.020329833030700684e+00,1.029112860560417175e-01,1.881904900074005127e-01,9.626556038856506348e-01,-5.278075337409973145e-01,-5.666052699089050293e-01,2.877479791641235352e-01,-2.609870731830596924e-01,1.343473434448242188e+00,5.372161865234375000e-01
3.759519383311271667e-02,2.859490513801574707e-01,7.204380631446838379e-01,1.220862746238708496e+00,1.541499376296997070e+00,-1.974254697561264038e-01,3.891101479530334473e-01,8.069967031478881836e-01,-8.790888786315917969e-01,-1.003261804580688477e+00,1.660856455564498901e-01,-7.335492372512817383e-01,1.117859601974487305e+00,8.736166357994079590e-01
-2.961718440055847168e-01,9.330296516418457031e-02,9.104894399642944336e-01,1.425875425338745117e+00,1.509282588958740234e+00,-4.941799938678741455e-01,3.919596672058105469e-01,4.020503461360931396e-01,-8.072373867034912109e-01,-1.185512542724609375e+00,-7.859080284833908081e-02,-8.831706047058105469e-01,9.138202667236328125e-01,8.843055367469787598e-01
-5.208554863929748535e-01,-6.197129189968109131e-02,6.974477767944335938e-01,1.026699423789978027e+00,1.753823280334472656e+00,-8.905971050262451172e-01,3.906878232955932617e-01,6.689228117465972900e-02,-6.426210999488830566e-01,-1.296775341033935547e+00,-3.673065900802612305e-01,-8.765676617622375488e-01,8.657708764076232910e-01,1.130998015403747559e+00
-6.893872022628784180e-01,-3.701040744781494141e-01,6.309619545936584473e-01,9.957479834556579590e-01,1.468591213226318359e+00,-5.666248798370361328e-01,2.233498841524124146e-01,-4.482662379741668701e-01,-6.210743188858032227e-01,-1.284414887428283691e+00,-8.680946826934814453e-01,-1.072008728981018066e+00,7.423154115676879883e-01,1.170585989952087402e+00
-7.685105800628662109e-01,-7.203556895256042480e-01,3.813453018665313721e-01,4.419379234313964844e-01,1.116956591606140137e+00,-9.107307195663452148e-01,3.177083730697631836e-01,-5.212364792823791504e-01,-7.783653736114501953e-01,-1.012801408767700195e+00,-1.187033295631408691e+00,-6.995312571525573730e-01,3.648856282234191895e-01,1.203637003898620605e+00
-6.507129669189453125e-01,-9.913302659988403320e-01,5.539635196328163147e-02,3.331228196620941162e-01,9.086300730705261230e-01,-7.833043932914733887e-01,2.944577634334564209e-01,-6.724216938018798828e-01,-6.523282527923583984e-01,-8.813425302505493164e-01,-1.093117594718933105e+00,-2.450327724218368530e-01,1.439202278852462769e-01,9.877026677131652832e-01
-4.484241306781768799e-01,-8.901132941246032715e-01,-1.570374816656112671e-01,-2.310691028833389282e-01,4.403728842735290527e-01,-2.431133985519409180e-01,1.938010156154632568e-01,-7.458521127700805664e-01,-2.752416431903839111e-01,-4.239681959152221680e-01,-1.402752041816711426e+00,-2.442916929721832275e-01,4.546760022640228271e-02,7.984124422073364258e-01
-2.338349670171737671e-01,-4.834221303462982178e-01,-5.184009075164794922e-01,-7.655747532844543457e-01,1.865505874156951904e-01,-7.281616330146789551e-02,1.089691817760467529e-01,-1.042496800422668457e+00,-4.846664071083068848e-01,-4.185958206653594971e-01,-1.344882130622863770e+00,4.407573491334915161e-02,-2.860005199909210205e-01,4.187104403972625732e-01
2.531175613403320312e-01,-2.737274765968322754e-01,-4.614591598510742188e-01,-7.977241277694702148e-01,-1.860052496194839478e-01,1.535732448101043701e-01,2.135521918535232544e-02,-9.893092513084411621e-01,-3.182070851325988770e-01,-5.965944752097129822e-02,-1.067672491073608398e+00,1.385750174522399902e-01,-7.020494341850280762e-01,-2.735770866274833679e-02
2.863751053810119629e-01,3.677012622356414795e-01,-3.040589094161987305e-01,-1.105751991271972656e+00,-4.715113937854766846e-01,3.495057821273803711e-01,-1.324190944433212280e-01,-1.186996579170227051e+00,-1.640883982181549072e-01,7.499883323907852173e-02,-6.532700061798095703e-01,4.141132831573486328e-01,-1.066141843795776367e+00,-2.467118948698043823e-01
4.284693002700805664e-01,6.832748651504516602e-01,-1.445810645818710327e-01,-1.213930726051330566e+00,-5.239651799201965332e-01,4.726842045783996582e-01,-2.635433077812194824e-01,-1.177235245704650879e+00,1.434432417154312134e-01,-9.139240533113479614e-02,-3.800165057182312012e-01,2.098852843046188354e-01,-1.263517260551452637e+00,-6.034992933273315430e-01
8.377653360366821289e-01,8.982997536659240723e-01,-2.684780657291412354e-01,-1.089702606201171875e+00,-6.723939776420593262e-01,5.009673237800598145e-01,-6.589752435684204102e-01,-1.302860021591186523e+00,5.216426253318786621e-01,1.512430310249328613e-01,3.314169645309448242e-01,2.465267777442932129e-01,-1.513833284378051758e+00,-7.811019420623779297e-01
5.491459369659423828e-01,1.112937688827514648e+00,-3.144867122173309326e-01,-7.914834618568420410e-01,-7.019599080085754395e-01,5.353735685348510742e-01,-5.995018482208251953e-01,-1.304557561874389648e+00,7.652297019958496094e-01,1.375693380832672119e-01,5.176452994346618652e-01,4.652693271636962891e-01,-1.567583680152893066e+00,-1.010113239288330078e+00
6.051486134529113770e-01,1.158651471138000488e+00,-1.133695468306541443e-01,-7.912467122077941895e-01,-1.028055191040039062e+00,4.197104573249816895e-01,-9.800763726234436035e-01,-1.032059907913208008e+00,1.198597311973571777e+00,5.161061882972717285e-01,1.044303297996520996e+00,1.438386887311935425e-01,-1.461599230766296387e+00,-1.134341716766357422e+00
4.447244107723236084e-01,9.380790591239929199e-01,-3.708428144454956055e-01,-8.263707160949707031e-01,-1.198353648185729980e+00,1.927027553319931030e-01,-7.689058780670166016e-01,-5.712196826934814453e-01,1.520538210868835449e+00,5.804579854011535645e-01,1.105396628379821777e+00,1.477896422147750854e-01,-1.320240139961242676e+00,-1.367956399917602539e+00
4.287094473838806152e-01,9.785820245742797852e-01,-1.532124429941177368e-01,-6.408687233924865723e-01,-1.278457522392272949e+00,3.415567427873611450e-02,-6.060859560966491699e-01,-3.428483903408050537e-01,1.188857436180114746e+00,5.997998118400573730e-01,1.248369216918945312e+00,1.880390644073486328e-01,-8.270195126533508301e-01,-1.167637825012207031e+00
4.407116025686264038e-02,6.497735977172851562e-01,-1.708812266588211060e-01,-4.371634125709533691e-01,-1.342652916908264160e+00,9.280541539192199707e-02,-1.800314337015151978e-01,3.332400023937225342e-01,1.418318986892700195e+00,7.431880235671997070e-01,1.300114035606384277e+00,8.966315537691116333e-02,-6.863560676574707031e-01,-1.113229870796203613e+00
1.523848772048950195e-01,4.994596540927886963e-01,1.509572099894285202e-02,-4.680733978748321533e-01,-1.365147113800048828e+00,4.110998660326004028e-02,1.123161539435386658e-01,6.388158798217773438e-01,1.254892110824584961e+00,6.425402760505676270e-01,1.377492189407348633e+00,9.517932683229446411e-02,-1.297815740108489990e-01,-6.686208844184875488e-01
-8.837901055812835693e-02,1.942201554775238037e-01,2.243368923664093018e-01,-2.642304897308349609e-01,-1.459475159645080566e+00,4.358365386724472046e-02,2.268742173910140991e-01,8.411870002746582031e-01,8.747820854187011719e-01,6.790419816970825195e-01,1.129524707794189453e+00,-2.440144680440425873e-02,3.257476389408111572e-01,-8.399631381034851074e-01
-4.306257665157318115e-01,3.193710148334503174e-01,3.402485549449920654e-01,-4.277959838509559631e-02,-1.191398620605468750e+00,-2.770359218120574951e-01,8.791637420654296875e-01,1.271828174591064453e+00,5.307898521423339844e-01,3.651583567261695862e-02,1.244179368019104004e+00,-2.199759185314178467e-01,4.567224979400634766e-01,-6.655563116073608398e-01
-1.916396915912628174e-01,-1.269220262765884399e-01,7.761175632476806641e-01,3.095233626663684845e-02,-5.697920918464660645e-01,-1.708416193723678589e-01,8.408264517784118652e-01,1.365657806396484375e+00,1.956225037574768066e-01,-1.384467929601669312e-01,1.129511833190917969e+00,-5.202333331108093262e-01,6.451694965362548828e-01,-6.336722970008850098e-01
-5.299264192581176758e-01,-1.031342744827270508e-01,9.757010340690612793e-01,2.483030408620834351e-01,-2.820745408535003662e-01,-4.387665688991546631e-01,9.231194853782653809e-01,1.439846873283386230e+00,-2.294438034296035767e-01,-5.622645616531372070e-01,9.763894677162170410e-01,-8.496478796005249023e-01,8.015194535255432129e-01,-6.167532205581665039e-01
-7.215136289596557617e-01,-4.778022468090057373e-01,1.212390780448913574e+00,6.263064742088317871e-01,4.020291566848754883e-01,-5.152888298034667969e-01,1.191144943237304688e+00,1.031970858573913574e+00,-3.483780920505523682e-01,-9.158014059066772461e-01,9.664806723594665527e-01,-1.028739213943481445e+00,9.105945825576782227e-01,-2.566740214824676514e-01
-9.055827260017395020e-01,-8.303263187408447266e-01,1.451904296875000000e+00,8.549392819404602051e-01,8.363971710205078125e-01,-6.975209116935729980e-01,9.288226366043090820e-01,8.811520934104919434e-01,-5.589421391487121582e-01,-1.136467218399047852e+00,7.143601775169372559e-01,-1.371571898460388184e+00,7.098623514175415039e-01,-3.158058226108551025e-02
-1.074319601058959961e+00,-1.389799952507019043e+00,1.165724158287048340e+00,8.143945336341857910e-01,9.341290593147277832e-01,-9.090793132781982422e-01,7.873139381408691406e-01,4.867323338985443115e-01,-5.887182950973510742e-01,-8.985672593116760254e-01,4.429976940155029297e-01,-1.144146800041198730e+00,6.675649881362915039e-01,3.966760337352752686e-01
-1.213160872459411621e+00,-1.746164321899414062e+00,1.006382942199707031e+00,8.677581548690795898e-01,1.116344451904296875e+00,-1.189874887466430664e+00,9.060938954353332520e-01,2.926467359066009521e-01,-4.006333053112030029e-01,-7.262591719627380371e-01,4.677181690931320190e-02,-1.090042471885681152e+00,6.721302270889282227e-01,9.501503109931945801e-01
-1.342268586158752441e+00,-1.713387012481689453e+00,6.365519165992736816e-01,5.526124238967895508e-01,1.015576601028442383e+00,-8.287192583084106445e-01,8.781017661094665527e-01,-5.663266405463218689e-02,-6.791932582855224609e-01,-3.507611751556396484e-01,-2.541723847389221191e-01,-7.548666000366210938e-01,5.384271144866943359e-01,1.089597344398498535e+00
-1.227118492126464844e+00,-2.071253538131713867e+00,3.866162598133087158e-01,3.852430880069732666e-01,1.014421820640563965e+00,-7.405155897140502930e-01,4.229270517826080322e-01,-4.151042550802230835e-03,-7.060678601264953613e-01,1.382135152816772461e-01,-7.600063085556030273e-01,-2.067990005016326904e-01,5.988376140594482422e-01,1.212725520133972168e+00
-1.140333175659179688e+00,-1.650663256645202637e+00,6.924813985824584961e-02,5.930259078741073608e-02,7.025101184844970703e-01,-5.396512746810913086e-01,6.561524868011474609e-01,-6.137917190790176392e-02,-7.292527556419372559e-01,4.835033714771270752e-01,-1.031413912773132324e+00,4.936728179454803467e-01,5.577491521835327148e-01,1.313359022140502930e+00
-6.868681907653808594e-01,-1.156010150909423828e+00,-2.433400005102157593e-01,-2.863388657569885254e-01,7.137858271598815918e-01,1.879653483629226685e-01,3.390019237995147705e-01,-1.255694031715393066e-01,-7.124339938163757324e-01,7.717421054840087891e-01,-1.461707592010498047e+00,7.596078515052795410e-01,2.822202444076538086e-01,1.302738070487976074e+00
-2.556365430355072021e-01,-9.048388004302978516e-01,-4.433034062385559082e-01,-5.002514123916625977e-01,5.683339238166809082e-01,4.116098582744598389e-01,7.152915745973587036e-02,-1.089290976524353027e-01,-8.469923138618469238e-01,1.162378787994384766e+00,-1.505042076110839844e+00,1.224626660346984863e+00,2.399338483810424805e-01,1.155578851699829102e+00
3.041765987873077393e-01,-4.065257012844085693e-01,-4.968467950820922852e-01,-5.821207165718078613e-01,5.209692716598510742e-01,7.862462997436523438e-01,2.980577945709228516e-01,-2.677612304687500000e-01,-6.058970689773559570e-01,1.263205528259277344e+00,-1.733709812164306641e+00,1.508608341217041016e+00,1.386988461017608643e-01,1.156360507011413574e+00
8.226452469825744629e-01,2.321956157684326172e-01,-7.399030327796936035e-01,-3.415005505084991455e-01,5.809732675552368164e-01,1.147606253623962402e+00,-1.754833012819290161e-01,-5.552994012832641602e-01,-4.056731164455413818e-01,1.118453741073608398e+00,-1.437688469886779785e+00,1.678682684898376465e+00,-2.821665406227111816e-01,6.476461887359619141e-01
1.256910681724548340e+00,5.396423935890197754e-01,-6.163219809532165527e-01,-5.160738825798034668e-01,4.239937961101531982e-01,1.438329815864562988e+00,-4.356760978698730469e-01,-5.939598083496093750e-01,-2.851010859012603760e-01,1.132497906684875488e+00,-1.176207304000854492e+00,1.449558496475219727e+00,-4.096021056175231934e-01,1.628046631813049316e-01
1.522440671920776367e+00,8.726995587348937988e-01,-1.111642122268676758e+00,-7.768326252698898315e-02,6.273267269134521484e-01,1.506015896797180176e+00,-7.013662457466125488e-01,-6.925310492515563965e-01,-4.446446523070335388e-02,8.888934254646301270e-01,-8.243661522865295410e-01,1.418236374855041504e+00,-6.082224845886230469e-01,4.078942909836769104e-02
1.764754652976989746e+00,1.096055626869201660e+00,-1.209746122360229492e+00,-1.255378276109695435e-01,1.988642513751983643e-01,1.175186514854431152e+00,-1.177528738975524902e+00,-6.011343598365783691e-01,3.351475894451141357e-01,7.214873433113098145e-01,-5.696259140968322754e-01,1.198927044868469238e+00,-8.379533290863037109e-01,-2.261125147342681885e-01
1.464645385742187500e+00,1.189807653427124023e+00,-1.224514603614807129e+00,8.325926214456558228e-02,-2.715500595513731241e-04,1.192658305168151855e+00,-1.472050905227661133e+00,-7.401348352432250977e-01,4.823411405086517334e-01,5.332762598991394043e-01,-7.454030215740203857e-02,9.205238223075866699e-01,-8.521815538406372070e-01,-1.911073178052902222e-01
1.432572484016418457e+00,1.102244853973388672e+00,-1.547613143920898438e+00,2.342767715454101562e-01,-2.492089569568634033e-01,9.573985338211059570e-01,-1.685787677764892578e+00,-5.255212783813476562e-01,7.958744764328002930e-01,3.455139994621276855e-01,4.038245379924774170e-01,6.849614977836608887e-01,-7.370188236236572266e-01,-4.498922228813171387e-01
1.211531877517700195e+00,9.561973810195922852e-01,-1.356919646263122559e+00,1.699566394090652466e-01,-5.138345360755920410e-01,6.385781764984130859e-01,-1.631147623062133789e+00,-9.094103425741195679e-02,7.656910419464111328e-01,6.783623248338699341e-02,3.753536939620971680e-01,2.999220192432403564e-01,-5.849359631538391113e-01,-5.465857386589050293e-01
9.518164992332458496e-01,1.228657364845275879e+00,-1.375562787055969238e+00,7.199643552303314209e-02,-7.222239375114440918e-01,2.072048783302307129e-01,-1.506271004676818848e+00,1.335567384958267212e-01,2.602718174457550049e-01,-2.116399630904197693e-02,6.300274729728698730e-01,-4.794741421937942505e-02,2.641488681547343731e-04,-6.223068237304687500e-01
7.334783077239990234e-01,1.239489316940307617e+00,-1.122760057449340820e+00,9.534998983144760132e-02,-7.693489193916320801e-01,1.185056716203689575e-01,-1.145778775215148926e+00,3.524414300918579102e-01,4.126316606998443604e-01,-1.906413286924362183e-01,6.245553493499755859e-01,-6.543516367673873901e-02,1.155347898602485657e-01,-7.408890128135681152e-01
3.080959916114807129e-01,1.136744618415832520e+00,-7.512241601943969727e-01,-5.259376950562000275e-03,-9.041427373886108398e-01,-1.167265176773071289e-01,-1.038196206092834473e+00,5.258387327194213867e-01,-1.479256749153137207e-01,-7.379536032676696777e-01,6.924211978912353516e-01,-4.877429902553558350e-01,4.217637181282043457e-01,-9.512436389923095703e-01
2.833732068538665771e-01,1.050012111663818359e+00,-2.609023451805114746e-01,4.384009838104248047e-01,-6.829443573951721191e-01,-2.499992847442626953e-01,-4.568391740322113037e-01,7.340258359909057617e-01,-3.216429352760314941e-01,-1.147995352745056152e+00,4.486088156700134277e-01,-5.930355191230773926e-01,5.160408616065979004e-01,-7.340770363807678223e-01
-5.480825901031494141e-02,9.345765113830566406e-01,5.869932845234870911e-02,4.527775645256042480e-01,-3.007467687129974365e-01,-4.579673409461975098e-01,-3.783311247825622559e-01,7.961924076080322266e-01,-5.486612319946289062e-01,-1.378056406974792480e+00,-8.456313610076904297e-02,-1.106442570686340332e+00,6.730474829673767090e-01,-7.744772434234619141e-01
-2.757880985736846924e-01,6.135016083717346191e-01,5.321466326713562012e-01,7.193684577941894531e-01,-3.533242642879486084e-02,-6.356251239776611328e-01,3.371339142322540283e-01,6.805803775787353516e-01,-5.522412657737731934e-01,-1.674846649169921875e+00,-2.846623584628105164e-02,-1.179781675338745117e+00,5.012047886848449707e-01,-8.015644550323486328e-01
-3.621357083320617676e-01,2.779510021209716797e-01,6.751133799552917480e-01,8.607209920883178711e-01,8.474887907505035400e-02,-9.174189567565917969e-01,3.404274582862854004e-01,4.610942304134368896e-01,-5.566991567611694336e-01,-1.932165861129760742e+00,-6.608199328184127808e-02,-1.506581306457519531e+00,8.186548948287963867e-01,-8.382615447044372559e-01
-5.633949637413024902e-01,-5.489924550056457520e-01,7.675309777259826660e-01,7.916968464851379395e-01,3.006718158721923828e-01,-1.042174577713012695e+00,5.290039181709289551e-01,1.960022002458572388e-01,-6.635023951530456543e-01,-2.130278825759887695e+00,-1.404632180929183960e-01,-1.652424454689025879e+00,3.730150461196899414e-01,-5.913367867469787598e-01
-9.080387353897094727e-01,-5.695455074310302734e-01,8.039538264274597168e-01,7.467114925384521484e-01,4.553867280483245850e-01,-1.295491218566894531e+00,4.619197845458984375e-01,-3.468814492225646973e-02,-5.140650868415832520e-01,-1.728105902671813965e+00,-2.584196925163269043e-01,-1.822281479835510254e+00,3.062541186809539795e-01,-4.487693309783935547e-01
-8.703114390373229980e-01,-1.247443914413452148e+00,7.422375679016113281e-01,6.125621795654296875e-01,3.174420297145843506e-01,-1.270158290863037109e+00,6.583538055419921875e-01,-2.434908896684646606e-01,-3.084458708763122559e-01,-1.045843005180358887e+00,-3.938605189323425293e-01,-1.414293527603149414e+00,-9.885784238576889038e-02,-1.733787506818771362e-01
-9.721882343292236328e-01,-1.030497431755065918e+00,5.652410984039306641e-01,2.929480373859405518e-01,2.915650010108947754e-01,-1.312611818313598633e+00,5.308800935745239258e-01,-4.431765675544738770e-01,-1.911307424306869507e-01,-6.469427943229675293e-01,-3.620020151138305664e-01,-1.180043935775756836e+00,-1.207053884863853455e-01,3.302456438541412354e-01
-8.828337788581848145e-01,-1.205591797828674316e+00,6.632318496704101562e-01,-2.600569128990173340e-01,2.863760292530059814e-01,-9.570157527923583984e-01,7.813799381256103516e-01,-6.294410824775695801e-01,-2.055524140596389771e-01,1.232014223933219910e-01,-3.351567089557647705e-01,-6.888682842254638672e-01,-1.083962693810462952e-01,5.012211799621582031e-01
-1.178112268447875977e+00,-8.344788551330566406e-01,6.874511241912841797e-01,-6.461094617843627930e-01,2.283869087696075439e-01,-9.235232472419738770e-01,8.384392261505126953e-01,-5.497438907623291016e-01,-1.549478769302368164e-01,7.291262149810791016e-01,-4.859403967857360840e-01,-1.632773578166961670e-01,-1.041751429438591003e-01,5.802068114280700684e-01
-7.375217676162719727e-01,-5.224285721778869629e-01,4.896069169044494629e-01,-8.056688308715820312e-01,1.747724413871765137e-01,-4.677173197269439697e-01,7.852889895439147949e-01,-5.063695311546325684e-01,-6.178077310323715210e-02,1.123305797576904297e+00,-6.039823889732360840e-01,3.594782948493957520e-01,-2.781402766704559326e-01,7.346413135528564453e-01
-5.649913549423217773e-01,-6.012243777513504028e-02,6.794523596763610840e-01,-9.644059538841247559e-01,1.587889194488525391e-01,-1.937503665685653687e-01,7.810164690017700195e-01,-5.199347734451293945e-01,2.527588903903961182e-01,1.521052002906799316e+00,-8.543131351470947266e-01,7.251394987106323242e-01,-3.626765012741088867e-01,5.732740759849548340e-01
-3.771467879414558411e-02,1.963622123003005981e-01,5.872274041175842285e-01,-1.077468276023864746e+00,2.578773796558380127e-01,3.818463683128356934e-01,7.902365326881408691e-01,-2.378101646900177002e-01,3.089311718940734863e-01,1.645860910415649414e+00,-5.742413997650146484e-01,1.263035893440246582e+00,-3.863503336906433105e-01,4.581074714660644531e-01
1.059587374329566956e-01,3.556782901287078857e-01,5.303317308425903320e-01,-1.136005282402038574e+00,1.781263947486877441e-01,8.605556488037109375e-01,6.941691040992736816e-01,-1.449655592441558838e-01,6.687891483306884766e-01,1.887990474700927734e+00,-6.042018532752990723e-01,1.212449312210083008e+00,-7.866312265396118164e-01,3.728773891925811768e-01
3.601741790771484375e-01,3.728934824466705322e-01,1.189692318439483643e-01,-9.043669700622558594e-01,-6.410600990056991577e-02,8.974960446357727051e-01,6.209672093391418457e-01,-1.514754593372344971e-01,1.132836818695068359e+00,1.574720382690429688e+00,-2.098740488290786743e-01,1.195289611816406250e+00,-9.882936477661132812e-01,2.659611999988555908e-01
7.850900888442993164e-01,4.905650913715362549e-01,-1.113505586981773376e-01,-1.153077125549316406e+00,4.653687030076980591e-02,9.866517782211303711e-01,3.309373855590820312e-01,-1.450629830360412598e-01,1.203978896141052246e+00,1.548233151435852051e+00,9.457840933464467525e-04,1.176248788833618164e+00,-1.124203801155090332e+00,8.989164978265762329e-02
7.391005158424377441e-01,4.498706459999084473e-01,-2.977324128150939941e-01,-8.555682897567749023e-01,-1.790976971387863159e-01,1.085966110229492188e+00,3.897016122937202454e-02,-3.403656184673309326e-01,1.335505843162536621e+00,1.026279807090759277e+00,3.875882327556610107e-01,8.731904625892639160e-01,-9.008389115333557129e-01,6.747952103614807129e-02
8.568323850631713867e-01,3.015734851360321045e-01,-5.265710353851318359e-01,-5.810949802398681641e-01,-4.020971655845642090e-01,9.029809236526489258e-01,-3.771636486053466797e-01,-1.700618118047714233e-01,1.268513560295104980e+00,8.491110801696777344e-01,8.106856942176818848e-01,4.038519859313964844e-01,-1.191343069076538086e+00,-8.741723001003265381e-02
7.278771400451660156e-01,2.350536584854125977e-01,-7.965187430381774902e-01,-6.465843319892883301e-01,-5.952984690666198730e-01,5.321180224418640137e-01,-4.954249560832977295e-01,-2.900164946913719177e-02,1.338213443756103516e+00,6.802871823310852051e-01,1.140230655670166016e+00,3.373695909976959229e-01,-7.147157192230224609e-01,8.256212621927261353e-02
2.781958878040313721e-01,2.669909596443176270e-01,-7.379478216171264648e-01,-2.403151243925094604e-01,-8.577282428741455078e-01,2.737593054771423340e-01,-6.794440746307373047e-01,3.350310325622558594e-01,1.230601549148559570e+00,3.236529231071472168e-01,1.657534241676330566e+00,1.047103013843297958e-02,-6.316809058189392090e-01,-1.211994662880897522e-01
7.546952366828918457e-02,1.656789034605026245e-01,-5.318949818611145020e-01,-2.045906931161880493e-01,-9.392099976539611816e-01,2.097103893756866455e-01,-6.485219001770019531e-01,6.014249324798583984e-01,9.812273383140563965e-01,3.339706063270568848e-01,1.827508568763732910e+00,1.575175821781158447e-01,-2.795740664005279541e-01,-8.931195735931396484e-02
-1.572370082139968872e-01,2.807208597660064697e-01,-4.847778081893920898e-01,-1.544129252433776855e-01,-1.160483360290527344e+00,-8.920444548130035400e-02,-5.394802093505859375e-01,8.405900597572326660e-01,3.061560988426208496e-01,-6.389372795820236206e-02,1.912060260772705078e+00,-1.145921051502227783e-01,2.658301591873168945e-01,-9.500184655189514160e-02
-3.754981160163879395e-01,1.624776571989059448e-01,-1.034132614731788635e-01,2.071188539266586304e-01,-6.444864869117736816e-01,-3.562663793563842773e-01,-5.071624517440795898e-01,1.060881137847900391e+00,-1.586111262440681458e-02,-3.413423597812652588e-01,1.665649414062500000e+00,-1.304194778203964233e-01,8.651114702224731445e-01,-3.299770951271057129e-01
-6.647841334342956543e-01,-1.043024882674217224e-01,1.499842405319213867e-01,6.324166655540466309e-01,-5.321885347366333008e-01,-4.233582913875579834e-01,-6.663999706506729126e-02,1.235290169715881348e+00,-5.361068248748779297e-01,-6.502478122711181641e-01,1.356144070625305176e+00,-1.164302825927734375e-01,1.170257329940795898e+00,-3.866395652294158936e-01
-6.597095131874084473e-01,-3.231928050518035889e-01,4.114774167537689209e-01,1.034539937973022461e+00,-8.169923722743988037e-02,-2.068671137094497681e-01,-1.045066583901643753e-02,1.136181116104125977e+00,-6.628773212432861328e-01,-9.869653582572937012e-01,1.106265306472778320e+00,-2.140468806028366089e-01,1.349105954170227051e+00,-5.697578191757202148e-01
-2.856307923793792725e-01,-7.595843076705932617e-01,6.548628807067871094e-01,1.223691344261169434e+00,2.070541083812713623e-01,-1.799425631761550903e-01,4.093625247478485107e-01,1.070716977119445801e+00,-7.607243061065673828e-01,-1.364405989646911621e+00,4.907639324665069580e-01,-6.127633452415466309e-01,1.467102408409118652e+00,-4.801211357116699219e-01
-5.102123022079467773e-01,-1.048237562179565430e+00,6.161080598831176758e-01,1.448407888412475586e+00,5.718870162963867188e-01,-8.260273188352584839e-02,5.875129103660583496e-01,9.164549112319946289e-01,-9.892100095748901367e-01,-1.506510376930236816e+00,8.911807835102081299e-02,-3.585823774337768555e-01,1.136439204216003418e+00,-3.643630146980285645e-01
-1.453409492969512939e-01,-1.493508696556091309e+00,7.793900966644287109e-01,1.679346323013305664e+00,5.428843498229980469e-01,-2.830601930618286133e-01,5.994918346405029297e-01,6.289625167846679688e-01,-9.533440470695495605e-01,-1.510523796081542969e+00,-3.261862099170684814e-01,-5.605583190917968750e-01,1.355979442596435547e+00,-2.247560024261474609e-01
-3.908038735389709473e-01,-1.528878092765808105e+00,5.189216136932373047e-01,1.427773952484130859e+00,6.771095991134643555e-01,-1.225885376334190369e-01,5.080378651618957520e-01,-9.801296889781951904e-02,-9.439660906791687012e-01,-1.226290941238403320e+00,-5.253067016601562500e-01,-5.257470607757568359e-01,9.728521704673767090e-01,-1.102065145969390869e-01
-1.845639646053314209e-01,-1.353929877281188965e+00,4.449097216129302979e-01,1.187559723854064941e+00,8.331719636917114258e-01,4.758508503437042236e-02,5.017653107643127441e-01,-2.448624223470687866e-01,-8.152883648872375488e-01,-8.511455655097961426e-01,-9.106073975563049316e-01,-5.069967508316040039e-01,8.583282232284545898e-01,1.789653301239013672e-01
6.798384338617324829e-02,-1.073281526565551758e+00,4.415954351425170898e-01,1.138085126876831055e+00,8.782827258110046387e-01,-1.156002283096313477e-01,5.981742739677429199e-01,-7.173075079917907715e-01,-7.345876097679138184e-01,-5.769964456558227539e-01,-1.026884317398071289e+00,-1.453147083520889282e-01,7.734588980674743652e-01,5.743382573127746582e-01
5.851674452424049377e-02,-5.474839210510253906e-01,4.252496361732482910e-01,5.328586697578430176e-01,9.273167848587036133e-01,1.643673330545425415e-01,2.881574928760528564e-01,-9.684968590736389160e-01,-6.286175847053527832e-01,7.538796961307525635e-02,-1.127665400505065918e+00,-1.317248940467834473e-01,3.503185808658599854e-01,7.085735201835632324e-01
1.604079902172088623e-01,-1.600111722946166992e-01,3.583028912544250488e-01,3.273058831691741943e-01,9.725224375724792480e-01,1.602998822927474976e-01,3.118051588535308838e-01,-9.746995568275451660e-01,-7.199821472167968750e-01,2.713394165039062500e-01,-1.121586799621582031e+00,4.542154669761657715e-01,3.353057801723480225e-01,6.649652123451232910e-01
2.188441902399063110e-01,4.260257184505462646e-01,4.506965875625610352e-01,6.645741313695907593e-02,1.004315137863159180e+00,1.823508292436599731e-01,2.974375188350677490e-01,-1.030295729637145996e+00,-5.206090211868286133e-01,7.195975780487060547e-01,-1.178521513938903809e+00,7.234495878219604492e-01,3.479228019714355469e-01,8.541376590728759766e-01
2.865749597549438477e-01,8.523663878440856934e-01,1.429859995841979980e-01,-3.106009662151336670e-01,1.090689301490783691e+00,5.177025794982910156e-01,2.636174261569976807e-01,-1.137453317642211914e+00,-3.413258194923400879e-01,9.560986757278442383e-01,-1.134513020515441895e+00,7.179705500602722168e-01,-2.201888710260391235e-02,7.768399715423583984e-01
6.957107782363891602e-01,8.996425271034240723e-01,3.400909900665283203e-02,-3.497155010700225830e-01,1.133683323860168457e+00,5.917024612426757812e-01,3.703659474849700928e-01,-1.216704964637756348e+00,-2.081366330385208130e-01,9.956336617469787598e-01,-9.785056114196777344e-01,1.017303824424743652e+00,-5.025461316108703613e-01,6.501466631889343262e-01
1.060951590538024902e+00,1.236234426498413086e+00,-3.224550187587738037e-01,-5.210888981819152832e-01,1.182548642158508301e+00,7.714672684669494629e-01,3.924334794282913208e-02,-9.859120249748229980e-01,-3.530552610754966736e-02,7.671931385993957520e-01,-1.213816523551940918e+00,7.528020143508911133e-01,-6.553049683570861816e-01,5.114675164222717285e-01
1.032832980155944824e+00,1.235327959060668945e+00,-6.080437302589416504e-01,-7.371717095375061035e-01,8.230550885200500488e-01,8.263865113258361816e-01,6.484600156545639038e-02,-9.085674881935119629e-01,3.081913292407989502e-01,5.370190143585205078e-01,-1.033271789550781250e+00,5.826585888862609863e-01,-1.062109708786010742e+00,2.880353331565856934e-01
1.416322708129882812e+00,1.162077903747558594e+00,-8.348182439804077148e-01,-8.591223359107971191e-01,4.115452468395233154e-01,9.138193130493164062e-01,-2.673231661319732666e-01,-9.638709425926208496e-01,4.909528791904449463e-01,1.273575276136398315e-01,-1.004285097122192383e+00,1.350157856941223145e-01,-1.300761818885803223e+00,5.590666458010673523e-02
1.040835976600646973e+00,1.369539260864257812e+00,-1.202521443367004395e+00,-8.151600956916809082e-01,-5.219686403870582581e-02,4.562095701694488525e-01,-7.362104058265686035e-01,-6.173664927482604980e-01,6.993567347526550293e-01,-2.208074033260345459e-01,-6.241222620010375977e-01,-1.417955309152603149e-01,-1.608064651489257812e+00,-5.746097862720489502e-02
1.016481995582580566e+00,1.214647650718688965e+00,-1.577673196792602539e+00,-1.113850831985473633e+00,-4.316332936286926270e-01,6.048955023288726807e-03,-9.606105685234069824e-01,-7.239616513252258301e-01,7.720381021499633789e-01,-1.747713088989257812e-01,-2.795663475990295410e-01,-6.840126514434814453e-01,-1.602178692817687988e+00,-3.762629926204681396e-01
6.477375626564025879e-01,1.134217262268066406e+00,-1.268095135688781738e+00,-1.233940124511718750e+00,-8.087362051010131836e-01,-6.009681522846221924e-02,-1.180655479431152344e+00,-2.383648902177810669e-01,7.113078832626342773e-01,-1.178751736879348755e-01,-2.383648306131362915e-01,-1.015058398246765137e+00,-1.741596221923828125e+00,-2.469047158956527710e-01
5.525560975074768066e-01,1.102037429809570312e+00,-1.532753586769104004e+00,-1.075799703598022461e+00,-1.154980421066284180e+00,-6.406225562095642090e-01,-1.508293628692626953e+00,-3.175726160407066345e-02,4.203859567642211914e-01,-3.550930023193359375e-01,5.978678464889526367e-01,-1.178552508354187012e+00,-1.513224720954895020e+00,-3.293611109256744385e-01
-1.165462657809257507e-01,9.956590533256530762e-01,-1.101777672767639160e+00,-1.232077598571777344e+00,-1.466893911361694336e+00,-9.772914052009582520e-01,-1.738001942634582520e+00,2.130512893199920654e-01,2.532217800617218018e-01,-3.671992421150207520e-01,7.362980246543884277e-01,-1.190803050994873047e+00,-1.228412508964538574e+00,-4.653780460357666016e-01
-6.933465600013732910e-01,8.579506278038024902e-01,-8.787460327148437500e-01,-8.858124613761901855e-01,-1.638387918472290039e+00,-1.319090008735656738e+00,-1.483632206916809082e+00,7.018947005271911621e-01,-1.663355082273483276e-01,-4.230421781539916992e-01,8.911127448081970215e-01,-1.348899364471435547e+00,-5.262374877929687500e-01,-5.231855511665344238e-01
-9.447126388549804688e-01,4.503512680530548096e-01,-6.225525140762329102e-01,-5.361729264259338379e-01,-1.490713477134704590e+00,-1.444399237632751465e+00,-1.388464331626892090e+00,9.001785516738891602e-01,-3.877022862434387207e-01,-1.899858117103576660e-01,1.119238257408142090e+00,-1.201971530914306641e+00,4.875981714576482773e-03,-7.304887771606445312e-01
-1.335922598838806152e+00,-9.391418844461441040e-02,-4.117288887500762939e-01,-2.051829844713211060e-01,-1.328855037689208984e+00,-1.294312834739685059e+00,-9.983152151107788086e-01,1.107048988342285156e+00,-5.189959406852722168e-01,3.478480735793709755e-03,1.076994538307189941e+00,-8.883662819862365723e-01,1.974121034145355225e-01,-1.024615287780761719e+00
-1.396420478820800781e+00,-6.475291252136230469e-01,-2.950361557304859161e-02,2.746104896068572998e-01,-1.071878552436828613e+00,-1.275423288345336914e+00,-7.286680936813354492e-01,1.513197064399719238e+00,-6.320652365684509277e-01,-3.231683075428009033e-01,6.974187493324279785e-01,-7.126699090003967285e-01,4.924280345439910889e-01,-1.189011454582214355e+00
-1.483610630035400391e+00,-1.015395164489746094e+00,1.410546004772186279e-01,5.650244951248168945e-01,-1.091356039047241211e+00,-1.140980958938598633e+00,-2.469673007726669312e-01,1.820047378540039062e+00,-7.214839458465576172e-01,-2.785529792308807373e-01,4.920867383480072021e-01,-4.879682064056396484e-01,6.645319461822509766e-01,-1.139374971389770508e+00
-1.588205218315124512e+00,-1.442083954811096191e+00,2.318107634782791138e-01,6.959244608879089355e-01,-6.264947056770324707e-01,-8.651382923126220703e-01,1.155714988708496094e-01,1.417370557785034180e+00,-6.452795267105102539e-01,-9.127204865217208862e-02,9.698431938886642456e-02,-7.885771244764328003e-02,9.010685086250305176e-01,-1.018330931663513184e+00
-1.246797680854797363e+00,-1.635959267616271973e+00,4.625520706176757812e-01,7.568260431289672852e-01,-7.264519929885864258e-01,-2.910545766353607178e-01,2.548830211162567139e-01,1.054532885551452637e+00,-3.794636428356170654e-01,-2.951619923114776611e-01,-6.548661738634109497e-02,9.891864657402038574e-02,1.030670404434204102e+00,-8.015002608299255371e-01
-9.707696437835693359e-01,-1.628149390220642090e+00,6.275755763053894043e-01,7.711631059646606445e-01,-2.980314493179321289e-01,-2.612214088439941406e-01,6.249545812606811523e-01,1.056686401367187500e+00,-1.719115972518920898e-01,9.298076480627059937e-02,-4.906558096408843994e-01,1.783722788095474243e-01,9.611436128616333008e-01,-5.913005471229553223e-01
-7.242238521575927734e-01,-1.660939931869506836e+00,7.017546892166137695e-01,8.070403933525085449e-01,-3.726108372211456299e-01,-3.409602120518684387e-02,5.716931819915771484e-01,4.144992828369140625e-01,1.097340881824493408e-01,3.408060967922210693e-01,-6.342968940734863281e-01,6.463196277618408203e-01,8.941601514816284180e-01,-2.487577497959136963e-01
-5.626652240753173828e-01,-1.105458498001098633e+00,1.086621403694152832e+00,3.591738641262054443e-01,2.939519006758928299e-03,1.853485256433486938e-01,7.701560258865356445e-01,8.006552606821060181e-02,7.727640867233276367e-02,6.898916959762573242e-01,-7.754020690917968750e-01,7.321800589561462402e-01,9.527840614318847656e-01,3.420165479183197021e-01
-1.235685497522354126e-01,-1.075264573097229004e+00,9.812057614326477051e-01,2.237561941146850586e-01,4.116359651088714600e-01,4.655915796756744385e-01,8.547141551971435547e-01,-2.999566495418548584e-01,2.839286625385284424e-01,1.265425682067871094e+00,-6.040020585060119629e-01,9.998154044151306152e-01,8.827952146530151367e-01,4.259545803070068359e-01
6.514361500740051270e-02,-4.770972132682800293e-01,1.507246375083923340e+00,4.447101354598999023e-01,6.162568926811218262e-01,6.103306412696838379e-01,9.767328500747680664e-01,-5.268544554710388184e-01,3.692402243614196777e-01,1.455514550209045410e+00,-7.400506138801574707e-01,1.364415526390075684e+00,9.245099425315856934e-01,8.329010605812072754e-01
2.691341340541839600e-01,-1.810294091701507568e-01,1.352943181991577148e+00,1.878119707107543945e-01,7.886926531791687012e-01,8.555510640144348145e-01,1.105067253112792969e+00,-6.272932887077331543e-01,4.178791642189025879e-01,1.621451735496520996e+00,-2.124174535274505615e-01,1.698954939842224121e+00,8.480344414710998535e-01,1.075047492980957031e+00
3.357689976692199707e-01,-1.883422285318374634e-01,1.410919785499572754e+00,1.391240656375885010e-01,1.410242795944213867e+00,7.110676169395446777e-01,1.086239457130432129e+00,-6.356976032257080078e-01,6.383247375488281250e-01,1.525085806846618652e+00,-8.633727580308914185e-02,1.808454036712646484e+00,7.331491708755493164e-01,9.844747185707092285e-01
6.521039605140686035e-01,5.233707278966903687e-02,9.765142202377319336e-01,-2.297454625368118286e-01,1.465583205223083496e+00,1.131837964057922363e+00,1.054640531539916992e+00,-8.875551819801330566e-01,7.113204598426818848e-01,1.091918945312500000e+00,2.670387029647827148e-01,1.534151434898376465e+00,6.792133450508117676e-01,1.282114624977111816e+00
8.341236710548400879e-01,2.337872833013534546e-01,8.834468722343444824e-01,8.626491576433181763e-02,1.528357386589050293e+00,1.412642240524291992e+00,1.362899422645568848e+00,-7.501853704452514648e-01,9.903893470764160156e-01,6.441550254821777344e-01,3.263507485389709473e-01,1.552249431610107422e+00,3.148286640644073486e-01,1.085307717323303223e+00
9.339117407798767090e-01,1.992584019899368286e-01,3.952213823795318604e-01,-1.206023171544075012e-01,1.568569183349609375e+00,1.272286653518676758e+00,1.150936245918273926e+00,-9.218524098396301270e-01,9.214657545089721680e-01,1.465878188610076904e-01,5.039274692535400391e-01,1.035527944564819336e+00,9.834260493516921997e-02,8.961210250854492188e-01
1.129487037658691406e+00,2.693984806537628174e-01,-1.087871044874191284e-01,-1.078177243471145630e-01,1.188870072364807129e+00,1.181329131126403809e+00,9.024217128753662109e-01,-8.086605072021484375e-01,1.263924956321716309e+00,-6.265378594398498535e-01,5.426234006881713867e-01,4.832896590232849121e-01,-3.978628218173980713e-01,9.819320440292358398e-01
1.110024571418762207e+00,6.282947659492492676e-01,-4.088089466094970703e-01,-4.048587679862976074e-01,7.248654961585998535e-01,9.546434879302978516e-01,7.294457554817199707e-01,-8.968453407287597656e-01,1.090759396553039551e+00,-1.129174590110778809e+00,5.901638865470886230e-01,-1.733950227499008179e-01,-7.482211589813232422e-01,8.704270124435424805e-01
1.176342248916625977e+00,4.593389630317687988e-01,-7.436951398849487305e-01,-4.888727962970733643e-01,7.187323570251464844e-01,8.511644601821899414e-01,3.314939439296722412e-01,-8.256921768188476562e-01,9.133597016334533691e-01,-1.340534210205078125e+00,7.625692486763000488e-01,-5.940243601799011230e-01,-9.500358104705810547e-01,7.766923308372497559e-01
1.021136283874511719e+00,6.266099214553833008e-01,-5.896929502487182617e-01,-5.104064345359802246e-01,1.938070952892303467e-01,4.172699749469757080e-01,-3.493613004684448242e-01,-8.776766061782836914e-01,7.834272384643554688e-01,-1.533308386802673340e+00,7.020998001098632812e-01,-1.171972274780273438e+00,-1.131275415420532227e+00,4.902460575103759766e-01
8.608447313308715820e-01,8.083865046501159668e-01,-6.435843706130981445e-01,-7.080076336860656738e-01,-8.578177541494369507e-02,-2.671288549900054932e-01,-4.096165001392364502e-01,-6.766376495361328125e-01,3.532360792160034180e-01,-1.626370310783386230e+00,1.123634934425354004e+00,-1.326637148857116699e+00,-1.020014524459838867e+00,4.264039397239685059e-01
4.052810072898864746e-01,7.676373124122619629e-01,-6.439349651336669922e-01,-4.060817360877990723e-01,-4.469509422779083252e-01,-5.589026212692260742e-01,-9.171789884567260742e-01,-4.298087954521179199e-01,-1.838088482618331909e-01,-1.592552304267883301e+00,1.133660078048706055e+00,-1.479987740516662598e+00,-8.491545319557189941e-01,2.047942727804183960e-01
-1.408728398382663727e-02,3.973444104194641113e-01,-4.162175059318542480e-01,-2.471538782119750977e-01,-2.278009802103042603e-01,-8.864494562149047852e-01,-8.199706077575683594e-01,-1.425138413906097412e-01,-4.402943849563598633e-01,-1.293627738952636719e+00,1.238826155662536621e+00,-1.538516879081726074e+00,-6.653927564620971680e-01,6.938443519175052643e-03
-1.471676975488662720e-01,1.034785583615303040e-01,-4.780141413211822510e-01,-5.237076804041862488e-02,-5.639474391937255859e-01,-9.509087204933166504e-01,-9.472652673721313477e-01,4.332460165023803711e-01,-9.529989361763000488e-01,-1.274259328842163086e+00,1.020015835762023926e+00,-1.370631575584411621e+00,-2.944954931735992432e-01,-2.168739885091781616e-01
-4.418099820613861084e-01,-4.895392954349517822e-01,-4.016932845115661621e-01,2.910884618759155273e-01,-4.401760399341583252e-01,-1.217240333557128906e+00,-7.870696783065795898e-01,3.813598453998565674e-01,-1.068509697914123535e+00,-7.160087823867797852e-01,1.005248069763183594e+00,-1.021700978279113770e+00,-4.042120650410652161e-02,-5.815186500549316406e-01
-1.004337191581726074e+00,-5.673659443855285645e-01,-4.719430804252624512e-01,7.437876462936401367e-01,-5.853987336158752441e-01,-1.286160349845886230e+00,-6.399238109588623047e-01,8.227518796920776367e-01,-1.164836525917053223e+00,-8.846569657325744629e-01,6.835390329360961914e-01,-9.236897826194763184e-01,4.279515743255615234e-01,-9.703527092933654785e-01
-9.221115708351135254e-01,-9.519861936569213867e-01,-3.495184183120727539e-01,8.577873706817626953e-01,-6.150950789451599121e-01,-8.730980157852172852e-01,-2.734750509262084961e-01,1.135816812515258789e+00,-1.130305767059326172e+00,-6.087216734886169434e-01,3.400610983371734619e-01,-7.233545184135437012e-01,1.739221960306167603e-01,-1.270274043083190918e+00
-8.110451102256774902e-01,-8.810403943061828613e-01,-3.752025365829467773e-01,7.633883953094482422e-01,-7.042791247367858887e-01,-6.552963256835937500e-01,-2.702067196369171143e-01,1.009092092514038086e+00,-1.118166208267211914e+00,-3.812201619148254395e-01,-7.484899368137121201e-03,-3.809578418731689453e-01,5.118508934974670410e-01,-1.425595641136169434e+00
-7.038996219635009766e-01,-7.475776672363281250e-01,-2.669217586517333984e-01,6.341246962547302246e-01,-7.682728171348571777e-01,-3.001596927642822266e-01,-2.548639290034770966e-02,1.039367794990539551e+00,-8.206155896186828613e-01,3.309329971671104431e-02,-4.452367722988128662e-01,-2.012397795915603638e-01,4.834612905979156494e-01,-1.346083760261535645e+00
-2.801641821861267090e-01,-5.687249898910522461e-01,-2.479527741670608521e-01,6.645567417144775391e-01,-8.671219348907470703e-01,-1.214722841978073120e-01,4.053719714283943176e-02,5.060728192329406738e-01,-8.472870588302612305e-01,5.041746497154235840e-01,-8.591409325599670410e-01,1.689540781080722809e-02,3.896058499813079834e-01,-1.293069005012512207e+00
9.320625104010105133e-03,-3.719764649868011475e-01,7.895600050687789917e-02,5.104667544364929199e-01,-5.927877426147460938e-01,3.563351556658744812e-02,1.353755146265029907e-01,2.308456748723983765e-01,-5.846735239028930664e-01,7.777422666549682617e-01,-1.266546249389648438e+00,1.291297655552625656e-02,1.278551518917083740e-01,-1.106366038322448730e+00
8.950388431549072266e-02,1.943414807319641113e-01,4.545920193195343018e-01,-1.976982206106185913e-01,-8.224828839302062988e-01,3.158093690872192383e-01,1.807492673397064209e-01,1.775366514921188354e-01,-4.387280642986297607e-01,1.254088401794433594e+00,-1.831382989883422852e+00,1.377777904272079468e-01,8.939761668443679810e-03,-8.708904385566711426e-01
3.314852118492126465e-01,7.350271940231323242e-01,6.290802955627441406e-01,-5.034289881587028503e-02,-3.228637874126434326e-01,1.001692488789558411e-01,1.513998359441757202e-01,-6.009872257709503174e-02,-4.153988659381866455e-01,1.539111971855163574e+00,-2.077700138092041016e+00,5.315961837768554688e-01,2.420681342482566833e-02,-6.472641229629516602e-01
5.613273978233337402e-01,8.560397028923034668e-01,7.286204099655151367e-01,-2.400748431682586670e-01,-8.187421411275863647e-02,2.508280873298645020e-01,1.236816197633743286e-01,-3.348314166069030762e-01,-9.755644947290420532e-02,1.986280083656311035e+00,-1.888504028320312500e+00,5.862956047058105469e-01,7.312245666980743408e-02,-4.115439951419830322e-03
4.510415196418762207e-01,8.670074939727783203e-01,7.479600906372070312e-01,-2.364373803138732910e-01,3.175183832645416260e-01,2.342095822095870972e-01,2.583187818527221680e-01,-5.110176205635070801e-01,-1.465393602848052979e-01,2.043945789337158203e+00,-1.593717336654663086e+00,5.942336916923522949e-01,1.935928463935852051e-01,-1.240431144833564758e-02
3.263460397720336914e-01,7.899041175842285156e-01,4.645082056522369385e-01,-3.442736864089965820e-01,4.638358652591705322e-01,9.919163584709167480e-02,1.763655096292495728e-01,-1.961669921875000000e-01,9.596551209688186646e-02,1.922205686569213867e+00,-1.547863245010375977e+00,7.952802181243896484e-01,2.762021720409393311e-01,1.712227165699005127e-01
3.611474633216857910e-01,9.008600115776062012e-01,2.533516287803649902e-01,-5.379177331924438477e-01,6.837352514266967773e-01,3.908824026584625244e-01,4.128998816013336182e-01,-1.540183275938034058e-01,5.381359718739986420e-03,1.537477016448974609e+00,-9.969085454940795898e-01,8.166925907135009766e-01,2.374723702669143677e-01,3.441418111324310303e-01
2.015262395143508911e-01,8.292161822319030762e-01,-1.187808886170387268e-01,-5.900435447692871094e-01,7.578482031822204590e-01,2.683964967727661133e-01,2.649197280406951904e-01,-2.847982197999954224e-02,6.909852623939514160e-01,1.027137517929077148e+00,-7.188071608543395996e-01,8.196563720703125000e-01,-3.530018925666809082e-01,4.973695874214172363e-01
7.736908644437789917e-02,9.956070184707641602e-01,-3.820764422416687012e-01,-5.808246135711669922e-01,6.468828320503234863e-01,3.809432387351989746e-01,3.107410669326782227e-01,-6.767481565475463867e-02,6.986019015312194824e-01,4.185642898082733154e-01,-3.066162467002868652e-01,4.670163094997406006e-01,-2.444630563259124756e-01,5.949717164039611816e-01
9.070193022489547729e-02,1.010676980018615723e+00,-5.594295263290405273e-01,-8.624387383460998535e-01,7.178333997726440430e-01,1.460567116737365723e-01,9.273390471935272217e-02,5.830043181777000427e-02,8.467434048652648926e-01,-1.362238228321075439e-01,5.524953082203865051e-02,2.422219514846801758e-01,-6.798889636993408203e-01,5.676152110099792480e-01
-1.192917525768280029e-01,9.066793918609619141e-01,-7.563248276710510254e-01,-1.214072823524475098e+00,2.412726581096649170e-01,2.314970046281814575e-01,1.648201420903205872e-02,-2.517500519752502441e-01,6.981721520423889160e-01,-7.966600656509399414e-01,3.775966763496398926e-01,-1.413199156522750854e-01,-5.730215311050415039e-01,6.772953867912292480e-01
-1.587640345096588135e-01,8.567537069320678711e-01,-1.040399909019470215e+00,-1.229156613349914551e+00,1.282378435134887695e-01,1.302597224712371826e-01,6.310795899480581284e-03,-2.493992447853088379e-01,7.492311000823974609e-01,-8.756291270256042480e-01,4.805313646793365479e-01,-6.028626561164855957e-01,-1.071505188941955566e+00,9.719361066818237305e-01
-1.609665900468826294e-01,5.557347536087036133e-01,-7.462719678878784180e-01,-1.138926148414611816e+00,-1.378170698881149292e-01,8.617351949214935303e-02,-3.603830337524414062e-01,-1.891197413206100464e-01,4.079073071479797363e-01,-1.330953598022460938e+00,5.980613827705383301e-01,-7.807232141494750977e-01,-7.830311655998229980e-01,1.126605749130249023e+00
-4.584041833877563477e-01,3.564552664756774902e-01,-7.262851595878601074e-01,-1.070608139038085938e+00,-1.844221651554107666e-01,-1.924344450235366821e-01,-6.245203614234924316e-01,-1.761669516563415527e-01,2.417985051870346069e-01,-1.142917156219482422e+00,6.534842252731323242e-01,-1.009716629981994629e+00,-8.579632639884948730e-01,1.095752596855163574e+00
-6.204814314842224121e-01,-1.651587486267089844e-01,-6.608135700225830078e-01,-7.370284199714660645e-01,-8.635265403427183628e-04,-6.566325426101684570e-01,-9.734187126159667969e-01,1.706667393445968628e-01,-2.077010869979858398e-01,-1.147185325622558594e+00,7.945938110351562500e-01,-6.381676793098449707e-01,-6.060948371887207031e-01,9.899653792381286621e-01
-8.491490483283996582e-01,-6.062629818916320801e-01,-6.682223677635192871e-01,-2.338473647832870483e-01,-1.135840043425559998e-01,-7.276085019111633301e-01,-1.229586958885192871e+00,1.932231187820434570e-01,-4.314838349819183350e-01,-9.009763598442077637e-01,6.302860379219055176e-01,-4.188383817672729492e-01,-2.224192917346954346e-01,9.424315094947814941e-01
-9.120991826057434082e-01,-1.188844919204711914e+00,-5.615397691726684570e-01,3.662327229976654053e-01,-2.099902778863906860e-01,-7.821118831634521484e-01,-1.203397035598754883e+00,5.542562603950500488e-01,-5.392795801162719727e-01,-8.217523097991943359e-01,9.499557614326477051e-01,2.051203278824687004e-03,2.187709063291549683e-01,7.337695956230163574e-01
-9.715663194656372070e-01,-1.715292572975158691e+00,-6.383762955665588379e-01,5.592112541198730469e-01,-1.176290139555931091e-01,-6.568278670310974121e-01,-1.187736630439758301e+00,7.795653939247131348e-01,-6.927152276039123535e-01,-6.608275771141052246e-01,8.039209842681884766e-01,2.711582779884338379e-01,5.794041156768798828e-01,4.083409905433654785e-01
-1.114349246025085449e+00,-1.789936065673828125e+00,-4.772962331771850586e-01,7.619049549102783203e-01,-3.169942796230316162e-01,-5.705735683441162109e-01,-9.587185382843017578e-01,6.870888471603393555e-01,-5.219729542732238770e-01,-6.818838715553283691e-01,7.476726770401000977e-01,3.392288684844970703e-01,8.626836538314819336e-01,-1.015789434313774109e-01
-9.702842235565185547e-01,-1.898701429367065430e+00,-3.593206107616424561e-01,1.220078229904174805e+00,-1.729828566312789917e-01,1.588364541530609131e-01,-8.111945390701293945e-01,7.212221622467041016e-01,-3.137233555316925049e-01,-5.279541015625000000e-01,8.556746244430541992e-01,8.305867314338684082e-01,1.101716399192810059e+00,-5.389958620071411133e-01
-7.946214079856872559e-01,-1.650869131088256836e+00,-1.736381202936172485e-01,1.309450626373291016e+00,-6.606550812721252441e-01,1.030550971627235413e-01,-4.159552156925201416e-01,7.643390893936157227e-01,-1.917760670185089111e-01,-2.821906805038452148e-01,6.075397729873657227e-01,9.188331365585327148e-01,1.036372184753417969e+00,-5.877359509468078613e-01
-4.982938170433044434e-01,-1.696993708610534668e+00,-6.934951245784759521e-02,1.277400255203247070e+00,-5.741444826126098633e-01,5.055032968521118164e-01,-1.467905193567276001e-01,6.135100126266479492e-01,-9.506128728389739990e-03,-2.112788110971450806e-01,2.175321877002716064e-01,8.970254063606262207e-01,1.095215320587158203e+00,-7.568563818931579590e-01
4.272045940160751343e-02,-1.096498131752014160e+00,6.658953428268432617e-01,1.119895219802856445e+00,-7.847045063972473145e-01,9.503385424613952637e-01,2.853267490863800049e-01,1.311029642820358276e-01,1.954590529203414917e-01,6.045994907617568970e-02,-8.484434336423873901e-02,9.428461790084838867e-01,1.179690599441528320e+00,-8.062123656272888184e-01
3.726973831653594971e-01,-6.842389106750488281e-01,9.202308654785156250e-01,1.274038195610046387e+00,-5.205180644989013672e-01,1.091965675354003906e+00,4.928223192691802979e-01,-3.352832496166229248e-01,4.570783078670501709e-01,1.243783161044120789e-01,-3.684417307376861572e-01,6.720596551895141602e-01,9.049398899078369141e-01,-7.435545325279235840e-01
1.131178855895996094e+00,-2.106122374534606934e-01,1.301910161972045898e+00,8.942912220954895020e-01,-2.486011832952499390e-01,1.251101493835449219e+00,6.983703970909118652e-01,-6.295441389083862305e-01,3.596085906028747559e-01,5.242475867271423340e-01,-4.730254411697387695e-01,5.813182592391967773e-01,8.044416308403015137e-01,-7.413045167922973633e-01
1.294450759887695312e+00,-3.148022294044494629e-01,1.442276239395141602e+00,9.820043444633483887e-01,1.178153082728385925e-01,1.236250281333923340e+00,6.833366751670837402e-01,-9.034398198127746582e-01,5.763031244277954102e-01,7.968906760215759277e-01,-8.921424150466918945e-01,3.899569213390350342e-01,6.391120553016662598e-01,-4.627761244773864746e-01
1.588607311248779297e+00,1.844923794269561768e-01,1.606613755226135254e+00,7.197072505950927734e-01,4.805161654949188232e-01,1.017354607582092285e+00,1.033881068229675293e+00,-1.113470196723937988e+00,5.502656102180480957e-01,1.041069030761718750e+00,-6.373357772827148438e-01,2.692280113697052002e-01,4.464048147201538086e-01,-2.993375360965728760e-01
1.621979713439941406e+00,6.801564097404479980e-01,1.370206117630004883e+00,4.193207919597625732e-01,7.381929755210876465e-01,7.750372290611267090e-01,8.799272775650024414e-01,-1.066009640693664551e+00,5.969963669776916504e-01,7.571323513984680176e-01,-6.847608089447021484e-01,1.203817650675773621e-01,2.584287226200103760e-01,-3.762653768062591553e-01
1.533334136009216309e+00,4.931838810443878174e-01,1.342043399810791016e+00,4.795783162117004395e-01,1.082070231437683105e+00,5.642522573471069336e-01,1.164855957031250000e+00,-1.042984843254089355e+00,7.453447580337524414e-01,8.020607829093933105e-01,-5.380064249038696289e-01,1.319442689418792725e-01,8.374234288930892944e-02,-1.835426092147827148e-01
1.441879391670227051e+00,7.885832786560058594e-01,9.401935935020446777e-01,2.070431709289550781e-01,1.116932392120361328e+00,2.158973813056945801e-01,1.134448170661926270e+00,-8.553932309150695801e-01,8.000857830047607422e-01,4.992496073246002197e-01,-9.274518489837646484e-02,-1.692588776350021362e-01,1.364396065473556519e-01,-2.928843498229980469e-01
1.017508029937744141e+00,9.473024010658264160e-01,6.018587350845336914e-01,-2.519685626029968262e-01,1.030680894851684570e+00,-3.736099228262901306e-02,1.315548419952392578e+00,-5.835022926330566406e-01,7.948414087295532227e-01,2.950054779648780823e-02,3.506378829479217529e-01,-6.155104637145996094e-01,-2.018138617277145386e-01,-2.327851206064224243e-01
6.528649330139160156e-01,1.239495992660522461e+00,4.475511312484741211e-01,-2.898503541946411133e-01,9.114134907722473145e-01,-2.979701459407806396e-01,1.059666037559509277e+00,-5.617125630378723145e-01,8.483735918998718262e-01,-3.181128501892089844e-01,6.129158139228820801e-01,-8.952360153198242188e-01,-4.527114033699035645e-01,-5.536825954914093018e-02
4.360319375991821289e-01,1.321344614028930664e+00,3.478831946849822998e-01,-6.204192638397216797e-01,5.373565554618835449e-01,-6.009547710418701172e-01,1.297739624977111816e+00,-4.938918948173522949e-01,5.866216421127319336e-01,-5.379735827445983887e-01,7.407609820365905762e-01,-1.118725657463073730e+00,-9.268466830253601074e-01,-1.430187672376632690e-01
1.893652826547622681e-01,1.576843857765197754e+00,1.081850305199623108e-01,-9.648412466049194336e-01,5.380160212516784668e-01,-7.060394287109375000e-01,1.190939664840698242e+00,-2.396073937416076660e-02,4.783256351947784424e-01,-9.733756780624389648e-01,1.048547387123107910e+00,-1.145471930503845215e+00,-1.125530719757080078e+00,2.476697117090225220e-01
1.720455661416053772e-02,1.399363756179809570e+00,-1.116442903876304626e-01,-1.428382635116577148e+00,3.288885056972503662e-01,-6.529768109321594238e-01,8.228613138198852539e-01,-8.253891766071319580e-02,4.079951345920562744e-01,-1.123727560043334961e+00,1.301883220672607422e+00,-1.547882437705993652e+00,-1.326550006866455078e+00,2.786051630973815918e-01
-1.295814812183380127e-01,1.060635685920715332e+00,-1.810596138238906860e-01,-1.580832242965698242e+00,1.497069299221038818e-01,-6.704034805297851562e-01,5.211286544799804688e-01,2.209205180406570435e-01,-2.599313259124755859e-01,-8.285030722618103027e-01,1.318882584571838379e+00,-1.674048662185668945e+00,-1.722972869873046875e+00,4.572680592536926270e-01
-4.403314292430877686e-01,9.559295773506164551e-01,-4.489706456661224365e-01,-1.389938354492187500e+00,-1.517404764890670776e-01,-1.142710804939270020e+00,2.301473468542098999e-01,1.612305343151092529e-01,-4.842232465744018555e-01,-5.381648540496826172e-01,1.110041975975036621e+00,-1.678250074386596680e+00,-1.709207653999328613e+00,7.712469696998596191e-01
-6.511877179145812988e-01,2.931976616382598877e-01,-5.648292899131774902e-01,-1.042230606079101562e+00,2.036612294614315033e-02,-1.211954832077026367e+00,-2.736049294471740723e-01,3.356786072254180908e-01,-9.637984633445739746e-01,-2.232958376407623291e-01,9.887515902519226074e-01,-1.113272666931152344e+00,-1.528276443481445312e+00,6.249576807022094727e-01
-6.861488223075866699e-01,-2.398869246244430542e-01,-1.096595287322998047e+00,-9.809684157371520996e-01,-2.556374669075012207e-01,-1.300271153450012207e+00,-5.441671013832092285e-01,6.778651475906372070e-01,-1.241352796554565430e+00,2.985202670097351074e-01,5.663539767265319824e-01,-8.793480992317199707e-01,-1.186516880989074707e+00,7.483670115470886230e-01
-8.894595503807067871e-01,-6.320092082023620605e-01,-1.305196642875671387e+00,-6.760714054107666016e-01,-4.616351723670959473e-01,-1.414491057395935059e+00,-1.058880567550659180e+00,8.949552774429321289e-01,-1.491733789443969727e+00,5.391674041748046875e-01,3.521028459072113037e-01,-2.023542374372482300e-01,-8.913053870201110840e-01,4.395400583744049072e-01
-1.247165441513061523e+00,-9.312365055084228516e-01,-1.330322861671447754e+00,-1.900511384010314941e-01,-6.343133449554443359e-01,-1.191630363464355469e+00,-1.234972476959228516e+00,1.315470099449157715e+00,-1.437215566635131836e+00,9.713284969329833984e-01,9.638644754886627197e-02,1.680959016084671021e-01,-4.297916591167449951e-01,1.290779411792755127e-01
-1.188978195190429688e+00,-7.471565604209899902e-01,-1.339309453964233398e+00,3.032473921775817871e-01,-1.039776444435119629e+00,-8.502460122108459473e-01,-1.332181572914123535e+00,1.440575122833251953e+00,-1.136880159378051758e+00,7.506518959999084473e-01,-2.757116258144378662e-01,9.433948397636413574e-01,3.423216938972473145e-02,-8.681267499923706055e-02
-1.283544421195983887e+00,-7.706963419914245605e-01,-1.385033130645751953e+00,1.135904714465141296e-01,-1.237726211547851562e+00,-5.399740338325500488e-01,-1.282616376876831055e+00,1.656864762306213379e+00,-1.120301723480224609e+00,8.963919281959533691e-01,-4.771301448345184326e-01,1.050741672515869141e+00,5.801287293434143066e-01,-4.147136211395263672e-01
-1.055936813354492188e+00,-4.887257218360900879e-01,-1.042779922485351562e+00,4.824334383010864258e-01,-1.194789409637451172e+00,-1.905144602060317993e-01,-1.114115715026855469e+00,1.485880613327026367e+00,-9.407600760459899902e-01,8.540754318237304688e-01,-5.795806050300598145e-01,1.635009288787841797e+00,8.260008096694946289e-01,-6.049025654792785645e-01
-8.250002264976501465e-01,-5.496034026145935059e-01,-7.541031241416931152e-01,2.733656466007232666e-01,-1.322389960289001465e+00,3.572753965854644775e-01,-7.937444448471069336e-01,1.382365703582763672e+00,-4.871725440025329590e-01,9.161275625228881836e-01,-7.853468060493469238e-01,1.433570384979248047e+00,8.925734758377075195e-01,-6.284162998199462891e-01
-6.539381146430969238e-01,-2.294530421495437622e-01,-2.239854633808135986e-01,4.550036489963531494e-01,-1.386584520339965820e+00,8.958931565284729004e-01,-5.862038731575012207e-01,7.581149935722351074e-01,-3.711549937725067139e-01,7.490001320838928223e-01,-9.421214461326599121e-01,1.700859069824218750e+00,1.000353217124938965e+00,-7.398816347122192383e-01
-3.963341414928436279e-01,-7.584838569164276123e-02,-4.757200367748737335e-03,5.747215151786804199e-01,-1.152418971061706543e+00,1.171086192131042480e+00,-6.342444419860839844e-01,4.892557859420776367e-01,-9.479948319494724274e-03,7.605829834938049316e-01,-9.421063065528869629e-01,1.381880879402160645e+00,1.267127156257629395e+00,-4.826391637325286865e-01
1.319374609738588333e-02,-6.003313697874546051e-03,2.706860899925231934e-01,4.783208072185516357e-01,-6.711546182632446289e-01,1.257589101791381836e+00,-4.707128405570983887e-01,2.406640164554119110e-02,1.007974054664373398e-02,8.903022408485412598e-01,-1.281587481498718262e+00,1.250091195106506348e+00,1.051440238952636719e+00,-4.657002389430999756e-01
4.582257568836212158e-01,1.967162340879440308e-01,3.676380515098571777e-01,6.377235054969787598e-01,-2.534743547439575195e-01,1.486574172973632812e+00,-2.778618335723876953e-01,-4.569158256053924561e-01,7.771734893321990967e-02,6.324853301048278809e-01,-1.590394854545593262e+00,9.200849533081054688e-01,1.196287155151367188e+00,-8.306343108415603638e-02
6.970190405845642090e-01,2.539122402667999268e-01,4.104850888252258301e-01,7.784141898155212402e-01,1.901167482137680054e-01,1.464825510978698730e+00,-2.869753837585449219e-01,-1.121469497680664062e+00,3.273942172527313232e-01,3.783572614192962646e-01,-1.643844962120056152e+00,6.343324780464172363e-01,1.170754551887512207e+00,-5.301185697317123413e-02
7.651637196540832520e-01,2.403319627046585083e-01,6.335148811340332031e-01,5.506792664527893066e-01,3.531288504600524902e-01,1.099437236785888672e+00,-1.231401339173316956e-01,-1.131641268730163574e+00,4.667094349861145020e-01,3.150080144405364990e-01,-1.390083789825439453e+00,4.611251354217529297e-01,1.195788264274597168e+00,-5.984567478299140930e-02
1.004131436347961426e+00,3.795644938945770264e-01,6.254036426544189453e-01,5.470113754272460938e-01,7.261832356452941895e-01,9.811257719993591309e-01,-1.532153785228729248e-01,-1.186167597770690918e+00,4.943551421165466309e-01,-5.917106196284294128e-02,-1.389842152595520020e+00,1.823383271694183350e-01,1.114079475402832031e+00,1.346260309219360352e-01
8.872697353363037109e-01,4.010175764560699463e-01,5.179620385169982910e-01,5.509558320045471191e-01,7.876929044723510742e-01,4.919428229331970215e-01,1.875415146350860596e-01,-1.355161786079406738e+00,6.645454168319702148e-01,-6.149320602416992188e-01,-1.085110664367675781e+00,-3.456066176295280457e-02,8.401032686233520508e-01,2.647290527820587158e-01
5.563024878501892090e-01,4.515703618526458740e-01,4.352293610572814941e-01,1.615106910467147827e-01,1.090573310852050781e+00,3.079377710819244385e-01,2.117400616407394409e-01,-1.598291635513305664e+00,7.120563387870788574e-01,-1.063967466354370117e+00,-5.862025022506713867e-01,-1.737038344144821167e-01,6.987492442131042480e-01,5.596691742539405823e-02
3.463608026504516602e-01,5.602166056632995605e-01,2.878027260303497314e-01,-1.069366559386253357e-01,9.825456738471984863e-01,-1.463001966476440430e-01,4.960628449916839600e-01,-1.183055043220520020e+00,7.778330445289611816e-01,-1.470611214637756348e+00,-1.379228681325912476e-01,-5.005915164947509766e-01,2.640669941902160645e-01,1.726126968860626221e-01
-6.298837065696716309e-02,5.114102363586425781e-01,4.216774106025695801e-01,-4.058660268783569336e-01,1.115919828414916992e+00,-2.880237698554992676e-01,5.037963986396789551e-01,-1.148344755172729492e+00,5.984974503517150879e-01,-1.766670227050781250e+00,2.298233360052108765e-01,-6.993657350540161133e-01,5.214258655905723572e-02,3.790854215621948242e-01
-1.991839408874511719e-01,3.913178741931915283e-01,3.306174874305725098e-01,-5.080182552337646484e-01,1.182437419891357422e+00,-2.565663754940032959e-01,6.503409147262573242e-01,-7.522063851356506348e-01,7.237151265144348145e-01,-1.942388534545898438e+00,7.852032184600830078e-01,-1.127853751182556152e+00,-2.370343506336212158e-01,7.069799900054931641e-01
-4.790197014808654785e-01,1.492914259433746338e-01,3.760605752468109131e-01,-7.699282765388488770e-01,1.408830285072326660e+00,-2.348854988813400269e-01,6.494978070259094238e-01,-6.276503205299377441e-01,3.638920187950134277e-01,-2.007819175720214844e+00,1.077671766281127930e+00,-1.159318685531616211e+00,-8.774257898330688477e-01,5.107677578926086426e-01
-5.737923979759216309e-01,-3.367034196853637695e-01,4.011294618248939514e-02,-8.855830430984497070e-01,1.292682766914367676e+00,-2.529782354831695557e-01,3.915219008922576904e-01,-6.089425086975097656e-01,1.590819843113422394e-02,-1.631156802177429199e+00,1.280735015869140625e+00,-1.405830860137939453e+00,-1.233051300048828125e+00,6.119446754455566406e-01
-1.537453234195709229e-01,-7.671548128128051758e-01,-1.729805022478103638e-01,-7.267033457756042480e-01,1.177904963493347168e+00,-3.379819393157958984e-01,2.898827791213989258e-01,-3.972095549106597900e-01,-3.199860453605651855e-01,-1.088252067565917969e+00,1.405252814292907715e+00,-1.163411974906921387e+00,-1.341804146766662598e+00,1.014642596244812012e+00
-3.133069574832916260e-01,-1.461159348487854004e+00,-4.016719758510589600e-01,-3.449121117591857910e-01,1.286358714103698730e+00,-3.337416350841522217e-01,-2.431600540876388550e-01,-1.358988732099533081e-01,-6.109879612922668457e-01,-7.953940629959106445e-01,1.424578785896301270e+00,-1.209373712539672852e+00,-1.361131191253662109e+00,9.244808554649353027e-01
