AF3,F7,F3,FC5,T7,P7,O1,O2,P8,T8,FC6,F4,F8,AF4
3.942491114139556885e-01,-5.305971503257751465e-01,1.061050370335578918e-01,-2.833336293697357178e-01,1.920311152935028076e-01,-6.352271437644958496e-01,9.161093831062316895e-01,-7.687155157327651978e-02,-2.828207612037658691e-01,-1.786617189645767212e-01,3.232821524143218994e-01,2.009478658437728882e-01,-1.644997298717498779e-01,-1.124848127365112305e-01
3.615956008434295654e-01,-8.976735472679138184e-01,2.708402276039123535e-01,-3.252793848514556885e-01,6.030625104904174805e-02,-5.366975069046020508e-01,6.232255101203918457e-01,-1.571293622255325317e-01,-2.690967731177806854e-02,-3.630761802196502686e-01,2.350447922945022583e-01,4.302819445729255676e-02,-2.103186249732971191e-01,-1.785891503095626831e-01
2.347026318311691284e-01,-4.658253192901611328e-01,2.900575101375579834e-01,-2.503038644790649414e-01,4.892819747328758240e-02,-5.258966088294982910e-01,7.011234164237976074e-01,-1.741866618394851685e-01,3.150591254234313965e-02,-3.173360824584960938e-01,3.027677237987518311e-01,9.602881968021392822e-02,-2.130637466907501221e-01,-2.657341659069061279e-01
-5.236459895968437195e-02,-4.837004244327545166e-01,3.495738506317138672e-01,-2.800024151802062988e-01,3.317859023809432983e-02,-5.607337355613708496e-01,7.205423712730407715e-01,-1.213555112481117249e-01,-1.617978215217590332e-01,-5.440950393676757812e-01,1.233563497662544250e-01,3.804597631096839905e-02,-1.612310409545898438e-01,-2.953487038612365723e-01
1.383756846189498901e-01,-4.858585298061370850e-01,2.378994524478912354e-01,-4.187349230051040649e-03,4.653509706258773804e-02,-2.444805204868316650e-01,7.203185558319091797e-01,-4.014124572277069092e-01,-3.123809993267059326e-01,-2.959566116333007812e-01,3.571100234985351562e-01,1.828689724206924438e-01,-3.126179054379463196e-02,-9.929045289754867554e-02
-3.277977928519248962e-02,-4.019228219985961914e-01,3.995296955108642578e-01,-3.719225227832794189e-01,1.890383362770080566e-01,-4.975225329399108887e-01,4.478216767311096191e-01,-2.461199909448623657e-01,-2.636149823665618896e-01,-4.328546822071075439e-01,-1.922027766704559326e-02,-9.932239539921283722e-03,-8.865200728178024292e-02,-4.512785375118255615e-01
-7.274508476257324219e-02,-6.733642220497131348e-01,3.223935365676879883e-01,-1.907838433980941772e-01,2.120437324047088623e-01,-2.470920830965042114e-01,4.265999495983123779e-01,-1.682123839855194092e-01,-2.208165526390075684e-01,-2.494359016418457031e-01,7.279513776302337646e-02,2.034707218408584595e-01,-1.848616451025009155e-01,7.952149026095867157e-03
-1.076844856142997742e-01,-6.975237727165222168e-01,3.190848231315612793e-01,-1.848247498273849487e-01,7.608026266098022461e-02,-2.537332773208618164e-01,3.655309677124023438e-01,-3.304198980331420898e-01,-2.066272497177124023e-01,-1.509723961353302002e-01,8.802785724401473999e-02,2.790149450302124023e-01,-2.236644327640533447e-01,-2.023212909698486328e-01
-1.130338385701179504e-01,-5.873287320137023926e-01,1.854158341884613037e-01,-1.098584234714508057e-01,1.224482357501983643e-01,-2.215497642755508423e-01,5.368151664733886719e-01,-3.495379686355590820e-01,-3.844244182109832764e-01,-3.281227350234985352e-01,7.025968283414840698e-02,1.804251670837402344e-01,-4.129047691822052002e-01,-1.822400987148284912e-01
-4.121349379420280457e-02,-4.157885909080505371e-01,4.513143002986907959e-01,-6.893836706876754761e-02,3.447579741477966309e-01,-3.198171854019165039e-01,6.689048409461975098e-01,-3.131302893161773682e-01,-4.050861895084381104e-01,-1.362784653902053833e-01,-1.481516379863023758e-02,-4.293569829314947128e-03,-4.440838098526000977e-01,-2.743296921253204346e-01
3.521364927291870117e-02,-3.066144287586212158e-01,3.245832026004791260e-01,-6.646347790956497192e-02,2.880862057209014893e-01,-1.527327299118041992e-01,3.943100273609161377e-01,-6.947899609804153442e-02,-5.530120730400085449e-01,-1.501331627368927002e-01,-3.636652231216430664e-02,-3.720138594508171082e-02,-3.607392907142639160e-01,-3.969674110412597656e-01
-3.246756270527839661e-02,-4.592871963977813721e-01,2.490718960762023926e-01,-2.758709490299224854e-01,1.782233417034149170e-01,-3.026243746280670166e-01,3.958367705345153809e-01,-3.204383254051208496e-01,-5.935614109039306641e-01,-1.796671003103256226e-01,1.233419626951217651e-01,1.221607252955436707e-01,-6.669608950614929199e-01,-1.910464316606521606e-01
8.888930827379226685e-02,-2.820337414741516113e-01,2.758693397045135498e-01,1.937912106513977051e-01,2.828847765922546387e-01,-8.418583124876022339e-02,5.188757181167602539e-01,-2.420985102653503418e-01,-5.951076745986938477e-01,-1.849745810031890869e-01,-8.541587740182876587e-02,-1.970845609903335571e-01,-3.854364752769470215e-01,-3.830316066741943359e-01
6.717949360609054565e-02,-2.964716851711273193e-01,6.408496201038360596e-02,2.845599353313446045e-01,1.464222073554992676e-01,-1.622355775907635689e-03,4.352121055126190186e-01,-6.698012351989746094e-02,-6.085469126701354980e-01,-1.588030755519866943e-01,-3.034862577915191650e-01,-3.541864156723022461e-01,-5.348902344703674316e-01,-4.588714241981506348e-01
9.900371730327606201e-02,-1.918901503086090088e-01,9.528002887964248657e-02,2.046733498573303223e-01,1.255079358816146851e-01,6.436402350664138794e-02,3.289003670215606689e-01,-3.354145213961601257e-02,-6.253698468208312988e-01,6.365904211997985840e-02,-2.873988151550292969e-01,-3.393935263156890869e-01,-5.594503283500671387e-01,-3.874192833900451660e-01
-1.700965315103530884e-01,-2.096028178930282593e-01,-9.090005420148372650e-03,1.980228871107101440e-01,2.796825766563415527e-01,-1.380713284015655518e-01,3.979483842849731445e-01,-1.540306210517883301e-01,-5.172219276428222656e-01,-7.232800126075744629e-02,-2.707350850105285645e-01,-4.431083202362060547e-01,-4.767968654632568359e-01,-1.844264417886734009e-01
-1.583935469388961792e-01,-2.736152112483978271e-01,-8.969886600971221924e-02,-3.165558353066444397e-02,1.030709818005561829e-01,-1.054229885339736938e-01,3.447468951344490051e-02,-4.880806803703308105e-02,-5.338013172149658203e-01,4.541567340493202209e-02,-3.312893509864807129e-01,-6.434202790260314941e-01,-5.031028389930725098e-01,-1.390009820461273193e-01
4.905673861503601074e-02,-4.305914938449859619e-01,-2.087336033582687378e-01,-1.392613053321838379e-01,1.398045122623443604e-01,-3.306621611118316650e-01,2.425180524587631226e-01,1.949921250343322754e-01,-5.596737861633300781e-01,-1.972486078739166260e-01,-4.510706663131713867e-01,-6.174998283386230469e-01,-3.279025852680206299e-01,-3.523891270160675049e-01
-1.846159398555755615e-01,-4.295375943183898926e-01,-3.322296440601348877e-01,-3.188334777951240540e-02,4.963287338614463806e-02,1.078659296035766602e-01,1.389526724815368652e-01,1.437935605645179749e-02,-4.107111096382141113e-01,-1.635076105594635010e-01,-3.290293812751770020e-01,-5.096988081932067871e-01,-5.496030449867248535e-01,-1.303073316812515259e-01
-5.472066625952720642e-02,-4.313699901103973389e-01,-2.354111969470977783e-01,-1.692505180835723877e-01,1.579926162958145142e-01,1.958074569702148438e-01,-1.986005157232284546e-01,-6.270228885114192963e-03,-3.952855169773101807e-01,-1.692716032266616821e-01,-3.060889244079589844e-01,-7.034702897071838379e-01,-1.292679309844970703e-01,-1.364404708147048950e-01
6.437498331069946289e-02,-4.832895100116729736e-01,-2.999184727668762207e-01,-8.188505470752716064e-02,2.605517208576202393e-01,2.034567296504974365e-01,-2.506523132324218750e-01,1.282200068235397339e-01,-5.542616248130798340e-01,-1.539211273193359375e-01,-3.381849527359008789e-01,-7.526455521583557129e-01,-3.239615261554718018e-01,4.896244965493679047e-03
-4.712696373462677002e-02,-6.397225856781005859e-01,-3.841363787651062012e-01,-1.944249719381332397e-01,3.527576923370361328e-01,8.365651220083236694e-02,-2.201208770275115967e-01,1.047708243131637573e-01,-1.003463715314865112e-01,-3.540087938308715820e-01,-3.052523434162139893e-01,-1.092018604278564453e+00,-2.051469832658767700e-01,7.730576395988464355e-02
-1.304978281259536743e-01,-7.271179556846618652e-01,-2.790350914001464844e-01,-2.352018207311630249e-01,5.202982425689697266e-01,1.510533690452575684e-01,-3.019231855869293213e-01,-7.556907087564468384e-02,-9.633252024650573730e-02,-4.782315194606781006e-01,-2.026278525590896606e-01,-8.114955425262451172e-01,-4.193089902400970459e-02,3.010596334934234619e-01
-6.299082655459642410e-03,-8.434850573539733887e-01,-4.005427360534667969e-01,-2.268228232860565186e-01,5.077403783798217773e-01,2.989025227725505829e-02,-4.218526482582092285e-01,-1.957868933677673340e-01,1.193900476209819317e-03,-5.161741375923156738e-01,-1.668465435504913330e-01,-8.698512911796569824e-01,6.721802800893783569e-02,1.370904594659805298e-01
1.018863394856452942e-01,-7.935191392898559570e-01,-2.139567583799362183e-01,-1.920839995145797729e-01,5.485854148864746094e-01,4.971840977668762207e-02,-4.653038680553436279e-01,-2.580568194389343262e-01,-1.481513679027557373e-01,-5.776494145393371582e-01,-1.444140076637268066e-01,-1.017309546470642090e+00,1.389994621276855469e-01,4.890126883983612061e-01
7.631342392414808273e-03,-8.676295876502990723e-01,-2.695291936397552490e-01,-7.561663538217544556e-02,6.992396712303161621e-01,8.931602537631988525e-02,-3.452470004558563232e-01,-1.661987230181694031e-02,-1.158608049154281616e-01,-6.552135348320007324e-01,1.698675900697708130e-01,-7.172583937644958496e-01,7.225277274847030640e-02,2.891319394111633301e-01
7.059551775455474854e-02,-1.006793975830078125e+00,-3.038193285465240479e-01,-2.264696806669235229e-01,7.637775540351867676e-01,-1.119249314069747925e-02,-5.702944397926330566e-01,-1.441768109798431396e-01,2.127605304121971130e-02,-8.288778066635131836e-01,-3.694632649421691895e-02,-7.994925379753112793e-01,1.832388490438461304e-01,4.678917229175567627e-01
1.095261201262474060e-01,-9.013028144836425781e-01,-2.966178059577941895e-01,1.744965910911560059e-01,8.075337409973144531e-01,-8.862542361021041870e-02,-3.644033372402191162e-01,-3.703541159629821777e-01,5.988508835434913635e-02,-7.827541232109069824e-01,1.022539436817169189e-01,-9.781513810157775879e-01,2.401716709136962891e-01,5.164023041725158691e-01
3.311962485313415527e-01,-9.380584359169006348e-01,-9.110789746046066284e-02,4.364178329706192017e-02,8.063624501228332520e-01,-9.447288699448108673e-03,-5.337298512458801270e-01,-4.919405579566955566e-01,2.676141262054443359e-01,-1.038342356681823730e+00,1.364357173442840576e-01,-7.917302250862121582e-01,2.871689200401306152e-01,5.178127884864807129e-01
2.754321098327636719e-01,-6.991738677024841309e-01,-1.577165871858596802e-01,4.734964296221733093e-02,6.798721551895141602e-01,-2.365891188383102417e-01,-4.020713567733764648e-01,-5.121812820434570312e-01,1.105413883924484253e-01,-1.095768690109252930e+00,1.790913492441177368e-01,-7.450610399246215820e-01,4.613260924816131592e-01,5.048213005065917969e-01
1.475920081138610840e-01,-8.854855895042419434e-01,-4.681062325835227966e-02,2.235726118087768555e-01,8.783721923828125000e-01,5.550695583224296570e-02,-2.823384106159210205e-01,-5.487622618675231934e-01,-2.032269723713397980e-02,-1.104673743247985840e+00,-3.590345382690429688e-02,-5.027573108673095703e-01,5.608658194541931152e-01,4.827409684658050537e-01
1.043778359889984131e-01,-8.429106473922729492e-01,-7.295659184455871582e-02,1.274921000003814697e-01,1.129860520362854004e+00,-1.428631246089935303e-01,-3.889163136482238770e-01,-7.768886685371398926e-01,7.246335595846176147e-02,-8.793053030967712402e-01,5.602160468697547913e-03,-5.573964118957519531e-01,3.359301388263702393e-01,4.618775248527526855e-01
4.279578626155853271e-01,-6.832505464553833008e-01,-2.542841807007789612e-02,2.123811841011047363e-02,1.049156427383422852e+00,3.699510544538497925e-02,-3.058176636695861816e-01,-5.087028145790100098e-01,3.738546976819634438e-03,-1.020494103431701660e+00,-4.229390993714332581e-02,-6.379275321960449219e-01,5.172217488288879395e-01,4.530338943004608154e-01
3.522912263870239258e-01,-6.968804001808166504e-01,-7.422646507620811462e-03,3.112834692001342773e-01,1.106240987777709961e+00,-7.134639471769332886e-02,-7.389194797724485397e-03,-2.401525080204010010e-01,1.587080806493759155e-01,-8.290853500366210938e-01,-1.220249831676483154e-01,-5.175243616104125977e-01,6.361265182495117188e-01,4.153959155082702637e-01
2.208296954631805420e-01,-6.419851779937744141e-01,-1.233358774334192276e-02,4.485717713832855225e-01,8.400110006332397461e-01,8.597934991121292114e-02,-4.772764071822166443e-02,-5.025599598884582520e-01,1.288083642721176147e-01,-6.899571418762207031e-01,-1.380777209997177124e-01,-4.533831179141998291e-01,5.945162773132324219e-01,4.349682629108428955e-01
3.066512048244476318e-01,-6.066714525222778320e-01,4.032447934150695801e-02,4.517214298248291016e-01,1.199874281883239746e+00,1.226281672716140747e-01,-1.744831651449203491e-01,-4.600782394409179688e-01,6.608744710683822632e-02,-9.596001505851745605e-01,-1.647313237190246582e-01,-3.363530933856964111e-01,6.165648102760314941e-01,3.097216486930847168e-01
3.832559287548065186e-01,-4.817652702331542969e-01,-1.008450314402580261e-01,4.789318144321441650e-01,8.509232997894287109e-01,7.614012807607650757e-02,9.826659224927425385e-03,-4.477839171886444092e-01,2.660317420959472656e-01,-9.572347998619079590e-01,-2.655764520168304443e-01,-5.437521934509277344e-01,7.539461255073547363e-01,2.404769957065582275e-01
9.126861393451690674e-02,-3.851226866245269775e-01,-1.862787008285522461e-01,2.872929871082305908e-01,6.668736934661865234e-01,4.354019165039062500e-01,3.959243372082710266e-02,-2.874350249767303467e-01,2.197906672954559326e-01,-7.689045667648315430e-01,-3.061329424381256104e-01,-5.161949992179870605e-01,5.461520552635192871e-01,3.179167211055755615e-01
2.221774458885192871e-01,-1.617053896188735962e-01,7.317486405372619629e-02,3.379691541194915771e-01,7.596977949142456055e-01,4.726901650428771973e-01,-6.427498906850814819e-02,-5.960779190063476562e-01,2.886285483837127686e-01,-7.113682627677917480e-01,-4.005655944347381592e-01,-3.138681054115295410e-01,9.079349040985107422e-01,2.643626630306243896e-01
2.415292710065841675e-01,-2.486782371997833252e-01,7.625418156385421753e-02,6.660838127136230469e-01,7.367543578147888184e-01,4.456389546394348145e-01,-1.678059995174407959e-01,-4.185462594032287598e-01,1.349922269582748413e-01,-8.348357081413269043e-01,-2.924131155014038086e-01,-5.633633136749267578e-01,6.449164152145385742e-01,1.943856328725814819e-01
4.836717247962951660e-02,-1.920684874057769775e-01,-5.071758106350898743e-02,3.784010410308837891e-01,4.450946748256683350e-01,4.997309148311614990e-01,-1.735405027866363525e-01,-1.476548165082931519e-01,1.594985127449035645e-01,-8.393030762672424316e-01,-3.704102933406829834e-01,-4.912376105785369873e-01,7.349079847335815430e-01,1.594037115573883057e-01
2.409815043210983276e-02,-1.767709255218505859e-01,2.895769774913787842e-01,3.424969613552093506e-01,6.070195436477661133e-01,6.454570293426513672e-01,-1.026534438133239746e-01,-3.386915326118469238e-01,2.018734216690063477e-01,-8.893483281135559082e-01,-4.181185662746429443e-01,-2.218148559331893921e-01,6.322010755538940430e-01,1.416711062192916870e-01
-2.801220715045928955e-01,-3.630452752113342285e-01,1.349945366382598877e-01,5.153301954269409180e-01,5.127285122871398926e-01,8.114029169082641602e-01,-2.029340714216232300e-02,-2.420781552791595459e-01,-6.380637176334857941e-03,-7.890377640724182129e-01,-5.792602896690368652e-01,-3.732946515083312988e-01,8.079227209091186523e-01,1.494844704866409302e-01
2.193190343677997589e-02,-1.551162153482437134e-01,9.856040775775909424e-02,4.176129996776580811e-01,5.536885261535644531e-01,7.582815289497375488e-01,-1.501657068729400635e-01,-1.213890984654426575e-01,2.427420169115066528e-01,-6.284047365188598633e-01,-6.454876661300659180e-01,-4.692558348178863525e-01,8.439736962318420410e-01,1.653253883123397827e-01
-1.762390285730361938e-01,-9.554181993007659912e-02,3.260098695755004883e-01,4.645415842533111572e-01,5.520963072776794434e-01,8.534438610076904297e-01,-4.713419377803802490e-01,-1.220070794224739075e-01,-6.697475165128707886e-02,-6.355649232864379883e-01,-5.518645644187927246e-01,-3.040976226329803467e-01,6.481637954711914062e-01,1.258026063442230225e-01
-1.783867180347442627e-01,-1.195585653185844421e-01,2.344824075698852539e-01,8.897435665130615234e-02,2.111158967018127441e-01,8.493313789367675781e-01,-1.881778836250305176e-01,-2.697929143905639648e-01,-7.897729426622390747e-02,-7.414484620094299316e-01,-5.474998354911804199e-01,-2.009043991565704346e-01,5.482939481735229492e-01,1.957774758338928223e-01
-1.019279733300209045e-01,7.019638270139694214e-02,1.849725991487503052e-01,1.422122418880462646e-01,4.218357205390930176e-01,1.000307440757751465e+00,-2.598513960838317871e-01,-7.640877366065979004e-02,-1.043912619352340698e-01,-6.363753080368041992e-01,-6.339198946952819824e-01,-1.220109164714813232e-01,6.215736865997314453e-01,1.686044037342071533e-01
-2.182987779378890991e-01,-1.058874353766441345e-01,2.105463892221450806e-01,2.726740837097167969e-01,1.741672307252883911e-01,6.738673448562622070e-01,-4.001916050910949707e-01,1.936776097863912582e-03,-2.880460619926452637e-01,-5.981795787811279297e-01,-5.547410249710083008e-01,-4.120873808860778809e-01,5.853844881057739258e-01,2.333898693323135376e-01
-3.820640742778778076e-01,1.119230780750513077e-02,2.266493588685989380e-01,9.347265213727951050e-02,2.403075098991394043e-01,1.010846972465515137e+00,-5.222550630569458008e-01,-8.510383218526840210e-02,-1.902528107166290283e-01,-4.672171473503112793e-01,-6.747039556503295898e-01,-3.725513517856597900e-01,7.018691897392272949e-01,1.350806951522827148e-01
-3.203586935997009277e-01,-2.659158594906330109e-02,4.385202825069427490e-01,1.329605728387832642e-01,3.039866089820861816e-01,8.228198885917663574e-01,-4.690819382667541504e-01,6.698160618543624878e-02,-3.178569376468658447e-01,-4.716078639030456543e-01,-5.181655883789062500e-01,-1.590314358472824097e-01,5.367327928543090820e-01,2.703304290771484375e-01
-2.747542262077331543e-01,2.465496510267257690e-01,2.474340796470642090e-01,2.048380672931671143e-01,3.104593753814697266e-01,8.635568618774414062e-01,-2.894520163536071777e-01,1.858783215284347534e-01,-3.627105951309204102e-01,-3.553415238857269287e-01,-3.589420318603515625e-01,-3.241796195507049561e-01,4.397287666797637939e-01,1.395592689514160156e-01
-2.198493480682373047e-01,1.017760783433914185e-01,2.894791364669799805e-01,1.849481165409088135e-01,2.383346855640411377e-01,4.468766450881958008e-01,-5.132369995117187500e-01,3.057429492473602295e-01,-3.495837450027465820e-01,-1.930904835462570190e-01,-6.073070168495178223e-01,-3.993627727031707764e-01,4.324242174625396729e-01,1.477096825838088989e-01
-3.545435145497322083e-02,2.460955381393432617e-01,2.277951091527938843e-01,4.023520450573414564e-04,1.345640867948532104e-01,4.596020877361297607e-01,-2.888219356536865234e-01,3.377241194248199463e-01,-5.066555738449096680e-01,-3.548056781291961670e-01,-4.564136862754821777e-01,-3.414254188537597656e-01,1.227392181754112244e-01,1.698749810457229614e-01
2.552414536476135254e-01,4.421233832836151123e-01,1.854033023118972778e-01,-3.148455917835235596e-02,8.417460322380065918e-02,4.319048821926116943e-01,-5.132869482040405273e-01,5.352845788002014160e-01,-4.003046154975891113e-01,-2.765898704528808594e-01,-5.900056362152099609e-01,-4.900630116462707520e-01,2.964780628681182861e-01,1.649952828884124756e-01
1.061198860406875610e-01,1.780277043581008911e-01,-5.897032469511032104e-02,7.635585218667984009e-02,5.976607650518417358e-02,4.795913100242614746e-01,-3.410032093524932861e-01,5.550937652587890625e-01,-4.390389919281005859e-01,-1.806710101664066315e-02,-3.675700128078460693e-01,-4.135126173496246338e-01,4.870126545429229736e-01,1.183787062764167786e-01
1.486994475126266479e-01,2.868683636188507080e-01,-1.203657239675521851e-01,-1.415298581123352051e-01,1.303706318140029907e-01,5.090361237525939941e-01,-2.162261009216308594e-01,6.146437525749206543e-01,-3.360529541969299316e-01,-2.507027089595794678e-01,-3.948595225811004639e-01,-5.969124436378479004e-01,3.589515089988708496e-01,1.108916923403739929e-01
-2.908665500581264496e-02,1.420537531375885010e-01,-1.128789559006690979e-01,-1.873977631330490112e-01,2.338829934597015381e-01,3.075939416885375977e-01,-5.260651111602783203e-01,7.392492294311523438e-01,-3.942198157310485840e-01,-1.978881359100341797e-01,-8.716466426849365234e-01,-5.319308042526245117e-01,2.483679503202438354e-01,1.191873550415039062e-01
1.124860569834709167e-01,9.869761765003204346e-02,6.188520044088363647e-02,-1.498910933732986450e-01,6.264772266149520874e-02,2.746310830116271973e-01,-5.200625061988830566e-01,7.003494501113891602e-01,-2.450742125511169434e-01,-1.619121581315994263e-01,-4.779819548130035400e-01,-4.540186226367950439e-01,2.295236736536026001e-01,1.969945579767227173e-01
1.234256401658058167e-01,1.431683897972106934e-01,-2.705161832273006439e-02,-2.177985161542892456e-01,-1.988092996180057526e-02,3.651959300041198730e-01,-5.228456258773803711e-01,7.651953101158142090e-01,-9.328605979681015015e-02,4.969783127307891846e-02,-5.015434026718139648e-01,-4.669691622257232666e-01,2.908125221729278564e-01,4.193566739559173584e-01
2.585128545761108398e-01,1.554815024137496948e-01,-1.167778223752975464e-01,-1.597560346126556396e-01,-8.746559917926788330e-02,2.279996424913406372e-01,-6.149153709411621094e-01,7.335270047187805176e-01,4.421509336680173874e-03,-2.587504088878631592e-01,-4.606994688510894775e-01,-5.846427083015441895e-01,5.486111640930175781e-01,4.451970160007476807e-01
1.051167026162147522e-01,4.743434861302375793e-02,6.809814274311065674e-02,-4.809458851814270020e-01,1.566020101308822632e-01,3.687689006328582764e-01,-4.209042489528656006e-01,5.129198431968688965e-01,-4.099602997303009033e-02,-3.929435610771179199e-01,-3.258958756923675537e-01,-5.924049615859985352e-01,3.857488930225372314e-01,4.093979597091674805e-01
2.900019288063049316e-01,-3.427234664559364319e-02,-2.744409255683422089e-02,-4.706076979637145996e-01,-5.032622069120407104e-02,2.209594696760177612e-01,-6.680609583854675293e-01,6.112231612205505371e-01,2.966811656951904297e-01,-1.660354286432266235e-01,-2.112867683172225952e-01,-4.317762255668640137e-01,6.105076074600219727e-01,4.955795705318450928e-01
3.407748341560363770e-01,-9.801012277603149414e-02,-2.751545794308185577e-02,-3.947402536869049072e-01,-2.031210809946060181e-01,3.785316348075866699e-01,-5.270714759826660156e-01,7.075240015983581543e-01,1.030326858162879944e-01,-1.711993515491485596e-01,-2.323683053255081177e-01,-4.452359974384307861e-01,5.998144745826721191e-01,4.309443235397338867e-01
1.504434049129486084e-01,-7.862421870231628418e-02,1.529673188924789429e-01,-6.640549898147583008e-01,-3.515191376209259033e-03,2.421621531248092651e-01,-4.235475063323974609e-01,8.250629901885986328e-01,1.932367384433746338e-01,-3.130151331424713135e-01,-4.287052527070045471e-02,-4.073163866996765137e-01,5.803600549697875977e-01,6.594331264495849609e-01
3.483490645885467529e-01,-9.337794035673141479e-02,2.276076525449752808e-01,-5.393537282943725586e-01,7.243546098470687866e-02,7.518678158521652222e-02,-6.530445218086242676e-01,5.390264987945556641e-01,1.279357820749282837e-01,-4.092077016830444336e-01,5.610946565866470337e-02,-4.174627363681793213e-01,6.604804396629333496e-01,7.963029146194458008e-01
4.456525146961212158e-01,-2.365925349295139313e-02,4.309657812118530273e-01,-3.285476863384246826e-01,1.445323228836059570e-01,4.689726233482360840e-02,-6.443157196044921875e-01,5.071069598197937012e-01,1.227106824517250061e-01,-2.912846505641937256e-01,2.339110374450683594e-01,-2.200810313224792480e-01,7.271968722343444824e-01,6.169822216033935547e-01
4.502488076686859131e-01,-1.509642153978347778e-01,4.616452157497406006e-01,-4.106433391571044922e-01,1.544542461633682251e-01,2.926129102706909180e-02,-3.473040163516998291e-01,4.100970327854156494e-01,1.488584429025650024e-01,-2.913932800292968750e-01,2.131525129079818726e-01,-8.101315796375274658e-02,8.212772607803344727e-01,4.915718138217926025e-01
5.152103900909423828e-01,-2.020587474107742310e-01,3.986845910549163818e-01,-4.471281170845031738e-01,1.960098147392272949e-01,1.073945760726928711e-01,-4.115204215049743652e-01,2.663438618183135986e-01,2.553438544273376465e-01,-4.909602105617523193e-01,7.898565381765365601e-02,-8.546727895736694336e-02,4.927196800708770752e-01,5.711508989334106445e-01
7.512998580932617188e-01,9.844905883073806763e-02,3.665351569652557373e-01,-5.023639798164367676e-01,2.179920524358749390e-01,3.065542578697204590e-01,-3.179572820663452148e-01,4.578017592430114746e-01,2.796764373779296875e-01,-2.976886630058288574e-01,2.233148962259292603e-01,-9.468059986829757690e-02,5.020400881767272949e-01,5.469657778739929199e-01
7.352613210678100586e-01,2.641241848468780518e-01,7.077518105506896973e-01,-3.884916901588439941e-01,2.488807290792465210e-01,9.575105458498001099e-02,-2.971723377704620361e-01,1.209326088428497314e-01,1.838529258966445923e-01,-3.289978206157684326e-01,3.390460908412933350e-01,1.276641059666872025e-02,6.084405183792114258e-01,6.107358932495117188e-01
7.119689583778381348e-01,2.580835223197937012e-01,4.914255142211914062e-01,-3.084331750869750977e-01,1.354745626449584961e-01,1.688979864120483398e-01,-1.589413136243820190e-01,2.442649602890014648e-01,2.531371414661407471e-01,-1.035453230142593384e-01,4.601720869541168213e-01,2.533583939075469971e-01,6.084315776824951172e-01,6.619151830673217773e-01
7.784366011619567871e-01,2.200098931789398193e-01,7.313721776008605957e-01,-2.626563906669616699e-01,2.004022896289825439e-01,4.514642804861068726e-02,-1.746122092008590698e-01,3.658025562763214111e-01,-6.956785451620817184e-03,-1.224031597375869751e-01,3.934274017810821533e-01,1.129229739308357239e-01,3.491758108139038086e-01,3.499423563480377197e-01
7.949306964874267578e-01,2.252428829669952393e-01,6.705948710441589355e-01,-2.051675766706466675e-01,3.432372808456420898e-01,1.732796579599380493e-01,1.522268801927566528e-01,2.651521563529968262e-01,-1.118570473045110703e-02,4.001401364803314209e-02,2.955718338489532471e-01,1.584541350603103638e-01,4.686184823513031006e-01,3.916264176368713379e-01
7.092955112457275391e-01,4.443807601928710938e-01,7.329795360565185547e-01,-1.659624278545379639e-01,2.687856256961822510e-01,2.670211195945739746e-01,5.288879852741956711e-03,4.798192977905273438e-01,1.775706373155117035e-02,1.151126399636268616e-01,8.139625936746597290e-02,6.477558612823486328e-02,2.264428585767745972e-01,3.566076755523681641e-01
7.730180025100708008e-01,5.751609206199645996e-01,5.095928311347961426e-01,-4.644453525543212891e-02,-3.827320039272308350e-02,2.965211868286132812e-01,1.112375408411026001e-01,6.324483752250671387e-01,-5.816803500056266785e-02,4.078160971403121948e-02,8.141266554594039917e-02,1.024749502539634705e-01,4.743854701519012451e-01,2.061117738485336304e-01
7.648172974586486816e-01,3.685527145862579346e-01,5.252555012702941895e-01,-8.469934016466140747e-02,1.948682218790054321e-02,2.658724784851074219e-01,9.956088662147521973e-02,5.435659885406494141e-01,-3.634512796998023987e-02,1.983254998922348022e-01,1.448287516832351685e-01,2.134106755256652832e-01,5.132689476013183594e-01,1.012379750609397888e-01
5.230327844619750977e-01,4.968697726726531982e-01,6.661646366119384766e-01,-1.931898146867752075e-01,1.440265122801065445e-02,1.564825624227523804e-01,1.994403898715972900e-01,5.006247162818908691e-01,-8.523122966289520264e-02,1.617907881736755371e-01,1.792119890451431274e-01,2.630730569362640381e-01,1.662999987602233887e-01,1.663962304592132568e-01
6.405169963836669922e-01,7.051796317100524902e-01,5.071734786033630371e-01,5.678212270140647888e-03,-9.636691957712173462e-02,1.079534739255905151e-01,1.676205992698669434e-01,6.174203753471374512e-01,4.074311256408691406e-02,4.788182377815246582e-01,9.423624724149703979e-02,3.532847166061401367e-01,3.213289678096771240e-01,-3.850223496556282043e-02
5.298991799354553223e-01,4.103034436702728271e-01,2.987077534198760986e-01,2.689607627689838409e-02,-4.225769042968750000e-01,2.388426065444946289e-01,8.191641420125961304e-02,5.409259200096130371e-01,-1.776612550020217896e-01,3.359751403331756592e-01,1.499175652861595154e-02,1.786323338747024536e-01,1.006506606936454773e-01,-1.327266395092010498e-01
3.698299229145050049e-01,3.900555074214935303e-01,3.590717613697052002e-01,5.504995584487915039e-02,-1.875956207513809204e-01,3.833915591239929199e-01,2.111503668129444122e-02,6.332480907440185547e-01,1.076929867267608643e-01,3.779405355453491211e-01,1.067494414746761322e-02,-2.166790328919887543e-02,2.743838727474212646e-01,3.778457269072532654e-02
3.833349943161010742e-01,6.861687302589416504e-01,2.842620909214019775e-01,-2.330099344253540039e-01,-2.247817367315292358e-01,5.431925654411315918e-01,-2.437636405229568481e-01,6.392298340797424316e-01,-2.505542635917663574e-01,3.787927031517028809e-01,-2.047467976808547974e-02,-1.353419572114944458e-01,4.360483214259147644e-02,7.307919859886169434e-02
3.255566954612731934e-01,4.180555343627929688e-01,4.091930091381072998e-01,-4.966143667697906494e-01,-4.180532395839691162e-01,5.000610351562500000e-01,-3.897731006145477295e-01,8.191983103752136230e-01,-1.668612957000732422e-01,4.159016907215118408e-01,-6.594435870647430420e-02,-5.538854375481605530e-02,-7.846825756132602692e-03,1.624128222465515137e-01
3.573799431324005127e-01,2.619251608848571777e-01,3.483681976795196533e-01,-2.468165159225463867e-01,-4.070602655410766602e-01,5.521940588951110840e-01,-3.021869957447052002e-01,7.934153079986572266e-01,-2.380131185054779053e-01,5.385122299194335938e-01,-6.859332323074340820e-02,1.091957390308380127e-01,-3.194460272789001465e-02,1.985135823488235474e-01
2.872208654880523682e-01,4.658992588520050049e-01,3.988621830940246582e-01,-4.745394587516784668e-01,-2.965527176856994629e-01,5.098324418067932129e-01,-2.821953594684600830e-01,6.981731057167053223e-01,-3.007411062717437744e-01,6.002798676490783691e-01,-9.142425656318664551e-02,-5.099755898118019104e-02,1.059288829565048218e-01,1.467286795377731323e-01
8.278214186429977417e-02,4.394194781780242920e-01,1.418292075395584106e-01,-3.950476646423339844e-01,-4.656346142292022705e-01,3.177508413791656494e-01,-2.497242242097854614e-01,7.983489036560058594e-01,-1.977389901876449585e-01,1.422446519136428833e-01,6.259158253669738770e-02,-1.068356446921825409e-02,-3.998732939362525940e-02,3.087755143642425537e-01
1.999439448118209839e-01,2.438593357801437378e-01,3.066441416740417480e-01,-5.204862356185913086e-01,-3.668791651725769043e-01,3.363465964794158936e-01,-4.861806333065032959e-01,6.703932285308837891e-01,-1.728214919567108154e-01,4.749178886413574219e-01,6.624929606914520264e-02,2.325861249119043350e-03,4.017203673720359802e-02,-4.436711780726909637e-03
2.357581108808517456e-01,2.277284264564514160e-01,3.130527734756469727e-01,-6.408178806304931641e-01,-3.427857160568237305e-01,4.641619622707366943e-01,-3.825599253177642822e-01,7.269684672355651855e-01,-3.083215057849884033e-01,2.967891097068786621e-01,2.410676628351211548e-01,3.052137792110443115e-02,-6.355217844247817993e-02,2.006169781088829041e-02
1.344829350709915161e-01,1.188937872648239136e-01,3.428323864936828613e-01,-6.267405152320861816e-01,-3.230687677860260010e-01,1.967712491750717163e-01,-3.102355301380157471e-01,8.945149779319763184e-01,-3.018502295017242432e-01,5.890691876411437988e-01,8.538787066936492920e-02,-2.407661378383636475e-01,7.468871027231216431e-02,1.875323057174682617e-01
2.912653088569641113e-01,2.000193595886230469e-01,3.399655967950820923e-02,-6.562343239784240723e-01,-8.514071255922317505e-02,1.569608151912689209e-01,-5.633586049079895020e-01,8.610252141952514648e-01,-4.500998258590698242e-01,4.717327952384948730e-01,2.692549824714660645e-01,-1.010301522910594940e-02,3.119354695081710815e-02,2.290402501821517944e-01
1.590759158134460449e-01,1.778669655323028564e-02,1.308583021163940430e-01,-7.660737633705139160e-01,-1.290299594402313232e-01,2.367694824934005737e-01,-3.775459527969360352e-01,6.120406985282897949e-01,-4.211927056312561035e-01,4.480057656764984131e-01,1.018399745225906372e-01,-2.744872868061065674e-02,-2.838970124721527100e-01,2.404399812221527100e-01
1.703161597251892090e-01,4.885008186101913452e-02,-1.280266195535659790e-01,-6.235402226448059082e-01,-3.073149025440216064e-01,7.946486771106719971e-02,-5.117772221565246582e-01,7.864091992378234863e-01,-4.204014539718627930e-01,4.534834623336791992e-01,2.124819308519363403e-01,-1.914317756891250610e-01,-9.628316760063171387e-02,2.520508468151092529e-01
5.605862140655517578e-01,1.729638427495956421e-01,-1.289277076721191406e-01,-6.285651922225952148e-01,-2.092736214399337769e-01,-7.955664396286010742e-02,-3.857097327709197998e-01,7.025901079177856445e-01,-5.180062055587768555e-01,5.458194017410278320e-01,1.085195317864418030e-01,-1.527231484651565552e-01,-1.463182717561721802e-01,3.289523422718048096e-01
3.274746537208557129e-01,4.683001711964607239e-02,-1.114200353622436523e-01,-7.074836492538452148e-01,-1.336002498865127563e-01,-2.511698752641677856e-02,-3.818027079105377197e-01,5.117477774620056152e-01,-5.587031841278076172e-01,4.938979148864746094e-01,1.014640107750892639e-01,-1.709649562835693359e-01,-2.919215261936187744e-01,2.739611864089965820e-01
6.280200481414794922e-01,-1.605956852436065674e-01,-4.648865163326263428e-01,-6.444548368453979492e-01,3.011081926524639130e-02,-2.687999978661537170e-02,-5.424079298973083496e-01,6.783420443534851074e-01,-3.846955001354217529e-01,3.607901334762573242e-01,2.016642689704895020e-01,-3.506480455398559570e-01,-2.097772955894470215e-01,1.334396749734878540e-01
6.821356415748596191e-01,-2.889379858970642090e-01,-3.151602447032928467e-01,-5.945876240730285645e-01,-4.064663127064704895e-02,-1.825238466262817383e-01,-4.034093320369720459e-01,6.851813793182373047e-01,-4.405490159988403320e-01,3.663669228553771973e-01,2.545551359653472900e-01,-3.333902060985565186e-01,-2.239174544811248779e-01,3.136540353298187256e-01
5.329740643501281738e-01,-2.606554925441741943e-01,-5.144360065460205078e-01,-5.836004614830017090e-01,-4.143559932708740234e-02,-3.044046759605407715e-01,-2.026458829641342163e-01,3.287606537342071533e-01,-2.914961278438568115e-01,3.010735511779785156e-01,3.240629136562347412e-01,-4.095905721187591553e-01,-3.170734643936157227e-01,6.272276490926742554e-02
6.597463488578796387e-01,-1.941683739423751831e-01,-4.944116473197937012e-01,-7.356284260749816895e-01,-9.024541825056076050e-02,-1.886607110500335693e-01,-3.390358388423919678e-01,6.415151357650756836e-01,-3.683702349662780762e-01,3.772415220737457275e-01,3.372625634074211121e-02,-4.367450773715972900e-01,5.257444828748703003e-02,3.567958772182464600e-01
7.162592411041259766e-01,-4.752939045429229736e-01,-6.913287043571472168e-01,-4.769590795040130615e-01,6.826434284448623657e-02,-1.658479124307632446e-01,-1.718952357769012451e-01,6.240105032920837402e-01,-3.150978386402130127e-01,2.163348644971847534e-01,2.942860424518585205e-01,-4.445677995681762695e-01,1.299460232257843018e-01,1.178226247429847717e-01
6.706239581108093262e-01,-4.110555946826934814e-01,-5.777525305747985840e-01,-6.210305094718933105e-01,-5.339145660400390625e-02,-2.209948152303695679e-01,-1.897746622562408447e-01,4.375568330287933350e-01,-2.763251960277557373e-01,4.559142887592315674e-01,2.211252301931381226e-01,-4.228077828884124756e-01,3.196005150675773621e-02,3.248284161090850830e-01
4.441606998443603516e-01,-4.218268096446990967e-01,-5.471005439758300781e-01,-6.118801236152648926e-01,9.016738831996917725e-02,-2.731787562370300293e-01,-2.939221560955047607e-01,4.568260312080383301e-01,-3.582707941532135010e-01,1.908704191446304321e-01,2.867333889007568359e-01,-3.947000205516815186e-01,1.640934050083160400e-01,7.602687925100326538e-02
5.099070072174072266e-01,-4.137746095657348633e-01,-5.219857692718505859e-01,-6.398403644561767578e-01,1.016112342476844788e-01,-1.443460136651992798e-01,-2.521259188652038574e-01,4.903095364570617676e-01,-2.648912370204925537e-01,1.688854992389678955e-01,2.618916630744934082e-01,-1.179251521825790405e-01,2.574378550052642822e-01,1.331160813570022583e-01
5.425924658775329590e-01,-5.712411403656005859e-01,-5.444572567939758301e-01,-5.135800242424011230e-01,1.748858541250228882e-01,-1.201625019311904907e-01,-2.258656024932861328e-01,1.360157877206802368e-01,-1.249281391501426697e-01,2.080315947532653809e-01,4.397715628147125244e-01,-2.053550481796264648e-01,2.136196047067642212e-01,1.413773149251937866e-01
2.126571387052536011e-01,-4.451586306095123291e-01,-3.472776710987091064e-01,-7.455767989158630371e-01,1.138576641678810120e-01,-5.708827637135982513e-03,-9.984749555587768555e-02,2.088600844144821167e-01,-1.115430742502212524e-01,-1.876378059387207031e-01,4.529654979705810547e-01,2.710529789328575134e-02,2.867000699043273926e-01,2.326239943504333496e-01
2.889351546764373779e-01,-4.921303391456604004e-01,-4.353096485137939453e-01,-5.085093379020690918e-01,3.647280037403106689e-01,-8.391828089952468872e-02,8.140275627374649048e-02,1.827164888381958008e-01,-7.870918512344360352e-02,-1.524689942598342896e-01,3.355928063392639160e-01,-1.751968860626220703e-01,5.680426359176635742e-01,7.964280247688293457e-02
1.995856165885925293e-01,-5.991812944412231445e-01,-4.049996733665466309e-01,-5.250745415687561035e-01,2.031962722539901733e-01,-1.182214543223381042e-01,9.715317934751510620e-02,-9.677822887897491455e-02,-2.875713407993316650e-01,-2.175069749355316162e-01,1.263947784900665283e-01,1.002055779099464417e-01,4.235272407531738281e-01,1.431526392698287964e-01
5.713296309113502502e-02,-4.980427920818328857e-01,-4.182203710079193115e-01,-5.461648106575012207e-01,2.013701051473617554e-01,-3.347586840391159058e-02,-1.550763286650180817e-02,-1.316667497158050537e-01,-2.182285934686660767e-01,8.324138820171356201e-02,2.357175350189208984e-01,5.662529543042182922e-02,4.434459805488586426e-01,-1.624241098761558533e-02
7.971807569265365601e-02,-5.157653093338012695e-01,-1.173284128308296204e-01,-3.060720562934875488e-01,4.613888561725616455e-01,-1.145693361759185791e-01,1.482584476470947266e-01,-2.042695283889770508e-01,-2.375171631574630737e-01,-9.991530328989028931e-02,2.168414294719696045e-01,2.044168412685394287e-01,4.070609509944915771e-01,1.163061987608671188e-02
4.968906193971633911e-02,-4.900491237640380859e-01,-1.676578819751739502e-01,-4.194807112216949463e-01,2.106920331716537476e-01,-6.966120004653930664e-02,1.756002455949783325e-01,-1.560047417879104614e-01,-1.727534234523773193e-01,-1.222644150257110596e-01,2.851029336452484131e-01,4.339063167572021484e-01,4.415607750415802002e-01,-1.859610974788665771e-01
5.799730122089385986e-02,-3.537462055683135986e-01,-2.069954723119735718e-01,-3.546672463417053223e-01,3.534032404422760010e-01,-1.661721765995025635e-01,1.422783881425857544e-01,-1.456630975008010864e-01,-5.121013522148132324e-01,-1.063882783055305481e-01,-4.861060529947280884e-03,4.484032988548278809e-01,3.039690852165222168e-01,-1.736497879028320312e-01
-1.608616411685943604e-01,-4.481334984302520752e-01,-3.556391000747680664e-01,-2.832106053829193115e-01,3.450727462768554688e-01,-1.697679609060287476e-01,1.874850839376449585e-01,-2.203823924064636230e-01,-5.211156010627746582e-01,-3.348060324788093567e-02,3.229066729545593262e-02,3.320413231849670410e-01,2.299584299325942993e-01,-3.607988357543945312e-01
-4.909535869956016541e-02,-2.915526032447814941e-01,-4.580435454845428467e-01,-3.227010667324066162e-01,2.218204587697982788e-01,-9.236452728509902954e-02,2.022366672754287720e-01,-9.759211912751197815e-03,-5.322666168212890625e-01,-8.160953968763351440e-02,4.602675512433052063e-02,4.141633212566375732e-01,2.203525006771087646e-01,-3.526721000671386719e-01
-1.291553676128387451e-01,-1.271694451570510864e-01,-3.426961302757263184e-01,-3.837343454360961914e-01,2.375301569700241089e-01,1.181250251829624176e-02,1.002171188592910767e-01,-2.313490658998489380e-01,-5.370684266090393066e-01,1.374901384115219116e-01,1.892283260822296143e-01,3.947614431381225586e-01,2.215321958065032959e-01,-2.044564038515090942e-01
-1.512872129678726196e-01,-2.038019523024559021e-02,-3.610347509384155273e-01,-2.182833701372146606e-01,6.952297687530517578e-02,-1.483664959669113159e-01,2.912728488445281982e-01,-3.072127103805541992e-01,-6.609517931938171387e-01,1.086893901228904724e-01,-1.800770014524459839e-01,3.441043198108673096e-01,7.396030426025390625e-02,-4.046180844306945801e-01
-2.742766439914703369e-01,-1.302019804716110229e-01,-4.006854891777038574e-01,-1.792710721492767334e-01,8.475679159164428711e-02,-2.563308775424957275e-01,5.534195899963378906e-01,-3.861624374985694885e-02,-8.735667467117309570e-01,3.404786586761474609e-01,-2.343698889017105103e-01,3.361916840076446533e-01,1.682337820529937744e-01,-6.173713803291320801e-01
-3.797549009323120117e-01,3.218748047947883606e-02,-5.512221455574035645e-01,-7.114766538143157959e-02,2.784472405910491943e-01,-3.743735328316688538e-02,3.471485972404479980e-01,1.115229278802871704e-01,-1.007026076316833496e+00,1.795069277286529541e-01,-3.559953272342681885e-01,4.038211703300476074e-01,6.145887449383735657e-02,-9.629955887794494629e-01
-4.435794651508331299e-01,-4.887933284044265747e-02,-4.681000113487243652e-01,-1.534645408391952515e-01,1.725905984640121460e-01,-9.077825397253036499e-02,2.835691571235656738e-01,-1.133338548243045807e-02,-7.937764525413513184e-01,2.284818738698959351e-01,-3.634915947914123535e-01,1.194863840937614441e-01,2.738349884748458862e-02,-6.705119609832763672e-01
-4.015676677227020264e-01,-1.298706382513046265e-01,-6.651527285575866699e-01,-5.181843414902687073e-02,-7.902181148529052734e-02,-1.189821064472198486e-01,4.236351847648620605e-01,4.722118377685546875e-02,-8.630364537239074707e-01,4.146079719066619873e-01,-7.306763529777526855e-01,1.095338538289070129e-01,-1.683407425880432129e-01,-1.012885808944702148e+00
-4.632990062236785889e-01,-1.264917254447937012e-01,-6.617398262023925781e-01,-2.739513218402862549e-01,-2.080992758274078369e-01,-4.816709831357002258e-02,4.721201360225677490e-01,2.135973721742630005e-01,-9.235253930091857910e-01,4.583732485771179199e-01,-8.684495687484741211e-01,3.182253241539001465e-02,-1.656490862369537354e-01,-8.028554916381835938e-01
-5.903658866882324219e-01,1.837802082300186157e-01,-5.714861750602722168e-01,-2.251212298870086670e-01,-3.037646412849426270e-01,-1.608168184757232666e-01,4.177542328834533691e-01,2.633984982967376709e-01,-9.562512040138244629e-01,2.970926165580749512e-01,-5.599682331085205078e-01,6.396353989839553833e-02,-9.303143620491027832e-02,-8.310078382492065430e-01
-5.316146612167358398e-01,-1.487356424331665039e-01,-7.111812829971313477e-01,-4.090838432312011719e-01,-3.092671036720275879e-01,-3.358235210180282593e-02,-5.688026174902915955e-02,4.168873727321624756e-01,-9.149020910263061523e-01,4.846171438694000244e-01,-5.506955981254577637e-01,6.478867679834365845e-02,1.720989048480987549e-01,-8.652089238166809082e-01
-6.894743442535400391e-01,-3.727659955620765686e-02,-6.922633051872253418e-01,-6.147081851959228516e-01,-3.707848787307739258e-01,4.368791822344064713e-03,2.299032807350158691e-01,3.613863885402679443e-01,-8.046848773956298828e-01,5.194153785705566406e-01,-8.028169870376586914e-01,-8.536780625581741333e-02,-3.915856406092643738e-02,-8.257677555084228516e-01
-9.419111013412475586e-01,-1.972987055778503418e-01,-8.980047702789306641e-01,-4.661954641342163086e-01,-2.347612529993057251e-01,-9.235293418169021606e-02,1.937447190284729004e-01,2.850035727024078369e-01,-9.278007149696350098e-01,1.599746197462081909e-01,-5.976442098617553711e-01,-2.210810333490371704e-01,-4.927098751068115234e-02,-7.777948975563049316e-01
-8.445415496826171875e-01,-3.544550538063049316e-01,-8.604573607444763184e-01,-5.711621642112731934e-01,-3.572852015495300293e-01,-8.131296932697296143e-02,-5.040478706359863281e-02,3.611901998519897461e-01,-5.420311689376831055e-01,1.730703115463256836e-01,-6.721007823944091797e-01,-2.820104956626892090e-01,-9.370387345552444458e-02,-6.370636224746704102e-01
-9.142191410064697266e-01,-3.408373594284057617e-01,-8.611650466918945312e-01,-4.881492555141448975e-01,-1.387618929147720337e-01,-8.926489204168319702e-02,-1.519479602575302124e-01,3.463832736015319824e-01,-7.623397111892700195e-01,2.246942073106765747e-01,-7.542817592620849609e-01,-3.288899362087249756e-02,4.724385961890220642e-02,-6.703873276710510254e-01
-8.511244654655456543e-01,-3.668144345283508301e-01,-7.354308962821960449e-01,-8.044464588165283203e-01,-6.323127448558807373e-02,-7.620020210742950439e-02,-1.066052615642547607e-01,2.053750008344650269e-01,-6.807805895805358887e-01,2.069230675697326660e-01,-7.663030624389648438e-01,-1.874954551458358765e-01,4.889841377735137939e-02,-6.039639115333557129e-01
-9.195712208747863770e-01,-2.818303108215332031e-01,-8.390875458717346191e-01,-7.987656593322753906e-01,-1.018681898713111877e-01,-4.092060625553131104e-01,-1.751003861427307129e-01,1.913864910602569580e-01,-9.098005890846252441e-01,1.223274916410446167e-01,-6.899258494377136230e-01,-2.598011791706085205e-01,1.148046031594276428e-01,-8.196229338645935059e-01
-7.565623521804809570e-01,-4.355143904685974121e-01,-7.630034685134887695e-01,-5.905338525772094727e-01,-5.699457973241806030e-02,-2.347275018692016602e-01,-2.022037953138351440e-01,9.849531948566436768e-02,-8.355157971382141113e-01,-4.975049942731857300e-02,-7.000023126602172852e-01,-2.989702820777893066e-01,9.921813011169433594e-02,-4.433149993419647217e-01
-6.770765781402587891e-01,-2.800089418888092041e-01,-9.224386215209960938e-01,-5.481950640678405762e-01,1.091365665197372437e-01,-5.395531654357910156e-01,-2.305292487144470215e-01,6.503849476575851440e-02,-7.655791044235229492e-01,-2.719078585505485535e-02,-4.032477438449859619e-01,-4.052720069885253906e-01,2.637404715642333031e-03,-4.478382170200347900e-01
-5.439690947532653809e-01,-4.661128818988800049e-01,-7.100378870964050293e-01,-6.690947413444519043e-01,7.512501627206802368e-02,-4.806396961212158203e-01,-1.488325893878936768e-01,-1.186154037714004517e-01,-8.564051389694213867e-01,4.423842951655387878e-02,-6.180899739265441895e-01,-1.778474748134613037e-01,-6.287799775600433350e-02,-4.036833941936492920e-01
-7.799937129020690918e-01,-3.849106431007385254e-01,-7.561985850334167480e-01,-5.656935572624206543e-01,1.105435714125633240e-01,-4.970090687274932861e-01,-2.411238700151443481e-01,8.709044195711612701e-03,-8.424065709114074707e-01,-3.766332939267158508e-02,-2.783649265766143799e-01,-1.206208914518356323e-01,-1.021571308374404907e-01,-4.243049621582031250e-01
-6.749239563941955566e-01,-2.178543657064437866e-01,-7.706364393234252930e-01,-5.852290391921997070e-01,4.796868264675140381e-01,-7.274449467658996582e-01,-2.926166355609893799e-01,-6.198945920914411545e-03,-5.121123790740966797e-01,-6.939311325550079346e-02,-2.483837008476257324e-01,-2.677145600318908691e-01,2.513740397989749908e-02,-4.385258853435516357e-01
-2.703359723091125488e-01,-2.664270997047424316e-01,-9.453622102737426758e-01,-5.410764813423156738e-01,1.841080635786056519e-01,-7.546521425247192383e-01,-2.327916175127029419e-01,9.372031688690185547e-02,-5.624461770057678223e-01,8.796441555023193359e-02,-2.801355123519897461e-01,-4.115535914897918701e-01,9.573411196470260620e-02,-3.389316201210021973e-01
-4.389521181583404541e-01,-3.386718928813934326e-01,-7.985186576843261719e-01,-4.618259072303771973e-01,2.216335982084274292e-01,-7.356306314468383789e-01,-2.638838291168212891e-01,-1.266814470291137695e-01,-6.415202021598815918e-01,-3.062684088945388794e-02,-2.976175844669342041e-01,-2.949442565441131592e-01,3.027439117431640625e-01,-5.097538828849792480e-01
-3.111126124858856201e-01,-2.487604320049285889e-01,-7.223727703094482422e-01,-3.851043581962585449e-01,3.652261197566986084e-01,-6.533989310264587402e-01,-1.964436024427413940e-01,-1.624320894479751587e-01,-4.990697205066680908e-01,-2.349144518375396729e-01,-2.979524135589599609e-01,-3.590533733367919922e-01,9.744096547365188599e-02,-5.853565335273742676e-01
-3.714641630649566650e-01,-2.697089612483978271e-01,-6.789507269859313965e-01,-3.798732459545135498e-01,1.448294669389724731e-01,-6.512737870216369629e-01,-7.153063267469406128e-02,-7.167374342679977417e-02,-4.240906536579132080e-01,-3.009633123874664307e-01,-4.068088531494140625e-01,-3.756835460662841797e-01,2.264319509267807007e-01,-4.087038934230804443e-01
-2.978063225746154785e-01,-5.867013335227966309e-02,-7.347492575645446777e-01,-2.571935355663299561e-01,2.865366935729980469e-01,-7.956110835075378418e-01,-4.752964526414871216e-02,-2.720865420997142792e-02,-3.493819236755371094e-01,-7.892935723066329956e-02,-4.243728518486022949e-01,-3.143676519393920898e-01,2.930179536342620850e-01,-5.570948719978332520e-01
-5.044023990631103516e-01,-2.249626368284225464e-01,-7.345805764198303223e-01,-7.411010563373565674e-02,4.135782420635223389e-01,-6.856896877288818359e-01,-7.008456438779830933e-02,-6.450285017490386963e-02,-3.347220420837402344e-01,7.068579643964767456e-02,-3.243056833744049072e-01,-1.198818013072013855e-01,3.430063426494598389e-01,-7.036530375480651855e-01
-2.634473145008087158e-01,-1.074285432696342468e-01,-5.707537531852722168e-01,-2.317771166563034058e-01,3.266796171665191650e-01,-7.280226945877075195e-01,1.774548441171646118e-01,-2.209329605102539062e-01,-3.043131344020366669e-02,-1.140001565217971802e-01,-4.682160019874572754e-01,-3.255536854267120361e-01,2.445787191390991211e-01,-5.256220102310180664e-01
-3.722440004348754883e-01,-7.305326312780380249e-02,-3.924831449985504150e-01,-5.570175498723983765e-02,3.413334488868713379e-01,-6.129582524299621582e-01,-3.483385220170021057e-02,-2.093840390443801880e-01,4.553050920367240906e-02,7.486560195684432983e-02,-3.530365526676177979e-01,-5.003017187118530273e-01,3.730169534683227539e-01,-6.780125498771667480e-01
-4.192881882190704346e-01,-4.813987389206886292e-02,-5.741667151451110840e-01,-1.872128397226333618e-01,3.639480173587799072e-01,-4.279457628726959229e-01,6.331545114517211914e-02,-1.599404513835906982e-01,-1.227324381470680237e-01,-2.385523915290832520e-01,-5.676764249801635742e-01,-4.139429628849029541e-01,4.470426440238952637e-01,-4.909617304801940918e-01
-4.662455320358276367e-01,-1.129135582596063614e-02,-4.076093733310699463e-01,-4.525790736079216003e-02,3.193050026893615723e-01,-2.605146169662475586e-01,-2.265956252813339233e-02,-3.211520314216613770e-01,2.882223203778266907e-02,-1.206318363547325134e-01,-5.120873451232910156e-01,-2.849828004837036133e-01,4.356893301010131836e-01,-6.225969195365905762e-01
-2.774034142494201660e-01,5.778446793556213379e-02,-2.701679468154907227e-01,3.113217353820800781e-01,4.868918955326080322e-01,-2.274895608425140381e-01,-1.936381161212921143e-01,-3.592638969421386719e-01,1.650505363941192627e-01,-2.951504886150360107e-01,-4.756808578968048096e-01,-3.290256559848785400e-01,6.770549416542053223e-01,-5.332232117652893066e-01
-4.104661047458648682e-01,2.219300903379917145e-02,-4.571860134601593018e-01,1.512994468212127686e-01,2.909322977066040039e-01,-2.498723119497299194e-01,8.866813033819198608e-03,-2.915031909942626953e-01,3.336347267031669617e-02,-3.379206061363220215e-01,-6.313732862472534180e-01,-1.842502504587173462e-01,4.543734192848205566e-01,-5.925990939140319824e-01
-4.592687785625457764e-01,5.428674817085266113e-02,-1.968437880277633667e-01,7.549370825290679932e-02,3.036287724971771240e-01,-3.304719924926757812e-01,-1.861334741115570068e-01,-2.651165723800659180e-01,1.538736522197723389e-01,-1.549426466226577759e-01,-4.527999758720397949e-01,-2.101861387491226196e-01,5.712812542915344238e-01,-5.359510779380798340e-01
-5.602992773056030273e-01,1.378787010908126831e-01,-1.002822220325469971e-01,1.293582767248153687e-01,5.002475976943969727e-01,-1.719246655702590942e-01,5.249721184372901917e-02,-2.760751545429229736e-01,1.696607917547225952e-01,1.345716863870620728e-01,-4.722541868686676025e-01,-1.674460470676422119e-01,4.879291355609893799e-01,-4.354797005653381348e-01
-6.679684519767761230e-01,1.182504966855049133e-01,2.475257962942123413e-02,1.266796886920928955e-01,3.344813287258148193e-01,1.402254961431026459e-02,-1.282243579626083374e-01,-4.092137515544891357e-01,9.574934095144271851e-02,-1.115471720695495605e-01,-2.073391377925872803e-01,-1.397295892238616943e-01,5.668346881866455078e-01,-4.894872307777404785e-01
-5.753222107887268066e-01,3.436747491359710693e-01,5.096208304166793823e-02,2.557137608528137207e-01,1.681292653083801270e-01,-1.203470379114151001e-01,-2.556970715522766113e-01,-4.859526455402374268e-01,9.465973824262619019e-02,-1.751708537340164185e-01,-4.030130505561828613e-01,-2.313687652349472046e-01,5.212484598159790039e-01,-2.799801528453826904e-01
-5.138285160064697266e-01,4.026849567890167236e-01,-1.248987391591072083e-02,2.015322595834732056e-01,2.745148837566375732e-01,1.573544740676879883e-01,-2.802565991878509521e-01,-4.685898721218109131e-01,-4.438760504126548767e-02,-6.196298450231552124e-02,-4.169848561286926270e-01,-1.913986951112747192e-01,4.714513719081878662e-01,-4.520472288131713867e-01
-6.691273450851440430e-01,4.340819716453552246e-01,-1.027289219200611115e-02,2.716376781463623047e-01,3.991697728633880615e-01,-5.468798335641622543e-04,-5.363836288452148438e-01,-4.544126093387603760e-01,-5.579251050949096680e-02,-6.190164759755134583e-02,-6.408628225326538086e-01,5.614210967905819416e-04,3.227778673171997070e-01,-6.522764563560485840e-01
-5.904839634895324707e-01,5.680552721023559570e-01,1.498869210481643677e-01,3.055619597434997559e-01,7.324749976396560669e-02,-1.149194762110710144e-01,-3.202978074550628662e-01,-3.476161360740661621e-01,-1.993598639965057373e-01,3.325548768043518066e-02,-6.524752378463745117e-01,-6.414604722522199154e-04,4.399795830249786377e-01,-7.723298072814941406e-01
-5.242378115653991699e-01,3.379966318607330322e-01,-9.159373119473457336e-03,4.555273354053497314e-01,2.944236695766448975e-01,7.078561931848526001e-02,-2.012088596820831299e-01,-3.238567411899566650e-01,-1.211822032928466797e-01,3.259881166741251945e-03,-5.787403583526611328e-01,-1.201826706528663635e-01,2.037423104047775269e-01,-4.042415320873260498e-01
-6.795164942741394043e-01,4.739246368408203125e-01,6.665580719709396362e-02,5.264741778373718262e-01,2.144433408975601196e-01,-1.805377304553985596e-01,-5.233912467956542969e-01,-5.052147507667541504e-01,-9.886033087968826294e-02,1.372945755720138550e-01,-3.913258612155914307e-01,-1.244512125849723816e-01,2.265606075525283813e-01,-5.970796346664428711e-01
-7.356081008911132812e-01,5.660390257835388184e-01,-1.760227791965007782e-02,5.461546778678894043e-01,6.578594446182250977e-02,-4.338153824210166931e-02,-3.777645826339721680e-01,-9.950169175863265991e-02,-1.613820940256118774e-01,2.042747288942337036e-01,-5.984376072883605957e-01,-1.302475929260253906e-01,7.673639804124832153e-02,-3.719498515129089355e-01
-5.464137196540832520e-01,8.107329607009887695e-01,-5.314409360289573669e-02,5.372810959815979004e-01,9.309931099414825439e-02,6.520218681544065475e-03,-3.425464928150177002e-01,-1.847478896379470825e-01,-1.187864840030670166e-01,2.414112836122512817e-01,-5.075747370719909668e-01,-2.543137073516845703e-01,1.866216063499450684e-01,-4.956275522708892822e-01
-4.834367334842681885e-01,6.072276830673217773e-01,-3.132437765598297119e-01,4.152931869029998779e-01,4.845084995031356812e-02,-1.210206672549247742e-01,-3.018035292625427246e-01,-5.568795651197433472e-02,-1.921393163502216339e-02,1.682621985673904419e-01,-4.679379165172576904e-01,-4.512536227703094482e-01,1.804348975419998169e-01,-3.787720501422882080e-01
-5.460572838783264160e-01,6.970237493515014648e-01,-2.455981969833374023e-01,4.853428304195404053e-01,1.731178015470504761e-01,-7.441230863332748413e-02,-4.098359346389770508e-01,-2.781052701175212860e-02,-1.972708404064178467e-01,3.116466701030731201e-01,-4.678336977958679199e-01,-9.170576184988021851e-02,7.313586771488189697e-02,-6.150000095367431641e-01
-5.751075744628906250e-01,5.735504627227783203e-01,-2.291146516799926758e-01,4.000954031944274902e-01,-6.087465956807136536e-02,2.153972089290618896e-01,-5.663971304893493652e-01,-2.256370522081851959e-02,2.114821458235383034e-03,3.120207190513610840e-01,-8.300334215164184570e-01,-5.119776725769042969e-01,1.239757165312767029e-01,-5.167285799980163574e-01
-1.644171327352523804e-01,6.631134748458862305e-01,-2.480627447366714478e-01,3.455693423748016357e-01,-2.145815640687942505e-01,4.790288954973220825e-02,-5.868119597434997559e-01,-1.190325021743774414e-01,1.659444570541381836e-01,3.172217011451721191e-01,-3.015662729740142822e-01,-5.680032372474670410e-01,9.189558029174804688e-02,-3.890170454978942871e-01
-3.537415862083435059e-01,4.621994495391845703e-01,-3.877647221088409424e-01,3.188403546810150146e-01,-1.683670096099376678e-02,1.547189801931381226e-01,-6.645473241806030273e-01,5.019033700227737427e-02,2.319342643022537231e-01,3.037688732147216797e-01,-6.389839053153991699e-01,-4.223440587520599365e-01,9.878101199865341187e-02,-1.431234925985336304e-01
-2.778651714324951172e-01,4.457807540893554688e-01,-4.660117626190185547e-01,4.197808802127838135e-01,-2.054244838654994965e-02,-6.557257845997810364e-03,-8.783365488052368164e-01,5.005751922726631165e-02,3.250848948955535889e-01,1.026394143700599670e-01,-4.952031075954437256e-01,-4.962438642978668213e-01,4.114453494548797607e-01,-1.331233382225036621e-01
-3.972581028938293457e-01,4.071945548057556152e-01,-5.837225914001464844e-01,2.069447934627532959e-01,2.861066535115242004e-02,7.773053646087646484e-02,-9.003323316574096680e-01,-3.549936041235923767e-02,2.982206046581268311e-01,2.485528141260147095e-01,-5.156496167182922363e-01,-7.380452752113342285e-01,3.149285912513732910e-01,-1.301031261682510376e-01
-3.378921747207641602e-01,1.962538063526153564e-01,-2.428020089864730835e-01,3.389283418655395508e-01,-6.486903131008148193e-02,1.488664597272872925e-01,-9.640457034111022949e-01,6.067615002393722534e-02,3.177516460418701172e-01,9.417859464883804321e-02,-4.582642316818237305e-01,-8.788335919380187988e-01,2.119583487510681152e-01,-1.634252071380615234e-02
-5.317565798759460449e-01,2.742878496646881104e-01,-4.766760468482971191e-01,2.572692930698394775e-01,-1.300573348999023438e-01,2.024879008531570435e-01,-8.729569315910339355e-01,-1.914903335273265839e-02,4.114501476287841797e-01,1.477860659360885620e-01,-4.488200843334197998e-01,-5.004613399505615234e-01,4.896354377269744873e-01,1.639105230569839478e-01
-3.076048195362091064e-01,2.617843449115753174e-01,-1.729981601238250732e-01,1.450192332267761230e-01,1.332935243844985962e-01,1.785669922828674316e-01,-9.396563768386840820e-01,-1.102635171264410019e-02,4.143066108226776123e-01,9.396056085824966431e-02,-2.035648971796035767e-01,-6.252524852752685547e-01,3.183876872062683105e-01,1.953892037272453308e-02
-3.460607230663299561e-01,2.987923324108123779e-01,-3.785162568092346191e-01,4.025113284587860107e-01,7.886381447315216064e-02,8.419501036405563354e-02,-1.172143697738647461e+00,-8.350459486246109009e-02,5.153011083602905273e-01,-1.365866512060165405e-01,-2.017707675695419312e-01,-7.606226205825805664e-01,5.309973359107971191e-01,3.078688383102416992e-01
-1.449354588985443115e-01,1.340857595205307007e-01,-2.966924607753753662e-01,1.008306890726089478e-01,1.158556491136550903e-01,1.492339968681335449e-01,-1.156523942947387695e+00,-1.227940171957015991e-01,4.825477302074432373e-01,-9.421828389167785645e-02,-2.212175913155078888e-02,-5.929691195487976074e-01,4.779971539974212646e-01,3.543559312820434570e-01
-1.657676547765731812e-01,1.322442144155502319e-01,-9.212806820869445801e-02,1.798379719257354736e-01,2.780458629131317139e-01,2.414015829563140869e-01,-9.304453730583190918e-01,-2.171003967523574829e-01,5.064725875854492188e-01,-5.038467422127723694e-02,-2.691857144236564636e-02,-3.116488456726074219e-01,6.383429765701293945e-01,2.592885196208953857e-01
-7.535852491855621338e-02,1.492485702037811279e-01,-1.972453594207763672e-01,1.078594103455543518e-01,2.618079185485839844e-01,-3.662664070725440979e-02,-9.596506357192993164e-01,-2.077584564685821533e-01,4.577975869178771973e-01,-2.128506451845169067e-01,2.126212865114212036e-01,-2.298707515001296997e-01,6.725125908851623535e-01,3.168626129627227783e-01
-2.040791660547256470e-01,2.792675793170928955e-01,-3.333245515823364258e-01,9.056071192026138306e-02,4.748162031173706055e-01,-1.846116408705711365e-02,-8.440048694610595703e-01,-3.543442487716674805e-01,5.746635794639587402e-01,-2.251984626054763794e-01,2.171454876661300659e-01,-3.818075060844421387e-01,5.968240499496459961e-01,4.603042602539062500e-01
-1.437265723943710327e-01,1.527360379695892334e-01,-1.188279390335083008e-01,3.921656012535095215e-01,5.016711950302124023e-01,-1.654616743326187134e-01,-8.745478391647338867e-01,-4.619749784469604492e-01,6.196030974388122559e-01,-5.121682286262512207e-01,3.949941694736480713e-01,-3.201977014541625977e-01,5.824894905090332031e-01,4.442983567714691162e-01
1.351810544729232788e-01,6.738081574440002441e-02,-2.540965378284454346e-01,3.430761992931365967e-01,3.056499361991882324e-01,-6.814885139465332031e-02,-9.495878219604492188e-01,-6.123629808425903320e-01,6.019840836524963379e-01,-2.221127897500991821e-01,3.802954852581024170e-01,-2.684502899646759033e-01,7.302256822586059570e-01,3.389958739280700684e-01
1.436460763216018677e-01,-3.446776419878005981e-02,-6.139683723449707031e-02,2.741582393646240234e-01,3.633604645729064941e-01,3.240993479266762733e-03,-5.925115346908569336e-01,-3.446308076381683350e-01,6.144008040428161621e-01,-3.342943191528320312e-01,2.678385674953460693e-01,-2.486496418714523315e-01,6.916999220848083496e-01,1.860695332288742065e-01
7.900783419609069824e-02,3.279134333133697510e-01,-5.788885802030563354e-02,5.019342303276062012e-01,3.998989760875701904e-01,-1.626971811056137085e-01,-7.650216817855834961e-01,-5.385480523109436035e-01,5.600925087928771973e-01,-1.313687413930892944e-01,1.674757152795791626e-01,-5.177878960967063904e-02,8.206069469451904297e-01,3.206647336483001709e-01
8.346971124410629272e-03,2.897628843784332275e-01,-1.853359676897525787e-02,4.654524922370910645e-01,3.137227296829223633e-01,-1.221507862210273743e-01,-7.051793336868286133e-01,-4.557595551013946533e-01,6.765670180320739746e-01,-1.326079517602920532e-01,3.140875697135925293e-01,2.309804409742355347e-01,5.475590825080871582e-01,1.628872305154800415e-01
1.808275729417800903e-01,3.867578208446502686e-01,-5.048542097210884094e-02,4.938049018383026123e-01,2.470772862434387207e-01,-7.245428860187530518e-02,-6.263815760612487793e-01,-4.082443118095397949e-01,6.329942345619201660e-01,-3.278096914291381836e-01,5.327928066253662109e-01,-1.195679605007171631e-01,5.733591914176940918e-01,1.865978688001632690e-01
2.362249195575714111e-01,2.606630623340606689e-01,-1.051342412829399109e-01,3.957802057266235352e-01,7.509986311197280884e-02,1.457757037132978439e-02,-3.213857710361480713e-01,-3.965668678283691406e-01,7.358233928680419922e-01,-9.273056685924530029e-02,2.713806927204132080e-01,5.728773772716522217e-02,8.088999390602111816e-01,-8.073001354932785034e-02
5.043806880712509155e-02,3.799389600753784180e-01,6.908858567476272583e-02,5.104282498359680176e-01,2.398760169744491577e-01,-1.530387401580810547e-01,-4.557912647724151611e-01,-3.011256456375122070e-01,7.150605320930480957e-01,-1.082763448357582092e-01,2.683742940425872803e-01,2.010781615972518921e-01,7.095301151275634766e-01,3.580731153488159180e-02
8.912793546915054321e-02,5.925522446632385254e-01,-2.133173868060112000e-02,5.042123198509216309e-01,-2.071685530245304108e-02,1.378019154071807861e-01,-2.480896413326263428e-01,-2.209663689136505127e-01,6.820438504219055176e-01,-1.661336719989776611e-01,6.710553914308547974e-02,2.278580814599990845e-01,6.624789834022521973e-01,-8.816301077604293823e-02
-3.043622709810733795e-02,4.106320440769195557e-01,-1.948621273040771484e-01,6.233725547790527344e-01,-2.455433830618858337e-02,1.497378945350646973e-02,-2.140555530786514282e-01,-4.929442107677459717e-01,5.657999515533447266e-01,-1.250054500997066498e-02,-2.956250682473182678e-02,3.588418066501617432e-01,7.296774387359619141e-01,2.193120308220386505e-02
1.199800428003072739e-02,5.657138228416442871e-01,2.669439613819122314e-01,6.320558190345764160e-01,-2.619580328464508057e-01,1.832481920719146729e-01,4.573188349604606628e-02,-2.083635479211807251e-01,8.296313881874084473e-01,2.159755975008010864e-01,-1.482836902141571045e-01,3.882837593555450439e-01,5.736311078071594238e-01,-5.918963998556137085e-02
-2.286373404785990715e-03,3.027685284614562988e-01,2.947806380689144135e-02,4.287196099758148193e-01,-2.615898251533508301e-01,4.713760912418365479e-01,1.416114345192909241e-02,-2.467612922191619873e-01,5.025811195373535156e-01,4.657537862658500671e-02,-1.907904744148254395e-01,2.236398905515670776e-01,6.232948899269104004e-01,-1.940094083547592163e-01
-3.194669485092163086e-01,6.344919204711914062e-01,1.749500818550586700e-02,5.638518333435058594e-01,-3.328175544738769531e-01,4.729359149932861328e-01,-1.930624246597290039e-01,-3.410936146974563599e-02,6.536140441894531250e-01,9.476705640554428101e-02,-3.995813056826591492e-02,2.625437676906585693e-01,6.726037859916687012e-01,-1.551297456026077271e-01
-3.592828810214996338e-01,2.959521710872650146e-01,1.421081721782684326e-01,6.654034256935119629e-01,-5.067613124847412109e-01,3.468987047672271729e-01,-2.388754040002822876e-01,-1.684654355049133301e-01,5.896294116973876953e-01,9.402903914451599121e-02,-5.680691450834274292e-03,3.006576299667358398e-01,7.308242917060852051e-01,-3.259251266717910767e-02
-1.636412292718887329e-01,4.295547306537628174e-01,1.627219766378402710e-01,5.310328602790832520e-01,-2.848281264305114746e-01,3.152204155921936035e-01,-2.386117875576019287e-01,-3.976166248321533203e-02,4.210110604763031006e-01,2.225991711020469666e-02,-1.430831700563430786e-01,6.467510461807250977e-01,7.562405467033386230e-01,-2.278223633766174316e-01
-2.822739779949188232e-01,5.782672762870788574e-01,4.235976338386535645e-01,4.131973087787628174e-01,-4.467713236808776855e-01,4.785218238830566406e-01,-3.185218870639801025e-01,-1.109704375267028809e-01,3.113378882408142090e-01,1.197725161910057068e-01,-4.683061689138412476e-02,4.351803362369537354e-01,5.333786010742187500e-01,-2.301346808671951294e-01
-4.485033750534057617e-01,6.647208929061889648e-01,3.281466662883758545e-01,3.193120956420898438e-01,-5.049492120742797852e-01,3.116348385810852051e-01,-1.347402036190032959e-01,-1.004523783922195435e-01,2.627808153629302979e-01,2.161548435688018799e-01,-8.735588192939758301e-02,5.929337143898010254e-01,1.998656094074249268e-01,-2.847212255001068115e-01
-2.065682113170623779e-01,4.410696327686309814e-01,1.375815272331237793e-01,3.295040428638458252e-01,-5.292024612426757812e-01,3.091004490852355957e-01,-2.656018733978271484e-01,1.007710024714469910e-02,8.154217153787612915e-02,3.293971419334411621e-01,2.807050198316574097e-02,5.081644654273986816e-01,2.816284894943237305e-01,-1.108908131718635559e-01
-4.422890841960906982e-01,7.499207258224487305e-01,1.365015357732772827e-01,4.365746378898620605e-01,-6.553333401679992676e-01,3.200545608997344971e-01,-4.391119182109832764e-01,5.288484971970319748e-04,1.593951284885406494e-01,1.870406419038772583e-01,-6.170732155442237854e-02,6.478914618492126465e-01,2.521353960037231445e-01,-2.101437151432037354e-01
-4.063367843627929688e-01,8.648247122764587402e-01,1.210101619362831116e-01,4.067602753639221191e-01,-4.233131408691406250e-01,3.137216269969940186e-01,-9.263249486684799194e-02,-1.358254533261060715e-02,5.228732153773307800e-02,3.747879564762115479e-01,4.471749439835548401e-02,6.018519401550292969e-01,1.728101819753646851e-01,-2.151809930801391602e-01
-2.607822120189666748e-01,6.872149109840393066e-01,2.407973706722259521e-01,3.479120433330535889e-01,-7.116295695304870605e-01,2.519288361072540283e-01,-3.956777751445770264e-01,8.164726942777633667e-02,-9.604639559984207153e-02,5.345657467842102051e-01,4.038595780730247498e-02,5.749481320381164551e-01,-5.319444090127944946e-02,-3.428768217563629150e-01
-3.179233968257904053e-01,7.240011096000671387e-01,1.501864790916442871e-01,2.415738552808761597e-01,-5.086382627487182617e-01,8.206166326999664307e-03,-2.443227171897888184e-01,1.732661873102188110e-01,-1.321612894535064697e-01,4.355320334434509277e-01,5.472661182284355164e-02,6.456003785133361816e-01,2.128595858812332153e-01,-4.314445555210113525e-01
-1.879648864269256592e-01,6.974979043006896973e-01,2.181788906455039978e-03,1.852544397115707397e-01,-7.871952652931213379e-01,-9.720312803983688354e-02,-2.354138493537902832e-01,2.724950313568115234e-01,-2.593362927436828613e-01,4.657278358936309814e-01,3.689799457788467407e-02,5.449897646903991699e-01,8.042860776185989380e-02,-2.166903316974639893e-01
-1.823345720767974854e-01,8.474976420402526855e-01,-1.349000036716461182e-01,1.226312965154647827e-01,-8.450263142585754395e-01,-9.927630424499511719e-02,-1.773278713226318359e-01,3.266985416412353516e-01,-1.652990579605102539e-01,6.583586335182189941e-01,-4.805021360516548157e-02,6.153048872947692871e-01,-1.505363136529922485e-01,-3.678993880748748779e-01
-2.602171897888183594e-01,8.816514015197753906e-01,-2.153560668230056763e-01,1.959060281515121460e-01,-9.539211392402648926e-01,6.355185061693191528e-02,1.237292657606303692e-03,5.411953926086425781e-01,-2.557962201535701752e-02,5.679433345794677734e-01,1.237010862678289413e-02,3.984323740005493164e-01,-7.801715750247240067e-03,-2.345208227634429932e-01
-3.160490393638610840e-01,8.078526258468627930e-01,-7.456040382385253906e-02,7.435901090502738953e-03,-7.250983119010925293e-01,-3.197293579578399658e-01,-2.925656139850616455e-01,4.045647084712982178e-01,-1.379149258136749268e-01,7.102332711219787598e-01,1.887737400829792023e-02,6.167954206466674805e-01,-2.159404754638671875e-01,-3.146265745162963867e-01
-8.089636266231536865e-02,9.055227041244506836e-01,-2.187304496765136719e-01,2.328757941722869873e-02,-8.930859565734863281e-01,-2.784729599952697754e-01,-6.564832478761672974e-02,4.021765291690826416e-01,-2.551709413528442383e-01,5.916207432746887207e-01,2.084308303892612457e-02,3.575261533260345459e-01,-7.993924617767333984e-02,-4.133241772651672363e-01
-8.912874758243560791e-02,6.093675494194030762e-01,-3.082607388496398926e-01,-1.191972494125366211e-01,-9.614704847335815430e-01,-4.107860624790191650e-01,-4.075457528233528137e-02,4.163182675838470459e-01,1.184864668175578117e-04,6.495571136474609375e-01,1.657848954200744629e-01,6.020942330360412598e-01,-2.470404207706451416e-01,-2.528903484344482422e-01
1.366642862558364868e-01,5.291585326194763184e-01,-2.300040572881698608e-01,-2.559298276901245117e-01,-7.903885245323181152e-01,-5.466753840446472168e-01,-1.507237553596496582e-01,3.787976503372192383e-01,1.642075926065444946e-02,8.225027322769165039e-01,-1.033502593636512756e-01,2.586934268474578857e-01,-7.854273170232772827e-02,-1.638586521148681641e-01
-2.477326057851314545e-02,4.628030657768249512e-01,-1.047357469797134399e-01,-2.125136703252792358e-01,-9.303456544876098633e-01,-3.379265367984771729e-01,1.214960962533950806e-02,4.135549068450927734e-01,-3.884201496839523315e-02,5.084980130195617676e-01,7.206188514828681946e-03,2.505123317241668701e-01,-1.167244315147399902e-01,-2.906760573387145996e-01
1.558552216738462448e-02,3.534084558486938477e-01,-1.101710051298141479e-01,-3.412749469280242920e-01,-8.178513646125793457e-01,-5.193900465965270996e-01,-6.727414578199386597e-02,7.016474008560180664e-01,7.692527025938034058e-02,5.557499527931213379e-01,2.605628669261932373e-01,2.725469172000885010e-01,-1.247880533337593079e-01,-2.431424558162689209e-01
-6.044648215174674988e-02,2.840302884578704834e-01,-2.080145329236984253e-01,-3.426584601402282715e-01,-9.257845878601074219e-01,-5.063130259513854980e-01,1.125023663043975830e-01,2.444831728935241699e-01,1.626354604959487915e-01,6.209948062896728516e-01,2.012383043766021729e-01,4.841268062591552734e-01,-2.186018675565719604e-01,-2.331722974777221680e-01
-4.944510012865066528e-02,1.699879020452499390e-01,-2.284168601036071777e-01,-6.191223263740539551e-01,-8.228076100349426270e-01,-5.248922705650329590e-01,-2.300519347190856934e-01,3.430367708206176758e-01,-5.633416026830673218e-02,3.984219431877136230e-01,3.411871492862701416e-01,3.243120312690734863e-01,-5.436238273978233337e-02,-2.405140399932861328e-01
1.752873957157135010e-01,2.354591935873031616e-01,-4.359581768512725830e-01,-2.473120838403701782e-01,-6.848190426826477051e-01,-5.070414543151855469e-01,-2.537293136119842529e-01,2.885594367980957031e-01,3.032539188861846924e-01,4.424830079078674316e-01,5.427169799804687500e-01,4.670232832431793213e-01,7.537914812564849854e-02,-1.017010211944580078e-01
1.274960041046142578e-01,3.795545697212219238e-01,-1.525826156139373779e-01,-6.058249473571777344e-01,-9.297587275505065918e-01,-6.334598064422607422e-01,-1.208633333444595337e-01,2.088968455791473389e-01,3.149312734603881836e-01,4.609750509262084961e-01,5.405001640319824219e-01,4.650241434574127197e-01,1.294554863125085831e-02,-2.106902301311492920e-01
4.893025383353233337e-02,6.352400779724121094e-02,-6.928902119398117065e-02,-3.864353299140930176e-01,-6.864313483238220215e-01,-6.247012615203857422e-01,-1.037584319710731506e-01,3.171632289886474609e-01,2.485607862472534180e-01,4.387662410736083984e-01,6.839250326156616211e-01,4.378297328948974609e-01,-2.599024027585983276e-02,-9.108506143093109131e-02
2.732616364955902100e-01,1.478512287139892578e-01,-1.033462956547737122e-01,-3.212956190109252930e-01,-5.349780321121215820e-01,-5.982044339179992676e-01,-7.619922608137130737e-02,3.666556626558303833e-02,3.954798281192779541e-01,4.354720711708068848e-01,5.124552249908447266e-01,6.418378353118896484e-01,2.259475886821746826e-01,-9.964483976364135742e-02
4.476225748658180237e-02,1.210218369960784912e-01,1.441998183727264404e-01,-4.522442519664764404e-01,-7.585850954055786133e-01,-7.430368661880493164e-01,2.017045170068740845e-01,-1.236779838800430298e-01,1.162167340517044067e-01,3.422077298164367676e-01,7.320256233215332031e-01,5.220003724098205566e-01,8.029350638389587402e-02,-1.319711953401565552e-01
6.934233009815216064e-02,2.059049010276794434e-01,6.768015772104263306e-02,-2.597506046295166016e-01,-5.364639759063720703e-01,-8.787525892257690430e-01,1.365612596273422241e-01,-1.822780966758728027e-01,2.971502840518951416e-01,3.967719376087188721e-01,7.990854382514953613e-01,7.745299339294433594e-01,-5.886684637516736984e-03,-1.256514638662338257e-01
6.223235279321670532e-02,1.777963340282440186e-01,3.755692243576049805e-01,-7.703316211700439453e-02,-5.455253720283508301e-01,-7.096111774444580078e-01,3.573687374591827393e-01,-1.172672808170318604e-01,2.152345180511474609e-01,1.507122069597244263e-01,6.489797830581665039e-01,8.509858250617980957e-01,-1.397689133882522583e-01,-1.718129217624664307e-01
1.315077841281890869e-01,1.923408359289169312e-01,1.877275109291076660e-01,-2.319046705961227417e-01,-3.744742572307586670e-01,-9.433745741844177246e-01,3.909367918968200684e-01,-2.319502085447311401e-01,1.857253611087799072e-01,3.065002858638763428e-01,7.202304005622863770e-01,6.654257774353027344e-01,-1.054187715053558350e-01,-1.971291303634643555e-01
3.904602527618408203e-01,3.140920102596282959e-01,1.754300296306610107e-01,-2.281124591827392578e-01,-5.474827289581298828e-01,-9.638562202453613281e-01,3.450785279273986816e-01,-8.088385313749313354e-02,1.239399537444114685e-01,4.653426408767700195e-01,6.965976953506469727e-01,9.522989988327026367e-01,6.527307629585266113e-02,-2.441474944353103638e-01
-2.731589786708354950e-02,2.915909290313720703e-01,3.212045133113861084e-01,-1.433164030313491821e-01,-4.010522663593292236e-01,-8.576582670211791992e-01,4.053924083709716797e-01,6.421387195587158203e-02,2.687423825263977051e-01,3.459213972091674805e-01,6.971947550773620605e-01,9.487988352775573730e-01,-1.581426262855529785e-01,-1.062229275703430176e-02
2.832261919975280762e-01,3.052324056625366211e-01,2.628218531608581543e-01,-5.446619912981987000e-02,-5.311798453330993652e-01,-7.462056279182434082e-01,6.407397389411926270e-01,-2.008600682020187378e-01,1.928094774484634399e-01,6.133476495742797852e-01,7.069565653800964355e-01,9.890255928039550781e-01,-1.815156638622283936e-01,-4.225761294364929199e-01
9.253904223442077637e-02,2.572441995143890381e-01,1.109941005706787109e-01,5.419567972421646118e-02,-5.673863291740417480e-01,-8.701596260070800781e-01,8.618468642234802246e-01,-2.336790412664413452e-01,1.793615967035293579e-01,4.989256858825683594e-01,6.991416215896606445e-01,6.929037570953369141e-01,-4.487448930740356445e-01,-3.710767328739166260e-01
1.836032718420028687e-01,4.447479546070098877e-01,1.434323340654373169e-01,9.402444213628768921e-02,-5.946528315544128418e-01,-9.384205341339111328e-01,5.667284131050109863e-01,-6.686047464609146118e-02,3.785014152526855469e-02,6.563494205474853516e-01,6.289640069007873535e-01,1.037821888923645020e+00,-3.752048611640930176e-01,-4.812275171279907227e-01
3.032048046588897705e-01,5.360199809074401855e-01,2.311821579933166504e-01,2.286379039287567139e-01,-6.370109915733337402e-01,-6.821923255920410156e-01,7.851758599281311035e-01,-1.518117189407348633e-01,8.628886938095092773e-02,7.037671208381652832e-01,3.820483982563018799e-01,8.561694025993347168e-01,-4.034255445003509521e-01,-6.814497113227844238e-01
5.906508862972259521e-02,4.668771624565124512e-01,1.525892168283462524e-01,2.259972691535949707e-01,-5.709269046783447266e-01,-9.025455713272094727e-01,7.033208608627319336e-01,7.716946303844451904e-02,9.929638355970382690e-02,8.496415615081787109e-01,4.749777615070343018e-01,7.570655941963195801e-01,-4.349990487098693848e-01,-7.350468039512634277e-01
-4.304537177085876465e-02,3.949581980705261230e-01,1.475730538368225098e-01,4.351549968123435974e-02,-9.392664432525634766e-01,-6.937498450279235840e-01,6.766297221183776855e-01,-8.740673959255218506e-02,-6.312847882509231567e-02,4.640693962574005127e-01,3.898552358150482178e-01,6.174486279487609863e-01,-4.487647116184234619e-01,-7.347265481948852539e-01
-4.967333003878593445e-02,5.098860263824462891e-01,1.971120089292526245e-01,2.731523811817169189e-01,-8.956702947616577148e-01,-7.621953487396240234e-01,5.695081949234008789e-01,-5.555779859423637390e-02,2.219599932432174683e-01,7.601439952850341797e-01,3.196698427200317383e-01,8.229542374610900879e-01,-5.311746001243591309e-01,-5.844646692276000977e-01
3.771396353840827942e-02,4.071860313415527344e-01,1.429271697998046875e-02,2.376356162130832672e-02,-7.009324431419372559e-01,-5.646719336509704590e-01,6.859070658683776855e-01,-2.116622775793075562e-01,2.471669763326644897e-02,8.545625209808349609e-01,2.852334976196289062e-01,5.968347191810607910e-01,-6.565458774566650391e-01,-6.292188763618469238e-01
-3.201777338981628418e-01,3.305147588253021240e-01,9.981670230627059937e-02,-2.713318355381488800e-02,-9.361249804496765137e-01,-4.678623378276824951e-01,4.610774815082550049e-01,1.640167087316513062e-01,-1.558707356452941895e-01,7.402331829071044922e-01,2.384689599275588989e-01,7.045396566390991211e-01,-5.224959254264831543e-01,-9.052435159683227539e-01
-2.011516839265823364e-01,4.234183728694915771e-01,1.944858767092227936e-02,-5.248950421810150146e-02,-9.076111912727355957e-01,-4.165660440921783447e-01,4.427649378776550293e-01,-8.948232047259807587e-03,1.348249465227127075e-01,8.828399181365966797e-01,1.090757846832275391e-01,5.522990822792053223e-01,-7.670885920524597168e-01,-7.959232926368713379e-01
-4.278304576873779297e-01,3.503845334053039551e-01,2.109830081462860107e-02,-2.209464646875858307e-02,-8.209797739982604980e-01,-4.388009309768676758e-01,4.239399433135986328e-01,1.524400413036346436e-01,5.207359418272972107e-02,7.739779949188232422e-01,1.724238842725753784e-01,5.236762166023254395e-01,-6.894778013229370117e-01,-6.075822710990905762e-01
-3.730745613574981689e-01,3.338975608348846436e-01,-4.214359447360038757e-02,2.490434236824512482e-02,-1.006513833999633789e+00,-4.383304417133331299e-01,4.121474027633666992e-01,-1.995415389537811279e-01,-1.356959491968154907e-01,5.606104731559753418e-01,2.863984704017639160e-01,4.239508807659149170e-01,-6.638970375061035156e-01,-7.340277433395385742e-01
-3.494905233383178711e-01,4.002366364002227783e-01,-1.685983873903751373e-02,-2.117462903261184692e-01,-8.806365728378295898e-01,-5.233215093612670898e-01,3.684400916099548340e-01,-9.843170642852783203e-02,6.074430793523788452e-02,6.551314592361450195e-01,2.929852008819580078e-01,6.627819538116455078e-01,-7.213118672370910645e-01,-6.164825558662414551e-01
-4.310207366943359375e-01,3.681280836462974548e-02,1.591544449329376221e-01,-5.247438326478004456e-02,-6.869240999221801758e-01,-4.048637151718139648e-01,3.155606985092163086e-01,-7.189026474952697754e-02,-1.465027928352355957e-01,5.022656321525573730e-01,2.947843968868255615e-01,6.114442348480224609e-01,-6.821506023406982422e-01,-5.733329057693481445e-01
-3.072706162929534912e-01,8.018513023853302002e-02,-3.252873420715332031e-01,-1.285273134708404541e-01,-6.089783906936645508e-01,-2.583327889442443848e-01,1.053280830383300781e-01,-4.613583907485008240e-02,-3.461548984050750732e-01,7.422962188720703125e-01,4.319025278091430664e-01,3.598917424678802490e-01,-1.056529760360717773e+00,-7.162605524063110352e-01
-5.166344046592712402e-01,4.773096740245819092e-02,-1.478709932416677475e-02,-3.139752894639968872e-02,-5.968925952911376953e-01,-5.796840190887451172e-01,8.436924219131469727e-02,-3.389861583709716797e-01,-2.805934846401214600e-01,5.345644950866699219e-01,2.692466080188751221e-01,3.774834275245666504e-01,-8.431751728057861328e-01,-4.604964554309844971e-01
-2.957424819469451904e-01,6.768513470888137817e-02,-2.264729142189025879e-01,-9.718552976846694946e-02,-5.723602175712585449e-01,-6.353300809860229492e-01,-9.510006755590438843e-02,-6.061633676290512085e-02,-8.752639591693878174e-02,5.511640310287475586e-01,4.679993391036987305e-01,4.111657440662384033e-01,-8.628045916557312012e-01,-5.428217649459838867e-01
-1.804755032062530518e-01,-1.071452647447586060e-01,-2.934257090091705322e-01,-9.635158628225326538e-02,-4.529520869255065918e-01,-6.693205833435058594e-01,2.006153017282485962e-01,-1.805418133735656738e-01,-9.110323339700698853e-02,3.988485038280487061e-01,2.529267370700836182e-01,2.042045444250106812e-01,-9.140366315841674805e-01,-3.301374912261962891e-01
-3.898439705371856689e-01,-1.072643101215362549e-01,-1.487884223461151123e-01,2.445430308580398560e-02,-6.668829917907714844e-01,-7.963959574699401855e-01,1.010592877864837646e-01,-1.191319078207015991e-01,-3.283652961254119873e-01,3.553055226802825928e-01,4.736409187316894531e-01,1.350005865097045898e-01,-9.494609236717224121e-01,-5.008859038352966309e-01
-3.489751517772674561e-01,-2.228881269693374634e-01,-4.027937352657318115e-01,1.473836153745651245e-01,-2.907710373401641846e-01,-9.558879733085632324e-01,3.060183525085449219e-01,-3.098821341991424561e-01,-1.775671690702438354e-01,4.261133372783660889e-01,4.090980887413024902e-01,1.794979572296142578e-01,-8.646987676620483398e-01,-4.518279135227203369e-01
-2.631654441356658936e-01,-1.149115059524774551e-02,-3.139599561691284180e-01,-1.349458992481231689e-01,-4.115323424339294434e-01,-8.706175088882446289e-01,1.701511889696121216e-01,-2.045399993658065796e-01,-1.291262060403823853e-01,2.714808285236358643e-01,4.775068163871765137e-01,3.369780778884887695e-01,-9.990626573562622070e-01,-3.432133793830871582e-01
-1.565250158309936523e-01,-1.532649099826812744e-01,-4.646760523319244385e-01,-5.351016297936439514e-03,-2.489097267389297485e-01,-1.012054324150085449e+00,2.408015355467796326e-02,-3.639428019523620605e-01,-6.453291326761245728e-02,3.223293721675872803e-01,5.861431956291198730e-01,3.421807885169982910e-01,-8.872278332710266113e-01,-3.036183416843414307e-01
4.757728055119514465e-02,-2.705786228179931641e-01,-7.603631615638732910e-01,7.404137402772903442e-02,-2.607110440731048584e-01,-8.852126002311706543e-01,4.485514760017395020e-02,-2.635613679885864258e-01,1.694405637681484222e-02,3.256416618824005127e-01,4.239017665386199951e-01,-1.041305810213088989e-01,-9.476377367973327637e-01,-3.371187746524810791e-01
-7.129128277301788330e-02,-2.950462400913238525e-01,-5.975303053855895996e-01,1.654709428548812866e-01,-7.900397479534149170e-02,-1.024236559867858887e+00,3.566143289208412170e-02,-3.107665479183197021e-01,2.730689477175474167e-03,3.632057309150695801e-01,3.864325582981109619e-01,2.247279882431030273e-02,-8.096244335174560547e-01,-3.043622374534606934e-01
-4.109016060829162598e-02,-1.449477970600128174e-01,-5.603690147399902344e-01,1.770730316638946533e-01,-1.674793064594268799e-01,-9.266738891601562500e-01,7.925143837928771973e-02,-4.505034685134887695e-01,-7.352121919393539429e-02,8.200327306985855103e-02,5.310201048851013184e-01,-8.426235616207122803e-02,-4.655485153198242188e-01,-3.726892471313476562e-01
-1.642875075340270996e-01,-4.594759941101074219e-01,-6.177471280097961426e-01,9.161187708377838135e-02,-2.160482853651046753e-02,-8.916384577751159668e-01,3.066526055335998535e-01,-4.840516149997711182e-01,1.697477549314498901e-01,1.717365682125091553e-01,3.037450313568115234e-01,7.158194482326507568e-02,-6.125426888465881348e-01,-4.399955272674560547e-01
-1.338126063346862793e-01,-4.569421410560607910e-01,-6.885626912117004395e-01,2.402957528829574585e-02,-2.354504168033599854e-01,-8.550590872764587402e-01,1.371093243360519409e-01,-5.570729970932006836e-01,2.432573586702346802e-01,1.441573053598403931e-01,2.292565852403640747e-01,-2.212237417697906494e-01,-5.059051513671875000e-01,-3.502974808216094971e-01
-6.195646151900291443e-02,-7.357852458953857422e-01,-8.288156390190124512e-01,3.917913883924484253e-02,-1.577473878860473633e-01,-7.959423065185546875e-01,2.180612087249755859e-01,-6.366944313049316406e-01,2.673538923263549805e-01,-6.445223093032836914e-02,4.919440448284149170e-01,-1.143272686749696732e-02,-3.647817969322204590e-01,-3.177413940429687500e-01
-2.176716476678848267e-01,-4.479648172855377197e-01,-5.005999803543090820e-01,-1.907522790133953094e-02,-1.010143011808395386e-01,-8.678697347640991211e-01,3.712384104728698730e-01,-6.772087812423706055e-01,3.939726948738098145e-01,-6.358687579631805420e-02,3.685537874698638916e-01,-3.068423643708229065e-02,-3.188966214656829834e-01,-2.154781073331832886e-01
-2.396887540817260742e-02,-6.239619851112365723e-01,-4.996814429759979248e-01,3.077107369899749756e-01,-1.078848913311958313e-01,-9.143398404121398926e-01,1.496573984622955322e-01,-7.992034554481506348e-01,3.363382220268249512e-01,-2.382113039493560791e-01,4.587781429290771484e-01,4.798180982470512390e-02,-2.715424261987209320e-02,-1.386114656925201416e-01
-3.723181188106536865e-01,-5.017355680465698242e-01,-4.278584420680999756e-01,1.177309527993202209e-01,8.689290285110473633e-02,-7.593104243278503418e-01,2.624344825744628906e-01,-8.672310113906860352e-01,4.964232742786407471e-01,-4.292185306549072266e-01,2.877266705036163330e-01,8.988879621028900146e-02,1.870508305728435516e-02,-4.446771442890167236e-01
-4.804966449737548828e-01,-6.469525694847106934e-01,-5.538762211799621582e-01,2.562788128852844238e-01,1.171404272317886353e-01,-6.565945744514465332e-01,3.987938761711120605e-01,-8.585165739059448242e-01,3.567286431789398193e-01,-4.424397051334381104e-01,3.913387954235076904e-01,1.006251648068428040e-01,-4.004573822021484375e-02,-1.617058962583541870e-01
-1.989339441061019897e-01,-7.378392815589904785e-01,-4.467034935951232910e-01,4.218367040157318115e-01,1.534058898687362671e-01,-5.487601161003112793e-01,1.811330616474151611e-01,-9.606229066848754883e-01,5.108939409255981445e-01,-5.545341968536376953e-01,3.389074802398681641e-01,1.583276093006134033e-01,1.683905869722366333e-01,-2.805048227310180664e-01
-4.369553029537200928e-01,-6.613100171089172363e-01,-2.588968575000762939e-01,1.362695544958114624e-01,1.838119477033615112e-01,-6.444746851921081543e-01,1.788565367460250854e-01,-1.058114767074584961e+00,3.068536221981048584e-01,-3.615583181381225586e-01,5.833325982093811035e-01,4.095702469348907471e-01,-4.492243751883506775e-03,-1.474919766187667847e-01
-4.012395739555358887e-01,-3.953885734081268311e-01,-1.786682456731796265e-01,6.031204462051391602e-01,1.828608214855194092e-01,-7.452572584152221680e-01,3.946491479873657227e-01,-1.199141383171081543e+00,2.904740273952484131e-01,-5.556734204292297363e-01,2.898526489734649658e-01,2.449222207069396973e-01,3.681873157620429993e-02,-3.373240530490875244e-01
-4.454087913036346436e-01,-3.851885497570037842e-01,-5.516179278492927551e-02,5.100265741348266602e-01,1.871069073677062988e-01,-7.474946975708007812e-01,3.100907802581787109e-01,-1.063009738922119141e+00,1.348628848791122437e-01,-4.664757847785949707e-01,1.216181889176368713e-01,6.848639249801635742e-01,2.313457727432250977e-01,-3.375067412853240967e-01
-3.826103508472442627e-01,-4.408640265464782715e-01,3.429127112030982971e-02,6.924403309822082520e-01,9.115362167358398438e-02,-3.946016728878021240e-01,2.707707881927490234e-01,-1.187380909919738770e+00,2.864211797714233398e-01,-6.794171929359436035e-01,2.932931482791900635e-01,4.514877200126647949e-01,9.816411137580871582e-02,-3.263113200664520264e-01
-5.677500367164611816e-01,-3.529039919376373291e-01,-1.241695880889892578e-01,7.217467427253723145e-01,3.830548524856567383e-01,-3.857697546482086182e-01,4.547677636146545410e-01,-1.202872037887573242e+00,2.538276612758636475e-01,-4.218370020389556885e-01,2.316366881132125854e-01,7.196878194808959961e-01,-1.290955673903226852e-02,-5.845758318901062012e-01
-4.100767374038696289e-01,-2.803400456905364990e-01,8.116488158702850342e-02,6.040867567062377930e-01,1.104812845587730408e-01,-4.152989983558654785e-01,4.952053427696228027e-01,-1.159925103187561035e+00,1.857156753540039062e-01,-5.734263658523559570e-01,-9.194280020892620087e-03,3.467990458011627197e-01,-1.372000575065612793e-02,-5.664142966270446777e-01
-4.204132854938507080e-01,-2.806788384914398193e-01,3.964700922369956970e-02,4.471223652362823486e-01,1.132922992110252380e-01,-4.977656006813049316e-01,4.059242308139801025e-01,-1.245709538459777832e+00,-5.784060340374708176e-03,-4.089034795761108398e-01,6.256019324064254761e-02,4.430412352085113525e-01,1.994879171252250671e-02,-6.177613735198974609e-01
-6.193932294845581055e-01,-1.623834222555160522e-01,-2.548472210764884949e-02,7.727946043014526367e-01,1.844864040613174438e-01,-3.207999467849731445e-01,6.073346138000488281e-01,-1.027820229530334473e+00,-7.894324511289596558e-02,-2.547034025192260742e-01,2.351334393024444580e-01,6.075768470764160156e-01,-1.296971440315246582e-01,-6.214744448661804199e-01
-5.115401744842529297e-01,-8.653518557548522949e-02,-9.730198420584201813e-03,8.309309482574462891e-01,1.309167742729187012e-01,-4.701370298862457275e-01,6.455375552177429199e-01,-8.460843563079833984e-01,-3.131148591637611389e-02,-2.488780766725540161e-01,-1.737720221281051636e-01,5.166967511177062988e-01,-1.255762279033660889e-01,-6.199713349342346191e-01
-7.081837058067321777e-01,-1.951758712530136108e-01,-1.670756489038467407e-01,8.722638487815856934e-01,-9.393817186355590820e-02,-2.622407972812652588e-01,5.317664742469787598e-01,-9.372860193252563477e-01,1.329151839017868042e-01,-2.448939532041549683e-01,-2.533228397369384766e-01,3.822483420372009277e-01,-1.906151175498962402e-01,-7.140511870384216309e-01
-6.625242829322814941e-01,1.407389342784881592e-01,5.808928608894348145e-02,6.486163139343261719e-01,-2.179776728153228760e-01,-3.405332565307617188e-01,3.502579927444458008e-01,-7.196923494338989258e-01,-2.272641211748123169e-01,-1.830129623413085938e-01,-2.135065048933029175e-01,5.015637874603271484e-01,-1.131216213107109070e-01,-1.025699734687805176e+00
-5.733497738838195801e-01,7.532931119203567505e-02,-2.238603979349136353e-01,7.780678868293762207e-01,-1.355404853820800781e-01,-1.023858264088630676e-01,5.053740143775939941e-01,-6.026852726936340332e-01,1.024499535560607910e-01,-6.838318705558776855e-02,-2.774059474468231201e-01,2.093371599912643433e-01,-2.226932942867279053e-01,-8.119041323661804199e-01
-5.112970471382141113e-01,-2.831026352941989899e-02,-3.039521872997283936e-01,9.095159769058227539e-01,-1.582505404949188232e-01,-1.920685023069381714e-01,4.469296634197235107e-01,-6.508881449699401855e-01,-8.959108963608741760e-03,-1.668303012847900391e-01,-2.495384216308593750e-01,3.290204405784606934e-01,-1.299327462911605835e-01,-8.908576965332031250e-01
-8.338703513145446777e-01,2.311434596776962280e-01,-2.985824048519134521e-01,7.011018395423889160e-01,-2.448448985815048218e-01,-1.710772812366485596e-01,5.010296106338500977e-01,-5.938003063201904297e-01,-1.380905359983444214e-01,-1.224824115633964539e-01,-4.172828495502471924e-01,3.032005727291107178e-01,-2.399462610483169556e-01,-8.416206240653991699e-01
-9.426640868186950684e-01,1.805398315191268921e-01,-2.899661362171173096e-01,6.227543950080871582e-01,-1.953219920396804810e-01,-1.575260907411575317e-01,4.544202089309692383e-01,-5.023443102836608887e-01,1.407739706337451935e-02,-1.644338518381118774e-01,-6.885204315185546875e-01,7.516026496887207031e-02,-4.109637439250946045e-01,-9.785085916519165039e-01
-8.019536137580871582e-01,4.996060207486152649e-02,-2.419629842042922974e-01,6.810637712478637695e-01,-4.723002314567565918e-01,-1.954255253076553345e-01,3.708242475986480713e-01,-1.899244487285614014e-01,-3.810944408178329468e-02,-5.500824376940727234e-02,-5.706750750541687012e-01,2.791531980037689209e-01,-2.034523636102676392e-01,-7.537595629692077637e-01
-7.896764874458312988e-01,-9.177508950233459473e-02,-2.555245757102966309e-01,6.322725415229797363e-01,-3.153565526008605957e-01,-1.682651191949844360e-01,2.014581263065338135e-01,-2.617340981960296631e-01,2.890219911932945251e-02,-4.816963896155357361e-02,-5.998328328132629395e-01,2.264739573001861572e-01,-2.533556222915649414e-01,-6.874711513519287109e-01
-8.347797989845275879e-01,-1.276562362909317017e-01,-1.716100573539733887e-01,5.612164735794067383e-01,-5.380793213844299316e-01,-1.652631163597106934e-01,1.445133686065673828e-01,-5.410931706428527832e-01,-3.464568639174103737e-03,-8.773346245288848877e-02,-3.816971480846405029e-01,1.209247484803199768e-01,-3.574679195880889893e-01,-6.559187173843383789e-01
-6.817077398300170898e-01,-2.364014983177185059e-01,-1.683936864137649536e-01,4.397827088832855225e-01,-4.165780544281005859e-01,-2.045474387705326080e-02,8.135888725519180298e-02,-4.142405688762664795e-01,-1.153588369488716125e-01,-3.045248985290527344e-01,-1.418480128049850464e-01,-7.449085265398025513e-02,-1.879395693540573120e-01,-7.033185958862304688e-01
-7.764067053794860840e-01,1.672796439379453659e-03,-1.465581953525543213e-01,3.586705923080444336e-01,-3.834849298000335693e-01,-2.711189985275268555e-01,-2.582242898643016815e-02,-4.348156750202178955e-01,1.159817278385162354e-01,-1.800539940595626831e-01,-3.697658777236938477e-01,-2.032155357301235199e-02,-2.293331474065780640e-01,-4.177538454532623291e-01
-8.257784843444824219e-01,-2.979581058025360107e-01,-6.241508573293685913e-02,2.495524287223815918e-01,-3.499293923377990723e-01,-1.963243484497070312e-01,-1.441452652215957642e-01,-5.140889286994934082e-01,7.114868611097335815e-02,-3.664278388023376465e-01,-2.648324072360992432e-01,-3.337797150015830994e-02,1.107811257243156433e-01,-3.292337059974670410e-01
-7.274122834205627441e-01,-3.730901703238487244e-02,-9.230481088161468506e-02,2.186879813671112061e-01,-3.287291526794433594e-01,-1.269234269857406616e-01,-8.514548838138580322e-02,-3.364242613315582275e-01,-3.460744395852088928e-02,-3.294647932052612305e-01,-9.418667852878570557e-02,6.688451766967773438e-02,1.619899272918701172e-02,-3.858509063720703125e-01
-6.327489018440246582e-01,-1.905049830675125122e-01,-5.162910744547843933e-02,2.677660882472991943e-01,-2.356700301170349121e-01,-3.381004631519317627e-01,1.137840300798416138e-01,-2.785074114799499512e-01,4.010220617055892944e-02,-2.348378896713256836e-01,-1.481506377458572388e-01,-1.984184384346008301e-01,-8.397300541400909424e-02,-8.695843070745468140e-02
-4.564278125762939453e-01,-1.017823666334152222e-01,-9.594552218914031982e-02,1.459107846021652222e-01,-3.927999362349510193e-02,-4.799359738826751709e-01,-2.094696015119552612e-01,-3.264487087726593018e-01,2.131932675838470459e-01,-4.458886981010437012e-01,-2.175431102514266968e-01,-3.271594271063804626e-02,-3.788479417562484741e-02,4.019639268517494202e-02
-5.045334696769714355e-01,-9.970568120479583740e-02,-1.047447547316551208e-01,1.758182346820831299e-01,-1.414042711257934570e-01,-4.794332683086395264e-01,-7.072106748819351196e-02,-4.153879582881927490e-01,4.234473109245300293e-01,-5.733903646469116211e-01,3.444906556978821754e-03,2.175532979890704155e-03,-9.745960682630538940e-02,-1.760158538818359375e-01
-3.295294940471649170e-01,-2.069697380065917969e-01,5.456840246915817261e-02,1.291373223066329956e-01,8.422500640153884888e-02,-5.780817866325378418e-01,6.235096976161003113e-02,-3.337060511112213135e-01,-8.936745114624500275e-03,-4.418817460536956787e-01,7.614300400018692017e-02,4.296982660889625549e-02,-1.759403496980667114e-01,-1.351098120212554932e-01
-1.500161886215209961e-01,-1.039033457636833191e-01,5.515438318252563477e-02,1.366923302412033081e-01,-3.792935982346534729e-02,-4.421603977680206299e-01,-1.426452845335006714e-01,-5.495303273200988770e-01,3.650420308113098145e-01,-6.134850382804870605e-01,-2.979885088279843330e-03,4.577283281832933426e-03,8.485481142997741699e-02,3.178344666957855225e-02
-2.488298714160919189e-02,-1.066710576415061951e-01,-1.444220170378684998e-02,3.184977471828460693e-01,-4.052571579813957214e-02,-6.265644431114196777e-01,1.116581037640571594e-01,-4.494981467723846436e-01,3.452974259853363037e-01,-5.319675207138061523e-01,3.468738198280334473e-01,-7.812375575304031372e-02,-3.939357027411460876e-02,-3.548552840948104858e-02
8.139364421367645264e-02,-3.540239110589027405e-02,-7.119641453027725220e-02,4.543927311897277832e-01,1.482171714305877686e-01,-5.001421570777893066e-01,-1.875184103846549988e-02,-4.819548130035400391e-01,3.146017193794250488e-01,-4.352612495422363281e-01,2.044704556465148926e-01,-8.240269124507904053e-02,2.872734665870666504e-01,1.044766902923583984e-01
-1.016227006912231445e-01,-1.774644106626510620e-01,-5.800326913595199585e-02,5.017842650413513184e-01,-2.304360643029212952e-02,-6.456018686294555664e-01,1.452374309301376343e-01,-3.860737979412078857e-01,4.803083240985870361e-01,-5.050433278083801270e-01,6.673699617385864258e-02,-2.644017525017261505e-02,1.478407979011535645e-01,1.235755681991577148e-01
-1.091775670647621155e-02,1.158491242676973343e-02,2.766096591949462891e-01,5.024102330207824707e-01,3.072443306446075439e-01,-5.889954566955566406e-01,8.823706209659576416e-02,-3.090144097805023193e-01,5.709549784660339355e-01,-4.050491452217102051e-01,9.819277375936508179e-02,1.479059904813766479e-01,-4.372655972838401794e-02,1.984253376722335815e-01
3.613937273621559143e-02,1.430793553590774536e-01,1.500552594661712646e-01,4.027109742164611816e-01,-2.945452369749546051e-02,-6.569549441337585449e-01,2.458527535200119019e-01,-4.734145104885101318e-01,5.068281292915344238e-01,-4.785813391208648682e-01,9.077508002519607544e-02,3.189087286591529846e-02,1.660586595535278320e-01,4.881718009710311890e-02
2.227454632520675659e-02,9.722639620304107666e-02,2.729377448558807373e-01,6.461596488952636719e-01,7.565385848283767700e-02,-7.085112929344177246e-01,1.901448965072631836e-01,-2.592165470123291016e-01,7.734646201133728027e-01,-4.095594584941864014e-01,1.283728927373886108e-01,5.344253964722156525e-03,1.686034351587295532e-01,-1.391012668609619141e-01
2.978340983390808105e-01,1.717531681060791016e-01,3.447953462600708008e-01,4.863190948963165283e-01,2.824175730347633362e-02,-6.791155934333801270e-01,6.913904845714569092e-02,-4.206154048442840576e-01,7.989671230316162109e-01,-3.198363482952117920e-01,3.729601502418518066e-01,1.905794292688369751e-01,2.424805611371994019e-01,1.352705061435699463e-02
1.768434494733810425e-01,-6.365134846419095993e-03,5.385127067565917969e-01,5.330497622489929199e-01,1.404433045536279678e-02,-2.732105255126953125e-01,1.384978592395782471e-01,-4.012133181095123291e-01,7.382643222808837891e-01,-5.721952319145202637e-01,2.297093570232391357e-01,-8.601857721805572510e-02,2.968724370002746582e-01,2.082455456256866455e-01
2.217003703117370605e-01,1.516500264406204224e-01,5.724563002586364746e-01,4.881128668785095215e-01,-1.067102029919624329e-01,-4.389535188674926758e-01,8.933892101049423218e-02,-5.937376022338867188e-01,7.536786794662475586e-01,-4.109582304954528809e-01,1.598598957061767578e-01,2.337714098393917084e-02,3.859360814094543457e-01,1.679270118474960327e-01
1.948084533214569092e-01,1.236864700913429260e-01,5.547875761985778809e-01,6.097556948661804199e-01,-1.488866657018661499e-01,-1.510181576013565063e-01,2.430029213428497314e-01,-2.958623766899108887e-01,7.996538877487182617e-01,-5.719344019889831543e-01,2.405131608247756958e-01,8.084418624639511108e-02,2.257193624973297119e-01,7.052241358906030655e-03
2.659888267517089844e-01,1.333660334348678589e-01,5.666105747222900391e-01,4.892573058605194092e-01,-4.488402977585792542e-02,-3.741040229797363281e-01,1.381477415561676025e-01,-3.023816645145416260e-01,7.030321955680847168e-01,-5.685693025588989258e-01,2.915604412555694580e-01,-6.933172792196273804e-02,2.329643219709396362e-01,7.613952457904815674e-02
1.505480259656906128e-01,2.218995839357376099e-01,6.095795631408691406e-01,5.375988483428955078e-01,-2.907857000827789307e-01,-2.280229330062866211e-01,2.783193066716194153e-02,-4.073207676410675049e-01,8.664485812187194824e-01,-2.960310578346252441e-01,1.654615253210067749e-01,1.952006965875625610e-01,4.352140426635742188e-01,-2.799784019589424133e-02
1.638043373823165894e-01,2.494373172521591187e-01,8.820477724075317383e-01,7.772274613380432129e-01,-1.531942486763000488e-01,-1.873125582933425903e-01,6.908619403839111328e-02,-3.093616664409637451e-01,7.516624331474304199e-01,-3.984011709690093994e-01,1.468498408794403076e-01,3.663514554500579834e-01,1.531950384378433228e-01,6.114523485302925110e-02
-2.389057772234082222e-03,3.473632335662841797e-01,8.222759962081909180e-01,5.921088457107543945e-01,-7.020268589258193970e-02,-2.221588492393493652e-01,1.241738423705101013e-01,-4.641803205013275146e-01,6.019767522811889648e-01,-3.627131283283233643e-01,2.827622592449188232e-01,1.902501136064529419e-01,2.882299423217773438e-01,9.129670262336730957e-02
-3.527489025145769119e-03,3.337690532207489014e-01,8.473148941993713379e-01,5.676538348197937012e-01,-1.105208620429039001e-01,6.407366693019866943e-02,1.646861582994461060e-01,-5.962637662887573242e-01,7.267196774482727051e-01,-4.824540913105010986e-01,3.565685153007507324e-01,4.155787229537963867e-01,1.365316510200500488e-01,1.357845664024353027e-01
-2.866906858980655670e-02,4.149524569511413574e-01,9.045057296752929688e-01,6.908838748931884766e-01,-1.950160115957260132e-01,1.297111362218856812e-01,1.338811814785003662e-01,-3.894787430763244629e-01,8.116801381111145020e-01,-2.756530046463012695e-01,4.078504741191864014e-01,4.643993973731994629e-01,2.722791135311126709e-01,2.840541005134582520e-01
1.510703563690185547e-01,4.102385044097900391e-01,1.080373883247375488e+00,4.717605412006378174e-01,-4.063805639743804932e-01,5.999405309557914734e-02,7.403158396482467651e-02,-4.562537968158721924e-01,5.492877960205078125e-01,-4.273168742656707764e-01,2.726624906063079834e-01,5.002546906471252441e-01,3.153711929917335510e-02,9.811210446059703827e-03
1.047507673501968384e-01,6.014863848686218262e-01,9.759390950202941895e-01,5.927522182464599609e-01,-2.359891384840011597e-01,1.259785145521163940e-01,2.307026386260986328e-01,-2.798440158367156982e-01,6.339844465255737305e-01,-2.817736566066741943e-01,5.007167458534240723e-01,3.492329418659210205e-01,2.074253559112548828e-01,-1.401216629892587662e-02
1.418126523494720459e-01,6.458538174629211426e-01,1.201224327087402344e+00,7.790818810462951660e-01,-3.585319817066192627e-01,1.791581884026527405e-02,3.402577945962548256e-03,-1.606029570102691650e-01,7.049148082733154297e-01,-2.221857309341430664e-01,4.302337467670440674e-01,4.135785698890686035e-01,-1.116567552089691162e-01,2.179927378892898560e-01
1.050426512956619263e-01,5.606706142425537109e-01,8.947489261627197266e-01,7.075224518775939941e-01,-2.331861406564712524e-01,1.910853534936904907e-01,4.548316448926925659e-02,-1.995253562927246094e-01,4.209251403808593750e-01,7.018683850765228271e-02,4.691898226737976074e-01,3.108502924442291260e-01,-1.934423893690109253e-01,-1.095979288220405579e-02
-4.682739451527595520e-02,6.132953763008117676e-01,9.568971395492553711e-01,6.088856458663940430e-01,-3.222372531890869141e-01,7.239306718111038208e-02,7.669141143560409546e-02,-1.975487917661666870e-01,4.078150093555450439e-01,1.119785290211439133e-02,2.581266760826110840e-01,1.697953194379806519e-01,-2.323591113090515137e-01,1.416860818862915039e-01
2.143101543188095093e-01,7.900115847587585449e-01,8.580555915832519531e-01,5.929938554763793945e-01,-3.356580436229705811e-01,2.558864653110504150e-01,9.123141318559646606e-02,-2.519414424896240234e-01,4.671763777732849121e-01,-2.619121223688125610e-02,1.846518516540527344e-01,6.810817867517471313e-02,-4.965361654758453369e-01,4.079180210828781128e-02
4.324408173561096191e-01,4.608635604381561279e-01,5.898650288581848145e-01,6.488766670227050781e-01,-3.993300497531890869e-01,5.749533325433731079e-02,-1.166377440094947815e-01,1.287564169615507126e-02,3.167273700237274170e-01,1.826956123113632202e-01,2.425223737955093384e-01,5.063588265329599380e-03,-5.935741662979125977e-01,1.460419148206710815e-01
2.908894419670104980e-01,4.747042059898376465e-01,5.475367903709411621e-01,6.020880341529846191e-01,-4.728712737560272217e-01,2.998996376991271973e-01,7.187036424875259399e-02,1.983266621828079224e-01,2.750685214996337891e-01,2.618057727813720703e-01,1.423462778329849243e-01,1.290011852979660034e-01,-4.001671373844146729e-01,-1.503551565110683441e-02
3.867046535015106201e-01,5.788109302520751953e-01,5.333103537559509277e-01,7.124260067939758301e-01,-5.824030041694641113e-01,1.425995975732803345e-01,-1.035993844270706177e-01,2.270666696131229401e-02,5.263934135437011719e-01,2.736659646034240723e-01,2.374335825443267822e-01,-6.997077167034149170e-02,-3.653846681118011475e-01,2.187301069498062134e-01
3.127455711364746094e-01,5.176101326942443848e-01,6.056557893753051758e-01,4.211071431636810303e-01,-5.832574367523193359e-01,1.221845299005508423e-01,-2.499938905239105225e-01,3.442898392677307129e-01,4.044487476348876953e-01,4.336811304092407227e-01,1.839300543069839478e-01,1.274872943758964539e-02,-3.386210501194000244e-01,3.240261971950531006e-01
2.998935878276824951e-01,3.868946135044097900e-01,4.974352717399597168e-01,5.262982249259948730e-01,-5.717060565948486328e-01,9.040802717208862305e-02,-1.091932505369186401e-01,8.792059868574142456e-02,4.998832941055297852e-01,1.747350841760635376e-01,2.381229549646377563e-01,-3.883658349514007568e-02,-3.921014666557312012e-01,1.212170571088790894e-01
3.896817266941070557e-01,2.567798197269439697e-01,3.416228294372558594e-01,1.963180601596832275e-01,-4.936325848102569580e-01,1.674382090568542480e-01,-1.357848942279815674e-01,1.662960201501846313e-01,6.458801031112670898e-01,-2.608771249651908875e-02,4.602816402912139893e-01,-1.924807429313659668e-01,-1.595012992620468140e-01,3.472763895988464355e-01
5.493943691253662109e-01,1.535600572824478149e-01,3.965318500995635986e-01,2.268716692924499512e-01,-5.334963202476501465e-01,8.021426200866699219e-02,-1.435913890600204468e-01,1.359586715698242188e-01,5.764384269714355469e-01,3.721208125352859497e-02,6.264844536781311035e-01,-1.449867933988571167e-01,-2.338496446609497070e-01,4.964643120765686035e-01
4.611020982265472412e-01,4.501968622207641602e-02,4.253309071063995361e-01,2.008794695138931274e-01,-6.021935343742370605e-01,1.368210613727569580e-01,-2.908957898616790771e-01,2.815589308738708496e-01,3.747715353965759277e-01,1.032137945294380188e-01,1.944391131401062012e-01,-4.087041318416595459e-01,-2.938835918903350830e-01,4.751128256320953369e-01
3.498941063880920410e-01,1.183212399482727051e-01,4.593859016895294189e-01,1.703763157129287720e-01,-3.277428150177001953e-01,-1.443011462688446045e-01,-6.020629405975341797e-01,3.162029683589935303e-01,4.895074069499969482e-01,-3.049924410879611969e-02,4.223502576351165771e-01,-1.594781279563903809e-01,-1.713315695524215698e-01,5.312100648880004883e-01
5.355213284492492676e-01,-1.054329425096511841e-01,2.477434724569320679e-01,3.286810815334320068e-01,-3.941834568977355957e-01,1.109614893794059753e-01,-4.750001132488250732e-01,9.399056434631347656e-02,6.201186180114746094e-01,-1.800691485404968262e-01,5.433599352836608887e-01,-1.734789162874221802e-01,-1.330089122056961060e-01,5.829091668128967285e-01
3.043089807033538818e-01,-2.124366760253906250e-01,3.903987705707550049e-01,5.700834468007087708e-02,-3.533112704753875732e-01,3.850159794092178345e-02,-4.991664588451385498e-01,3.603911399841308594e-02,7.718355655670166016e-01,-3.438695371150970459e-01,6.050288081169128418e-01,-2.337839901447296143e-01,-7.577557861804962158e-02,8.119906187057495117e-01
5.973102450370788574e-01,-1.277911961078643799e-01,5.174442529678344727e-01,7.238983176648616791e-03,-3.366754353046417236e-01,-1.278855931013822556e-02,-4.732200801372528076e-01,-2.496276795864105225e-02,4.910188615322113037e-01,-3.400894105434417725e-01,6.095620989799499512e-01,9.588649868965148926e-02,-5.877838283777236938e-02,8.719231486320495605e-01
5.674813389778137207e-01,-1.220459789037704468e-01,2.377321571111679077e-01,-3.254575282335281372e-02,-2.388359606266021729e-01,-1.387537084519863129e-02,-4.991568028926849365e-01,4.652403295040130615e-02,6.309723854064941406e-01,-3.435294330120086670e-01,9.508230090141296387e-01,-2.431621216237545013e-02,-1.900163739919662476e-01,9.752900600433349609e-01
5.218557715415954590e-01,-3.448073565959930420e-01,5.113667249679565430e-01,3.727391362190246582e-02,-1.380830854177474976e-01,-1.047385334968566895e-01,-2.213773727416992188e-01,8.561447262763977051e-02,6.086505651473999023e-01,-4.039354920387268066e-01,9.587082266807556152e-01,9.899482876062393188e-02,-7.998715341091156006e-02,8.078518509864807129e-01
7.184657454490661621e-01,-2.774633169174194336e-01,4.443010687828063965e-01,-6.926523894071578979e-02,-3.892055153846740723e-02,-5.036443099379539490e-02,-8.498107641935348511e-02,-1.521759480237960815e-01,6.729757189750671387e-01,-3.074461519718170166e-01,1.119036674499511719e+00,7.334222644567489624e-02,7.870829850435256958e-02,8.414576053619384766e-01
7.996495366096496582e-01,-1.467986851930618286e-01,6.119708418846130371e-01,8.499424159526824951e-02,3.841537237167358398e-02,-1.533334404230117798e-01,-3.001023828983306885e-01,-8.370223641395568848e-02,3.842117190361022949e-01,-3.840266168117523193e-01,1.082352280616760254e+00,2.262280881404876709e-01,-1.939143694471567869e-04,8.917238116264343262e-01
1.016042113304138184e+00,-4.117515385150909424e-01,5.346139669418334961e-01,-5.868881940841674805e-03,-8.701839298009872437e-02,-2.349921762943267822e-01,-1.170678213238716125e-01,-2.189082652330398560e-01,4.975324571132659912e-01,-4.926376938819885254e-01,1.036871314048767090e+00,1.376166641712188721e-01,-2.745408192276954651e-02,8.198574781417846680e-01
8.998094201087951660e-01,-2.472694218158721924e-01,5.537899136543273926e-01,2.281615883111953735e-01,3.677234053611755371e-02,-3.546598851680755615e-01,-2.495203353464603424e-02,-2.008235603570938110e-01,4.700203835964202881e-01,-3.428355753421783447e-01,9.668211936950683594e-01,4.165861308574676514e-01,-1.265175938606262207e-01,7.997812628746032715e-01
1.066801190376281738e+00,-1.860886216163635254e-01,3.900210559368133545e-01,1.055300310254096985e-01,-3.336875466629862785e-03,-3.492018282413482666e-01,4.478344023227691650e-01,-4.113724529743194580e-01,4.801156520843505859e-01,-3.663837909698486328e-01,1.235355257987976074e+00,4.030710756778717041e-01,-2.555405721068382263e-02,7.070345282554626465e-01
9.390083551406860352e-01,-2.342785745859146118e-01,5.142991542816162109e-01,1.700259447097778320e-01,9.814511286094784737e-04,-2.048021405935287476e-01,1.935572922229766846e-01,-1.016751900315284729e-01,4.430291354656219482e-01,-2.556259036064147949e-01,1.059246897697448730e+00,3.951162099838256836e-01,1.259268373250961304e-01,5.997883677482604980e-01
9.956097006797790527e-01,-1.030818894505500793e-01,5.050791501998901367e-01,2.740392684936523438e-01,1.932039707899093628e-01,-2.922833263874053955e-01,2.777062058448791504e-01,-3.617351502180099487e-02,4.361102581024169922e-01,-2.850815355777740479e-01,1.136723875999450684e+00,5.138844847679138184e-01,1.385383903980255127e-01,6.450168490409851074e-01
6.860630512237548828e-01,-2.174960821866989136e-01,4.504509568214416504e-01,3.325454890727996826e-01,-8.983501233160495758e-03,-2.458312809467315674e-01,5.174104571342468262e-01,-2.212586700916290283e-01,4.012331068515777588e-01,-3.046841025352478027e-01,8.956559896469116211e-01,5.377898216247558594e-01,-1.005435883998870850e-01,4.493435919284820557e-01
9.640948176383972168e-01,-1.658081710338592529e-01,3.867375552654266357e-01,2.262004613876342773e-01,-2.089757621288299561e-01,-3.400820791721343994e-01,6.404365301132202148e-01,-2.802775204181671143e-01,4.106874763965606689e-01,-2.572413086891174316e-01,9.214574098587036133e-01,6.475232243537902832e-01,-8.579505234956741333e-02,3.775549530982971191e-01
7.320295572280883789e-01,-2.167246639728546143e-01,3.583943545818328857e-01,2.954300940036773682e-01,-1.895202137529850006e-02,-9.451439231634140015e-02,4.057578444480895996e-01,-2.839442193508148193e-01,2.497673779726028442e-01,-2.280405014753341675e-01,6.947967410087585449e-01,5.780705809593200684e-01,1.254755258560180664e-01,2.568292021751403809e-01
8.968254327774047852e-01,-1.571134626865386963e-01,4.252195060253143311e-01,8.607449382543563843e-02,-1.413182020187377930e-01,-1.350090503692626953e-01,4.759017527103424072e-01,-1.515195667743682861e-01,1.657210886478424072e-01,-3.339482843875885010e-01,6.625314354896545410e-01,4.452576339244842529e-01,-1.169547960162162781e-01,3.391853868961334229e-01
5.569077134132385254e-01,-1.722245663404464722e-01,5.029296875000000000e-01,2.055687457323074341e-01,-2.013294100761413574e-01,-7.916390150785446167e-02,5.961287617683410645e-01,-5.848109722137451172e-02,3.508540391921997070e-01,-1.930719912052154541e-01,6.382940411567687988e-01,7.041729092597961426e-01,1.691079288721084595e-01,2.705419957637786865e-01
4.677792489528656006e-01,-2.141976058483123779e-01,3.780790269374847412e-01,1.851812154054641724e-01,-3.079391121864318848e-01,2.581894993782043457e-01,5.612026453018188477e-01,-1.036790385842323303e-01,4.032020866870880127e-01,-1.013392731547355652e-01,7.554153800010681152e-01,5.768539309501647949e-01,6.014874950051307678e-02,1.732037588953971863e-02
2.192137539386749268e-01,-1.284616142511367798e-01,4.677291810512542725e-01,1.948185265064239502e-01,-3.052658736705780029e-01,2.423789054155349731e-01,5.367289185523986816e-01,1.342704147100448608e-01,2.470276504755020142e-01,-1.073657199740409851e-01,5.635406970977783203e-01,5.767351388931274414e-01,-1.353790163993835449e-01,1.601565182209014893e-01
3.207719624042510986e-01,-2.309047728776931763e-01,3.835011720657348633e-01,2.046100944280624390e-01,-4.281926155090332031e-01,2.455224394798278809e-01,6.672832369804382324e-01,1.741880327463150024e-01,1.712566167116165161e-01,-3.935807570815086365e-02,4.640158414840698242e-01,6.966071128845214844e-01,-6.510625593364238739e-03,-8.134984970092773438e-02
1.400492638349533081e-01,-3.123310506343841553e-01,6.311192512512207031e-01,6.540292501449584961e-02,-3.614477515220642090e-01,1.320174187421798706e-01,6.173431277275085449e-01,-1.140927821397781372e-01,2.024053782224655151e-02,-2.368792444467544556e-01,3.900941312313079834e-01,6.917477846145629883e-01,-1.735011786222457886e-01,8.208674192428588867e-02
4.128850400447845459e-01,-9.457399696111679077e-02,4.606024324893951416e-01,8.342794142663478851e-03,-5.441734790802001953e-01,8.441559970378875732e-02,4.383558630943298340e-01,6.557347625494003296e-02,3.285306319594383240e-02,-1.396946758031845093e-01,3.569975197315216064e-01,5.913516879081726074e-01,4.363075830042362213e-03,1.679950207471847534e-01
-2.873667143285274506e-02,-1.414506733417510986e-01,5.705609917640686035e-01,-1.168598756194114685e-01,-4.645547270774841309e-01,1.565994918346405029e-01,6.490682959556579590e-01,3.926941752433776855e-02,-5.015911906957626343e-02,2.722542732954025269e-03,3.712463974952697754e-01,7.802593111991882324e-01,-2.048979699611663818e-01,-2.934696525335311890e-02
6.480861455202102661e-02,-1.077314391732215881e-01,5.357679128646850586e-01,1.287617161870002747e-02,-3.643108904361724854e-01,-4.296912997961044312e-02,5.308296084403991699e-01,1.753086149692535400e-01,-1.175388246774673462e-01,1.553700566291809082e-01,3.945989012718200684e-01,8.218331336975097656e-01,-3.812382221221923828e-01,1.346861869096755981e-01
9.740222245454788208e-03,-6.867743283510208130e-02,3.678713142871856689e-01,1.238194573670625687e-02,-5.430846214294433594e-01,1.300362031906843185e-02,7.502160668373107910e-01,-3.198160976171493530e-02,-2.410290390253067017e-01,-1.211366951465606689e-01,2.132014632225036621e-01,5.800120830535888672e-01,-3.205024898052215576e-01,-2.757214009761810303e-02
1.072901999577879906e-03,-2.542811334133148193e-01,4.148846268653869629e-01,-1.181473396718502045e-02,-4.789466559886932373e-01,4.096459969878196716e-02,5.335808992385864258e-01,1.081308573484420776e-01,-3.361893296241760254e-01,7.703919708728790283e-02,4.007844924926757812e-01,7.595691680908203125e-01,-5.116382837295532227e-01,-9.018296003341674805e-02
2.735532224178314209e-01,-2.002131789922714233e-01,1.945107281208038330e-01,-1.290889084339141846e-01,-5.708655714988708496e-01,2.427627518773078918e-02,7.187442779541015625e-01,3.092765808105468750e-01,-4.036001861095428467e-01,2.716810405254364014e-01,2.706140875816345215e-01,5.759323239326477051e-01,-4.971798360347747803e-01,-3.047219850122928619e-02
1.951109021902084351e-01,-3.037149608135223389e-01,2.241436541080474854e-01,-2.327109426259994507e-01,-5.279849171638488770e-01,-1.845312416553497314e-01,4.617041349411010742e-01,2.917999327182769775e-01,-5.261604785919189453e-01,2.872954905033111572e-01,2.275473773479461670e-01,5.639762282371520996e-01,-4.992931187152862549e-01,2.831404097378253937e-02
9.112179279327392578e-02,-2.761526107788085938e-01,3.284419178962707520e-01,-1.991821080446243286e-01,-3.662928938865661621e-01,-1.645815223455429077e-01,6.955461502075195312e-01,3.483885824680328369e-01,-7.383956909179687500e-01,1.546699255704879761e-01,1.460443139076232910e-01,6.267474889755249023e-01,-5.793537497520446777e-01,-5.572880432009696960e-02
3.538080751895904541e-01,-3.310446627438068390e-03,1.611085981130599976e-01,-1.095328032970428467e-01,-6.295529007911682129e-01,-4.751574993133544922e-02,4.890636503696441650e-01,4.093309044837951660e-01,-6.375772953033447266e-01,2.379449456930160522e-01,2.569563984870910645e-01,5.194571614265441895e-01,-6.725986003875732422e-01,-1.226208880543708801e-01
9.815158694982528687e-02,-2.251969277858734131e-01,-1.145034432411193848e-01,-4.497881233692169189e-01,-5.681497454643249512e-01,-2.617879807949066162e-01,5.409530997276306152e-01,4.128708243370056152e-01,-7.810630202293395996e-01,2.858084738254547119e-01,2.464980185031890869e-01,3.040343821048736572e-01,-8.243875503540039062e-01,-5.868786573410034180e-02
2.093184739351272583e-01,-5.168309211730957031e-01,6.108314543962478638e-02,-4.553997516632080078e-01,-5.449050068855285645e-01,-2.563822567462921143e-01,7.094982862472534180e-01,3.033305704593658447e-01,-5.942135453224182129e-01,2.615906298160552979e-01,3.165286481380462646e-01,5.103382468223571777e-01,-7.014974951744079590e-01,-4.095327109098434448e-03
