AF3,F7,F3,FC5,T7,P7,O1,O2,P8,T8,FC6,F4,F8,AF4
-9.787698090076446533e-02,1.094964146614074707e-01,8.572863414883613586e-03,6.833452731370925903e-02,-4.741542041301727295e-02,-9.827198833227157593e-02,-1.586301922798156738e-01,1.483914256095886230e-01,-1.467198580503463745e-01,5.513149872422218323e-02,-1.083221808075904846e-01,-9.935792535543441772e-03,-1.706870049238204956e-01,-2.347432374954223633e-01
6.821526885032653809e-01,6.670303940773010254e-01,4.586929976940155029e-01,6.938254237174987793e-01,8.324955105781555176e-01,3.814779520034790039e-01,6.068061590194702148e-01,8.147079944610595703e-01,7.590159177780151367e-01,6.136025786399841309e-01,8.164655566215515137e-01,8.991040587425231934e-01,5.989273190498352051e-01,7.172566652297973633e-01
1.328911066055297852e+00,1.178542017936706543e+00,9.681690931320190430e-01,1.279848575592041016e+00,1.307562947273254395e+00,9.478847384452819824e-01,1.120173454284667969e+00,1.250636816024780273e+00,1.253601193428039551e+00,9.525836110115051270e-01,1.366098403930664062e+00,1.351743459701538086e+00,1.038377285003662109e+00,1.395216226577758789e+00
1.479246258735656738e+00,1.590178728103637695e+00,1.490904927253723145e+00,1.607302188873291016e+00,1.444962143898010254e+00,1.053304791450500488e+00,1.418766856193542480e+00,1.468609094619750977e+00,1.476785063743591309e+00,9.635043740272521973e-01,1.678662896156311035e+00,1.457564592361450195e+00,1.392035126686096191e+00,1.561740517616271973e+00
1.460773348808288574e+00,1.365925431251525879e+00,1.217200517654418945e+00,1.433468937873840332e+00,1.520723581314086914e+00,1.101643800735473633e+00,1.095032095909118652e+00,1.129329562187194824e+00,1.186903119087219238e+00,8.385604619979858398e-01,1.589455246925354004e+00,1.070845961570739746e+00,1.181114673614501953e+00,1.387836217880249023e+00
1.083747982978820801e+00,1.275348067283630371e+00,7.921772003173828125e-01,1.346522808074951172e+00,8.954898715019226074e-01,6.200029253959655762e-01,7.741475701332092285e-01,9.072649478912353516e-01,9.870224595069885254e-01,5.249377489089965820e-01,1.106619238853454590e+00,7.708215117454528809e-01,7.535955905914306641e-01,8.595229387283325195e-01
7.710192799568176270e-01,6.987673044204711914e-01,3.749924004077911377e-01,8.621577620506286621e-01,1.892107278108596802e-01,2.450294941663742065e-01,2.950053215026855469e-01,2.803455591201782227e-01,2.132192999124526978e-01,1.486018896102905273e-01,6.679273843765258789e-01,2.706739008426666260e-01,4.983596131205558777e-02,7.878348976373672485e-02
8.710070699453353882e-02,1.525245755910873413e-01,-4.933249205350875854e-02,1.082272753119468689e-01,-3.828273341059684753e-02,-1.507379487156867981e-02,-1.960187256336212158e-01,-2.827417850494384766e-01,-3.402362167835235596e-01,-1.771346032619476318e-01,-4.648323357105255127e-02,-2.246832549571990967e-01,-4.196986258029937744e-01,-3.457868397235870361e-01
-1.602081656455993652e-01,-1.730279028415679932e-01,-5.148816108703613281e-01,-2.975660860538482666e-01,-4.822707474231719971e-01,-2.719246745109558105e-01,-4.275035262107849121e-01,-5.936868190765380859e-01,-6.629252433776855469e-01,-4.426030516624450684e-01,-3.602177798748016357e-01,-4.624793529510498047e-01,-6.435815691947937012e-01,-6.583369970321655273e-01
-5.662491917610168457e-01,-5.625012516975402832e-01,-4.239221811294555664e-01,-6.173934936523437500e-01,-3.952854275703430176e-01,-3.220978379249572754e-01,-2.516835629940032959e-01,-6.757927536964416504e-01,-5.025035738945007324e-01,-4.121978580951690674e-01,-6.003931164741516113e-01,-4.142732024192810059e-01,-3.147437572479248047e-01,-4.709472954273223877e-01
-5.139153003692626953e-01,-5.707157850265502930e-01,-3.684349358081817627e-01,-6.737769246101379395e-01,-2.193978577852249146e-01,-1.685249209403991699e-01,-6.195289641618728638e-02,-1.685966253280639648e-01,1.696797609329223633e-01,6.254093348979949951e-02,-4.445247054100036621e-01,-1.825956106185913086e-01,-1.553244292736053467e-01,-1.152106095105409622e-02
-2.648395895957946777e-01,-2.266894727945327759e-01,1.838452219963073730e-01,-3.349577486515045166e-01,1.811020821332931519e-01,9.311856329441070557e-02,3.972377777099609375e-01,4.394685328006744385e-01,6.869345307350158691e-01,2.617883086204528809e-01,5.903639271855354309e-02,3.291177153587341309e-01,4.037716686725616455e-01,5.571769475936889648e-01
-6.206499785184860229e-02,2.005269080400466919e-01,8.277343511581420898e-01,-2.133515924215316772e-01,7.374662756919860840e-01,6.452445387840270996e-01,7.468218207359313965e-01,8.048536777496337891e-01,1.327688574790954590e+00,8.125562071800231934e-01,5.229851603507995605e-01,8.270670175552368164e-01,7.042833566665649414e-01,1.105119585990905762e+00
6.703339815139770508e-01,8.673641085624694824e-01,1.241459965705871582e+00,3.367801904678344727e-01,1.180466890335083008e+00,1.014555335044860840e+00,9.103448987007141113e-01,1.219053626060485840e+00,1.210107207298278809e+00,1.047300577163696289e+00,7.979298830032348633e-01,1.005937576293945312e+00,1.020254969596862793e+00,1.278634428977966309e+00
9.552269577980041504e-01,1.072466015815734863e+00,8.647796511650085449e-01,6.964411139488220215e-01,1.299632906913757324e+00,8.353394269943237305e-01,9.470902681350708008e-01,1.035873532295227051e+00,7.472628355026245117e-01,5.984429121017456055e-01,8.691408634185791016e-01,9.551268815994262695e-01,7.389113903045654297e-01,1.310228943824768066e+00
1.085874080657958984e+00,1.193550825119018555e+00,7.466574311256408691e-01,6.944166421890258789e-01,1.084716677665710449e+00,7.988477945327758789e-01,5.702794194221496582e-01,8.521820306777954102e-01,2.393037825822830200e-01,5.291806459426879883e-01,7.363586425781250000e-01,5.786423087120056152e-01,4.979228973388671875e-01,6.740936636924743652e-01
8.219602108001708984e-01,7.125435471534729004e-01,2.896118462085723877e-01,8.314542174339294434e-01,5.119865536689758301e-01,9.725479781627655029e-02,-6.828683614730834961e-02,1.548261195421218872e-01,-3.260811567306518555e-01,-2.065904438495635986e-01,1.490744948387145996e-01,-2.866605520248413086e-01,-1.091781482100486755e-01,5.502548068761825562e-02
5.367625951766967773e-01,4.680555760860443115e-01,-3.129026591777801514e-01,6.554767489433288574e-01,-3.133837282657623291e-01,6.675896048545837402e-02,-6.770281791687011719e-01,-6.886872053146362305e-01,-1.092713832855224609e+00,-6.467016935348510742e-01,-4.020909368991851807e-01,-7.639846801757812500e-01,-6.729081869125366211e-01,-7.525252103805541992e-01
-1.098935119807720184e-02,-1.560614705085754395e-01,-8.200364112854003906e-01,4.882664885371923447e-03,-1.085840344429016113e+00,-5.834022760391235352e-01,-1.140255451202392578e+00,-1.228765368461608887e+00,-1.788632750511169434e+00,-9.491161108016967773e-01,-9.004718661308288574e-01,-1.237718701362609863e+00,-1.122038125991821289e+00,-1.336847066879272461e+00
-6.281306743621826172e-01,-6.526534557342529297e-01,-1.045390725135803223e+00,-4.180866181850433350e-01,-1.410804748535156250e+00,-8.982838392257690430e-01,-1.139499187469482422e+00,-1.335872650146484375e+00,-1.544407248497009277e+00,-6.800148487091064453e-01,-1.358203411102294922e+00,-1.461088657379150391e+00,-1.352666497230529785e+00,-1.508840203285217285e+00
-1.113252043724060059e+00,-1.310675978660583496e+00,-9.491994976997375488e-01,-1.153846383094787598e+00,-1.405914425849914551e+00,-9.542198777198791504e-01,-1.049015641212463379e+00,-1.018525719642639160e+00,-1.336722373962402344e+00,-5.972535014152526855e-01,-1.568747520446777344e+00,-1.422082424163818359e+00,-9.836044311523437500e-01,-1.114390015602111816e+00
-1.235621452331542969e+00,-1.533474683761596680e+00,-6.774294376373291016e-01,-1.623308539390563965e+00,-1.167637109756469727e+00,-1.136220693588256836e+00,-6.542755365371704102e-01,-7.165708541870117188e-01,-4.499801993370056152e-01,-9.412712603807449341e-02,-1.200142621994018555e+00,-9.742787480354309082e-01,-5.997762084007263184e-01,-5.486108660697937012e-01
-1.369976401329040527e+00,-1.273688197135925293e+00,-1.508305966854095459e-01,-1.597942233085632324e+00,-5.843327045440673828e-01,-3.095069229602813721e-01,-1.942748017609119415e-02,-1.095145642757415771e-01,2.259426265954971313e-01,4.493596851825714111e-01,-6.150522828102111816e-01,-2.639763355255126953e-01,1.682395115494728088e-02,-1.384490821510553360e-02
-1.027414441108703613e+00,-1.240763902664184570e+00,2.873794138431549072e-01,-1.376084566116333008e+00,1.176952719688415527e-01,-4.979369789361953735e-02,5.909526348114013672e-01,4.973196685314178467e-01,8.334190845489501953e-01,8.008129596710205078e-01,-1.071871593594551086e-01,3.655775189399719238e-01,7.837301492691040039e-01,6.460322141647338867e-01
-7.411814332008361816e-01,-3.634357750415802002e-01,7.847426533699035645e-01,-9.292902946472167969e-01,8.646708726882934570e-01,4.582901895046234131e-01,9.220542311668395996e-01,1.040947198867797852e+00,7.945737838745117188e-01,7.299266457557678223e-01,5.026970505714416504e-01,7.571698427200317383e-01,9.881784915924072266e-01,1.048464298248291016e+00
3.853698447346687317e-02,9.639685600996017456e-02,8.699019551277160645e-01,-1.576139628887176514e-01,1.330427527427673340e+00,5.260982513427734375e-01,9.073708057403564453e-01,9.503228068351745605e-01,5.432690382003784180e-01,6.769113540649414062e-01,9.566835761070251465e-01,8.203824758529663086e-01,8.633478879928588867e-01,9.468784332275390625e-01
4.345126152038574219e-01,7.006459832191467285e-01,6.099236011505126953e-01,4.702950417995452881e-01,1.192254185676574707e+00,6.679207086563110352e-01,4.435740411281585693e-01,7.158306837081909180e-01,-1.553110331296920776e-01,1.790056377649307251e-01,1.055079221725463867e+00,4.060047268867492676e-01,4.915516078472137451e-01,5.028125047683715820e-01
8.696302771568298340e-01,8.692559003829956055e-01,3.170202672481536865e-01,8.569698929786682129e-01,3.756157159805297852e-01,4.550716578960418701e-01,7.952239364385604858e-02,2.366164475679397583e-01,-7.202143073081970215e-01,-4.318595230579376221e-01,8.058258891105651855e-01,1.061774641275405884e-01,-2.087170779705047607e-01,-3.617144748568534851e-02
9.555870890617370605e-01,8.703185319900512695e-01,-3.328901529312133789e-01,1.046291351318359375e+00,-1.366388797760009766e-01,-5.766015499830245972e-02,-3.851977884769439697e-01,-2.530752420425415039e-01,-1.006830692291259766e+00,-8.053560853004455566e-01,2.706732451915740967e-01,-4.734010994434356689e-01,-5.984447002410888672e-01,-7.292538881301879883e-01
8.853701353073120117e-01,9.204668402671813965e-01,-8.702988028526306152e-01,1.097622275352478027e+00,-7.130256295204162598e-01,-2.102888077497482300e-01,-9.035148024559020996e-01,-1.070553421974182129e+00,-9.701338410377502441e-01,-7.715006470680236816e-01,-2.195652723312377930e-01,-7.792648077011108398e-01,-9.326909184455871582e-01,-1.135172724723815918e+00
7.323542237281799316e-01,4.361298978328704834e-01,-8.954703211784362793e-01,8.597665429115295410e-01,-1.165464997291564941e+00,-7.671347856521606445e-01,-1.139958858489990234e+00,-1.272316336631774902e+00,-8.513666987419128418e-01,-8.253518342971801758e-01,-6.418872475624084473e-01,-7.960803508758544922e-01,-1.056479692459106445e+00,-1.209509611129760742e+00
-2.469127252697944641e-02,-3.895656466484069824e-01,-9.106563329696655273e-01,3.073614835739135742e-01,-1.318524479866027832e+00,-7.582702040672302246e-01,-4.512132704257965088e-01,-1.132871985435485840e+00,6.139259785413742065e-02,-2.129439264535903931e-01,-1.015286326408386230e+00,-6.651645302772521973e-01,-8.107441067695617676e-01,-8.309999108314514160e-01
-4.261159598827362061e-01,-7.027539014816284180e-01,-7.836331129074096680e-01,-1.644909828901290894e-01,-9.600374698638916016e-01,-5.739507675170898438e-01,-2.463863343000411987e-01,-5.520884990692138672e-01,8.034249544143676758e-01,-2.049847841262817383e-01,-1.041152477264404297e+00,6.355508230626583099e-03,-2.693428695201873779e-01,-3.976857364177703857e-01
-8.208868503570556641e-01,-1.023673772811889648e+00,-2.577485740184783936e-01,-6.287466883659362793e-01,-4.620452225208282471e-01,-3.186473250389099121e-01,2.136494517326354980e-01,-1.535058170557022095e-01,1.162952423095703125e+00,4.020467698574066162e-01,-4.938262999057769775e-01,4.750269651412963867e-01,2.566177845001220703e-01,5.262637734413146973e-01
-8.690293431282043457e-01,-8.540944457054138184e-01,6.295311450958251953e-02,-9.348734617233276367e-01,1.623229831457138062e-01,-4.139561206102371216e-02,4.894495010375976562e-01,3.896465599536895752e-01,1.164912462234497070e+00,5.603510737419128418e-01,-9.808380901813507080e-02,1.148505806922912598e+00,7.476515769958496094e-01,7.819585204124450684e-01
-9.328539967536926270e-01,-7.842524051666259766e-01,4.601798951625823975e-01,-1.042906403541564941e+00,5.467386245727539062e-01,5.965985655784606934e-01,7.288742661476135254e-01,7.114027142524719238e-01,1.167210340499877930e+00,4.295464754104614258e-01,5.174432396888732910e-01,1.227685689926147461e+00,4.874820709228515625e-01,8.174222111701965332e-01
-6.222792863845825195e-01,-3.545011579990386963e-01,6.413107514381408691e-01,-6.336051225662231445e-01,8.466382622718811035e-01,8.194261193275451660e-01,5.118175148963928223e-01,7.024022340774536133e-01,5.024996995925903320e-01,1.026191562414169312e-01,1.032893180847167969e+00,1.196712851524353027e+00,8.720161765813827515e-02,6.543415784835815430e-01
-4.108452424407005310e-02,5.312137305736541748e-02,4.251732826232910156e-01,-2.829729616641998291e-01,6.673730611801147461e-01,5.725181102752685547e-01,1.538901329040527344e-01,1.995510309934616089e-01,-4.191260039806365967e-01,-3.803403377532958984e-01,1.238058805465698242e+00,7.641452550888061523e-01,7.186816539615392685e-03,1.151567772030830383e-01
4.999538958072662354e-01,7.341102957725524902e-01,-2.185282297432422638e-02,3.419309258460998535e-01,4.187160134315490723e-01,4.289040267467498779e-01,-2.240074574947357178e-01,-2.337017059326171875e-01,-8.212826848030090332e-01,-1.057936191558837891e+00,8.206167817115783691e-01,-4.842559248208999634e-02,-4.934918880462646484e-01,-6.065572500228881836e-01
6.514838933944702148e-01,1.133436203002929688e+00,-4.510276615619659424e-01,7.480542063713073730e-01,-1.525785028934478760e-01,-5.932576209306716919e-02,-9.028868675231933594e-01,-9.577631354331970215e-01,-1.026421189308166504e+00,-1.165477156639099121e+00,6.014363765716552734e-01,-4.945250153541564941e-01,-8.822147250175476074e-01,-1.441064357757568359e+00
1.171073198318481445e+00,1.093237876892089844e+00,-1.140840291976928711e+00,8.458887934684753418e-01,-9.532231092453002930e-01,-2.833525836467742920e-02,-1.085795760154724121e+00,-1.375262975692749023e+00,-1.110946655273437500e+00,-9.419793486595153809e-01,-1.172744780778884888e-01,-8.248767256736755371e-01,-9.061853289604187012e-01,-1.615606307983398438e+00
9.380716085433959961e-01,6.405267119407653809e-01,-1.124364376068115234e+00,1.147925376892089844e+00,-1.468714714050292969e+00,-7.544403076171875000e-01,-8.962903618812561035e-01,-1.249340415000915527e+00,-5.342572331428527832e-01,-5.378128290176391602e-01,-5.421868562698364258e-01,-1.053314805030822754e+00,-8.540137410163879395e-01,-1.438620090484619141e+00
6.035438776016235352e-01,4.927683472633361816e-01,-1.283123016357421875e+00,9.312146902084350586e-01,-1.395771384239196777e+00,-8.316525816917419434e-01,-3.210012614727020264e-01,-1.356113314628601074e+00,4.781465511769056320e-03,-1.180793438106775284e-02,-1.078541278839111328e+00,-7.492520213127136230e-01,-3.815674483776092529e-01,-9.838991165161132812e-01
7.473498582839965820e-03,-1.196867898106575012e-01,-8.159585595130920410e-01,6.207789182662963867e-01,-1.136911153793334961e+00,-7.494895458221435547e-01,2.656773924827575684e-01,-3.781285285949707031e-01,7.376529574394226074e-01,5.083195567131042480e-01,-7.770622372627258301e-01,-2.502642869949340820e-01,5.076087117195129395e-01,-9.833951294422149658e-02
-2.775964438915252686e-01,-7.965586185455322266e-01,-6.373419612646102905e-02,8.524091541767120361e-02,-4.413793981075286865e-01,-2.938056588172912598e-01,8.692038059234619141e-01,2.801803052425384521e-01,1.121921420097351074e+00,1.184841394424438477e+00,-3.338249921798706055e-01,2.767795026302337646e-01,1.022801637649536133e+00,4.030368030071258545e-01
-7.767708897590637207e-01,-9.180313944816589355e-01,5.399781465530395508e-01,-5.095801949501037598e-01,4.591794312000274658e-01,8.398969471454620361e-02,1.395861506462097168e+00,7.313511371612548828e-01,1.339134335517883301e+00,1.169929862022399902e+00,1.301188766956329346e-01,8.162367343902587891e-01,1.208762884140014648e+00,1.337636232376098633e+00
-9.195793867111206055e-01,-9.990461468696594238e-01,1.174591541290283203e+00,-8.534812331199645996e-01,1.164363861083984375e+00,6.685901284217834473e-01,1.503640890121459961e+00,1.313990831375122070e+00,6.429859399795532227e-01,8.679686784744262695e-01,7.699125409126281738e-01,9.387649297714233398e-01,1.509265899658203125e+00,1.287458181381225586e+00
-9.171463847160339355e-01,-6.536260247230529785e-01,1.350712180137634277e+00,-8.476112484931945801e-01,1.665766954421997070e+00,8.627793192863464355e-01,1.317743659019470215e+00,1.396908164024353027e+00,4.446955621242523193e-01,5.171487331390380859e-01,1.319909214973449707e+00,7.696706056594848633e-01,1.177846312522888184e+00,1.069678068161010742e+00
-5.059503316879272461e-01,-2.505364716053009033e-01,1.155429124832153320e+00,-7.088741660118103027e-01,1.474840164184570312e+00,1.013873815536499023e+00,8.824669122695922852e-01,1.227020144462585449e+00,-4.694589376449584961e-01,1.473973542451858521e-01,1.382178783416748047e+00,4.330931603908538818e-01,8.375471830368041992e-01,7.602838277816772461e-01
-9.590120613574981689e-02,4.177362918853759766e-01,7.922280430793762207e-01,-4.788462817668914795e-01,1.373434066772460938e+00,1.089891076087951660e+00,1.370442211627960205e-01,6.066250801086425781e-01,-9.374292492866516113e-01,-3.046199679374694824e-01,1.239676475524902344e+00,-3.406749665737152100e-02,1.272429823875427246e-01,1.335726529359817505e-01
3.554225265979766846e-01,1.073158979415893555e+00,4.525489509105682373e-01,1.388597190380096436e-01,8.372790813446044922e-01,7.081965208053588867e-01,-2.125064134597778320e-01,6.707742810249328613e-03,-1.072756171226501465e+00,-3.026027381420135498e-01,8.174082040786743164e-01,-6.332630515098571777e-01,-1.806400716304779053e-01,-3.602710962295532227e-01
1.025591731071472168e+00,1.328893303871154785e+00,4.050031304359436035e-02,6.789538860321044922e-01,2.202870100736618042e-01,1.205652505159378052e-01,-5.015998482704162598e-01,-5.021455287933349609e-01,-6.763639450073242188e-01,-3.351306021213531494e-01,1.560338437557220459e-01,-7.818685173988342285e-01,-4.746902287006378174e-01,-5.589593052864074707e-01
1.375855088233947754e+00,1.330015778541564941e+00,-1.768270730972290039e-01,1.178584575653076172e+00,-3.248466253280639648e-01,-1.217860281467437744e-01,-4.955972731113433838e-01,-5.228788852691650391e-01,-2.768520712852478027e-01,1.085256263613700867e-01,-4.654042124748229980e-01,-1.007037043571472168e+00,-3.258924484252929688e-01,-4.980166852474212646e-01
1.376115560531616211e+00,1.292153358459472656e+00,-6.010115146636962891e-01,1.071288466453552246e+00,-4.647864699363708496e-01,-3.749214112758636475e-01,-2.076105028390884399e-01,-2.702274620532989502e-01,5.834639072418212891e-01,5.686058998107910156e-01,-1.084466814994812012e+00,-7.753662467002868652e-01,-3.250057250261306763e-02,3.951232880353927612e-02
1.061556816101074219e+00,9.121024608612060547e-01,-1.169639304280281067e-01,1.088069200515747070e+00,-3.494246006011962891e-01,-4.693018794059753418e-01,1.483154892921447754e-01,1.641911268234252930e-01,9.780088067054748535e-01,9.384933114051818848e-01,-1.422361135482788086e+00,-1.202490329742431641e-01,3.827323913574218750e-01,8.183190226554870605e-01
5.927621126174926758e-01,6.333342939615249634e-02,2.757681608200073242e-01,5.987858772277832031e-01,-1.220252364873886108e-01,-3.781327307224273682e-01,4.674242138862609863e-01,4.627211093902587891e-01,9.312034845352172852e-01,8.056654334068298340e-01,-1.265460252761840820e+00,4.862126111984252930e-01,6.115468740463256836e-01,1.287227272987365723e+00
-8.566457033157348633e-02,-5.745187997817993164e-01,7.338536381721496582e-01,8.203063160181045532e-02,2.733936309814453125e-01,-1.099334433674812317e-01,6.717501282691955566e-01,1.257847428321838379e+00,7.949863672256469727e-01,6.741228103637695312e-01,-7.928881049156188965e-01,7.978373765945434570e-01,6.132677197456359863e-01,1.569192409515380859e+00
-5.863839387893676758e-01,-7.667641043663024902e-01,1.159924507141113281e+00,-5.408533811569213867e-01,7.136196494102478027e-01,5.239888429641723633e-01,7.068830132484436035e-01,1.396406531333923340e+00,9.233517944812774658e-02,2.387127429246902466e-01,-4.626670777797698975e-01,8.252761363983154297e-01,2.927181124687194824e-01,1.395701646804809570e+00
-9.793555736541748047e-01,-1.206368207931518555e+00,1.155238032341003418e+00,-1.087004303932189941e+00,1.168356418609619141e+00,6.151128411293029785e-01,1.323288679122924805e-01,1.208131432533264160e+00,-6.040277481079101562e-01,-2.659696340560913086e-01,3.089246451854705811e-01,6.223444342613220215e-01,1.379845738410949707e-01,1.103054642677307129e+00
-1.088202238082885742e+00,-1.255857706069946289e+00,9.115056395530700684e-01,-1.513282299041748047e+00,1.043761134147644043e+00,5.067239403724670410e-01,-3.950722217559814453e-01,5.912747979164123535e-01,-1.031354665756225586e+00,-8.331833481788635254e-01,3.823899924755096436e-01,1.366196274757385254e-01,-7.706480622291564941e-01,4.632285535335540771e-01
-1.103865027427673340e+00,-9.369555711746215820e-01,3.680954575538635254e-01,-1.316959500312805176e+00,6.767696142196655273e-01,7.181478738784790039e-01,-1.023717164993286133e+00,-7.404100894927978516e-02,-1.480108618736267090e+00,-1.024215459823608398e+00,4.635300338268280029e-01,-3.288673460483551025e-01,-1.032127261161804199e+00,-4.826971292495727539e-01
-9.149048924446105957e-01,-2.497686743736267090e-01,-4.238043427467346191e-01,-1.509972572326660156e+00,3.887296188622713089e-03,6.036752462387084961e-02,-1.302522063255310059e+00,-8.602203726768493652e-01,-1.490129232406616211e+00,-1.056418299674987793e+00,2.492512911558151245e-01,-1.041941881179809570e+00,-1.460497498512268066e+00,-1.028787374496459961e+00
-4.350790977478027344e-01,1.234242618083953857e-01,-9.782031774520874023e-01,-1.039244055747985840e+00,-1.044692039489746094e+00,-3.285432755947113037e-01,-1.576974987983703613e+00,-1.213995933532714844e+00,-1.077869653701782227e+00,-6.345761418342590332e-01,-2.245743274688720703e-01,-1.293633460998535156e+00,-1.205848455429077148e+00,-1.507991552352905273e+00
9.335272759199142456e-02,4.288200139999389648e-01,-1.159584641456604004e+00,-3.501321971416473389e-01,-1.241747736930847168e+00,-6.742422580718994141e-01,-1.134701728820800781e+00,-1.414475917816162109e+00,-2.613843679428100586e-01,-2.990807592868804932e-01,-6.812241077423095703e-01,-1.303075551986694336e+00,-1.140714406967163086e+00,-1.422610402107238770e+00
5.202481746673583984e-01,4.911426305770874023e-01,-1.335828900337219238e+00,1.052253991365432739e-01,-1.788788199424743652e+00,-1.224294900894165039e+00,-7.153244018554687500e-01,-1.333963155746459961e+00,5.083184242248535156e-01,1.908011585474014282e-01,-9.244431853294372559e-01,-6.618090271949768066e-01,-4.202333390712738037e-01,-8.539334535598754883e-01
5.128675103187561035e-01,2.703976929187774658e-01,-1.092256903648376465e+00,5.907373428344726562e-01,-1.583618402481079102e+00,-1.256898641586303711e+00,-5.799476802349090576e-02,-7.928023934364318848e-01,8.431634306907653809e-01,7.929815053939819336e-01,-1.327479481697082520e+00,-3.017904758453369141e-01,1.589650213718414307e-01,-4.097963571548461914e-01
4.240308403968811035e-01,-2.608688473701477051e-01,-6.714815497398376465e-01,8.831468224525451660e-01,-1.124717831611633301e+00,-1.298127293586730957e+00,5.098868608474731445e-01,-2.999331653118133545e-01,1.018880963325500488e+00,8.046387434005737305e-01,-7.838855385780334473e-01,2.274838685989379883e-01,7.783943414688110352e-01,3.422962725162506104e-01
-1.841119825839996338e-01,-4.450865983963012695e-01,1.343440264463424683e-01,7.824156880378723145e-01,-3.676811754703521729e-01,-7.275279760360717773e-01,7.698568701744079590e-01,3.313617110252380371e-01,8.563895821571350098e-01,6.105222105979919434e-01,-5.401205420494079590e-01,7.527310848236083984e-01,8.876819610595703125e-01,6.114409565925598145e-01
-3.036697208881378174e-01,-8.463556766510009766e-01,4.830872118473052979e-01,2.108311802148818970e-01,1.385680586099624634e-01,-2.382496744394302368e-01,6.147068142890930176e-01,6.915143132209777832e-01,1.362570077180862427e-01,4.855988919734954834e-02,3.393743932247161865e-01,9.196491241455078125e-01,7.928270697593688965e-01,7.052981257438659668e-01
-7.028473615646362305e-01,-1.286274075508117676e+00,6.661619544029235840e-01,-7.806887477636337280e-02,7.018319368362426758e-01,2.450897544622421265e-01,5.581684708595275879e-01,8.765661716461181641e-01,-3.633595705032348633e-01,-4.028372764587402344e-01,1.048021674156188965e+00,7.268507480621337891e-01,6.110944151878356934e-01,1.090291887521743774e-01
-9.979076385498046875e-01,-1.551411628723144531e+00,7.223349213600158691e-01,-4.255242645740509033e-01,9.952848553657531738e-01,4.975062012672424316e-01,6.294623762369155884e-02,3.806456625461578369e-01,-6.406154632568359375e-01,-5.366483926773071289e-01,1.531703710556030273e+00,3.784931004047393799e-01,-1.132651939988136292e-01,-4.876255393028259277e-01
-1.227473378181457520e+00,-1.328847527503967285e+00,3.151085972785949707e-01,-6.849563717842102051e-01,8.992328643798828125e-01,5.800741910934448242e-01,-3.236227333545684814e-01,-1.262569576501846313e-01,-4.677791595458984375e-01,-8.609271645545959473e-01,1.805728912353515625e+00,-1.812731325626373291e-01,-5.021532177925109863e-01,-1.081365823745727539e+00
-1.145438551902770996e+00,-7.914737462997436523e-01,-1.880872547626495361e-01,-6.781600713729858398e-01,6.065168976783752441e-01,5.383373498916625977e-01,-7.256701588630676270e-01,-6.763382554054260254e-01,-7.909658551216125488e-02,-7.790113687515258789e-01,1.494434714317321777e+00,-5.627666711807250977e-01,-7.610034346580505371e-01,-1.307820320129394531e+00
-7.309435606002807617e-01,-1.959844678640365601e-01,-7.918177247047424316e-01,-3.520623743534088135e-01,-1.929482445120811462e-03,1.544116586446762085e-01,-6.379386186599731445e-01,-1.019159436225891113e+00,6.005534529685974121e-01,-5.840707421302795410e-01,1.009292960166931152e+00,-7.981378436088562012e-01,-7.411282062530517578e-01,-1.289977788925170898e+00
1.258932054042816162e-01,7.492022514343261719e-01,-1.021212220191955566e+00,-1.986601948738098145e-01,-5.815991163253784180e-01,-3.621330559253692627e-01,-5.393866300582885742e-01,-1.065379619598388672e+00,1.237672090530395508e+00,6.041676551103591919e-02,4.491341710090637207e-01,-4.266739189624786377e-01,-4.496834874153137207e-01,-1.055878877639770508e+00
7.729021906852722168e-01,1.294815063476562500e+00,-1.045073509216308594e+00,5.372754335403442383e-01,-9.366068243980407715e-01,-3.752219676971435547e-01,-1.205948889255523682e-01,-7.267652153968811035e-01,1.658973336219787598e+00,4.689791202545166016e-01,-2.174161672592163086e-01,-8.450404554605484009e-02,-1.117740385234355927e-02,-2.576062679290771484e-01
1.135872721672058105e+00,1.598047256469726562e+00,-5.819981694221496582e-01,1.021028637886047363e+00,-8.860322237014770508e-01,-4.041224122047424316e-01,3.614940047264099121e-01,-4.385137557983398438e-01,1.764759659767150879e+00,5.371717810630798340e-01,-9.166871905326843262e-01,5.821641683578491211e-01,6.737676262855529785e-01,4.235517382621765137e-01
1.608407497406005859e+00,1.447087168693542480e+00,-2.212264388799667358e-01,1.480430960655212402e+00,-6.793709397315979004e-01,-2.327219843864440918e-01,1.181311726570129395e+00,1.560192108154296875e-01,1.350338697433471680e+00,5.004439949989318848e-01,-1.011201024055480957e+00,1.067388534545898438e+00,7.866208553314208984e-01,1.090285658836364746e+00
1.691199183464050293e+00,1.326038599014282227e+00,5.164340734481811523e-01,1.526519179344177246e+00,-2.121857106685638428e-01,-6.496080011129379272e-02,1.168839812278747559e+00,8.158319592475891113e-01,8.050084114074707031e-01,2.632723189890384674e-02,-7.506924867630004883e-01,1.616898417472839355e+00,1.226883172988891602e+00,1.517260432243347168e+00
1.303276896476745605e+00,7.633166313171386719e-01,6.990255713462829590e-01,1.535466670989990234e+00,6.264725327491760254e-01,3.670724630355834961e-01,8.296691179275512695e-01,1.068200826644897461e+00,-2.515622675418853760e-01,-4.490968883037567139e-01,-5.274826884269714355e-01,1.383475780487060547e+00,7.341873049736022949e-01,1.096741676330566406e+00
1.089436650276184082e+00,3.186009824275970459e-01,9.764472842216491699e-01,1.121867775917053223e+00,1.063540101051330566e+00,6.847898364067077637e-01,3.672880530357360840e-01,8.389268517494201660e-01,-9.520983695983886719e-01,-7.791737914085388184e-01,-6.190757825970649719e-02,9.095135927200317383e-01,2.398699671030044556e-01,5.377738475799560547e-01
3.578703999519348145e-01,-3.590635061264038086e-01,8.035807013511657715e-01,4.616591632366180420e-01,1.142650961875915527e+00,8.759271502494812012e-01,-2.107303738594055176e-01,5.661584734916687012e-01,-1.276306986808776855e+00,-9.819607138633728027e-01,6.249595284461975098e-01,3.351906239986419678e-01,-3.119984269142150879e-01,-7.861234247684478760e-02
-2.716859877109527588e-01,-5.193329453468322754e-01,2.030909955501556396e-01,-3.177883028984069824e-01,1.118257761001586914e+00,1.019956946372985840e+00,-4.919359683990478516e-01,-6.644268985837697983e-03,-1.387557268142700195e+00,-1.007007837295532227e+00,8.110229969024658203e-01,-2.939876616001129150e-01,-6.198970079421997070e-01,-7.857421636581420898e-01
-5.624045729637145996e-01,-7.294289469718933105e-01,-1.003741472959518433e-01,-9.525202512741088867e-01,4.184112250804901123e-01,8.612207174301147461e-01,-9.036385416984558105e-01,-8.496264219284057617e-01,-8.913003802299499512e-01,-6.635401844978332520e-01,5.431811213493347168e-01,-9.514203071594238281e-01,-8.250947594642639160e-01,-1.059578895568847656e+00
-7.992628812789916992e-01,-4.764321446418762207e-01,-9.359441995620727539e-01,-1.423570752143859863e+00,-1.527557224035263062e-01,3.507392704486846924e-01,-8.475179672241210938e-01,-1.277335286140441895e+00,-5.073583126068115234e-01,5.656655505299568176e-02,2.331486344337463379e-01,-9.992861747741699219e-01,-6.160776019096374512e-01,-1.142923593521118164e+00
-7.202551364898681641e-01,-2.164538055658340454e-01,-1.068997263908386230e+00,-1.351952433586120605e+00,-6.188689470291137695e-01,-3.018350154161453247e-02,-4.821878969669342041e-01,-1.351320624351501465e+00,1.562198847532272339e-01,4.096411466598510742e-01,-1.476606428623199463e-01,-1.141178131103515625e+00,-2.861204184591770172e-02,-8.452717661857604980e-01
-4.715897738933563232e-01,2.252072393894195557e-01,-1.259058356285095215e+00,-1.302409410476684570e+00,-1.193541884422302246e+00,-6.771003007888793945e-01,1.086253151297569275e-01,-1.034500837326049805e+00,5.756837725639343262e-01,8.851167559623718262e-01,-9.850016236305236816e-01,-8.282027840614318848e-01,3.221989274024963379e-01,-1.846779882907867432e-01
1.280325502157211304e-01,9.788957834243774414e-01,-8.871359229087829590e-01,-1.059307336807250977e+00,-1.240383625030517578e+00,-7.190661430358886719e-01,6.968425512313842773e-01,-4.184712469577789307e-01,1.377600133419036865e-01,9.360842704772949219e-01,-1.058214902877807617e+00,-5.006400346755981445e-01,1.032246708869934082e+00,5.969929099082946777e-01
1.826418489217758179e-01,8.213796019554138184e-01,-3.897623419761657715e-01,-5.137740969657897949e-01,-6.834548711776733398e-01,-7.411010861396789551e-01,9.872205853462219238e-01,2.797893285751342773e-01,8.189878612756729126e-02,7.452168464660644531e-01,-1.355072736740112305e+00,4.877972975373268127e-02,1.380004167556762695e+00,9.832814335823059082e-01
6.600632667541503906e-01,7.806538939476013184e-01,1.880556643009185791e-01,5.222313851118087769e-02,6.747491657733917236e-02,-5.751264691352844238e-01,1.216663837432861328e+00,8.931580781936645508e-01,-6.815637946128845215e-01,5.133774280548095703e-01,-1.225937485694885254e+00,5.723659396171569824e-01,1.309649825096130371e+00,1.261542677879333496e+00
7.224832177162170410e-01,4.335130453109741211e-01,7.660086154937744141e-01,3.654007911682128906e-01,5.490272045135498047e-01,-1.694342643022537231e-01,1.146001458168029785e+00,1.210174679756164551e+00,-1.144993543624877930e+00,1.882634162902832031e-01,-5.056715011596679688e-01,5.161228775978088379e-01,1.017993807792663574e+00,1.016777396202087402e+00
3.591674566268920898e-01,-4.892670363187789917e-02,1.199246525764465332e+00,6.010588407516479492e-01,1.138829708099365234e+00,1.639515757560729980e-01,2.857895791530609131e-01,1.328759193420410156e+00,-1.547624349594116211e+00,-3.450804054737091064e-01,-1.930491998791694641e-02,-5.991218611598014832e-02,2.675188481807708740e-01,3.285906910896301270e-01
3.587860986590385437e-02,-7.093832492828369141e-01,9.202206134796142578e-01,5.193019509315490723e-01,1.667227268218994141e+00,6.296657323837280273e-01,-5.906306952238082886e-02,7.674686908721923828e-01,-1.451712727546691895e+00,-2.838204205036163330e-01,6.275600790977478027e-01,-3.606413006782531738e-01,-2.133634686470031738e-01,-2.983849048614501953e-01
-5.953734517097473145e-01,-1.213004589080810547e+00,7.835634946823120117e-01,-2.964186109602451324e-02,1.595188975334167480e+00,7.468154430389404297e-01,-7.157569527626037598e-01,3.991635441780090332e-01,-8.511708378791809082e-01,-1.865946352481842041e-01,1.121219754219055176e+00,-8.669932484626770020e-01,-6.017979979515075684e-01,-7.411357164382934570e-01
-9.163554906845092773e-01,-1.345717430114746094e+00,3.466397225856781006e-01,-1.342121511697769165e-01,1.049700021743774414e+00,7.497565746307373047e-01,-9.247279763221740723e-01,-1.813710331916809082e-01,5.720134824514389038e-02,1.906901746988296509e-01,1.002815246582031250e+00,-1.238624691963195801e+00,-7.263892292976379395e-01,-7.885369658470153809e-01
-1.396290063858032227e+00,-1.565752625465393066e+00,-2.258719354867935181e-01,-5.688597559928894043e-01,6.596212983131408691e-01,4.956858456134796143e-01,-1.096224188804626465e+00,-3.909168541431427002e-01,8.567475676536560059e-01,5.713467001914978027e-01,9.052593111991882324e-01,-1.168920755386352539e+00,-9.272602200508117676e-01,-6.214066743850708008e-01
-1.507782697677612305e+00,-1.357978940010070801e+00,-3.575557768344879150e-01,-8.732094764709472656e-01,1.665829718112945557e-01,-5.447015166282653809e-02,-4.964510202407836914e-01,-3.528651893138885498e-01,1.426406621932983398e+00,7.614178657531738281e-01,1.918668001890182495e-01,-7.102795243263244629e-01,-5.419558286666870117e-01,-1.110866889357566833e-01
-1.227691888809204102e+00,-5.871937274932861328e-01,-3.415105640888214111e-01,-1.017858386039733887e+00,-4.690445363521575928e-01,-4.491369426250457764e-01,-6.105951964855194092e-02,-9.287714213132858276e-02,1.758326053619384766e+00,1.081470251083374023e+00,-2.575484812259674072e-01,-2.492731213569641113e-01,-8.505653589963912964e-03,5.505537390708923340e-01
-3.841113150119781494e-01,1.626190096139907837e-01,-1.529941558837890625e-01,-5.909922719001770020e-01,-6.253340840339660645e-01,-7.775532603263854980e-01,3.908807635307312012e-01,1.384855508804321289e-01,1.311556935310363770e+00,6.502892374992370605e-01,-7.887164354324340820e-01,5.695533156394958496e-01,3.887763321399688721e-01,1.218169093132019043e+00
-1.507143527269363403e-01,5.361297130584716797e-01,3.392728865146636963e-01,-5.645896196365356445e-01,-5.605571269989013672e-01,-5.025692582130432129e-01,7.520844936370849609e-01,7.486239075660705566e-01,6.777836680412292480e-01,1.297531574964523315e-01,-1.167921900749206543e+00,1.183479309082031250e+00,5.005837082862854004e-01,1.581808567047119141e+00
5.961259007453918457e-01,9.890710711479187012e-01,8.126624226570129395e-01,2.500554025173187256e-01,-2.243829220533370972e-01,-4.060770571231842041e-01,4.886391758918762207e-01,1.320937871932983398e+00,4.128266870975494385e-02,-4.596027433872222900e-01,-1.060397028923034668e+00,1.360619425773620605e+00,2.140944600105285645e-01,1.522218108177185059e+00
8.011015653610229492e-01,1.301514983177185059e+00,9.158245921134948730e-01,9.265758395195007324e-01,2.618189752101898193e-01,-2.177710384130477905e-01,5.688811838626861572e-02,1.425839066505432129e+00,-5.469875931739807129e-01,-7.631796598434448242e-01,-4.610686898231506348e-01,1.489930272102355957e+00,-5.422491952776908875e-02,1.254643440246582031e+00
1.175508022308349609e+00,8.744019269943237305e-01,1.240882039070129395e+00,1.248512268066406250e+00,9.235000610351562500e-01,9.443618357181549072e-02,-4.476461708545684814e-01,1.236532568931579590e+00,-7.211995124816894531e-01,-1.092398524284362793e+00,-1.247262060642242432e-01,1.104312896728515625e+00,-4.793101549148559570e-01,4.517390131950378418e-01
1.170394659042358398e+00,7.486047148704528809e-01,9.257119297981262207e-01,1.680163145065307617e+00,9.139971733093261719e-01,5.935866832733154297e-01,-9.105430841445922852e-01,5.293723940849304199e-01,-8.286038041114807129e-01,-1.170025110244750977e+00,5.216164588928222656e-01,6.492829918861389160e-01,-1.144385099411010742e+00,-2.086441069841384888e-01
9.524878263473510742e-01,-1.534223705530166626e-01,4.613552093505859375e-01,1.589227080345153809e+00,9.755784869194030762e-01,6.200931072235107422e-01,-1.375804305076599121e+00,-2.382448911666870117e-01,-1.287561748176813126e-02,-9.265412688255310059e-01,1.023682475090026855e+00,-6.568309850990772247e-03,-1.509353995323181152e+00,-8.985947966575622559e-01
5.323399305343627930e-01,-4.496572315692901611e-01,-7.100079953670501709e-02,1.395513057708740234e+00,3.253549635410308838e-01,6.069170832633972168e-01,-1.339540243148803711e+00,-1.045266389846801758e+00,5.742578506469726562e-01,-2.790836095809936523e-01,1.281187891960144043e+00,-6.330612897872924805e-01,-1.312650442123413086e+00,-1.157865405082702637e+00
-1.444103121757507324e-01,-8.392947912216186523e-01,-6.011275649070739746e-01,6.918435692787170410e-01,-4.311849474906921387e-01,1.545346379280090332e-01,-1.007760643959045410e+00,-1.448438167572021484e+00,9.253669977188110352e-01,2.785415351390838623e-01,1.072471141815185547e+00,-4.816678762435913086e-01,-8.171665668487548828e-01,-1.085755228996276855e+00
-5.677291154861450195e-01,-8.894379138946533203e-01,-1.193648695945739746e+00,-1.644623838365077972e-02,-9.992634057998657227e-01,-2.805794477462768555e-01,-3.839844167232513428e-01,-1.657617688179016113e+00,1.280331850051879883e+00,4.506908059120178223e-01,7.034475207328796387e-01,-4.132192730903625488e-01,-7.553687691688537598e-02,-6.584365963935852051e-01
-6.309357881546020508e-01,-7.858324050903320312e-01,-1.361486315727233887e+00,-6.806238889694213867e-01,-1.534520506858825684e+00,-7.323226332664489746e-01,1.400082558393478394e-01,-1.248326420783996582e+00,9.195271730422973633e-01,6.986420154571533203e-01,1.340720243752002716e-02,1.713237613439559937e-01,4.002183675765991211e-01,-2.649317979812622070e-01
-9.238192439079284668e-01,-4.864057302474975586e-01,-1.331615209579467773e+00,-9.109248518943786621e-01,-1.712771058082580566e+00,-1.093393683433532715e+00,8.164061903953552246e-01,-8.029336929321289062e-01,4.376517832279205322e-01,2.579612135887145996e-01,-5.053767561912536621e-01,5.207848548889160156e-01,1.024775028228759766e+00,3.129138052463531494e-01
-5.845129489898681641e-01,2.851714193820953369e-01,-7.064241766929626465e-01,-1.134507775306701660e+00,-1.584659814834594727e+00,-9.656642675399780273e-01,1.072280406951904297e+00,-1.929509490728378296e-01,-3.828453123569488525e-01,9.710799157619476318e-02,-4.748983085155487061e-01,7.172349691390991211e-01,1.191783547401428223e+00,6.372256278991699219e-01
-1.433620452880859375e-01,6.309790611267089844e-01,-3.459725379943847656e-01,-1.115980029106140137e+00,-1.164660692214965820e+00,-8.656758069992065430e-01,1.215982437133789062e+00,3.672479987144470215e-01,-9.902448058128356934e-01,-3.443891704082489014e-01,-5.873279571533203125e-01,8.556104302406311035e-01,8.880053758621215820e-01,4.077906906604766846e-01
3.942297995090484619e-01,1.026541471481323242e+00,2.511295378208160400e-01,-5.545583963394165039e-01,-5.416492223739624023e-01,-7.062390446662902832e-01,7.620708942413330078e-01,6.337933540344238281e-01,-1.442027807235717773e+00,-7.435629367828369141e-01,-4.634421467781066895e-01,6.849920153617858887e-01,5.902814269065856934e-01,-7.298937998712062836e-03
7.274072766304016113e-01,1.190774917602539062e+00,4.148858487606048584e-01,-1.274724900722503662e-01,3.464464843273162842e-01,-8.875240385532379150e-02,3.940922319889068604e-01,3.743956089019775391e-01,-1.416999459266662598e+00,-7.893143892288208008e-01,5.916101485490798950e-02,2.972369492053985596e-01,8.215206861495971680e-02,-7.571892142295837402e-01
1.133569955825805664e+00,9.847802519798278809e-01,5.496999025344848633e-01,3.223204016685485840e-01,7.507990598678588867e-01,3.429604172706604004e-01,-1.584963649511337280e-01,3.089258968830108643e-01,-9.998967051506042480e-01,-6.851658225059509277e-01,4.992023408412933350e-01,-3.747120797634124756e-01,-5.489021539688110352e-01,-1.051628470420837402e+00
1.052432894706726074e+00,5.623615980148315430e-01,1.125097051262855530e-01,9.300040602684020996e-01,1.257142782211303711e+00,4.735991656780242920e-01,-2.587612271308898926e-01,-2.972773015499114990e-01,-4.050476849079132080e-01,-4.210413992404937744e-01,1.167066216468811035e+00,-1.048972368240356445e+00,-3.918401002883911133e-01,-1.727523088455200195e+00
8.752667307853698730e-01,-2.304429262876510620e-01,-2.339841723442077637e-01,9.261699914932250977e-01,8.803231120109558105e-01,7.345981001853942871e-01,-5.829463601112365723e-01,-1.043205142021179199e+00,5.955840945243835449e-01,2.633203268051147461e-01,1.112990021705627441e+00,-1.202388048171997070e+00,-6.222701072692871094e-01,-1.649066925048828125e+00
4.952595829963684082e-01,-7.127285599708557129e-01,-7.761395573616027832e-01,5.963165760040283203e-01,4.062091410160064697e-01,4.720201790332794189e-01,-2.663244903087615967e-01,-9.413945674896240234e-01,8.862226605415344238e-01,5.868651270866394043e-01,9.919774532318115234e-01,-1.391548871994018555e+00,4.893358051776885986e-02,-1.085780978202819824e+00
-1.317956857383251190e-02,-1.060828804969787598e+00,-1.065406918525695801e+00,4.422748684883117676e-01,-1.689441949129104614e-01,3.542218506336212158e-01,2.501977980136871338e-01,-1.077831268310546875e+00,1.025982260704040527e+00,9.116764068603515625e-01,7.717655897140502930e-01,-1.358064651489257812e+00,3.920013010501861572e-01,-4.328513443470001221e-01
-7.221553325653076172e-01,-8.603173494338989258e-01,-1.242592453956604004e+00,3.400158509612083435e-02,-4.566445946693420410e-01,1.476974487304687500e-01,7.228870987892150879e-01,-6.209660768508911133e-01,7.874720096588134766e-01,5.856673121452331543e-01,-2.593836374580860138e-02,-6.090992689132690430e-01,8.347347378730773926e-01,2.201801389455795288e-01
-1.027884602546691895e+00,-7.588195800781250000e-01,-6.122053265571594238e-01,-3.531245589256286621e-01,-6.848104596138000488e-01,-4.023648202419281006e-01,1.083106994628906250e+00,2.678225934505462646e-01,1.517525613307952881e-01,1.569412797689437866e-01,-9.994195699691772461e-01,1.962996274232864380e-02,1.245966076850891113e+00,1.147020816802978516e+00
-8.290768265724182129e-01,-5.345956683158874512e-01,-8.069121278822422028e-03,-8.320626020431518555e-01,-4.893778264522552490e-01,-2.516306042671203613e-01,1.013375759124755859e+00,5.324701666831970215e-01,-4.741102457046508789e-01,-3.153445422649383545e-01,-1.357603549957275391e+00,4.138697385787963867e-01,1.085054874420166016e+00,1.301268100738525391e+00
-5.940376520156860352e-01,3.444341719150543213e-01,3.511283695697784424e-01,-1.045348525047302246e+00,-1.753156483173370361e-01,-2.738039195537567139e-01,8.527824878692626953e-01,1.137371301651000977e+00,-9.343832135200500488e-01,-6.186516880989074707e-01,-1.814368963241577148e+00,9.205640554428100586e-01,6.354546546936035156e-01,1.250273823738098145e+00
-2.241655737161636353e-01,8.920739293098449707e-01,1.060973048210144043e+00,-1.087729573249816895e+00,3.908870220184326172e-01,-1.203345432877540588e-01,1.946290880441665649e-01,1.341988682746887207e+00,-1.106378912925720215e+00,-9.853610396385192871e-01,-1.535435080528259277e+00,8.174661397933959961e-01,1.762564182281494141e-01,9.117317795753479004e-01
2.818215787410736084e-01,1.187016367912292480e+00,1.326192617416381836e+00,-6.558721065521240234e-01,1.005651235580444336e+00,3.421104848384857178e-01,-2.565475106239318848e-01,1.116819262504577637e+00,-7.837731838226318359e-01,-9.741653203964233398e-01,-1.014445781707763672e+00,3.506186306476593018e-01,-6.647882461547851562e-01,1.384603679180145264e-01
6.133801341056823730e-01,1.615128636360168457e+00,1.099522829055786133e+00,-3.059230744838714600e-01,1.390740156173706055e+00,7.919433116912841797e-01,-9.291928410530090332e-01,6.794355511665344238e-01,-3.732678890228271484e-01,-5.164192914962768555e-01,-5.883601307868957520e-01,-1.581038385629653931e-01,-9.546467661857604980e-01,-4.630379974842071533e-01
1.187094688415527344e+00,1.338652133941650391e+00,6.574301719665527344e-01,3.665215671062469482e-01,1.524946212768554688e+00,9.762364625930786133e-01,-1.202547550201416016e+00,-1.305080354213714600e-01,1.994599997997283936e-01,-7.375089824199676514e-02,6.909642368555068970e-02,-7.585834264755249023e-01,-9.177929759025573730e-01,-8.634396791458129883e-01
1.446520328521728516e+00,7.936128377914428711e-01,2.098851203918457031e-01,6.933013796806335449e-01,1.192430257797241211e+00,1.107025504112243652e+00,-1.117277741432189941e+00,-6.698874831199645996e-01,6.517188549041748047e-01,5.915206670761108398e-01,5.836573839187622070e-01,-1.035248637199401855e+00,-8.155493736267089844e-01,-6.557186245918273926e-01
1.060405373573303223e+00,3.699336051940917969e-01,-1.957989633083343506e-01,9.360970258712768555e-01,4.768558442592620850e-01,9.595111608505249023e-01,-9.673083424568176270e-01,-1.050619959831237793e+00,1.144783616065979004e+00,9.363374114036560059e-01,5.948076248168945312e-01,-6.418591141700744629e-01,-2.537624537944793701e-01,-3.627435863018035889e-01
7.892557978630065918e-01,-2.639728188514709473e-01,-8.887959122657775879e-01,9.228901267051696777e-01,-1.824072450399398804e-01,3.889160156250000000e-01,-3.162274360656738281e-01,-1.113983273506164551e+00,8.841247558593750000e-01,9.101204276084899902e-01,8.194294571876525879e-01,-3.102607727050781250e-01,2.007632702589035034e-01,1.589020788669586182e-01
-7.312748581171035767e-02,-7.258337736129760742e-01,-1.075831532478332520e+00,7.770082950592041016e-01,-6.798986792564392090e-01,-1.233426406979560852e-01,2.193709909915924072e-01,-6.158202290534973145e-01,3.968563675880432129e-01,9.077757596969604492e-01,4.383580088615417480e-01,1.601761281490325928e-01,9.011877775192260742e-01,8.212304115295410156e-01
-6.588023900985717773e-01,-1.241543412208557129e+00,-7.508625984191894531e-01,1.660956740379333496e-01,-1.140935182571411133e+00,-5.251311063766479492e-01,6.996567845344543457e-01,-1.800991892814636230e-01,-2.531535029411315918e-01,4.661840200424194336e-01,-1.648069173097610474e-01,8.900531530380249023e-01,8.079931139945983887e-01,1.277926206588745117e+00
-1.237515211105346680e+00,-1.041462182998657227e+00,-3.901757895946502686e-01,-4.391537308692932129e-01,-1.197532653808593750e+00,-9.869213104248046875e-01,9.997583627700805664e-01,2.936143577098846436e-01,-8.433101177215576172e-01,5.544166266918182373e-02,-6.568863987922668457e-01,1.083478450775146484e+00,8.667222857475280762e-01,1.053880691528320312e+00
-1.273576021194458008e+00,-1.156020045280456543e+00,2.778367400169372559e-01,-1.005738615989685059e+00,-6.830477714538574219e-01,-9.928489923477172852e-01,6.399689912796020508e-01,1.256551742553710938e+00,-1.182361364364624023e+00,-2.501477599143981934e-01,-6.422109007835388184e-01,1.084724545478820801e+00,4.864591062068939209e-01,9.535759687423706055e-01
-1.299597859382629395e+00,-5.904259681701660156e-01,8.096066117286682129e-01,-1.189456462860107422e+00,-2.195340245962142944e-01,-8.508092164993286133e-01,2.665989398956298828e-01,1.073006749153137207e+00,-1.218385100364685059e+00,-2.620629072189331055e-01,-6.793065667152404785e-01,1.117365121841430664e+00,1.114593297243118286e-01,2.336963266134262085e-01
-1.082586169242858887e+00,-2.703859470784664154e-02,8.934387564659118652e-01,-1.323590874671936035e+00,6.047149300575256348e-01,-5.408661961555480957e-01,-3.816327452659606934e-01,1.118194222450256348e+00,-4.850713014602661133e-01,-1.838863044977188110e-01,-2.512664496898651123e-01,5.548525452613830566e-01,-5.510337352752685547e-01,-2.660692930221557617e-01
-7.321494221687316895e-01,2.910371720790863037e-01,8.971274495124816895e-01,-1.004020333290100098e+00,1.185051560401916504e+00,-1.244786679744720459e-01,-7.238271236419677734e-01,7.550985217094421387e-01,7.286237925291061401e-02,1.548569798469543457e-01,5.063872337341308594e-01,-1.950398683547973633e-01,-8.314369916915893555e-01,-8.082184195518493652e-01
-1.450747698545455933e-01,6.227639913558959961e-01,7.803856134414672852e-01,-5.680929422378540039e-01,1.250212073326110840e+00,2.288837730884552002e-01,-1.005541443824768066e+00,-9.683305770158767700e-02,9.187418222427368164e-01,5.836922526359558105e-01,1.083529233932495117e+00,-6.797956228256225586e-01,-1.048583865165710449e+00,-1.123322010040283203e+00
3.079145550727844238e-01,5.655585527420043945e-01,2.150807529687881470e-01,6.808041036128997803e-02,1.262170910835266113e+00,4.185605943202972412e-01,-7.711056470870971680e-01,-5.847428441047668457e-01,1.322279095649719238e+00,8.332186937332153320e-01,1.478246092796325684e+00,-1.044429779052734375e+00,-8.269300460815429688e-01,-1.058963179588317871e+00
6.400259733200073242e-01,2.321446686983108521e-01,-2.300592809915542603e-01,6.874494552612304688e-01,9.760904312133789062e-01,4.199322760105133057e-01,-6.315531134605407715e-01,-6.119555234909057617e-01,1.442151784896850586e+00,9.738688468933105469e-01,1.559876918792724609e+00,-1.004005551338195801e+00,-3.343694508075714111e-01,-7.660543322563171387e-01
5.181806087493896484e-01,-4.418090879917144775e-01,-5.837117433547973633e-01,1.389319181442260742e+00,1.519709825515747070e-01,7.789185643196105957e-02,2.953522605821490288e-03,-7.120564579963684082e-01,1.191351532936096191e+00,6.806975603103637695e-01,1.413016557693481445e+00,-6.049085855484008789e-01,-1.300238966941833496e-01,2.818452715873718262e-01
2.996682822704315186e-01,-8.960663080215454102e-01,-7.826260328292846680e-01,1.589090228080749512e+00,-5.148056149482727051e-01,-1.241698041558265686e-01,6.101244091987609863e-01,-2.912189960479736328e-01,5.815443396568298340e-01,3.649800717830657959e-01,9.825845360755920410e-01,-1.508850790560245514e-02,4.130038321018218994e-01,7.485768795013427734e-01
3.943597897887229919e-03,-1.117409825325012207e+00,-5.461352467536926270e-01,1.503367304801940918e+00,-1.156619310379028320e+00,-7.506390810012817383e-01,8.716297745704650879e-01,4.338377118110656738e-01,-1.099729165434837341e-01,-4.607066810131072998e-01,1.582969725131988525e-01,5.824894905090332031e-01,5.948636531829833984e-01,1.297019004821777344e+00
-3.863765001296997070e-01,-1.293144464492797852e+00,-4.381976276636123657e-02,1.221238136291503906e+00,-1.193869590759277344e+00,-8.733073472976684570e-01,1.054434657096862793e+00,9.271228313446044922e-01,-5.561060905456542969e-01,-8.595180511474609375e-01,-4.296546876430511475e-01,1.022826910018920898e+00,4.966495335102081299e-01,1.244094371795654297e+00
-7.979982495307922363e-01,-1.247565269470214844e+00,5.026538372039794922e-01,7.062626481056213379e-01,-8.939845561981201172e-01,-9.173502922058105469e-01,6.313968896865844727e-01,1.301641583442687988e+00,-8.687940835952758789e-01,-1.063986539840698242e+00,-1.089271187782287598e+00,1.039427995681762695e+00,3.749449551105499268e-02,1.121420860290527344e+00
-6.938406229019165039e-01,-5.496674180030822754e-01,9.457406401634216309e-01,-2.541223540902137756e-02,-3.767850399017333984e-01,-5.962091088294982910e-01,7.708638906478881836e-02,1.236177206039428711e+00,-6.011193394660949707e-01,-1.160302042961120605e+00,-1.309001803398132324e+00,6.775848865509033203e-01,-5.948629975318908691e-01,5.907704830169677734e-01
-6.494639515876770020e-01,1.258639395236968994e-01,1.250166058540344238e+00,-4.455816745758056641e-01,3.260003626346588135e-01,-2.113953828811645508e-01,-3.985226154327392578e-01,1.112958788871765137e+00,-2.259513437747955322e-01,-1.115781664848327637e+00,-1.269895553588867188e+00,4.274028837680816650e-01,-9.370804429054260254e-01,-2.224064022302627563e-01
-4.100281894207000732e-01,7.663641571998596191e-01,1.095343708992004395e+00,-6.618265509605407715e-01,6.288408041000366211e-01,2.825433313846588135e-01,-1.137729287147521973e+00,2.616064548492431641e-01,4.176490008831024170e-01,-3.946652114391326904e-01,-8.840093612670898438e-01,-2.991239428520202637e-01,-1.301170825958251953e+00,-7.113597393035888672e-01
1.650026887655258179e-01,1.303758382797241211e+00,7.279083728790283203e-01,-6.240173578262329102e-01,9.111943244934082031e-01,7.457246780395507812e-01,-1.030758142471313477e+00,-5.784239768981933594e-01,6.639156937599182129e-01,2.750072628259658813e-03,-2.307020723819732666e-01,-8.338872194290161133e-01,-1.070416092872619629e+00,-1.112080931663513184e+00
7.776173353195190430e-01,1.746376276016235352e+00,8.507148176431655884e-02,-5.700709223747253418e-01,6.290466189384460449e-01,9.485080242156982422e-01,-8.629761338233947754e-01,-1.032997250556945801e+00,7.546645998954772949e-01,5.849514603614807129e-01,5.504336953163146973e-01,-9.018998742103576660e-01,-4.563187062740325928e-01,-8.850991129875183105e-01
1.336172461509704590e+00,1.908865451812744141e+00,-5.798668861389160156e-01,-6.841108947992324829e-02,2.246520668268203735e-02,9.442946314811706543e-01,-2.567960321903228760e-01,-1.546177029609680176e+00,6.976100802421569824e-01,5.110139846801757812e-01,6.831314563751220703e-01,-7.600600123405456543e-01,1.423537433147430420e-01,-5.074097514152526855e-01
1.632558822631835938e+00,1.670009374618530273e+00,-1.176095366477966309e+00,8.315864205360412598e-02,-4.115896821022033691e-01,9.635549783706665039e-01,3.247259855270385742e-01,-1.339926838874816895e+00,-1.249734833836555481e-01,3.088552355766296387e-01,6.471288800239562988e-01,-5.735882520675659180e-01,8.608275651931762695e-01,-1.071670800447463989e-01
1.629974722862243652e+00,8.256196975708007812e-01,-1.498117566108703613e+00,5.271075963973999023e-01,-1.363788366317749023e+00,3.924266397953033447e-01,9.396364092826843262e-01,-1.156474590301513672e+00,-7.924485206604003906e-01,-1.446306705474853516e-01,4.121729731559753418e-01,7.435768842697143555e-02,1.226646900177001953e+00,4.448790252208709717e-01
1.571884155273437500e+00,2.074607014656066895e-01,-1.360461711883544922e+00,7.221836447715759277e-01,-1.780867815017700195e+00,-9.652511030435562134e-02,1.294859528541564941e+00,-6.875924468040466309e-01,-1.396598815917968750e+00,-3.175282180309295654e-01,-2.354172468185424805e-01,5.329308509826660156e-01,1.458733320236206055e+00,7.802041769027709961e-01
9.615124464035034180e-01,-1.353855580091476440e-01,-9.450844526290893555e-01,6.826595067977905273e-01,-1.644003629684448242e+00,-6.802946329116821289e-01,1.048798084259033203e+00,-9.766533970832824707e-02,-1.809827685356140137e+00,-9.620622396469116211e-01,-6.582784056663513184e-01,9.523324370384216309e-01,1.115686893463134766e+00,6.042475700378417969e-01
5.348637700080871582e-01,-4.394001066684722900e-01,-6.034941077232360840e-01,3.115342557430267334e-01,-1.381981134414672852e+00,-5.441697239875793457e-01,7.439659237861633301e-01,3.481907248497009277e-01,-1.795351386070251465e+00,-8.957815170288085938e-01,-9.342466592788696289e-01,8.354508280754089355e-01,7.036595940589904785e-01,2.933647632598876953e-01
-2.886985242366790771e-01,-8.357583880424499512e-01,-2.098650857806205750e-02,-1.829495728015899658e-01,-8.526381850242614746e-01,-6.982293725013732910e-01,5.178474187850952148e-01,4.760991334915161133e-01,-1.344398379325866699e+00,-5.531142354011535645e-01,-1.015601515769958496e+00,4.241530299186706543e-01,3.671661391854286194e-02,-4.788769185543060303e-01
-7.237691879272460938e-01,-8.087871670722961426e-01,4.679077863693237305e-01,-9.812678694725036621e-01,-9.488304145634174347e-03,-4.527574777603149414e-01,-4.934692382812500000e-02,2.715333998203277588e-01,-4.296949803829193115e-01,1.114083826541900635e-02,-8.513268828392028809e-01,-6.406506896018981934e-02,4.380259662866592407e-03,-1.340109944343566895e+00
-1.027305364608764648e+00,-2.221611589193344116e-01,3.642048835754394531e-01,-1.052748322486877441e+00,9.157885313034057617e-01,-8.970432914793491364e-03,-3.084923028945922852e-01,-1.194826290011405945e-01,3.768966794013977051e-01,3.965918421745300293e-01,-4.581583440303802490e-01,-5.924188494682312012e-01,-4.791706204414367676e-01,-1.783167004585266113e+00
-9.145822525024414062e-01,6.020468473434448242e-01,9.933961182832717896e-02,-1.790069818496704102e+00,1.088706851005554199e+00,5.883314609527587891e-01,-5.451965332031250000e-01,-8.404799699783325195e-01,7.107083201408386230e-01,7.722982168197631836e-01,1.151955053210258484e-01,-1.257187008857727051e+00,-4.504983723163604736e-01,-1.857827901840209961e+00
-6.309058666229248047e-01,5.973347425460815430e-01,-3.014038801193237305e-01,-1.674071431159973145e+00,1.270392179489135742e+00,9.222405552864074707e-01,-3.878015279769897461e-01,-1.140446543693542480e+00,1.208590149879455566e+00,9.464961290359497070e-01,5.735586881637573242e-01,-1.433345913887023926e+00,8.821985870599746704e-02,-1.519957184791564941e+00
-4.386706948280334473e-01,8.959420323371887207e-01,-9.518876075744628906e-01,-1.383420467376708984e+00,8.792791366577148438e-01,7.907912731170654297e-01,2.436285018920898438e-01,-1.245203852653503418e+00,7.668377757072448730e-01,8.231905102729797363e-01,1.105206966400146484e+00,-1.245937466621398926e+00,3.847427666187286377e-01,-8.837447762489318848e-01
3.981703519821166992e-02,7.436935901641845703e-01,-1.049384474754333496e+00,-9.320381283760070801e-01,5.256094932556152344e-01,5.482763648033142090e-01,5.432052016258239746e-01,-9.353730082511901855e-01,4.085885286331176758e-01,3.458070755004882812e-01,9.825081825256347656e-01,-7.554133534431457520e-01,6.472298502922058105e-01,-6.643144786357879639e-02
5.481076836585998535e-01,3.654298484325408936e-01,-1.136890769004821777e+00,-3.104062080383300781e-01,-2.566169947385787964e-02,2.974850833415985107e-01,8.603478670120239258e-01,-4.224278330802917480e-01,-2.484869360923767090e-01,-3.382370769977569580e-01,1.034007430076599121e+00,9.900107979774475098e-02,7.848097681999206543e-01,8.215301632881164551e-01
3.606254458427429199e-01,-1.373788863420486450e-01,-7.485486268997192383e-01,5.733222365379333496e-01,-2.891417741775512695e-01,-2.440481185913085938e-01,7.821681499481201172e-01,4.036151170730590820e-01,-4.635696709156036377e-01,-2.779729962348937988e-01,4.983974397182464600e-01,6.084100604057312012e-01,8.833843469619750977e-01,1.042212247848510742e+00
4.646929204463958740e-01,-6.433951258659362793e-01,-3.759878277778625488e-01,1.100048780441284180e+00,-4.784255921840667725e-01,-4.213414192199707031e-01,4.707001745700836182e-01,1.071292877197265625e+00,-6.939155459403991699e-01,-8.749448060989379883e-01,-1.364465951919555664e-01,1.011771798133850098e+00,3.412788212299346924e-01,1.337666630744934082e+00
1.481541991233825684e-01,-1.319020509719848633e+00,5.662618279457092285e-01,1.363563299179077148e+00,-3.790783286094665527e-01,-5.151699781417846680e-01,4.291110672056674957e-03,1.456890702247619629e+00,1.571241184137761593e-03,-8.298636078834533691e-01,-5.718212127685546875e-01,9.338411688804626465e-01,-2.295332998037338257e-01,7.956296205520629883e-01
-3.723483979701995850e-01,-1.640309810638427734e+00,9.152061343193054199e-01,1.451018571853637695e+00,1.065634712576866150e-01,-7.737626433372497559e-01,-4.517927765846252441e-01,1.611868143081665039e+00,4.196076691150665283e-01,-7.125644683837890625e-01,-1.070597052574157715e+00,9.281458258628845215e-01,-9.168564081192016602e-01,2.469684034585952759e-01
-7.931972146034240723e-01,-1.546259880065917969e+00,1.364326357841491699e+00,1.326187968254089355e+00,7.868127822875976562e-01,-1.639507710933685303e-01,-1.202802300453186035e+00,1.174557089805603027e+00,1.111229658126831055e+00,-8.453234285116195679e-02,-1.119210720062255859e+00,5.073705315589904785e-01,-1.094120860099792480e+00,-3.070731461048126221e-01
-1.357698440551757812e+00,-1.333124399185180664e+00,1.268974065780639648e+00,7.010763883590698242e-01,1.176332831382751465e+00,6.719319522380828857e-02,-1.346852779388427734e+00,6.567217707633972168e-01,1.635195374488830566e+00,2.463190853595733643e-01,-7.541114687919616699e-01,-6.427340209484100342e-02,-1.276843786239624023e+00,-6.582530736923217773e-01
-1.287445783615112305e+00,-7.914489507675170898e-01,8.925576806068420410e-01,3.080124557018280029e-01,1.680214405059814453e+00,6.496992707252502441e-01,-1.426096081733703613e+00,-1.497703343629837036e-01,1.791244387626647949e+00,8.992882966995239258e-01,-2.485419362783432007e-01,-5.721252560615539551e-01,-1.100501060485839844e+00,-5.619962811470031738e-01
-1.309216737747192383e+00,-4.052212238311767578e-01,5.223022103309631348e-01,-2.931593656539916992e-01,1.577845811843872070e+00,7.359985113143920898e-01,-1.085541844367980957e+00,-4.871596395969390869e-01,1.466523528099060059e+00,7.003598809242248535e-01,4.661880135536193848e-01,-5.583240389823913574e-01,-6.550960540771484375e-01,-8.960856497287750244e-02
-7.014210820198059082e-01,5.343905687332153320e-01,-1.522763967514038086e-01,-5.928231477737426758e-01,9.222496151924133301e-01,9.341158270835876465e-01,-6.139895915985107422e-01,-8.580541610717773438e-01,8.000764250755310059e-01,7.219949960708618164e-01,8.791470527648925781e-01,-1.733404844999313354e-01,1.506270915269851685e-01,6.275057196617126465e-01
-7.933363318443298340e-02,1.062702059745788574e+00,-4.736092388629913330e-01,-5.084531307220458984e-01,1.918855309486389160e-01,6.542427539825439453e-01,-1.288597122766077518e-03,-6.266860365867614746e-01,-2.123547792434692383e-01,2.957650721073150635e-01,1.431147694587707520e+00,1.342990100383758545e-01,6.372075676918029785e-01,9.602534770965576172e-01
4.887996912002563477e-01,1.176558375358581543e+00,-7.967618703842163086e-01,-1.238474249839782715e-01,-5.016857385635375977e-01,5.009188652038574219e-01,6.460147500038146973e-01,-2.241738289594650269e-01,-8.955276608467102051e-01,-3.983466420322656631e-03,1.358713269233703613e+00,8.519845008850097656e-01,7.275628447532653809e-01,1.598373293876647949e+00
1.017456293106079102e+00,1.110906958580017090e+00,-6.260942220687866211e-01,1.983744949102401733e-01,-8.598358035087585449e-01,-2.139080315828323364e-01,6.345317363739013672e-01,2.554102540016174316e-01,-1.391786456108093262e+00,-3.338951766490936279e-01,8.014153838157653809e-01,1.052979707717895508e+00,9.238904714584350586e-01,1.550692200660705566e+00
1.324381232261657715e+00,8.427085280418395996e-01,-3.130656480789184570e-01,6.257659792900085449e-01,-1.301757812500000000e+00,-5.986628532409667969e-01,5.255834460258483887e-01,6.327700018882751465e-01,-1.394821882247924805e+00,-4.983562231063842773e-01,2.254002541303634644e-01,1.303158760070800781e+00,5.258684754371643066e-01,1.381169676780700684e+00
1.210136055946350098e+00,2.189692705869674683e-01,2.085452377796173096e-01,8.503687977790832520e-01,-1.141259312629699707e+00,-9.125663042068481445e-01,1.175516471266746521e-01,1.130176186561584473e+00,-1.025320529937744141e+00,-3.168695867061614990e-01,-1.596001535654067993e-01,1.133822202682495117e+00,2.172533050179481506e-02,7.185655236244201660e-01
9.780302643775939941e-01,-4.530752003192901611e-01,5.486135482788085938e-01,1.150954246520996094e+00,-1.021501302719116211e+00,-9.639858007431030273e-01,-1.599537134170532227e-01,1.157128691673278809e+00,-4.476252198219299316e-01,1.477322876453399658e-01,-5.756790041923522949e-01,6.091713905334472656e-01,-4.772321581840515137e-01,-3.062272965908050537e-01
4.668107926845550537e-01,-7.951041460037231445e-01,8.487138748168945312e-01,8.437656164169311523e-01,-2.359272241592407227e-01,-8.811598420143127441e-01,-5.160183906555175781e-01,8.999499678611755371e-01,5.096961557865142822e-02,6.229916810989379883e-01,-7.874577045440673828e-01,-2.851957269012928009e-02,-9.025506377220153809e-01,-8.911607265472412109e-01
-3.962751477956771851e-03,-8.357121944427490234e-01,9.005679488182067871e-01,6.889053583145141602e-01,3.208300471305847168e-01,-6.233128309249877930e-01,-5.697116851806640625e-01,1.383604109287261963e-01,5.679421424865722656e-01,8.072749376296997070e-01,-7.935178279876708984e-01,-6.014339923858642578e-01,-1.006929039955139160e+00,-1.201042056083679199e+00
-3.832908272743225098e-01,-7.303864359855651855e-01,6.647656559944152832e-01,-1.079794671386480331e-02,5.731931328773498535e-01,-2.387426644563674927e-01,-4.065357446670532227e-01,-1.258269697427749634e-01,4.891993999481201172e-01,8.841665983200073242e-01,-1.749576628208160400e-01,-1.243381023406982422e+00,-6.846280097961425781e-01,-1.274472236633300781e+00
-7.698503732681274414e-01,-5.607798695564270020e-01,1.850982010364532471e-01,-4.180203080177307129e-01,9.447275400161743164e-01,2.223567366600036621e-01,2.901554666459560394e-02,-8.315049409866333008e-01,3.035012185573577881e-01,7.821502089500427246e-01,2.862325906753540039e-01,-1.520846843719482422e+00,-1.433101594448089600e-01,-7.458721995353698730e-01
-8.134039640426635742e-01,6.425224244594573975e-03,-3.763414323329925537e-01,-1.105563163757324219e+00,6.268320083618164062e-01,2.692057490348815918e-01,4.549045860767364502e-01,-8.266044855117797852e-01,-2.379906624555587769e-01,2.572874724864959717e-01,5.513947606086730957e-01,-1.140225291252136230e+00,4.033933877944946289e-01,-2.389426827430725098e-01
-6.108208298683166504e-01,5.065088868141174316e-01,-7.437022328376770020e-01,-1.208213210105895996e+00,2.197399139404296875e-01,6.298310756683349609e-01,7.796318531036376953e-01,-5.958354473114013672e-01,-9.159355163574218750e-01,-3.466598689556121826e-01,8.439335823059082031e-01,-6.902647018432617188e-01,8.581880331039428711e-01,4.310674369335174561e-01
-3.531223535537719727e-01,8.773834705352783203e-01,-8.799627423286437988e-01,-1.566019654273986816e+00,-2.311065793037414551e-01,4.195958748459815979e-02,1.274452209472656250e+00,-3.648325502872467041e-01,-1.478031396865844727e+00,-8.729250431060791016e-01,7.217068076133728027e-01,-2.434403449296951294e-01,8.287429809570312500e-01,7.976638078689575195e-01
1.766002327203750610e-01,1.163952708244323730e+00,-7.716698646545410156e-01,-1.441134333610534668e+00,-6.648594737052917480e-01,-1.530036795884370804e-02,1.137211084365844727e+00,4.762195348739624023e-01,-1.395694613456726074e+00,-1.078062176704406738e+00,3.213041424751281738e-01,-2.712802216410636902e-02,6.643676757812500000e-01,1.091840624809265137e+00
5.961271524429321289e-01,9.458280801773071289e-01,-1.521087586879730225e-01,-8.423531055450439453e-01,-1.240656614303588867e+00,-5.390235781669616699e-01,8.453873991966247559e-01,8.922123908996582031e-01,-1.009004235267639160e+00,-1.087098240852355957e+00,-1.449770480394363403e-01,4.253427982330322266e-01,1.989697515964508057e-01,5.266215205192565918e-01
9.418827891349792480e-01,6.907655596733093262e-01,5.340939164161682129e-01,-2.245468646287918091e-01,-1.184367775917053223e+00,-6.517809033393859863e-01,2.323276996612548828e-01,1.318194389343261719e+00,-3.127416074275970459e-01,-1.080386877059936523e+00,-9.182584881782531738e-01,2.749882042407989502e-01,-2.921135425567626953e-01,8.338402956724166870e-02
1.071851134300231934e+00,2.407720834016799927e-01,9.337822794914245605e-01,3.334870934486389160e-01,-6.942347288131713867e-01,-9.078308939933776855e-01,-2.855896949768066406e-01,1.456699371337890625e+00,5.687124133110046387e-01,-4.649431109428405762e-01,-1.388381838798522949e+00,1.379257738590240479e-01,-8.396763801574707031e-01,-5.371484756469726562e-01
9.364666342735290527e-01,-5.380764007568359375e-01,9.489774107933044434e-01,7.122055292129516602e-01,-3.644149303436279297e-01,-3.880082070827484131e-01,-9.901375174522399902e-01,8.673852086067199707e-01,1.278960585594177246e+00,3.057782538235187531e-02,-1.621949911117553711e+00,-4.422266185283660889e-01,-7.015778422355651855e-01,-1.079573273658752441e+00
5.333440899848937988e-01,-6.962959170341491699e-01,1.193405508995056152e+00,1.112505912780761719e+00,5.666999816894531250e-01,-2.844526767730712891e-01,-1.081184864044189453e+00,2.584734857082366943e-01,1.460923671722412109e+00,4.252035617828369141e-01,-1.376040458679199219e+00,-1.056117534637451172e+00,-8.003385066986083984e-01,-1.219657540321350098e+00
-1.258243024349212646e-01,-9.043147563934326172e-01,7.329699993133544922e-01,9.094208478927612305e-01,8.345539569854736328e-01,3.604528009891510010e-01,-7.979518175125122070e-01,-3.419471979141235352e-01,1.325497746467590332e+00,5.002881288528442383e-01,-1.072402238845825195e+00,-1.038231253623962402e+00,-3.078411817550659180e-01,-1.077565670013427734e+00
-6.065775156021118164e-01,-9.114176034927368164e-01,1.155748590826988220e-01,7.270888090133666992e-01,1.146539807319641113e+00,7.789802551269531250e-01,-3.758775889873504639e-01,-1.026046514511108398e+00,5.819969773292541504e-01,3.667568564414978027e-01,-3.439267277717590332e-01,-8.155894279479980469e-01,5.223449468612670898e-01,-3.561187684535980225e-01
-8.357632756233215332e-01,-5.226033926010131836e-01,-3.612214028835296631e-01,2.421853691339492798e-01,8.365056514739990234e-01,1.089070081710815430e+00,2.666020691394805908e-01,-1.509938716888427734e+00,5.407268553972244263e-02,5.802928656339645386e-02,1.726060360670089722e-01,-6.330986618995666504e-01,8.565943241119384766e-01,9.825940430164337158e-02
-9.887070655822753906e-01,8.091747295111417770e-04,-1.112494349479675293e+00,-1.551508754491806030e-01,1.793527454137802124e-01,1.206648111343383789e+00,7.607466578483581543e-01,-1.444301366806030273e+00,-6.256065964698791504e-01,-4.850471913814544678e-01,9.960273504257202148e-01,3.317183852195739746e-01,1.346025824546813965e+00,8.590802550315856934e-01
-1.017154812812805176e+00,7.026611566543579102e-01,-1.314418315887451172e+00,-5.876875519752502441e-01,-4.968885779380798340e-01,9.381554126739501953e-01,1.146803379058837891e+00,-1.006655335426330566e+00,-1.085446596145629883e+00,-4.692088961601257324e-01,1.382636666297912598e+00,9.369649291038513184e-01,1.425789117813110352e+00,1.104332566261291504e+00
-3.957671523094177246e-01,1.132489323616027832e+00,-1.245131611824035645e+00,-9.322492480278015137e-01,-9.916103482246398926e-01,5.586317181587219238e-01,9.597248435020446777e-01,-3.975162208080291748e-01,-9.506755471229553223e-01,-8.298271298408508301e-01,1.163035988807678223e+00,1.577333092689514160e+00,9.422740340232849121e-01,9.709264039993286133e-01
6.446527782827615738e-03,1.165443062782287598e+00,-8.461261987686157227e-01,-1.014374732971191406e+00,-1.512959241867065430e+00,7.535722851753234863e-02,5.220713019371032715e-01,9.055629372596740723e-02,-3.163157403469085693e-01,-5.362039208412170410e-01,9.053145647048950195e-01,1.570137262344360352e+00,6.395249962806701660e-01,5.501322150230407715e-01
7.802221179008483887e-01,1.239993810653686523e+00,-2.637230753898620605e-01,-7.583639025688171387e-01,-1.620852947235107422e+00,-2.207831293344497681e-01,1.061567366123199463e-01,3.911694586277008057e-01,1.666473299264907837e-01,7.190944999456405640e-02,3.411096930503845215e-01,1.455866098403930664e+00,4.227001219987869263e-02,3.119612485170364380e-02
8.641406297683715820e-01,9.901630282402038574e-01,1.150449290871620178e-01,-2.899438738822937012e-01,-1.078293204307556152e+00,-5.009773969650268555e-01,-3.008826375007629395e-01,4.944494664669036865e-01,8.455857634544372559e-01,4.688129723072052002e-01,-7.487203180789947510e-02,8.578346371650695801e-01,-5.629771351814270020e-01,-9.101781249046325684e-01
1.145618081092834473e+00,3.746731877326965332e-01,2.411884516477584839e-01,4.486157894134521484e-01,-4.788791239261627197e-01,-4.638154804706573486e-01,-8.374896049499511719e-01,3.529335260391235352e-01,1.184828042984008789e+00,1.071493029594421387e+00,-5.479572415351867676e-01,3.149181306362152100e-01,-6.099953651428222656e-01,-1.517092585563659668e+00
9.758941531181335449e-01,-4.568210840225219727e-01,4.713005125522613525e-01,8.199567794799804688e-01,4.459028244018554688e-01,-2.316041290760040283e-01,-8.891328573226928711e-01,-3.316501975059509277e-01,1.230593085289001465e+00,1.014959335327148438e+00,-4.708654284477233887e-01,-1.279925107955932617e-01,-7.272874116897583008e-01,-1.530335068702697754e+00
5.962145924568176270e-01,-8.540553450584411621e-01,2.826291024684906006e-01,1.363185286521911621e+00,1.079112887382507324e+00,-9.181689471006393433e-02,-4.703855514526367188e-01,-8.417105078697204590e-01,7.129420042037963867e-01,8.723862171173095703e-01,-2.648893594741821289e-01,-5.217499732971191406e-01,-3.790788948535919189e-01,-1.278169870376586914e+00
8.495554327964782715e-02,-1.219740271568298340e+00,-3.369212448596954346e-01,1.133711695671081543e+00,1.480465888977050781e+00,3.416047096252441406e-01,-2.959849834442138672e-01,-1.337135553359985352e+00,-1.374097168445587158e-01,3.056513965129852295e-01,3.777916729450225830e-01,-6.589548587799072266e-01,8.858211338520050049e-03,-8.487411737442016602e-01
-5.326520204544067383e-01,-1.291495203971862793e+00,-7.062203884124755859e-01,8.652674555778503418e-01,1.395975828170776367e+00,6.121556758880615234e-01,2.708972990512847900e-01,-1.259790658950805664e+00,-6.240993738174438477e-01,-6.557152420282363892e-02,9.885832667350769043e-01,-5.627860426902770996e-01,4.793270230293273926e-01,-1.668576849624514580e-03
-1.159022450447082520e+00,-1.286072611808776855e+00,-8.856787681579589844e-01,6.817103624343872070e-01,9.601065516471862793e-01,5.618490576744079590e-01,7.098044753074645996e-01,-9.591229557991027832e-01,-1.090154528617858887e+00,-6.017845273017883301e-01,1.224781632423400879e+00,-1.647445410490036011e-01,6.428362727165222168e-01,5.821579098701477051e-01
-1.327591657638549805e+00,-4.640385210514068604e-01,-1.213435173034667969e+00,3.594229370355606079e-02,3.892846703529357910e-01,3.770944178104400635e-01,9.013641476631164551e-01,-3.848446011543273926e-01,-1.180218458175659180e+00,-5.967232584953308105e-01,1.425934076309204102e+00,4.724096357822418213e-01,3.191923797130584717e-01,8.517236113548278809e-01
-1.340285062789916992e+00,-1.206505000591278076e-01,-9.790143370628356934e-01,-4.534734487533569336e-01,4.517448693513870239e-02,-2.137884311378002167e-02,4.774892628192901611e-01,5.019637942314147949e-01,-9.753146767616271973e-01,-8.239176273345947266e-01,1.082494497299194336e+00,9.093005061149597168e-01,-3.168978914618492126e-02,9.092839956283569336e-01
-1.291512131690979004e+00,4.058770537376403809e-01,-4.896079003810882568e-01,-8.812542557716369629e-01,-3.646658062934875488e-01,-3.240148723125457764e-01,6.961457431316375732e-02,1.090711236000061035e+00,-1.403027772903442383e-01,-4.886267781257629395e-01,4.544920921325683594e-01,7.884140610694885254e-01,-6.511349678039550781e-01,6.157777905464172363e-01
-6.447747945785522461e-01,7.069045901298522949e-01,3.410243690013885498e-01,-1.021077632904052734e+00,-3.502753078937530518e-01,-7.775498628616333008e-01,-4.569214284420013428e-01,1.575938344001770020e+00,5.447338223457336426e-01,1.150982081890106201e-02,-1.026459708809852600e-01,4.363295435905456543e-01,-1.016147494316101074e+00,1.170692667365074158e-01
-1.091788783669471741e-01,6.861719489097595215e-01,8.860779404640197754e-01,-7.976310849189758301e-01,-2.409976571798324585e-01,-1.118873000144958496e+00,-9.456816315650939941e-01,1.640205621719360352e+00,1.146569609642028809e+00,4.103381037712097168e-01,-8.242926597595214844e-01,-1.819413900375366211e-01,-1.354713559150695801e+00,-6.740544438362121582e-01
2.960662245750427246e-01,1.559501588344573975e-01,1.280543804168701172e+00,-4.398010671138763428e-01,2.734617590904235840e-01,-1.142336368560791016e+00,-1.414713621139526367e+00,1.346098303794860840e+00,1.255950331687927246e+00,8.088901042938232422e-01,-1.506795048713684082e+00,-4.668965637683868408e-01,-1.394109606742858887e+00,-9.486387372016906738e-01
7.539411783218383789e-01,-1.815731525421142578e-01,1.577383875846862793e+00,3.252844810485839844e-01,8.636904358863830566e-01,-9.315506815910339355e-01,-1.453344345092773438e+00,7.904065251350402832e-01,1.074923515319824219e+00,1.063921570777893066e+00,-1.705633401870727539e+00,-1.002413034439086914e+00,-1.061049103736877441e+00,-7.603605985641479492e-01
8.705885410308837891e-01,-6.705304384231567383e-01,1.312828898429870605e+00,7.938516139984130859e-01,1.029285430908203125e+00,-2.788459062576293945e-01,-8.891595005989074707e-01,-1.315001845359802246e-01,3.729732036590576172e-01,6.436808705329895020e-01,-1.453486084938049316e+00,-1.450563788414001465e+00,-4.479655623435974121e-01,-2.527709901332855225e-01
5.708555579185485840e-01,-9.643537998199462891e-01,7.737627625465393066e-01,9.772762656211853027e-01,1.479470849037170410e+00,1.212750449776649475e-01,-2.919116020202636719e-01,-4.709185063838958740e-01,-2.678784728050231934e-01,3.208385407924652100e-01,-8.692151308059692383e-01,-1.236829042434692383e+00,1.386690288782119751e-01,5.503294467926025391e-01
4.478184878826141357e-01,-1.148923397064208984e+00,1.325535774230957031e-01,1.347327113151550293e+00,1.221672296524047852e+00,4.089330434799194336e-01,1.583295911550521851e-01,-6.255279779434204102e-01,-1.075065135955810547e+00,-2.530361525714397430e-02,-3.759834766387939453e-01,-8.304606676101684570e-01,7.739968895912170410e-01,1.143547534942626953e+00
1.639217585325241089e-01,-1.183981657028198242e+00,-3.467670679092407227e-01,1.287519693374633789e+00,6.832914948463439941e-01,9.222331643104553223e-01,7.052967548370361328e-01,-4.687010943889617920e-01,-1.555688738822937012e+00,-5.467643737792968750e-01,3.379700183868408203e-01,-1.556462943553924561e-01,9.987400770187377930e-01,1.645657062530517578e+00
-1.757214069366455078e-01,-5.860676169395446777e-01,-5.862975716590881348e-01,8.552696704864501953e-01,8.781406283378601074e-02,6.359072923660278320e-01,1.087104201316833496e+00,-7.861179858446121216e-02,-1.151066899299621582e+00,-4.604632854461669922e-01,7.012808918952941895e-01,4.025229215621948242e-01,7.296988368034362793e-01,1.923603773117065430e+00
-7.368751764297485352e-01,-1.450003776699304581e-02,-5.251534581184387207e-01,3.836840093135833740e-01,-7.735253572463989258e-01,5.399206876754760742e-01,1.010355949401855469e+00,4.420391321182250977e-01,-7.424734830856323242e-01,-4.573216438293457031e-01,7.668797373771667480e-01,7.174283266067504883e-01,5.465543866157531738e-01,1.643905639648437500e+00
-6.007876396179199219e-01,8.628030419349670410e-01,-2.838068306446075439e-01,-3.762729167938232422e-01,-1.585202813148498535e+00,1.748867183923721313e-01,6.662054657936096191e-01,9.061226248741149902e-01,-1.638665944337844849e-01,-5.269648879766464233e-02,5.078665018081665039e-01,1.027870535850524902e+00,1.303361058235168457e-01,1.070936441421508789e+00
-4.028646349906921387e-01,1.256154537200927734e+00,2.554477155208587646e-01,-7.965653538703918457e-01,-1.525486469268798828e+00,-4.175023138523101807e-01,1.331899762153625488e-01,1.126324415206909180e+00,3.118199110031127930e-01,4.903926849365234375e-01,1.870723962783813477e-01,7.164115905761718750e-01,-4.632297754287719727e-01,8.245656639337539673e-02
2.268870174884796143e-02,1.667295217514038086e+00,5.069488286972045898e-01,-1.326970338821411133e+00,-1.517762780189514160e+00,-5.915884375572204590e-01,-3.627755939960479736e-01,9.344544410705566406e-01,8.091383576393127441e-01,8.520551919937133789e-01,-3.586764633655548096e-01,3.728727400302886963e-01,-7.054299712181091309e-01,-3.819585442543029785e-01
7.725740671157836914e-01,1.870663523674011230e+00,8.967687487602233887e-01,-1.465036749839782715e+00,-1.013343095779418945e+00,-5.675280094146728516e-01,-4.030431210994720459e-01,4.799997508525848389e-01,8.698168992996215820e-01,9.318258166313171387e-01,-6.686425805091857910e-01,-3.743637204170227051e-01,-4.771995246410369873e-01,-8.417542576789855957e-01
1.063050270080566406e+00,1.560418605804443359e+00,7.806869745254516602e-01,-1.213559627532958984e+00,-4.302198886871337891e-01,-5.931053757667541504e-01,-3.522196039557456970e-02,-2.314299494028091431e-01,3.143823444843292236e-01,5.413366556167602539e-01,-8.227803707122802734e-01,-6.266876459121704102e-01,-1.692020893096923828e-01,-8.924261331558227539e-01
1.537806034088134766e+00,8.708869814872741699e-01,4.126046895980834961e-01,-9.213330149650573730e-01,3.220098018646240234e-01,-3.051897585391998291e-01,-2.066113427281379700e-02,-8.672329783439636230e-01,-2.934696674346923828e-01,2.636390924453735352e-01,-7.091413736343383789e-01,-7.387275099754333496e-01,2.400755137205123901e-01,-5.624441504478454590e-01
1.419119954109191895e+00,3.301695287227630615e-01,-3.747824579477310181e-02,-2.114638984203338623e-01,5.055264830589294434e-01,1.037455052137374878e-01,7.442560195922851562e-01,-1.288584947586059570e+00,-7.236970067024230957e-01,-2.368332296609878540e-01,-3.498768508434295654e-01,-7.830759286880493164e-01,5.142819285392761230e-01,-3.461822867393493652e-01
1.334021925926208496e+00,-8.156967908143997192e-02,-3.450243771076202393e-01,1.414194256067276001e-01,5.083109736442565918e-01,4.501783251762390137e-01,9.989006519317626953e-01,-1.349606275558471680e+00,-1.319308042526245117e+00,-9.152242541313171387e-01,2.502514123916625977e-01,-2.433571368455886841e-01,1.222129106521606445e+00,4.315052628517150879e-01
9.034217596054077148e-01,-6.671903729438781738e-01,-9.485162496566772461e-01,4.349080622196197510e-01,6.955450177192687988e-01,6.763472557067871094e-01,1.301393747329711914e+00,-1.057233929634094238e+00,-1.132111549377441406e+00,-1.167259216308593750e+00,7.402434349060058594e-01,3.332393467426300049e-01,9.443556666374206543e-01,6.936690807342529297e-01
3.418360650539398193e-01,-1.017186522483825684e+00,-1.157437205314636230e+00,5.561079978942871094e-01,-1.145575791597366333e-01,7.300125956535339355e-01,1.333001255989074707e+00,-2.656017839908599854e-01,-5.306282043457031250e-01,-1.114423751831054688e+00,9.849377870559692383e-01,8.229442238807678223e-01,6.002505421638488770e-01,6.547624468803405762e-01
-2.702205181121826172e-01,-7.136396169662475586e-01,-9.058452248573303223e-01,5.572233200073242188e-01,-6.273385882377624512e-01,4.443204700946807861e-01,7.582561373710632324e-01,2.611144185066223145e-01,1.606487184762954712e-01,-9.534181952476501465e-01,1.148688912391662598e+00,1.109739899635314941e+00,1.052129417657852173e-01,2.925126850605010986e-01
-8.948166370391845703e-01,-5.982037186622619629e-01,-5.942161679267883301e-01,3.065052926540374756e-01,-1.201613783836364746e+00,3.473998010158538818e-01,1.668118089437484741e-01,8.049558401107788086e-01,6.859411597251892090e-01,-4.322031736373901367e-01,1.097235083580017090e+00,1.083028078079223633e+00,-4.966316819190979004e-01,-1.557368040084838867e-01
-1.190688014030456543e+00,5.522543564438819885e-02,-4.358096420764923096e-02,-5.195614099502563477e-01,-1.148481130599975586e+00,-3.609369099140167236e-01,-2.737215161323547363e-01,1.230078458786010742e+00,1.533551931381225586e+00,-6.614053249359130859e-02,3.853772282600402832e-01,6.351683735847473145e-01,-5.873932242393493652e-01,-9.693082571029663086e-01
-1.276375889778137207e+00,2.534357309341430664e-01,4.100852310657501221e-01,-6.067748665809631348e-01,-9.058779478073120117e-01,-7.270513176918029785e-01,-9.813350439071655273e-01,1.090357780456542969e+00,1.863713622093200684e+00,2.487578690052032471e-01,-7.289399951696395874e-02,3.144318759441375732e-01,-8.104594945907592773e-01,-1.353944301605224609e+00
-1.244168519973754883e+00,6.536845564842224121e-01,6.519365906715393066e-01,-9.688958525657653809e-01,-3.228506743907928467e-01,-7.459398508071899414e-01,-1.319202661514282227e+00,6.186685562133789062e-01,1.658461451530456543e+00,2.982586920261383057e-01,-5.667359828948974609e-01,-4.403462111949920654e-01,-5.047094821929931641e-01,-1.614619731903076172e+00
-8.043098449707031250e-01,5.202075242996215820e-01,8.404185771942138672e-01,-8.306642174720764160e-01,5.895006656646728516e-02,-6.508774161338806152e-01,-1.163980007171630859e+00,-9.533493220806121826e-02,9.768663644790649414e-01,2.742374241352081299e-01,-8.316153883934020996e-01,-1.134800791740417480e+00,-3.617280125617980957e-01,-1.382746934890747070e+00
-3.208261132240295410e-01,3.600588738918304443e-01,6.454481482505798340e-01,-6.242486238479614258e-01,8.566318750381469727e-01,-2.266778349876403809e-01,-6.526711583137512207e-01,-6.966895461082458496e-01,2.816876471042633057e-01,-5.618476495146751404e-02,-9.281939864158630371e-01,-1.034189820289611816e+00,2.782661914825439453e-01,-8.150267004966735840e-01
2.495422214269638062e-01,-2.002139016985893250e-02,2.562613487243652344e-01,-1.613681167364120483e-01,1.253971457481384277e+00,2.995460033416748047e-01,-2.040759623050689697e-01,-9.539851546287536621e-01,-4.360277950763702393e-01,-3.527449965476989746e-01,-7.606644034385681152e-01,-9.378899931907653809e-01,7.844479084014892578e-01,6.767333298921585083e-02
4.207907915115356445e-01,-7.429383993148803711e-01,-2.946396768093109131e-01,4.848318696022033691e-01,1.383360862731933594e+00,7.012351751327514648e-01,2.936670780181884766e-01,-1.307343721389770508e+00,-1.088506102561950684e+00,-6.496568918228149414e-01,4.122406616806983948e-02,-3.843813240528106689e-01,1.136069536209106445e+00,7.209923863410949707e-01
5.562982559204101562e-01,-1.144071817398071289e+00,-6.922708153724670410e-01,1.075178623199462891e+00,9.640236496925354004e-01,1.255834579467773438e+00,6.238145828247070312e-01,-1.139203906059265137e+00,-7.466698884963989258e-01,-6.483170986175537109e-01,3.422764539718627930e-01,4.416577517986297607e-02,1.156032085418701172e+00,9.435081481933593750e-01
1.941869407892227173e-01,-1.339333295822143555e+00,-1.163563728332519531e+00,1.579280257225036621e+00,4.408196508884429932e-01,1.251853585243225098e+00,6.582946181297302246e-01,-6.567738652229309082e-01,-3.891794383525848389e-01,-4.420947730541229248e-01,1.078997731208801270e+00,8.493534326553344727e-01,8.424169421195983887e-01,1.155625343322753906e+00
-7.728770375251770020e-02,-1.619099497795104980e+00,-9.373186230659484863e-01,1.626889586448669434e+00,-2.882171571254730225e-01,9.410046935081481934e-01,3.500269055366516113e-01,7.364381849765777588e-02,1.176070496439933777e-01,3.288165852427482605e-02,1.333152532577514648e+00,9.625163674354553223e-01,1.050208732485771179e-01,7.787539958953857422e-01
-5.348020792007446289e-01,-1.115958333015441895e+00,-5.812632441520690918e-01,1.720526337623596191e+00,-9.947320818901062012e-01,6.105758547782897949e-01,-2.124565094709396362e-01,4.523121714591979980e-01,6.643241643905639648e-01,5.492743253707885742e-01,1.449890971183776855e+00,1.006825685501098633e+00,-4.380635619163513184e-01,2.751322463154792786e-02
-9.753145575523376465e-01,-8.521482944488525391e-01,-1.946268081665039062e-01,1.265562295913696289e+00,-1.144794106483459473e+00,9.003061801195144653e-02,-5.812156796455383301e-01,6.201879382133483887e-01,7.714271545410156250e-01,9.325729608535766602e-01,1.063221812248229980e+00,6.773808598518371582e-01,-8.353018760681152344e-01,-4.168157577514648438e-01
-1.203692913055419922e+00,-2.546473145484924316e-01,2.432723790407180786e-01,7.420310378074645996e-01,-1.168574929237365723e+00,-3.209512233734130859e-01,-9.638736248016357422e-01,5.206096172332763672e-01,6.169583201408386230e-01,1.081784486770629883e+00,4.675258398056030273e-01,1.962327361106872559e-01,-1.152502894401550293e+00,-9.429093599319458008e-01
-1.079303264617919922e+00,4.583758115768432617e-01,5.375418066978454590e-01,-8.123849332332611084e-02,-6.793572902679443359e-01,-6.796512007713317871e-01,-9.814807772636413574e-01,-2.086464874446392059e-02,2.970179729163646698e-02,9.535341262817382812e-01,-3.989688754081726074e-01,-4.416933655738830566e-01,-9.204130768775939941e-01,-1.265162229537963867e+00
-7.840005755424499512e-01,1.057450175285339355e+00,5.973724126815795898e-01,-6.782364845275878906e-01,-3.130531404167413712e-03,-6.561171412467956543e-01,-7.656522989273071289e-01,-6.125578284263610840e-01,-7.371569275856018066e-01,6.557388305664062500e-01,-7.268285155296325684e-01,-7.185513377189636230e-01,-3.297296464443206787e-01,-1.043366312980651855e+00
-1.640304028987884521e-01,1.338106989860534668e+00,3.194040060043334961e-01,-1.311899423599243164e+00,6.804573535919189453e-01,-5.507656335830688477e-01,-1.664712578058242798e-01,-9.803481101989746094e-01,-1.315775156021118164e+00,1.501135826110839844e-01,-7.868653535842895508e-01,-1.072456002235412598e+00,7.385172694921493530e-02,-3.984390199184417725e-01
4.221961498260498047e-01,1.232204079627990723e+00,-1.160044744610786438e-01,-1.466599941253662109e+00,1.015632629394531250e+00,-1.179200187325477600e-01,2.486844509840011597e-01,-1.272863149642944336e+00,-1.730192899703979492e+00,-3.603885471820831299e-01,-9.689794182777404785e-01,-7.602014541625976562e-01,3.401285707950592041e-01,4.462024196982383728e-02
1.054321527481079102e+00,1.065438747406005859e+00,-6.022609472274780273e-01,-1.210481405258178711e+00,1.306173205375671387e+00,3.282329812645912170e-02,7.858471274375915527e-01,-1.068015098571777344e+00,-1.819138169288635254e+00,-5.101882219314575195e-01,-6.709316372871398926e-01,-2.005844712257385254e-01,5.191724896430969238e-01,6.931791901588439941e-01
1.589085102081298828e+00,3.826121389865875244e-01,-9.969394803047180176e-01,-9.774345755577087402e-01,1.019713997840881348e+00,4.343680143356323242e-01,9.930565357208251953e-01,-8.116010427474975586e-01,-1.476654410362243652e+00,-7.215979695320129395e-01,-1.412018537521362305e-01,9.221266210079193115e-02,3.031922280788421631e-01,1.042999863624572754e+00
1.645762205123901367e+00,-7.257572561502456665e-02,-1.094074130058288574e+00,-2.805521488189697266e-01,8.480069041252136230e-01,6.234008669853210449e-01,1.017316579818725586e+00,6.333839893341064453e-02,-2.827792465686798096e-01,-5.406210422515869141e-01,2.991279363632202148e-01,7.785263657569885254e-01,-7.045929878950119019e-02,7.703676819801330566e-01
1.319764494895935059e+00,-5.831860899925231934e-01,-1.207961082458496094e+00,1.909769922494888306e-01,2.279693186283111572e-01,2.333908677101135254e-01,4.547314643859863281e-01,7.691279053688049316e-01,3.610870242118835449e-01,6.961642205715179443e-02,3.976928889751434326e-01,7.505763173103332520e-01,-4.371098577976226807e-01,6.336845755577087402e-01
8.981237411499023438e-01,-1.041282296180725098e+00,-7.295868396759033203e-01,4.021500945091247559e-01,-5.677230954170227051e-01,4.668972687795758247e-04,-1.551787257194519043e-01,1.194847106933593750e+00,7.228916287422180176e-01,5.008707046508789062e-01,6.984348893165588379e-01,6.090437769889831543e-01,-1.097505211830139160e+00,-6.938171386718750000e-02
4.142219126224517822e-01,-7.160791754722595215e-01,1.039309948682785034e-01,4.976158738136291504e-01,-6.254903078079223633e-01,-4.488149881362915039e-01,-6.536855697631835938e-01,1.527362585067749023e+00,1.205554127693176270e+00,5.768142938613891602e-01,2.750329673290252686e-01,2.147300094366073608e-01,-1.179758906364440918e+00,-6.557573080062866211e-01
-3.976579904556274414e-01,-3.876360952854156494e-01,8.943427205085754395e-01,3.753679990768432617e-01,-4.941738843917846680e-01,-8.655491471290588379e-01,-1.026981592178344727e+00,1.537266612052917480e+00,1.103732824325561523e+00,7.052000761032104492e-01,-1.392637789249420166e-01,-4.170678257942199707e-01,-1.214973092079162598e+00,-9.886795878410339355e-01
