AF3,F7,F3,FC5,T7,P7,O1,O2,P8,T8,FC6,F4,F8,AF4
-2.485486567020416260e-01,8.049650788307189941e-01,4.512405991554260254e-01,5.984016656875610352e-01,-2.975018620491027832e-01,3.920029699802398682e-01,1.332768499851226807e-01,1.928150951862335205e-01,-2.274205163121223450e-02,1.635892391204833984e-01,1.894652843475341797e-02,4.347816854715347290e-02,7.141013443470001221e-02,-1.750226318836212158e-01
-1.778545081615447998e-01,8.654999136924743652e-01,4.474535882472991943e-01,3.759312033653259277e-01,-4.929329156875610352e-01,2.439527511596679688e-01,4.649426937103271484e-01,2.247787266969680786e-01,4.127812758088111877e-02,1.015761643648147583e-01,8.511012792587280273e-02,-1.053024604916572571e-01,8.276321738958358765e-02,1.151246875524520874e-01
-2.151946872472763062e-01,7.477657198905944824e-01,5.180820226669311523e-01,2.897534072399139404e-01,-2.526630759239196777e-01,2.432469874620437622e-01,2.484754920005798340e-01,2.144521474838256836e-01,7.907397300004959106e-02,9.015133231878280640e-02,4.728519171476364136e-02,-1.474268138408660889e-01,2.959198951721191406e-01,-6.853631138801574707e-02
-2.496547996997833252e-01,7.676318883895874023e-01,3.777243793010711670e-01,3.052944839000701904e-01,-2.804452180862426758e-01,2.200338393449783325e-01,2.642714381217956543e-01,2.411523014307022095e-01,2.537464201450347900e-01,-7.499218452721834183e-03,9.141466021537780762e-02,-9.607148915529251099e-02,2.880660593509674072e-01,-1.705602407455444336e-01
-4.412040114402770996e-01,6.920196413993835449e-01,6.269137859344482422e-01,2.109700292348861694e-01,-2.465262562036514282e-01,4.799104928970336914e-01,3.206838369369506836e-01,2.129365503787994385e-01,1.439070850610733032e-01,1.278787702322006226e-01,4.125129431486129761e-02,6.003225222229957581e-02,1.038131490349769592e-01,-6.852828711271286011e-02
-5.220428109169006348e-01,6.129740476608276367e-01,6.422709822654724121e-01,2.413249611854553223e-01,-4.535134136676788330e-01,5.535406470298767090e-01,4.220360517501831055e-01,5.197256803512573242e-01,6.697609275579452515e-02,3.459388762712478638e-02,2.549155652523040771e-01,-3.141666352748870850e-01,3.761171549558639526e-02,-2.153808623552322388e-02
-2.387439608573913574e-01,6.602689027786254883e-01,7.622665762901306152e-01,-3.657608991488814354e-03,-2.266817912459373474e-02,3.934621214866638184e-01,2.242546379566192627e-01,4.447240531444549561e-01,5.200095847249031067e-02,-9.474927186965942383e-02,2.757711708545684814e-01,-9.120049327611923218e-02,1.753104478120803833e-01,1.062504574656486511e-01
-3.917428851127624512e-01,7.102096676826477051e-01,5.508621931076049805e-01,4.259407892823219299e-02,-1.853287816047668457e-01,3.784414529800415039e-01,2.803201079368591309e-01,5.096317529678344727e-01,-4.618830233812332153e-02,1.067078486084938049e-01,3.207049071788787842e-01,1.554482877254486084e-01,-3.765051951631903648e-03,1.895334720611572266e-01
-5.540238022804260254e-01,5.387001633644104004e-01,6.688060164451599121e-01,1.200532242655754089e-01,-2.999417670071125031e-02,4.147584736347198486e-01,3.194016516208648682e-01,6.562862396240234375e-01,-2.016385644674301147e-02,1.453132480382919312e-01,3.790460526943206787e-01,6.326498836278915405e-02,4.393011331558227539e-02,-2.027987269684672356e-03
-4.908103048801422119e-01,4.172656834125518799e-01,7.157431244850158691e-01,-1.212106272578239441e-02,8.863348513841629028e-02,4.221368730068206787e-01,1.900169104337692261e-01,4.788321256637573242e-01,-2.723589539527893066e-02,9.553283452987670898e-02,2.398996502161026001e-01,9.114561229944229126e-02,5.225380510091781616e-02,7.651865598745644093e-04
-5.933014154434204102e-01,5.141253471374511719e-01,5.873691439628601074e-01,-1.692186594009399414e-01,-1.889555156230926514e-02,2.400282323360443115e-01,3.131523728370666504e-01,5.943225026130676270e-01,-9.886682033538818359e-02,-8.316047489643096924e-03,4.495579302310943604e-01,-5.748698860406875610e-02,1.269963532686233521e-01,2.824148833751678467e-01
-5.187320113182067871e-01,4.433087408542633057e-01,5.353198051452636719e-01,-1.307917386293411255e-01,1.992636024951934814e-01,3.417295813560485840e-01,4.412185549736022949e-01,8.471754193305969238e-01,1.807047426700592041e-01,2.505425922572612762e-02,3.315361738204956055e-01,1.029862910509109497e-01,-5.149010196328163147e-02,1.853759884834289551e-01
-3.307685256004333496e-01,4.085217118263244629e-01,4.607466757297515869e-01,-3.914263546466827393e-01,2.325757294893264771e-01,2.700329422950744629e-01,4.591173827648162842e-01,6.850131750106811523e-01,-1.402802169322967529e-01,-4.932447150349617004e-02,5.565710663795471191e-01,-1.087723225355148315e-01,-1.162188872694969177e-02,7.274971902370452881e-02
-6.478034257888793945e-01,3.467000424861907959e-01,6.360347270965576172e-01,-2.597962319850921631e-01,7.172855734825134277e-02,3.144022822380065918e-01,3.174625039100646973e-01,8.790925145149230957e-01,2.168713323771953583e-02,8.417551405727863312e-03,5.189630985260009766e-01,1.901597827672958374e-01,-5.708888545632362366e-02,1.728689819574356079e-01
-6.551336050033569336e-01,5.908352136611938477e-01,3.585535883903503418e-01,-3.567133545875549316e-01,3.608991801738739014e-01,1.886080950498580933e-01,1.635166257619857788e-01,8.726466298103332520e-01,-4.427001625299453735e-02,-8.447577059268951416e-02,7.516676187515258789e-01,2.819225788116455078e-01,6.124548614025115967e-02,1.879481375217437744e-01
-7.451044321060180664e-01,2.847408950328826904e-01,1.320478320121765137e-01,-1.124821975827217102e-01,5.014528036117553711e-01,8.974885195493698120e-02,3.693070709705352783e-01,8.939625620841979980e-01,-5.520555004477500916e-02,1.157668679952621460e-01,6.474118828773498535e-01,2.404932230710983276e-01,-2.225511819124221802e-01,1.144951060414314270e-01
-4.775903522968292236e-01,4.817305803298950195e-01,4.083351790904998779e-01,-4.088689684867858887e-01,3.822231590747833252e-01,3.805331885814666748e-02,3.129336237907409668e-01,7.839986681938171387e-01,-2.953161299228668213e-01,6.053380295634269714e-02,5.911964178085327148e-01,3.585892617702484131e-01,2.532407268881797791e-02,1.000288352370262146e-01
-6.177129745483398438e-01,4.693191349506378174e-01,3.728866875171661377e-01,-5.043283104896545410e-01,6.429966688156127930e-01,2.294216454029083252e-01,5.220050811767578125e-01,6.023143529891967773e-01,-2.385773658752441406e-01,4.619636386632919312e-02,5.560886263847351074e-01,3.649018704891204834e-01,-1.759576648473739624e-01,1.516292095184326172e-01
-5.136842131614685059e-01,5.479191541671752930e-01,2.721729874610900879e-01,-4.786139726638793945e-01,3.562890887260437012e-01,-8.360318839550018311e-02,2.623668685555458069e-02,6.856983304023742676e-01,-3.538993299007415771e-01,1.763181984424591064e-01,5.970477461814880371e-01,5.464439392089843750e-01,-2.557944059371948242e-01,2.532482445240020752e-01
-4.979526698589324951e-01,3.328664898872375488e-01,1.020584031939506531e-01,-4.793955683708190918e-01,5.153234004974365234e-01,6.701418757438659668e-02,2.627747356891632080e-01,5.553789138793945312e-01,-3.206312060356140137e-01,4.856345430016517639e-02,6.128169894218444824e-01,5.517446398735046387e-01,-1.807223260402679443e-01,1.119133979082107544e-01
-6.208144426345825195e-01,4.365187585353851318e-01,-2.275535278022289276e-02,-4.242385923862457275e-01,5.393851995468139648e-01,4.410922527313232422e-02,2.886947393417358398e-01,7.801785469055175781e-01,-2.860001325607299805e-01,7.242354750633239746e-02,5.428492426872253418e-01,8.470768332481384277e-01,-1.852829307317733765e-01,-6.065268535166978836e-03
-6.131651401519775391e-01,5.345110893249511719e-01,-8.706471323966979980e-02,-4.412960708141326904e-01,5.604751706123352051e-01,5.602851044386625290e-03,4.446012675762176514e-01,6.302130818367004395e-01,-2.960151731967926025e-01,4.958966746926307678e-04,9.526410698890686035e-01,8.087852597236633301e-01,-1.305884718894958496e-01,1.752063184976577759e-01
-5.292310118675231934e-01,2.690876424312591553e-01,-1.036815866827964783e-01,-5.592737197875976562e-01,5.149789452552795410e-01,-1.613702476024627686e-01,3.000088632106781006e-01,5.722674131393432617e-01,-3.993845880031585693e-01,2.328006774187088013e-01,8.052108287811279297e-01,6.104098558425903320e-01,-2.947953939437866211e-01,6.632284820079803467e-02
-4.960013329982757568e-01,4.283866584300994873e-01,-2.278095632791519165e-01,-3.146358728408813477e-01,6.230685114860534668e-01,3.954574838280677795e-02,2.739404141902923584e-01,3.462198972702026367e-01,-2.573400139808654785e-01,1.292897313833236694e-01,8.525109291076660156e-01,6.961819529533386230e-01,-2.658537328243255615e-01,6.326977163553237915e-02
-3.129278719425201416e-01,3.784393668174743652e-01,-1.073026582598686218e-01,-4.546485543251037598e-01,5.562850832939147949e-01,-1.389579027891159058e-01,2.358532249927520752e-01,5.565831065177917480e-01,-3.797588944435119629e-01,2.584603801369667053e-02,6.574921607971191406e-01,5.580033659934997559e-01,-4.214800000190734863e-01,8.590292930603027344e-02
-4.370380938053131104e-01,2.922882735729217529e-01,-1.499077677726745605e-01,-4.784025549888610840e-01,6.837524771690368652e-01,5.404637381434440613e-02,3.929854929447174072e-01,4.333068132400512695e-01,-3.440296947956085205e-01,1.610777974128723145e-01,8.719915747642517090e-01,8.090826869010925293e-01,-5.059238672256469727e-01,-7.552484422922134399e-02
-2.405302673578262329e-01,5.133282020688056946e-02,-2.296928912401199341e-01,-3.935509026050567627e-01,5.958123803138732910e-01,1.331459637731313705e-02,3.107475340366363525e-01,3.056016564369201660e-01,-3.029828071594238281e-01,1.862866878509521484e-01,7.980794310569763184e-01,8.185382485389709473e-01,-4.924245774745941162e-01,2.044559717178344727e-01
-8.859574049711227417e-02,1.302208304405212402e-01,-1.809407770633697510e-01,-4.035604894161224365e-01,4.710130989551544189e-01,-1.618594527244567871e-01,4.370313882827758789e-01,3.365565538406372070e-01,-1.256173253059387207e-01,8.294075727462768555e-02,8.378388285636901855e-01,6.319588422775268555e-01,-3.677715063095092773e-01,-4.266290366649627686e-02
-8.274264633655548096e-02,4.722962155938148499e-02,-8.950649201869964600e-02,-4.170355200767517090e-01,7.385236024856567383e-01,-1.085262298583984375e-01,1.929219365119934082e-01,3.088265657424926758e-01,-3.880528211593627930e-01,-5.261898785829544067e-02,7.200351953506469727e-01,6.677746772766113281e-01,-3.219666481018066406e-01,1.676863580942153931e-01
1.706868857145309448e-01,-8.300840854644775391e-02,-3.786010146141052246e-01,-4.916386306285858154e-01,5.185833573341369629e-01,-2.022504359483718872e-01,3.102854192256927490e-01,2.485154718160629272e-01,-2.988342642784118652e-01,5.157652497291564941e-02,7.523317337036132812e-01,4.256349503993988037e-01,-3.282712996006011963e-01,-1.207190565764904022e-02
-3.897474333643913269e-02,-1.341503858566284180e-01,-5.080247521400451660e-01,-3.726434409618377686e-01,5.063886642456054688e-01,-3.268085420131683350e-02,2.437070757150650024e-01,4.187986254692077637e-01,-3.705990314483642578e-01,-7.258477807044982910e-02,5.914348363876342773e-01,6.883882284164428711e-01,-5.977228879928588867e-01,1.513373404741287231e-01
2.384336888790130615e-01,-6.186679750680923462e-02,-2.792888581752777100e-01,-5.265265107154846191e-01,6.669584512710571289e-01,-5.672135949134826660e-02,5.291783437132835388e-02,2.628961578011512756e-02,-4.098517596721649170e-01,-6.263103336095809937e-02,5.086918473243713379e-01,5.038533806800842285e-01,-2.726987898349761963e-01,2.219856530427932739e-01
2.825097739696502686e-02,-1.292533278465270996e-01,-2.041563391685485840e-01,-4.540764093399047852e-01,6.398268938064575195e-01,1.160962507128715515e-01,3.042715229094028473e-02,8.249135315418243408e-02,-1.246494650840759277e-01,-5.163799971342086792e-02,4.333853423595428467e-01,6.151140332221984863e-01,-2.260075509548187256e-01,1.300532370805740356e-01
2.199178636074066162e-01,-2.544962763786315918e-01,-4.164534807205200195e-01,-5.158064961433410645e-01,4.750766456127166748e-01,6.661460269242525101e-03,8.448840677738189697e-02,1.824581325054168701e-01,-2.346967309713363647e-01,-2.257267981767654419e-01,3.734360039234161377e-01,4.391326010227203369e-01,-2.478613555431365967e-01,2.932384312152862549e-01
-2.216993458569049835e-02,-3.334281742572784424e-01,-5.020835995674133301e-01,-4.944278001785278320e-01,4.045500457286834717e-01,1.581603288650512695e-01,1.500123292207717896e-01,1.133932620286941528e-01,-3.446102440357208252e-01,-8.097099512815475464e-02,3.877583146095275879e-01,4.711316227912902832e-01,-2.420756071805953979e-01,2.265560775995254517e-01
1.011463850736618042e-01,-2.261523157358169556e-01,-3.932974636554718018e-01,-2.920716106891632080e-01,5.843228697776794434e-01,1.405549943447113037e-01,-3.606865927577018738e-02,-7.893563807010650635e-02,-3.268765807151794434e-01,-2.232232093811035156e-01,2.607720196247100830e-01,2.370929419994354248e-01,-2.540254294872283936e-01,2.574269473552703857e-01
-1.430902034044265747e-01,-4.010555148124694824e-01,-5.488913655281066895e-01,-2.686944901943206787e-01,4.069123566150665283e-01,1.666236519813537598e-01,-5.604086071252822876e-02,-1.599183380603790283e-01,-3.139663040637969971e-01,-2.184469103813171387e-01,1.958992034196853638e-01,1.083756312727928162e-01,-4.947521984577178955e-01,3.807792961597442627e-01
-7.973378896713256836e-02,-2.679643630981445312e-01,-5.385077595710754395e-01,-2.482390701770782471e-01,3.653042614459991455e-01,3.243605494499206543e-01,-4.983601719141006470e-02,1.649855449795722961e-02,-2.200449705123901367e-01,-3.194607496261596680e-01,1.994337514042854309e-02,-2.794339321553707123e-02,-2.947181761264801025e-01,5.089405775070190430e-01
1.223416328430175781e-01,-4.800442457199096680e-01,-5.133221745491027832e-01,-2.305655926465988159e-01,3.316929936408996582e-01,4.898897409439086914e-01,-2.565893530845642090e-01,-8.883341401815414429e-02,-5.044043660163879395e-01,-1.566301286220550537e-01,1.311617791652679443e-01,1.218864992260932922e-01,-3.712641894817352295e-01,5.119819045066833496e-01
7.570285350084304810e-02,-3.386208117008209229e-01,-6.445701718330383301e-01,-3.258318901062011719e-01,2.762574851512908936e-01,4.505271613597869873e-01,-3.249564468860626221e-01,-5.962871015071868896e-02,-3.331204950809478760e-01,-8.862244337797164917e-02,6.990651786327362061e-02,8.244024217128753662e-02,-3.479276299476623535e-01,5.146850347518920898e-01
-5.513404682278633118e-02,-1.565322577953338623e-01,-8.177621960639953613e-01,-3.863317966461181641e-01,3.759171366691589355e-01,5.735270380973815918e-01,-7.747625559568405151e-02,1.581102013587951660e-01,-2.651691734790802002e-01,1.716125570237636566e-02,4.094149917364120483e-02,1.820994317531585693e-01,-2.745310068130493164e-01,8.532626628875732422e-01
-9.701868146657943726e-02,-3.275046050548553467e-01,-5.473973155021667480e-01,-1.509653031826019287e-01,2.576539516448974609e-01,7.002474069595336914e-01,-1.755304038524627686e-01,2.436731755733489990e-02,-3.949166834354400635e-01,-3.334581479430198669e-02,-6.133062019944190979e-02,7.155017554759979248e-02,-2.887691557407379150e-01,6.293875575065612793e-01
-5.087097361683845520e-02,-4.225926399230957031e-01,-7.283447384834289551e-01,-2.495800703763961792e-01,3.168117105960845947e-01,6.972945928573608398e-01,-4.027399122714996338e-01,-1.743299216032028198e-01,-4.902091920375823975e-01,-1.600970327854156494e-01,1.309922430664300919e-03,-1.515031307935714722e-01,-1.762077510356903076e-01,7.715523838996887207e-01
-1.332740932703018188e-01,-3.572176992893218994e-01,-7.964565157890319824e-01,-4.247281551361083984e-01,2.982115447521209717e-01,7.743758559226989746e-01,-3.272792696952819824e-01,-2.813462913036346436e-01,-7.597149610519409180e-01,1.822294481098651886e-02,1.209662258625030518e-01,-1.346332132816314697e-01,-1.041969209909439087e-01,8.508644700050354004e-01
-7.552926987409591675e-02,-3.090319335460662842e-01,-8.665547370910644531e-01,-3.079340755939483643e-01,4.114545881748199463e-01,5.924039483070373535e-01,-3.697616755962371826e-01,-1.181884557008743286e-01,-3.297682404518127441e-01,-3.143950924277305603e-02,1.159659847617149353e-01,9.709570556879043579e-02,-2.119669020175933838e-01,8.860572576522827148e-01
-8.480852842330932617e-02,-3.400369882583618164e-01,-6.286225914955139160e-01,-4.638267159461975098e-01,3.867548406124114990e-01,6.431661248207092285e-01,-3.985225856304168701e-01,-1.869913488626480103e-01,-6.405404210090637207e-01,-1.930342167615890503e-01,1.783878952264785767e-01,-1.669626832008361816e-01,-3.770010769367218018e-01,7.304955124855041504e-01
-1.414117068052291870e-01,-2.868485450744628906e-01,-8.824481368064880371e-01,-4.064987301826477051e-01,5.348323583602905273e-01,4.588251709938049316e-01,-5.269156098365783691e-01,-1.099877282977104187e-01,-5.364658236503601074e-01,1.354389190673828125e-01,5.917823687195777893e-02,-1.782271116971969604e-01,-3.195292353630065918e-01,1.008776187896728516e+00
-1.892617791891098022e-01,-2.976557314395904541e-01,-5.236579179763793945e-01,-2.786610126495361328e-01,3.505619466304779053e-01,7.541363239288330078e-01,-4.010112583637237549e-01,-9.458044171333312988e-02,-7.112222909927368164e-01,8.205027133226394653e-02,1.550658792257308960e-01,-3.070734441280364990e-01,-2.908209264278411865e-01,8.914164900779724121e-01
-3.808824419975280762e-01,-1.965816915035247803e-01,-8.342368602752685547e-01,-2.790063619613647461e-01,4.215315282344818115e-01,6.253525614738464355e-01,-2.162608951330184937e-01,-1.540845036506652832e-01,-4.100027680397033691e-01,-1.120450440794229507e-02,9.924832731485366821e-02,-3.906516432762145996e-01,-3.798762261867523193e-01,8.681623339653015137e-01
-2.821794450283050537e-01,-1.762371510267257690e-01,-9.433060288429260254e-01,-1.624718606472015381e-01,5.131199955940246582e-01,5.804226994514465332e-01,-4.268240034580230713e-01,-8.761265873908996582e-02,-5.711562633514404297e-01,8.832202851772308350e-02,1.782226860523223877e-01,-1.682033538818359375e-01,-5.415738224983215332e-01,1.048799633979797363e+00
-3.705907762050628662e-01,-1.893882304430007935e-01,-8.066722154617309570e-01,-3.232227861881256104e-01,4.222812652587890625e-01,7.407859563827514648e-01,-2.638475596904754639e-01,-1.413455456495285034e-01,-4.403306841850280762e-01,5.659666284918785095e-02,2.512538135051727295e-01,-9.100770950317382812e-02,-4.338158965110778809e-01,1.131785511970520020e+00
-2.618303298950195312e-01,-8.038153499364852905e-02,-7.141755819320678711e-01,-2.505067884922027588e-01,5.446892380714416504e-01,7.405521273612976074e-01,-3.065098226070404053e-01,-2.342438250780105591e-01,-4.455697834491729736e-01,1.777446419000625610e-01,2.150224149227142334e-01,-2.671476602554321289e-01,-3.061344027519226074e-01,9.573037028312683105e-01
-4.237309098243713379e-01,3.795370087027549744e-02,-7.318018674850463867e-01,-1.642763018608093262e-01,4.110570847988128662e-01,6.009278893470764160e-01,2.461617626249790192e-02,-3.649832680821418762e-02,-4.731287360191345215e-01,7.024514675140380859e-02,1.422834992408752441e-01,-3.771317899227142334e-01,-3.023479282855987549e-01,1.068951129913330078e+00
-4.077631831169128418e-01,-5.181263759732246399e-02,-8.955399394035339355e-01,-3.794791176915168762e-02,4.896180331707000732e-01,6.801393032073974609e-01,-2.661551237106323242e-01,-2.445634901523590088e-01,-5.770134925842285156e-01,8.842863142490386963e-02,6.562364101409912109e-02,-2.694150507450103760e-01,-3.212069869041442871e-01,1.130181074142456055e+00
-4.978391528129577637e-01,8.167482167482376099e-02,-9.488315582275390625e-01,1.705232635140419006e-02,2.796621024608612061e-01,7.311426401138305664e-01,-1.232965067028999329e-01,-2.877577841281890869e-01,-4.266822040081024170e-01,3.132817745208740234e-01,3.116182684898376465e-01,-1.975342780351638794e-01,-3.126084208488464355e-01,9.579402208328247070e-01
-5.249789953231811523e-01,1.852490007877349854e-01,-8.514993786811828613e-01,-7.981227338314056396e-02,4.764891564846038818e-01,6.049380302429199219e-01,4.642921313643455505e-02,-2.398618161678314209e-01,-2.711353003978729248e-01,3.685991466045379639e-01,2.688514292240142822e-01,8.762840181589126587e-02,-3.591091036796569824e-01,1.000774264335632324e+00
-6.583436131477355957e-01,2.084437906742095947e-01,-1.064059019088745117e+00,-2.616011537611484528e-02,3.816237449645996094e-01,5.940901637077331543e-01,1.068620290607213974e-02,-1.671211421489715576e-01,-2.912953794002532959e-01,5.592458844184875488e-01,1.997051835060119629e-01,8.801170438528060913e-02,-2.437040656805038452e-01,9.128437638282775879e-01
-4.446595013141632080e-01,3.811907768249511719e-01,-8.893482685089111328e-01,1.599220484495162964e-01,4.053565859794616699e-01,7.248570919036865234e-01,5.785691365599632263e-02,-2.311833202838897705e-01,-4.596574306488037109e-01,5.325523018836975098e-01,2.444423586130142212e-01,-1.590748131275177002e-01,-2.484246194362640381e-01,9.948699474334716797e-01
-5.703163146972656250e-01,2.510068118572235107e-01,-7.789979577064514160e-01,4.261384010314941406e-01,2.609776854515075684e-01,6.555462479591369629e-01,1.186552122235298157e-01,-2.759046852588653564e-01,-2.926699817180633545e-01,5.414533615112304688e-01,3.083258569240570068e-01,-1.256030201911926270e-01,-2.784047424793243408e-01,8.452447056770324707e-01
-5.917699337005615234e-01,4.766002893447875977e-01,-9.459215998649597168e-01,1.777549982070922852e-01,-1.961661875247955322e-02,5.715526938438415527e-01,1.474123150110244751e-01,-2.523364126682281494e-01,-1.357284039258956909e-01,6.455226540565490723e-01,3.533112704753875732e-01,-4.102511703968048096e-02,-3.615921363234519958e-02,9.088825583457946777e-01
-5.624240040779113770e-01,5.322351455688476562e-01,-8.486094474792480469e-01,3.743608295917510986e-01,-1.165925711393356323e-02,7.146907448768615723e-01,1.824489086866378784e-01,-3.205083012580871582e-01,-5.241058301180601120e-03,8.118617534637451172e-01,3.992510437965393066e-01,-7.468739897012710571e-02,-1.348413974046707153e-01,8.170503377914428711e-01
-5.784080624580383301e-01,4.241748154163360596e-01,-8.378477692604064941e-01,5.845527648925781250e-01,4.881749674677848816e-02,8.423064351081848145e-01,2.275102436542510986e-01,-3.300836384296417236e-01,2.872562594711780548e-02,7.890713214874267578e-01,5.068049430847167969e-01,-2.669820562005043030e-02,8.354804664850234985e-02,6.127482056617736816e-01
-7.606377005577087402e-01,6.210725903511047363e-01,-6.617639660835266113e-01,5.975381135940551758e-01,9.809633344411849976e-02,8.383464217185974121e-01,2.936623394489288330e-01,-2.255711406469345093e-01,2.339294999837875366e-01,8.689893484115600586e-01,3.694803118705749512e-01,2.197205834090709686e-02,7.148224115371704102e-02,5.828745365142822266e-01
-5.932273268699645996e-01,5.403058528900146484e-01,-8.374069929122924805e-01,4.208058714866638184e-01,3.425793722271919250e-02,5.997758507728576660e-01,5.763593912124633789e-01,-3.679326474666595459e-01,4.698961228132247925e-02,7.613888978958129883e-01,4.598964750766754150e-01,8.064306527376174927e-02,9.880116581916809082e-02,3.351923227310180664e-01
-5.880135297775268555e-01,7.424805760383605957e-01,-6.464287638664245605e-01,5.448960661888122559e-01,8.288460969924926758e-02,6.353701949119567871e-01,3.729594945907592773e-01,-1.901849955320358276e-01,2.235685735940933228e-01,8.939223289489746094e-01,4.204615056514739990e-01,7.496684789657592773e-02,-1.003418266773223877e-01,3.041249811649322510e-01
-4.835199415683746338e-01,5.781564712524414062e-01,-7.197975516319274902e-01,3.283221125602722168e-01,1.282609254121780396e-01,5.705458521842956543e-01,2.625993490219116211e-01,-6.506608426570892334e-02,2.343127578496932983e-01,7.432616353034973145e-01,4.692102670669555664e-01,1.288870722055435181e-01,9.201688226312398911e-05,2.990270256996154785e-01
-6.461465358734130859e-01,5.918544530868530273e-01,-4.016550481319427490e-01,4.403299391269683838e-01,4.638385027647018433e-02,6.440991163253784180e-01,5.139178037643432617e-01,-1.840081065893173218e-01,4.448525011539459229e-01,9.398219585418701172e-01,6.092748641967773438e-01,-1.318048965185880661e-02,5.658370256423950195e-02,2.189246118068695068e-01
-5.014781355857849121e-01,7.333959341049194336e-01,-4.273786544799804688e-01,5.222591757774353027e-01,-6.110993027687072754e-02,6.655889749526977539e-01,3.976549208164215088e-01,4.349908232688903809e-02,5.049219727516174316e-01,7.165409326553344727e-01,4.101369380950927734e-01,-9.626509621739387512e-03,2.738533616065979004e-01,3.173447251319885254e-01
-4.900297820568084717e-01,5.979301333427429199e-01,-3.307194709777832031e-01,5.667461752891540527e-01,3.235592246055603027e-01,7.402930855751037598e-01,6.295260190963745117e-01,-3.772931545972824097e-02,6.403224468231201172e-01,7.851839661598205566e-01,5.353534817695617676e-01,9.956771135330200195e-02,3.103155195713043213e-01,2.601986825466156006e-01
-4.685944318771362305e-01,7.419590950012207031e-01,-9.164915978908538818e-02,4.740772247314453125e-01,1.410919874906539917e-01,4.826204776763916016e-01,5.122326016426086426e-01,-5.140604823827743530e-02,7.288591861724853516e-01,4.711176753044128418e-01,4.346485733985900879e-01,6.445651501417160034e-02,2.629668414592742920e-01,2.061055749654769897e-01
-5.176886320114135742e-01,4.397613108158111572e-01,3.687383141368627548e-03,5.631234645843505859e-01,8.205133676528930664e-02,5.909758210182189941e-01,6.109800934791564941e-01,1.960362792015075684e-01,8.711177110671997070e-01,7.838533520698547363e-01,6.383178830146789551e-01,-6.231984868645668030e-02,1.608902662992477417e-01,8.657764643430709839e-02
-4.362660348415374756e-01,4.941968619823455811e-01,-5.172566697001457214e-02,5.702130794525146484e-01,2.743313312530517578e-01,5.722017884254455566e-01,6.692811250686645508e-01,1.124202981591224670e-01,7.618041038513183594e-01,6.884097456932067871e-01,6.584657430648803711e-01,1.616177260875701904e-01,3.248074948787689209e-01,2.290673926472663879e-02
-4.903644621372222900e-01,4.588093459606170654e-01,8.599673211574554443e-02,4.344495534896850586e-01,-3.839776664972305298e-02,5.012813210487365723e-01,8.007886409759521484e-01,3.366947770118713379e-01,7.702350020408630371e-01,6.882277727127075195e-01,2.749507725238800049e-01,2.576995454728603363e-02,1.772869080305099487e-01,-4.385743290185928345e-02
-6.788594126701354980e-01,3.337828218936920166e-01,6.139191985130310059e-02,3.314841389656066895e-01,9.145215898752212524e-02,4.276859164237976074e-01,6.409789323806762695e-01,2.826040089130401611e-01,8.124918937683105469e-01,6.597307324409484863e-01,3.247632980346679688e-01,7.423290610313415527e-02,2.395533174276351929e-01,5.493589863181114197e-02
-5.216279029846191406e-01,6.608923077583312988e-01,1.377242058515548706e-01,4.337630867958068848e-01,2.301779687404632568e-01,4.229700565338134766e-01,6.737211346626281738e-01,3.340609371662139893e-01,5.865061879158020020e-01,5.543856620788574219e-01,3.604756295680999756e-01,-1.752663031220436096e-02,2.539538741111755371e-01,3.683743998408317566e-02
-5.325824022293090820e-01,3.869762122631072998e-01,1.967178881168365479e-01,4.705813527107238770e-01,3.070666790008544922e-01,4.936332106590270996e-01,7.989302277565002441e-01,4.552203416824340820e-01,7.934823036193847656e-01,6.299466490745544434e-01,4.970894157886505127e-01,8.602087944746017456e-02,4.304586052894592285e-01,3.455296158790588379e-03
-4.629846811294555664e-01,3.844374120235443115e-01,2.078612893819808960e-01,7.090803980827331543e-02,2.268577516078948975e-01,6.879903674125671387e-01,8.120684623718261719e-01,4.438014924526214600e-01,8.433256745338439941e-01,3.268071115016937256e-01,4.302600026130676270e-01,1.657280512154102325e-02,4.010696411132812500e-01,1.757367104291915894e-01
-3.956710100173950195e-01,3.937505185604095459e-01,8.594241738319396973e-02,2.329898178577423096e-01,2.469402551651000977e-01,4.187983870506286621e-01,6.156138777732849121e-01,5.454088449478149414e-01,8.237140178680419922e-01,5.073838829994201660e-01,5.031569600105285645e-01,1.555922627449035645e-01,2.095509171485900879e-01,1.146215759217739105e-02
-5.571945905685424805e-01,5.309455990791320801e-01,2.387580461800098419e-02,2.675756253302097321e-02,3.133608698844909668e-01,2.851284444332122803e-01,6.174008250236511230e-01,4.501424133777618408e-01,7.861117124557495117e-01,4.545296728610992432e-01,3.256616592407226562e-01,1.638548821210861206e-01,4.336868226528167725e-01,1.420988980680704117e-02
-4.627544283866882324e-01,2.258031666278839111e-01,2.136416584253311157e-01,5.327917262911796570e-02,1.028264057822525501e-03,4.620706140995025635e-01,7.312163710594177246e-01,6.156387925148010254e-01,5.925955176353454590e-01,5.616095662117004395e-01,6.423225402832031250e-01,2.774900496006011963e-01,-2.522324584424495697e-02,4.125181958079338074e-02
-5.531172752380371094e-01,5.721746087074279785e-01,1.858378201723098755e-01,8.509716391563415527e-02,2.416305392980575562e-01,1.779780089855194092e-01,6.612927317619323730e-01,4.988222122192382812e-01,9.085673093795776367e-01,2.437622398138046265e-01,3.398543298244476318e-01,1.858560740947723389e-01,6.476311385631561279e-02,-1.015626266598701477e-01
-6.059674620628356934e-01,4.346977472305297852e-01,2.495968788862228394e-01,-1.032468751072883606e-01,4.677157700061798096e-01,3.852652609348297119e-01,6.452593803405761719e-01,7.607028484344482422e-01,5.970737338066101074e-01,4.244991838932037354e-01,4.886663854122161865e-01,2.314996123313903809e-01,1.382785886526107788e-01,-1.753649562597274780e-01
-4.047410488128662109e-01,4.848161339759826660e-01,1.790582686662673950e-01,2.849982865154743195e-02,3.986531794071197510e-01,3.902405798435211182e-01,6.393193006515502930e-01,8.311477303504943848e-01,7.066320776939392090e-01,3.157790005207061768e-01,6.524838805198669434e-01,4.285725653171539307e-01,3.159982338547706604e-02,-4.770629853010177612e-02
-5.674971342086791992e-01,3.442489206790924072e-01,2.472894489765167236e-01,-3.094519972801208496e-01,4.592807292938232422e-01,4.105976521968841553e-01,6.462438106536865234e-01,5.880654454231262207e-01,8.272767066955566406e-01,3.328256309032440186e-01,6.952527165412902832e-01,3.079876005649566650e-01,4.790075123310089111e-02,-1.746391654014587402e-01
-3.315059542655944824e-01,2.280933111906051636e-01,1.513692587614059448e-01,-9.002221375703811646e-02,6.368157267570495605e-01,9.834703058004379272e-02,6.317771077156066895e-01,8.974866271018981934e-01,5.681274533271789551e-01,4.818699061870574951e-01,5.787382721900939941e-01,3.246536552906036377e-01,-2.136357873678207397e-01,-1.626588702201843262e-01
-2.698290348052978516e-01,3.611734807491302490e-01,4.075042307376861572e-01,-1.345450431108474731e-01,5.730800032615661621e-01,2.231439352035522461e-01,7.351316213607788086e-01,1.048243403434753418e+00,6.550246477127075195e-01,3.203107416629791260e-01,6.647300124168395996e-01,3.589941263198852539e-01,-5.458643659949302673e-02,-1.890138536691665649e-01
-3.413406014442443848e-01,4.488978981971740723e-01,3.320637717843055725e-02,-3.639771342277526855e-01,7.548680305480957031e-01,-1.883067786693572998e-01,8.340367674827575684e-01,8.331554532051086426e-01,5.942578315734863281e-01,4.471857547760009766e-01,8.197591304779052734e-01,2.761438488960266113e-01,-1.563154458999633789e-01,-4.421816468238830566e-01
-1.536572575569152832e-01,3.708297014236450195e-01,-2.714852569624781609e-03,-4.807215929031372070e-01,7.294123768806457520e-01,7.667076587677001953e-02,8.377220034599304199e-01,1.025250911712646484e+00,4.626424908638000488e-01,1.776162683963775635e-01,7.497353553771972656e-01,1.814849674701690674e-01,-2.995706796646118164e-01,-3.085398375988006592e-01
-3.923083245754241943e-01,4.187013506889343262e-01,1.849072575569152832e-01,-3.657904267311096191e-01,8.575290441513061523e-01,-3.176978826522827148e-01,8.531767129898071289e-01,9.885897040367126465e-01,6.257263422012329102e-01,3.554755747318267822e-01,6.738802194595336914e-01,5.770987868309020996e-01,-4.089728891849517822e-01,-5.325449705123901367e-01
-2.148066610097885132e-01,4.289925992488861084e-01,4.465435817837715149e-02,-5.924995541572570801e-01,9.040291309356689453e-01,-1.569342017173767090e-01,8.935817480087280273e-01,9.761835932731628418e-01,4.604248106479644775e-01,3.403456509113311768e-01,8.562449812889099121e-01,3.784354925155639648e-01,-4.731620550155639648e-01,-2.426015883684158325e-01
-9.314202517271041870e-02,4.602662324905395508e-01,1.758087612688541412e-02,-4.523621201515197754e-01,6.968489885330200195e-01,-2.362804114818572998e-01,1.059725880622863770e+00,9.809153079986572266e-01,5.134470462799072266e-01,4.976797103881835938e-02,7.177711129188537598e-01,5.271484255790710449e-01,-3.852614164352416992e-01,-5.141321420669555664e-01
-1.271866634488105774e-02,3.206389248371124268e-01,1.551580615341663361e-02,-4.310170412063598633e-01,6.634179353713989258e-01,-3.375964760780334473e-01,9.706994891166687012e-01,1.071783185005187988e+00,4.506843388080596924e-01,1.780177354812622070e-01,6.129106283187866211e-01,4.194978475570678711e-01,-4.553612470626831055e-01,-1.578948050737380981e-01
-1.237212195992469788e-01,1.519954204559326172e-01,4.428475163877010345e-03,-5.325906872749328613e-01,8.301002979278564453e-01,-3.225048482418060303e-01,8.406559824943542480e-01,9.839319586753845215e-01,5.624564886093139648e-01,2.176875434815883636e-02,4.804711639881134033e-01,4.333711266517639160e-01,-4.858298599720001221e-01,-4.496439099311828613e-01
-6.285528838634490967e-02,2.515054345130920410e-01,8.828240633010864258e-02,-5.884850025177001953e-01,6.947777271270751953e-01,-2.672413289546966553e-01,9.849327206611633301e-01,5.409641861915588379e-01,4.388516545295715332e-01,2.289138734340667725e-01,6.624686717987060547e-01,5.568202137947082520e-01,-2.907047867774963379e-01,-4.008021056652069092e-01
2.660544216632843018e-01,3.912688195705413818e-01,-1.070183739066123962e-01,-7.415848970413208008e-01,5.989037156105041504e-01,-4.026280343532562256e-01,8.414548039436340332e-01,6.615869402885437012e-01,5.410318970680236816e-01,4.527833312749862671e-02,3.788017928600311279e-01,4.633670747280120850e-01,-4.915640652179718018e-01,-5.557494759559631348e-01
1.676158607006072998e-01,3.766727149486541748e-01,-1.075336784124374390e-01,-6.958490610122680664e-01,8.092319369316101074e-01,-5.277662277221679688e-01,9.035469293594360352e-01,8.085300326347351074e-01,6.502475142478942871e-01,1.203204467892646790e-01,4.637017548084259033e-01,5.880107879638671875e-01,-5.848717093467712402e-01,-4.584460556507110596e-01
2.551638484001159668e-01,3.448844254016876221e-01,-1.672421991825103760e-01,-5.816524624824523926e-01,7.135826349258422852e-01,-5.043008327484130859e-01,7.926657795906066895e-01,9.158361554145812988e-01,3.379078805446624756e-01,-5.152953043580055237e-02,3.023138642311096191e-01,5.925517678260803223e-01,-4.973193705081939697e-01,-4.843603074550628662e-01
2.490194737911224365e-01,3.428127467632293701e-01,-2.327400296926498413e-01,-5.027812719345092773e-01,6.134248971939086914e-01,-4.616573154926300049e-01,9.462217092514038086e-01,6.284691095352172852e-01,4.210463166236877441e-01,1.250825729221105576e-02,3.556062579154968262e-01,5.781098008155822754e-01,-3.940412104129791260e-01,-5.960798263549804688e-01
5.391279458999633789e-01,-2.914568968117237091e-02,-1.818410903215408325e-01,-7.439578175544738770e-01,4.230210483074188232e-01,-4.334158003330230713e-01,8.818365931510925293e-01,5.310562849044799805e-01,3.063763678073883057e-01,6.124025210738182068e-02,3.174989223480224609e-01,2.856278121471405029e-01,-5.355305075645446777e-01,-5.487999916076660156e-01
7.133752703666687012e-01,1.963568031787872314e-01,-6.154860556125640869e-02,-5.541110634803771973e-01,5.323334932327270508e-01,-3.604663014411926270e-01,5.775251388549804688e-01,4.545530974864959717e-01,4.639205634593963623e-01,-2.322150319814682007e-01,3.431903719902038574e-01,4.034131169319152832e-01,-4.858920872211456299e-01,-4.960994720458984375e-01
4.307115972042083740e-01,5.789139494299888611e-02,-2.116758078336715698e-01,-7.645269036293029785e-01,4.999074935913085938e-01,-4.344171881675720215e-01,6.177449226379394531e-01,5.459926128387451172e-01,4.922185838222503662e-01,-1.864768415689468384e-01,9.803968667984008789e-02,3.827770352363586426e-01,-2.590933740139007568e-01,-4.750872552394866943e-01
4.332702755928039551e-01,1.415737122297286987e-01,-2.011763304471969604e-01,-4.882562458515167236e-01,5.039382576942443848e-01,-2.615609169006347656e-01,6.830976009368896484e-01,5.634623169898986816e-01,3.464104235172271729e-01,-1.219995990395545959e-01,7.531101256608963013e-02,4.064415693283081055e-01,-6.031041741371154785e-01,-4.684523642063140869e-01
4.402025938034057617e-01,2.727073729038238525e-01,-1.413494795560836792e-01,-7.014642953872680664e-01,4.559971988201141357e-01,-1.730006784200668335e-01,3.393117189407348633e-01,4.426401853561401367e-01,3.729452192783355713e-01,-2.064099013805389404e-01,5.080871656537055969e-02,3.388877213001251221e-01,-4.381011128425598145e-01,-7.507678270339965820e-01
5.551063418388366699e-01,3.734199106693267822e-01,-1.179418042302131653e-01,-5.123943686485290527e-01,2.705485522747039795e-01,-2.516143620014190674e-01,6.651207208633422852e-01,3.062367737293243408e-01,3.987416625022888184e-01,-2.920410633087158203e-01,2.663399837911128998e-02,1.850322633981704712e-01,-4.607217013835906982e-01,-4.256131350994110107e-01
1.011485338211059570e+00,5.289033055305480957e-02,-2.386983036994934082e-01,-5.188197493553161621e-01,3.449552357196807861e-01,-2.371137738227844238e-01,5.097665190696716309e-01,3.725420832633972168e-01,4.214788377285003662e-01,-3.119249939918518066e-01,-1.478710025548934937e-01,1.890161186456680298e-01,-4.064158499240875244e-01,-5.835036039352416992e-01
8.447822332382202148e-01,-1.510227620601654053e-01,-2.031082212924957275e-01,-6.554735898971557617e-01,7.941756397485733032e-02,-7.734657824039459229e-02,1.507538855075836182e-01,4.392931163311004639e-01,1.793778389692306519e-01,-3.411345779895782471e-01,-4.497521519660949707e-01,1.812773942947387695e-01,-5.101205110549926758e-01,-3.431597352027893066e-01
6.479238867759704590e-01,2.677939087152481079e-02,-2.514751255512237549e-01,-6.197568774223327637e-01,1.038474962115287781e-01,-1.284535322338342667e-02,2.119167298078536987e-01,4.216107130050659180e-01,2.973122894763946533e-01,-3.492473959922790527e-01,-1.363986283540725708e-01,4.076228942722082138e-03,-3.485826849937438965e-01,-5.525571703910827637e-01
6.922425031661987305e-01,6.048523634672164917e-02,-1.710088849067687988e-01,-6.173549890518188477e-01,1.345790028572082520e-01,-1.389071438461542130e-02,-1.490104477852582932e-02,2.006794661283493042e-01,4.903068393468856812e-02,-3.508774042129516602e-01,-5.101509094238281250e-01,-1.562489941716194153e-02,-5.599753856658935547e-01,-4.982708692550659180e-01
9.659160971641540527e-01,-3.740485757589340210e-02,-2.377891987562179565e-01,-6.945636868476867676e-01,1.565892398357391357e-01,4.478991031646728516e-02,1.997609287500381470e-01,3.456658422946929932e-01,9.145776182413101196e-02,-4.240259528160095215e-01,-3.126307725906372070e-01,-4.825259372591972351e-02,-4.574191868305206299e-01,-3.897012472152709961e-01
7.458212971687316895e-01,-2.290743291378021240e-01,-1.138958781957626343e-01,-8.626214265823364258e-01,-5.995884910225868225e-02,-2.237752825021743774e-02,7.097608596086502075e-02,2.691963911056518555e-01,1.079231724143028259e-01,-6.974532008171081543e-01,-3.839274644851684570e-01,-1.585435867309570312e-01,-5.709613561630249023e-01,-3.188764452934265137e-01
7.014113664627075195e-01,-1.961824595928192139e-01,-2.948615550994873047e-01,-7.087013721466064453e-01,1.058029159903526306e-01,1.141859889030456543e-01,-2.060120403766632080e-01,2.777217924594879150e-01,9.223014861345291138e-02,-6.525872945785522461e-01,-5.067957043647766113e-01,-1.322770714759826660e-01,-5.738127231597900391e-01,-2.258113175630569458e-01
8.251639604568481445e-01,-1.454915404319763184e-01,-3.833490610122680664e-01,-9.229654073715209961e-01,5.398583016358315945e-04,3.066544532775878906e-01,1.076578497886657715e-01,4.440216124057769775e-01,5.876705050468444824e-02,-4.610882401466369629e-01,-7.260957360267639160e-01,-1.469101607799530029e-01,-6.279991865158081055e-01,-2.074498683214187622e-01
6.019891500473022461e-01,-2.303521186113357544e-01,-2.421866208314895630e-01,-7.678392529487609863e-01,6.789591629058122635e-03,1.555212736129760742e-01,-2.250301539897918701e-01,2.552111148834228516e-01,1.328523755073547363e-01,-5.165776014328002930e-01,-5.612413287162780762e-01,-2.402252256870269775e-01,-3.412598371505737305e-01,-1.003313576802611351e-03
6.061021685600280762e-01,-1.673143357038497925e-01,-2.458681613206863403e-01,-6.515064835548400879e-01,-7.283170521259307861e-02,3.664421141147613525e-01,-1.366496831178665161e-02,2.515954077243804932e-01,1.860858686268329620e-02,-5.038961768150329590e-01,-7.172549366950988770e-01,-2.008026689291000366e-01,-2.193000465631484985e-01,1.451244503259658813e-01
4.871123135089874268e-01,-5.525632947683334351e-02,-5.641098022460937500e-01,-8.693264722824096680e-01,-1.301999986171722412e-01,2.900159060955047607e-01,-1.399180889129638672e-01,3.591288253664970398e-02,-2.186821997165679932e-01,-5.204701423645019531e-01,-6.998181939125061035e-01,-1.734220534563064575e-01,-3.868752419948577881e-01,1.890302896499633789e-01
4.844101071357727051e-01,-1.015823408961296082e-01,-3.244992196559906006e-01,-7.868206501007080078e-01,-2.817407064139842987e-02,3.734280169010162354e-01,-1.952424198389053345e-01,1.302786618471145630e-01,-9.097611904144287109e-02,-5.947735905647277832e-01,-6.146871447563171387e-01,-3.249498605728149414e-01,-2.445316612720489502e-01,1.270292401313781738e-01
4.723931550979614258e-01,-5.335496366024017334e-02,-4.584192037582397461e-01,-7.687875032424926758e-01,-2.524767518043518066e-01,4.504080414772033691e-01,-4.052759110927581787e-01,5.978452786803245544e-02,-1.639328300952911377e-01,-5.295017957687377930e-01,-6.196978688240051270e-01,-4.321366846561431885e-01,-3.097081184387207031e-01,2.799873948097229004e-01
5.389568805694580078e-01,-1.686245761811733246e-02,-5.995470881462097168e-01,-8.256713747978210449e-01,-2.552087306976318359e-01,5.733131170272827148e-01,-2.593085467815399170e-01,-2.072210237383842468e-02,-2.361365407705307007e-01,-3.613320589065551758e-01,-8.204767704010009766e-01,-1.473987400531768799e-01,-2.077586203813552856e-01,2.553105354309082031e-01
6.016938090324401855e-01,1.085903048515319824e-01,-3.839986622333526611e-01,-6.758185625076293945e-01,-2.884684801101684570e-01,4.208512604236602783e-01,-3.654608428478240967e-01,8.860050886869430542e-02,-3.101910650730133057e-01,-3.318123817443847656e-01,-7.956075668334960938e-01,-2.094129770994186401e-01,-3.832211494445800781e-01,2.278452217578887939e-01
4.542807340621948242e-01,-2.645951323211193085e-02,-5.628767609596252441e-01,-7.342243194580078125e-01,-3.127842545509338379e-01,6.066364049911499023e-01,-4.148797392845153809e-01,-4.079436883330345154e-03,-4.589045941829681396e-01,-2.917552590370178223e-01,-6.640421748161315918e-01,-3.422743678092956543e-01,-3.658911585807800293e-01,1.608146131038665771e-01
2.983224689960479736e-01,6.610997021198272705e-02,-5.632088184356689453e-01,-5.157051086425781250e-01,-3.165291249752044678e-01,6.318385601043701172e-01,-4.677170217037200928e-01,-1.385634541511535645e-01,-3.682443797588348389e-01,-2.388755530118942261e-01,-4.985567629337310791e-01,-2.640159986913204193e-02,-1.857542395591735840e-01,2.407820820808410645e-01
2.941809296607971191e-01,1.975447833538055420e-01,-5.582780838012695312e-01,-6.243379712104797363e-01,-4.363289773464202881e-01,5.929251909255981445e-01,-5.524836778640747070e-01,-3.897318616509437561e-02,-4.123088717460632324e-01,-4.501399397850036621e-02,-8.705300688743591309e-01,-2.702677547931671143e-01,-1.971251666545867920e-01,4.586185514926910400e-01
9.179884195327758789e-02,8.234505355358123779e-02,-5.943149924278259277e-01,-6.260755062103271484e-01,-6.158332824707031250e-01,6.258899569511413574e-01,-3.941553533077239990e-01,9.528645873069763184e-02,-2.942486703395843506e-01,-1.022458001971244812e-01,-6.431191563606262207e-01,5.146835744380950928e-02,-1.237549707293510437e-01,4.345304071903228760e-01
2.710255682468414307e-01,3.733889162540435791e-01,-6.902122497558593750e-01,-4.184333384037017822e-01,-6.156054735183715820e-01,7.349709868431091309e-01,-5.193078517913818359e-01,-1.905430108308792114e-01,-4.470474720001220703e-01,1.037299633026123047e-01,-5.534748435020446777e-01,4.627495363820344210e-04,-2.861558645963668823e-02,3.979492485523223877e-01
3.127751946449279785e-01,3.044680953025817871e-01,-5.475929975509643555e-01,-4.434150159358978271e-01,-2.922101914882659912e-01,6.650592088699340820e-01,-3.960984945297241211e-01,-1.311890780925750732e-01,-5.848402380943298340e-01,2.536648884415626526e-02,-4.885630011558532715e-01,1.135596260428428650e-01,6.669095903635025024e-02,4.122655093669891357e-01
1.232623979449272156e-01,3.129579126834869385e-01,-6.611298322677612305e-01,-6.078851819038391113e-01,-3.419355154037475586e-01,6.140809059143066406e-01,-3.459925055503845215e-01,-2.365023195743560791e-01,-2.891352772712707520e-01,2.050658911466598511e-01,-7.288531661033630371e-01,7.296680659055709839e-02,7.402452826499938965e-02,3.296513259410858154e-01
2.233241945505142212e-01,5.897324681282043457e-01,-4.869918823242187500e-01,-3.809970617294311523e-01,-4.430332183837890625e-01,6.293561458587646484e-01,-4.734616279602050781e-01,-1.104445904493331909e-01,-2.960871160030364990e-01,4.367304146289825439e-01,-6.082549691200256348e-01,2.504239678382873535e-01,1.814206689596176147e-02,3.294386267662048340e-01
1.211031451821327209e-01,5.536375641822814941e-01,-5.651233196258544922e-01,-4.543912410736083984e-01,-4.890002012252807617e-01,6.030941009521484375e-01,-1.888934075832366943e-01,-1.058852076530456543e-01,-1.075766831636428833e-01,2.815648615360260010e-01,-3.499648571014404297e-01,8.111591637134552002e-02,1.259100288152694702e-01,2.908648848533630371e-01
8.600342273712158203e-02,4.659549295902252197e-01,-6.260334253311157227e-01,-3.352221548557281494e-01,-5.120600461959838867e-01,5.264048576354980469e-01,-1.796399205923080444e-01,-4.563376307487487793e-01,-1.301622986793518066e-01,5.105361938476562500e-01,-2.530569136142730713e-01,8.473131060600280762e-02,7.592064887285232544e-02,3.685517907142639160e-01
1.607667468488216400e-02,4.681484103202819824e-01,-5.987958312034606934e-01,-3.344389498233795166e-01,-4.023237526416778564e-01,8.631564974784851074e-01,-2.153717577457427979e-01,-5.654639378190040588e-02,-2.594581246376037598e-01,2.035784721374511719e-01,-3.137029707431793213e-01,1.137934848666191101e-01,2.653740346431732178e-01,1.494751684367656708e-02
9.020882844924926758e-02,4.517577886581420898e-01,-5.239417552947998047e-01,-2.626507580280303955e-01,-4.721210598945617676e-01,5.748733878135681152e-01,-9.293320775032043457e-02,-1.755109280347824097e-01,-1.154027134180068970e-01,4.022660851478576660e-01,-4.314562380313873291e-01,-2.194570749998092651e-02,3.425439894199371338e-01,1.222073212265968323e-01
2.293196618556976318e-01,5.000135898590087891e-01,-4.013384580612182617e-01,6.727562844753265381e-02,-5.935759544372558594e-01,5.842078328132629395e-01,-2.621072828769683838e-01,-3.834289014339447021e-01,3.801479935646057129e-02,2.977021932601928711e-01,-3.522479534149169922e-01,2.242501080036163330e-01,2.326358556747436523e-01,6.361367553472518921e-02
2.074992507696151733e-01,3.727823495864868164e-01,-4.236311316490173340e-01,-2.178296297788619995e-01,-7.072419524192810059e-01,5.721263289451599121e-01,-8.849272131919860840e-02,-5.343738794326782227e-01,2.309193760156631470e-01,5.239730477333068848e-01,-3.903262019157409668e-01,3.617559671401977539e-01,2.985813021659851074e-01,-8.596149832010269165e-02
-7.250736653804779053e-02,3.582907021045684814e-01,-6.535731554031372070e-01,8.080327510833740234e-02,-6.693231463432312012e-01,7.747749090194702148e-01,-2.957292087376117706e-02,-4.377905726432800293e-01,8.563779294490814209e-02,3.341462016105651855e-01,-2.550584971904754639e-01,8.260300755500793457e-02,5.706296563148498535e-01,-5.574740096926689148e-02
-5.140477046370506287e-02,3.897554576396942139e-01,-5.542880296707153320e-01,1.656407862901687622e-02,-6.538601517677307129e-01,7.619182467460632324e-01,8.720646612346172333e-03,-4.059436023235321045e-01,8.554065972566604614e-02,5.720912218093872070e-01,-3.421877920627593994e-01,2.607599198818206787e-01,5.341382026672363281e-01,2.589362263679504395e-01
-8.540388196706771851e-02,4.081602990627288818e-01,-5.188214778900146484e-01,9.207309037446975708e-02,-7.576074004173278809e-01,8.394187688827514648e-01,5.136665701866149902e-02,-3.067356348037719727e-01,3.719860315322875977e-01,4.805759489536285400e-01,-2.378853708505630493e-01,2.845818698406219482e-01,6.066897511482238770e-01,1.268230378627777100e-02
-8.891464024782180786e-02,3.209589421749114990e-01,-3.238404095172882080e-01,1.182856112718582153e-01,-6.678071022033691406e-01,6.324265599250793457e-01,-1.819941215217113495e-02,-4.129274189472198486e-01,2.866872549057006836e-01,5.184554457664489746e-01,-3.371468782424926758e-01,2.329130768775939941e-01,6.051275134086608887e-01,4.700215905904769897e-02
-1.000775173306465149e-01,2.653878033161163330e-01,-2.218053042888641357e-01,4.433088749647140503e-02,-8.161810040473937988e-01,6.933917999267578125e-01,-7.126460969448089600e-02,-2.868146598339080811e-01,5.392044782638549805e-01,6.157448887825012207e-01,-3.086696267127990723e-01,5.486220121383666992e-01,7.403368353843688965e-01,5.700272321701049805e-02
-1.949030160903930664e-01,3.252476155757904053e-01,-5.451556667685508728e-02,2.880672514438629150e-01,-8.439117670059204102e-01,5.291841626167297363e-01,2.447795122861862183e-02,-3.864623010158538818e-01,3.200764656066894531e-01,6.616659164428710938e-01,-3.303794562816619873e-01,3.441158533096313477e-01,7.117463350296020508e-01,4.886965081095695496e-02
-2.789435088634490967e-01,4.567709863185882568e-01,-3.136319816112518311e-01,1.970270425081253052e-01,-6.279444098472595215e-01,7.440431714057922363e-01,-1.068244278430938721e-01,-3.397614657878875732e-01,1.990623921155929565e-01,5.998432636260986328e-01,-2.557434141635894775e-01,4.165374040603637695e-01,7.450481057167053223e-01,-1.162581518292427063e-01
-2.607641220092773438e-01,4.250428080558776855e-01,-2.312164455652236938e-01,4.786255359649658203e-01,-9.483693242073059082e-01,6.945068836212158203e-01,-1.012060344219207764e-01,-2.828335165977478027e-01,3.449405729770660400e-01,6.943140625953674316e-01,-2.475907653570175171e-01,5.819501876831054688e-01,8.115388154983520508e-01,-2.596886754035949707e-01
-1.928464323282241821e-01,2.168356776237487793e-01,-2.886317074298858643e-01,3.409257829189300537e-01,-7.855065464973449707e-01,5.166814923286437988e-01,-1.151954978704452515e-01,-3.049001693725585938e-01,4.117130041122436523e-01,6.875726580619812012e-01,-2.782708108425140381e-01,4.353367388248443604e-01,1.072146296501159668e+00,-8.469522930681705475e-03
-2.240351736545562744e-01,2.044195979833602905e-01,-1.088201701641082764e-01,3.535632491111755371e-01,-7.662655711174011230e-01,9.351179599761962891e-01,-1.369181424379348755e-01,-3.272483646869659424e-01,3.268356025218963623e-01,7.392635941505432129e-01,-1.291188448667526245e-01,7.534664869308471680e-01,7.548646330833435059e-01,-2.126716077327728271e-01
-2.901098690927028656e-02,2.236400991678237915e-01,8.960038423538208008e-02,2.469701468944549561e-01,-6.890196800231933594e-01,9.481919407844543457e-01,-3.107257885858416557e-03,-2.005406618118286133e-01,4.253296852111816406e-01,4.246358871459960938e-01,-8.488711714744567871e-02,6.269142031669616699e-01,1.127721071243286133e+00,-1.018268167972564697e-01
-1.128035783767700195e-01,9.279615432024002075e-02,-2.732074446976184845e-02,3.778235316276550293e-01,-4.934539496898651123e-01,6.941073536872863770e-01,-1.101279482245445251e-01,-1.852970421314239502e-01,6.179275512695312500e-01,6.732005476951599121e-01,-5.394749715924263000e-02,4.944084286689758301e-01,9.923176169395446777e-01,-2.158671319484710693e-01
-4.277634024620056152e-01,3.507523797452449799e-03,1.743400543928146362e-01,1.799205094575881958e-01,-6.818671226501464844e-01,5.751260519027709961e-01,-3.095411360263824463e-01,2.979282476007938385e-02,5.629619956016540527e-01,4.673912227153778076e-01,-6.469359993934631348e-02,5.011906027793884277e-01,8.569766283035278320e-01,-2.094347923994064331e-01
-9.437146037817001343e-02,-9.845658391714096069e-02,1.070701256394386292e-01,6.155370920896530151e-02,-5.505257248878479004e-01,7.545275688171386719e-01,-1.161776781082153320e-01,-8.106861263513565063e-02,5.565000772476196289e-01,4.824416339397430420e-01,2.037733048200607300e-01,5.089331269264221191e-01,1.063487768173217773e+00,-3.403902947902679443e-01
-4.105621576309204102e-01,-1.078054457902908325e-01,2.517512440681457520e-01,3.354837000370025635e-02,-4.590980410575866699e-01,4.520173072814941406e-01,-3.697191551327705383e-02,4.153908416628837585e-02,4.960215687751770020e-01,4.907123744487762451e-01,-1.074553206562995911e-01,6.939967870712280273e-01,8.523003458976745605e-01,-3.382227420806884766e-01
-1.600003540515899658e-01,2.106438279151916504e-01,2.138333320617675781e-01,5.716358311474323273e-03,-4.576101303100585938e-01,4.100098311901092529e-01,-1.195425838232040405e-01,6.302591413259506226e-02,5.769005417823791504e-01,6.475290656089782715e-01,3.604447245597839355e-01,4.297172427177429199e-01,1.015641212463378906e+00,-3.641386628150939941e-01
-2.075819969177246094e-01,9.511610865592956543e-02,2.166108191013336182e-01,1.902473568916320801e-01,-2.582578659057617188e-01,4.341518878936767578e-01,1.093247607350349426e-01,5.396994575858116150e-02,5.631933212280273438e-01,5.506281256675720215e-01,8.722716569900512695e-02,4.878554344177246094e-01,7.928113937377929688e-01,-3.445184826850891113e-01
-2.675699889659881592e-01,-1.165665164589881897e-01,1.332585364580154419e-01,-5.665461719036102295e-02,-1.719456315040588379e-01,5.799890756607055664e-01,-1.901678144931793213e-01,7.893538475036621094e-02,6.056296229362487793e-01,3.910039365291595459e-01,1.405792385339736938e-01,6.241893172264099121e-01,9.307950139045715332e-01,-1.030721515417098999e-01
-1.150349229574203491e-01,-1.856626123189926147e-01,-2.346800826489925385e-02,-8.875817805528640747e-02,-2.165642799809575081e-03,3.863532841205596924e-01,-1.391324996948242188e-01,1.364917010068893433e-01,5.043075084686279297e-01,5.700650811195373535e-01,-2.469536066055297852e-01,6.221765279769897461e-01,7.664650678634643555e-01,-2.432253658771514893e-01
-1.050576940178871155e-01,-1.216033622622489929e-01,2.947640717029571533e-01,-6.330065429210662842e-02,-2.814366519451141357e-01,6.652541160583496094e-01,-3.266599029302597046e-02,2.583993673324584961e-01,5.181955695152282715e-01,3.903212249279022217e-01,2.397869676351547241e-01,5.750862360000610352e-01,7.228962182998657227e-01,-2.204355597496032715e-01
-5.022785067558288574e-01,-3.489673510193824768e-02,1.616163924336433411e-02,-4.922474548220634460e-02,-6.073096022009849548e-02,2.923828363418579102e-01,3.216771781444549561e-02,1.669526845216751099e-02,4.617708921432495117e-01,5.048862695693969727e-01,3.468076586723327637e-01,4.770701229572296143e-01,6.753230690956115723e-01,-1.333038955926895142e-01
-4.235907196998596191e-01,-3.108699023723602295e-01,5.350933969020843506e-02,-1.501552760601043701e-01,6.474678963422775269e-02,4.601512551307678223e-01,3.231893852353096008e-02,1.464008539915084839e-01,5.984857678413391113e-01,4.881915748119354248e-01,2.028964012861251831e-01,6.709946393966674805e-01,6.109924316406250000e-01,-1.528083384037017822e-01
-3.053042292594909668e-01,-2.305382937192916870e-01,-1.618676036596298218e-01,-1.733928322792053223e-01,8.421607315540313721e-02,4.596883952617645264e-01,-4.292242694646120071e-03,2.267019152641296387e-01,6.345455646514892578e-01,3.197674453258514404e-01,4.938787221908569336e-01,8.386843204498291016e-01,5.399850606918334961e-01,-3.051168024539947510e-01
-4.840647578239440918e-01,-3.886473476886749268e-01,-3.573796525597572327e-02,-1.914969980716705322e-01,2.054986357688903809e-01,2.976208925247192383e-01,-1.148774698376655579e-01,1.352624446153640747e-01,5.048380494117736816e-01,3.876885771751403809e-01,3.575562238693237305e-01,6.764436960220336914e-01,6.928094029426574707e-01,-1.435222476720809937e-01
-3.384840488433837891e-01,-1.823135763406753540e-01,-2.208129763603210449e-01,-1.333456635475158691e-01,2.225282043218612671e-01,3.667976856231689453e-01,1.772248297929763794e-01,1.164365261793136597e-01,4.986259043216705322e-01,2.341220080852508545e-01,3.392147719860076904e-01,7.839177846908569336e-01,5.518115758895874023e-01,-2.763244211673736572e-01
-3.844292163848876953e-01,-4.198025763034820557e-01,-1.639607846736907959e-01,-6.349885463714599609e-02,2.220231145620346069e-01,2.283346056938171387e-01,1.167901158332824707e-01,-1.547926757484674454e-02,2.623367905616760254e-01,5.302988886833190918e-01,2.601278126239776611e-01,9.416548013687133789e-01,6.084325313568115234e-01,-1.934218257665634155e-01
-3.692039847373962402e-01,-3.597404062747955322e-01,-1.790683120489120483e-01,-8.688661456108093262e-02,2.973095774650573730e-01,-1.778545044362545013e-02,-3.068461641669273376e-02,5.393317714333534241e-02,4.405204355716705322e-01,6.810037493705749512e-01,4.285154342651367188e-01,8.174321651458740234e-01,5.601300597190856934e-01,2.088775159791111946e-03
-1.656650304794311523e-01,-5.193644762039184570e-01,-2.943491041660308838e-01,-1.204586029052734375e-01,2.948331832885742188e-01,1.482726782560348511e-01,1.044347956776618958e-01,3.593478798866271973e-01,3.484318256378173828e-01,3.814087212085723877e-01,3.297728300094604492e-01,7.327381372451782227e-01,4.337088167667388916e-01,-1.630811989307403564e-01
-3.176223337650299072e-01,-4.765296876430511475e-01,-2.324201166629791260e-01,-3.524322807788848877e-01,5.399338603019714355e-01,-3.679364174604415894e-02,1.501718759536743164e-01,-1.104284077882766724e-01,2.696560323238372803e-01,4.613358676433563232e-01,4.441917538642883301e-01,7.624556422233581543e-01,4.966969788074493408e-01,-2.653972804546356201e-01
-7.985115051269531250e-02,-2.573294639587402344e-01,-3.044042289257049561e-01,-3.592251837253570557e-01,3.566529452800750732e-01,-3.653907403349876404e-02,3.493126630783081055e-01,-2.776956371963024139e-02,3.573122322559356689e-01,4.702399373054504395e-01,5.707808136940002441e-01,9.658835530281066895e-01,3.440633416175842285e-01,-1.827884763479232788e-01
-1.956523656845092773e-01,-4.209846258163452148e-01,-3.896961510181427002e-01,-4.740744084119796753e-02,2.715616822242736816e-01,-2.407929599285125732e-01,7.156503945589065552e-02,7.742790877819061279e-02,1.430877745151519775e-01,4.512579739093780518e-01,5.900099277496337891e-01,8.334023952484130859e-01,1.996791064739227295e-01,-3.129746615886688232e-01
-9.912655502557754517e-02,-3.538361489772796631e-01,-4.249036610126495361e-01,-1.773118078708648682e-01,2.089912593364715576e-01,-1.380595564842224121e-01,3.327276930212974548e-02,-8.292368054389953613e-02,4.956647753715515137e-01,5.116509199142456055e-01,5.023831129074096680e-01,9.000381231307983398e-01,4.143933653831481934e-01,-2.600209116935729980e-01
9.675031900405883789e-02,-2.006527781486511230e-01,-2.764610350131988525e-01,-1.014386788010597229e-01,3.201209902763366699e-01,-2.941643297672271729e-01,4.885612428188323975e-02,-1.042685955762863159e-01,4.422702789306640625e-01,2.728881835937500000e-01,6.683697700500488281e-01,9.094277620315551758e-01,1.623227149248123169e-01,-5.116841197013854980e-01
2.549865543842315674e-01,-5.057082176208496094e-01,-5.361114740371704102e-01,-7.770081609487533569e-02,4.112411141395568848e-01,-3.101117610931396484e-01,5.302810668945312500e-02,2.290166681632399559e-03,4.262322187423706055e-01,3.211625516414642334e-01,3.066756427288055420e-01,7.283400297164916992e-01,1.385402381420135498e-01,-4.120415151119232178e-01
2.252594828605651855e-01,-4.532462954521179199e-01,-6.764861345291137695e-01,-1.547514796257019043e-01,2.024123519659042358e-01,-2.311026155948638916e-01,1.335243135690689087e-01,-1.766875013709068298e-02,4.603428244590759277e-01,3.092310726642608643e-01,4.926787614822387695e-01,6.440176963806152344e-01,2.446853518486022949e-01,-4.180050194263458252e-01
3.336347639560699463e-01,-4.754351079463958740e-01,-4.551304876804351807e-01,-7.997737079858779907e-02,3.710836470127105713e-01,-1.580990254878997803e-01,2.447955608367919922e-01,7.168435957282781601e-03,4.244408905506134033e-01,4.497246444225311279e-02,2.938274145126342773e-01,6.107954978942871094e-01,1.618737429380416870e-01,-3.269850611686706543e-01
3.949724435806274414e-01,-5.770900249481201172e-01,-4.396987259387969971e-01,-3.686483576893806458e-02,5.650164484977722168e-01,-2.180359810590744019e-01,-1.891715638339519501e-02,-3.873363435268402100e-01,4.557920694351196289e-01,2.518835067749023438e-01,3.555448353290557861e-01,6.103423237800598145e-01,7.444541901350021362e-02,-3.718656599521636963e-01
5.137062072753906250e-01,-6.129456162452697754e-01,-4.161599576473236084e-01,-1.674180328845977783e-01,5.678809285163879395e-01,-4.229591786861419678e-01,9.853287786245346069e-02,-2.934071123600006104e-01,5.282446146011352539e-01,2.766680717468261719e-01,4.949122965335845947e-01,4.928287267684936523e-01,-6.665036082267761230e-03,-3.870729207992553711e-01
7.554987668991088867e-01,-9.645355343818664551e-01,-4.392967224121093750e-01,-2.037257701158523560e-01,2.235076427459716797e-01,-3.505108952522277832e-01,-9.057742357254028320e-02,-4.134406447410583496e-01,4.587624073028564453e-01,-1.881769741885364056e-03,2.746859490871429443e-01,3.604202866554260254e-01,-7.975885272026062012e-02,-3.321799039840698242e-01
6.376504898071289062e-01,-7.600547671318054199e-01,-4.094603657722473145e-01,-1.829894781112670898e-01,2.212452441453933716e-01,-2.930145859718322754e-01,-2.943667024374008179e-02,-2.524781823158264160e-01,6.137943863868713379e-01,1.627063192427158356e-02,2.051712572574615479e-01,4.426195323467254639e-01,1.438262313604354858e-01,-1.867141723632812500e-01
3.861307799816131592e-01,-9.674078226089477539e-01,-4.875238835811614990e-01,-1.267541050910949707e-01,1.892730444669723511e-01,-1.630517542362213135e-01,-4.070497676730155945e-02,-3.516117036342620850e-01,4.543247222900390625e-01,-8.519616723060607910e-02,7.767309248447418213e-02,3.041331470012664795e-01,3.874112665653228760e-02,-3.046478927135467529e-01
5.439615249633789062e-01,-8.037143349647521973e-01,-3.619380593299865723e-01,-5.806848779320716858e-02,2.177521288394927979e-01,-1.752099990844726562e-01,-2.361672930419445038e-02,-3.413230478763580322e-01,4.051499962806701660e-01,-1.142917424440383911e-01,8.730001747608184814e-02,5.049277842044830322e-02,2.203536778688430786e-02,-3.222493231296539307e-01
4.639498591423034668e-01,-8.436334133148193359e-01,-5.486674904823303223e-01,-7.553613185882568359e-02,2.938227355480194092e-01,-2.451343834400177002e-02,-1.438062638044357300e-01,-4.568306505680084229e-01,3.209720849990844727e-01,-2.086379826068878174e-01,-4.084489494562149048e-02,1.440995335578918457e-01,2.253605723381042480e-01,-1.191822811961174011e-02
5.180547237396240234e-01,-7.882012724876403809e-01,-3.705018758773803711e-01,-1.280835121870040894e-01,1.649671345949172974e-01,-1.698465943336486816e-01,-1.685916185379028320e-01,-5.751767754554748535e-01,3.556007444858551025e-01,-7.483268529176712036e-02,-5.560904368758201599e-02,2.748520374298095703e-01,1.633825153112411499e-01,-1.758027672767639160e-01
4.472954869270324707e-01,-9.775548577308654785e-01,-3.602144718170166016e-01,-1.683484762907028198e-01,6.168933585286140442e-02,-2.458492368459701538e-01,-2.146130949258804321e-01,-4.256643354892730713e-01,2.218451052904129028e-01,-2.458883225917816162e-01,-3.497445285320281982e-01,6.569008529186248779e-02,6.419104058295488358e-03,-5.713786184787750244e-02
5.644709467887878418e-01,-9.198585748672485352e-01,-3.691999614238739014e-01,1.832170784473419189e-01,1.240469813346862793e-01,-1.332331001758575439e-01,-3.814973235130310059e-01,-5.450683832168579102e-01,3.464041352272033691e-01,-1.995192021131515503e-01,-3.181688189506530762e-01,-2.295820787549018860e-02,2.535610110498964787e-04,5.411006882786750793e-02
6.201817989349365234e-01,-9.150536060333251953e-01,-4.512435197830200195e-01,2.177785150706768036e-02,8.610247075557708740e-02,1.427516192197799683e-01,-3.682490587234497070e-01,-4.601305127143859863e-01,4.925665631890296936e-02,-1.909859925508499146e-01,-4.057602584362030029e-01,2.883253060281276703e-02,-1.059644818305969238e-01,3.498436510562896729e-02
6.827880144119262695e-01,-9.994660615921020508e-01,-6.049927473068237305e-01,2.908950671553611755e-02,-1.168267577886581421e-01,1.007173955440521240e-01,-5.107470750808715820e-01,-5.233415365219116211e-01,1.089058443903923035e-01,-2.318142652511596680e-01,-3.593434989452362061e-01,-2.303368747234344482e-01,1.339374631643295288e-01,1.215512007474899292e-01
6.838222742080688477e-01,-7.329998612403869629e-01,-5.232177972793579102e-01,7.760893553495407104e-02,-1.498271077871322632e-01,5.760804563760757446e-02,-3.140047788619995117e-01,-4.222806692123413086e-01,2.226245217025279999e-02,-2.925861477851867676e-01,-3.734166026115417480e-01,-1.156352162361145020e-01,1.031574308872222900e-01,1.904218643903732300e-01
6.263006925582885742e-01,-8.619441390037536621e-01,-5.288093686103820801e-01,6.375610083341598511e-02,1.631537824869155884e-02,1.639061570167541504e-01,-5.838685035705566406e-01,-4.556036889553070068e-01,6.881979852914810181e-02,-2.504796981811523438e-01,-3.272849917411804199e-01,-1.542987823486328125e-01,6.002288311719894409e-02,4.203665629029273987e-02
5.563956499099731445e-01,-8.391342163085937500e-01,-4.416543543338775635e-01,1.103914435952901840e-02,2.016750425100326538e-01,1.799430251121520996e-01,-5.589814186096191406e-01,-3.409177958965301514e-01,2.161561846733093262e-01,-3.709819614887237549e-01,-5.211181044578552246e-01,-3.098294138908386230e-01,2.395192384719848633e-01,3.035185858607292175e-02
4.845902621746063232e-01,-7.505172491073608398e-01,-4.354323148727416992e-01,8.436085283756256104e-02,2.936479076743125916e-02,2.594079673290252686e-01,-6.235671043395996094e-01,-2.267103344202041626e-01,2.541962862014770508e-01,-3.454622328281402588e-01,-3.223856687545776367e-01,-3.601514101028442383e-01,-8.962406963109970093e-02,6.139729917049407959e-02
5.184740424156188965e-01,-7.329061031341552734e-01,-4.454678595066070557e-01,4.983754083514213562e-02,3.606324642896652222e-02,2.197869569063186646e-01,-7.432689666748046875e-01,-3.382853865623474121e-01,1.189622506499290466e-01,-1.974526941776275635e-01,-5.942618846893310547e-01,-3.676487803459167480e-01,1.687423139810562134e-01,7.029166072607040405e-02
5.167145729064941406e-01,-6.763224005699157715e-01,-3.562027215957641602e-01,1.717509329319000244e-01,-2.399894408881664276e-02,1.625916957855224609e-01,-5.980995297431945801e-01,-4.024167656898498535e-01,1.107158660888671875e-01,-3.703988194465637207e-01,-2.253209799528121948e-01,-3.688586056232452393e-01,-1.222850754857063293e-01,3.699504137039184570e-01
5.499292612075805664e-01,-6.235585808753967285e-01,-4.143929779529571533e-01,-8.955473452806472778e-02,-8.664660155773162842e-02,2.634674496948719025e-02,-5.611826777458190918e-01,-3.423342406749725342e-01,1.903239078819751740e-02,-2.693330049514770508e-01,-4.301544427871704102e-01,-4.907166957855224609e-01,-2.080854475498199463e-01,1.452910751104354858e-01
3.651769161224365234e-01,-6.399171948432922363e-01,-2.882361710071563721e-01,3.413062542676925659e-02,1.426702272146940231e-02,-9.172273427248001099e-02,-4.545456469058990479e-01,-3.296878635883331299e-01,2.221086174249649048e-01,2.535413205623626709e-02,-5.307099223136901855e-01,-6.015208959579467773e-01,-2.759171724319458008e-01,4.499590098857879639e-01
5.682300329208374023e-01,-4.571425616741180420e-01,-5.036598443984985352e-01,-3.618938475847244263e-02,-1.591393351554870605e-01,5.359226092696189880e-02,-7.362242341041564941e-01,-2.912482023239135742e-01,1.971843987703323364e-01,-1.383955329656600952e-01,-4.224686920642852783e-01,-7.244777679443359375e-01,-3.234117329120635986e-01,1.520057320594787598e-01
6.581212878227233887e-01,-4.935712218284606934e-01,-3.026167750358581543e-01,3.660434484481811523e-02,1.751282513141632080e-01,1.352261900901794434e-01,-4.087580144405364990e-01,-4.645847082138061523e-01,-7.541249692440032959e-02,-2.357421815395355225e-02,-4.881819486618041992e-01,-7.577337622642517090e-01,-2.778555452823638916e-01,2.127304226160049438e-01
4.807951748371124268e-01,-3.177367150783538818e-01,-3.672112226486206055e-01,2.458310686051845551e-03,-2.191961184144020081e-02,-1.376490294933319092e-02,-4.604133367538452148e-01,-3.027643263339996338e-01,1.172439903020858765e-01,-2.172338813543319702e-01,-2.862938344478607178e-01,-5.691547989845275879e-01,-4.213699996471405029e-01,2.728365361690521240e-01
5.589006543159484863e-01,-3.426779806613922119e-01,-3.434322476387023926e-01,2.670402526855468750e-01,-1.233143955469131470e-01,1.346386075019836426e-01,-5.873089432716369629e-01,-5.171846151351928711e-01,6.221973523497581482e-02,-2.955228984355926514e-01,-4.019069969654083252e-01,-5.967124104499816895e-01,-7.228241115808486938e-02,3.361862599849700928e-01
2.419583797454833984e-01,-2.859273552894592285e-01,-3.374049365520477295e-01,2.511212602257728577e-02,-8.607587218284606934e-02,9.016017615795135498e-02,-3.457088768482208252e-01,-5.367816686630249023e-01,-5.523880198597908020e-02,-2.507856488227844238e-01,-3.227615058422088623e-01,-5.440146327018737793e-01,-2.376787066459655762e-01,1.862720698118209839e-01
5.279187560081481934e-01,-7.701142877340316772e-02,-4.476832151412963867e-01,3.653786182403564453e-01,-1.871595531702041626e-01,1.747344806790351868e-02,-5.151944756507873535e-01,-4.641782045364379883e-01,5.235831439495086670e-02,-4.648850858211517334e-02,-6.831640005111694336e-01,-5.237001180648803711e-01,-2.349041998386383057e-01,7.318867743015289307e-02
2.574649155139923096e-01,-1.442100405693054199e-01,-2.965533137321472168e-01,8.639901131391525269e-02,-2.662257552146911621e-01,2.965396642684936523e-02,-3.123432397842407227e-01,-4.576856493949890137e-01,1.913038343191146851e-01,-2.087473124265670776e-01,-6.256501674652099609e-01,-5.228209495544433594e-01,-4.076253250241279602e-02,2.799435257911682129e-01
1.340423226356506348e-01,4.158906266093254089e-02,-2.833059430122375488e-01,3.381898105144500732e-01,-2.404988855123519897e-01,1.677247285842895508e-01,-3.981125056743621826e-01,-4.353742897510528564e-01,1.143387854099273682e-01,5.260141193866729736e-02,-5.895043611526489258e-01,-5.800847411155700684e-01,4.197778925299644470e-02,1.873592883348464966e-01
1.328123062849044800e-01,-2.316734753549098969e-02,-3.506455123424530029e-01,1.620806306600570679e-01,-3.338470757007598877e-01,-4.813876003026962280e-02,-2.124681919813156128e-01,-6.958863735198974609e-01,4.885069653391838074e-02,5.205329507589340210e-02,-4.701007604598999023e-01,-5.788503289222717285e-01,1.038669273257255554e-01,1.286044269800186157e-01
9.472837299108505249e-02,4.768093582242727280e-03,-4.317710101604461670e-01,5.569194555282592773e-01,-2.836756408214569092e-01,7.761054486036300659e-02,-3.220735788345336914e-01,-6.575245261192321777e-01,2.618050277233123779e-01,8.716376870870590210e-02,-3.783617615699768066e-01,-6.528013348579406738e-01,-1.928505599498748779e-01,2.303650975227355957e-01
2.034816145896911621e-01,-2.830170467495918274e-02,-3.046386241912841797e-01,5.456982851028442383e-01,-3.412827849388122559e-01,3.303802385926246643e-02,-3.127143085002899170e-01,-5.675195455551147461e-01,1.610759049654006958e-01,-3.127938881516456604e-02,-5.133998990058898926e-01,-3.891006708145141602e-01,-5.556486546993255615e-02,1.117673069238662720e-01
2.938252985477447510e-01,2.767615914344787598e-01,-2.697305679321289062e-01,6.627602577209472656e-01,-3.498069345951080322e-01,1.974265426397323608e-01,-1.316930502653121948e-01,-6.737084984779357910e-01,3.841107785701751709e-01,-1.231146417558193207e-02,-2.586046755313873291e-01,-3.176040351390838623e-01,-1.099525466561317444e-01,3.090682730544358492e-05
3.640360832214355469e-01,1.943668425083160400e-01,-2.513108253479003906e-01,4.027346372604370117e-01,-2.261625677347183228e-01,2.308381497859954834e-01,-2.175738215446472168e-01,-6.181998252868652344e-01,4.781701862812042236e-01,2.290969192981719971e-01,-3.474972546100616455e-01,-2.637925446033477783e-01,3.194415569305419922e-01,4.011526703834533691e-02
2.445011883974075317e-01,3.664599955081939697e-01,-1.103457063436508179e-01,6.142615079879760742e-01,-3.333364725112915039e-01,-9.862140566110610962e-02,-6.458228826522827148e-02,-4.797661900520324707e-01,1.937469989061355591e-01,2.413997054100036621e-01,-4.121380448341369629e-01,-2.788262665271759033e-01,2.012048065662384033e-01,-1.940926164388656616e-01
1.430497169494628906e-01,1.428902000188827515e-01,1.175773143768310547e-01,7.944124937057495117e-01,-4.550097882747650146e-01,-6.015331670641899109e-02,-1.262696981430053711e-01,-6.166111230850219727e-01,4.138967692852020264e-01,4.057642817497253418e-01,-2.549893856048583984e-01,-2.638089656829833984e-01,2.220850139856338501e-01,-2.345922738313674927e-01
3.251029253005981445e-01,2.526960074901580811e-01,-1.065139696002006531e-01,7.771949172019958496e-01,-5.076888799667358398e-01,-5.668610334396362305e-02,-2.320439517498016357e-01,-3.577819466590881348e-01,8.200030922889709473e-01,1.300652474164962769e-01,-3.319919705390930176e-01,-4.807468056678771973e-01,2.980842292308807373e-01,-1.678273081779479980e-01
3.737149536609649658e-01,3.487750589847564697e-01,2.398961335420608521e-01,6.802828311920166016e-01,-5.321071743965148926e-01,-3.110579252243041992e-01,-9.237504750490188599e-02,-5.046079754829406738e-01,7.154541611671447754e-01,3.099836707115173340e-01,-4.150281250476837158e-01,-3.611338436603546143e-01,1.949644535779953003e-01,-1.985032260417938232e-01
2.233993858098983765e-01,4.313464760780334473e-01,3.315109908580780029e-01,5.724817514419555664e-01,-5.221193432807922363e-01,-1.381732523441314697e-01,-1.004305854439735413e-02,-5.406173467636108398e-01,5.645034313201904297e-01,1.606495827436447144e-01,-3.237828016281127930e-01,-4.678656458854675293e-01,4.302259683609008789e-01,-4.192155599594116211e-01
3.335462510585784912e-01,2.641913890838623047e-01,1.486329436302185059e-01,8.563172817230224609e-01,-5.472114086151123047e-01,-9.451877325773239136e-02,-4.211429879069328308e-02,-1.957086175680160522e-01,7.686581611633300781e-01,3.284067213535308838e-01,-3.559133112430572510e-01,-3.707503974437713623e-01,3.417613506317138672e-01,-5.527340769767761230e-01
2.834926843643188477e-01,2.766145169734954834e-01,2.476433515548706055e-01,7.487909197807312012e-01,-5.299922823905944824e-01,-2.007640749216079712e-01,1.280540972948074341e-01,-1.768987476825714111e-01,5.904612541198730469e-01,2.257620394229888916e-01,-4.252513349056243896e-01,-3.916946649551391602e-01,4.156796336174011230e-01,-5.736804008483886719e-01
3.714813590049743652e-01,3.208356201648712158e-01,5.729743242263793945e-01,7.575055956840515137e-01,-4.947304725646972656e-01,7.701885700225830078e-02,8.885856717824935913e-03,-2.299404144287109375e-01,7.106598615646362305e-01,2.734462916851043701e-02,-2.437111437320709229e-01,-4.470857977867126465e-01,3.754113316535949707e-01,-5.395531654357910156e-01
2.079908549785614014e-01,2.743741571903228760e-01,7.378817200660705566e-01,6.345215439796447754e-01,-5.205488801002502441e-01,-1.086412370204925537e-01,3.202403709292411804e-02,-1.617626994848251343e-01,6.869902014732360840e-01,7.536519318819046021e-02,-1.350667923688888550e-01,-3.473708331584930420e-01,4.561904072761535645e-01,-6.915387511253356934e-01
4.479035139083862305e-01,2.814813852310180664e-01,5.260242223739624023e-01,7.419709563255310059e-01,-5.235751271247863770e-01,-3.198623657226562500e-01,2.132246643304824829e-01,-3.491262793540954590e-01,7.214114069938659668e-01,-1.506302654743194580e-01,-1.768006384372711182e-01,-5.502043366432189941e-01,3.462291359901428223e-01,-4.596047997474670410e-01
2.249928265810012817e-01,3.681753575801849365e-01,8.047789931297302246e-01,5.997369289398193359e-01,-5.106088519096374512e-01,-2.126248329877853394e-01,9.289018809795379639e-02,-1.770548969507217407e-01,8.781330585479736328e-01,-7.745972275733947754e-02,-4.850273728370666504e-01,-3.520325720310211182e-01,3.971610963344573975e-01,-6.267480254173278809e-01
3.683062493801116943e-01,2.791800796985626221e-01,6.853868961334228516e-01,4.862508773803710938e-01,-5.857199430465698242e-01,-1.035107299685478210e-01,1.501452475786209106e-01,-1.543893814086914062e-01,9.157106280326843262e-01,7.401820272207260132e-02,-4.520952105522155762e-01,-4.884137809276580811e-01,5.073980689048767090e-01,-6.398316621780395508e-01
4.997016489505767822e-01,9.422830492258071899e-02,7.260221838951110840e-01,4.793994128704071045e-01,-3.581019341945648193e-01,2.812447212636470795e-02,-1.285281330347061157e-01,-1.512851268053054810e-01,9.440017938613891602e-01,-1.114466562867164612e-01,-3.252535760402679443e-01,-2.606807947158813477e-01,6.111050248146057129e-01,-4.371587634086608887e-01
2.838898897171020508e-01,1.706097722053527832e-01,7.273182272911071777e-01,5.655591487884521484e-01,-5.970922708511352539e-01,-9.879245422780513763e-03,2.117801159620285034e-01,-1.634462475776672363e-01,8.740645647048950195e-01,-1.042865887284278870e-01,-4.176357984542846680e-01,-5.792073607444763184e-01,5.138556957244873047e-01,-4.757394492626190186e-01
1.124534010887145996e-01,4.025297462940216064e-01,8.637937307357788086e-01,4.132431447505950928e-01,-5.130758881568908691e-01,-1.877166181802749634e-01,1.082615330815315247e-01,9.650746732950210571e-02,6.175086498260498047e-01,-2.904248610138893127e-02,-3.743241727352142334e-01,-1.400499790906906128e-01,5.730420351028442383e-01,-6.810782551765441895e-01
2.874549031257629395e-01,1.302228122949600220e-01,9.496662020683288574e-01,5.953122377395629883e-01,-5.467457175254821777e-01,-1.413702219724655151e-01,2.169402241706848145e-01,1.585270017385482788e-01,6.905548572540283203e-01,-2.043001651763916016e-01,-3.007367625832557678e-02,-4.491735100746154785e-01,4.962272942066192627e-01,-7.202855944633483887e-01
2.774949669837951660e-01,3.972372505813837051e-03,9.061341285705566406e-01,5.021255612373352051e-01,-2.905027866363525391e-01,-3.928381949663162231e-02,9.384499490261077881e-02,1.412602365016937256e-01,5.460534095764160156e-01,-3.045540675520896912e-02,-3.434075415134429932e-01,-2.639511227607727051e-01,3.992953300476074219e-01,-5.581054091453552246e-01
1.967602521181106567e-01,8.378437720239162445e-03,6.980322003364562988e-01,3.914451003074645996e-01,-4.359273016452789307e-01,-8.237973600625991821e-02,3.004175843670964241e-03,2.540582716464996338e-01,5.808119177818298340e-01,-1.259774565696716309e-01,-3.375075459480285645e-01,-1.967651546001434326e-01,5.362433791160583496e-01,-4.972407817840576172e-01
1.497800797224044800e-01,1.294329613447189331e-01,9.534718990325927734e-01,2.843610048294067383e-01,-2.761697173118591309e-01,-1.748512983322143555e-01,9.309823065996170044e-02,2.916061878204345703e-01,6.236006021499633789e-01,-2.432602494955062866e-01,-1.636337488889694214e-01,-2.736688554286956787e-01,3.768875002861022949e-01,-5.842263698577880859e-01
7.780504971742630005e-02,8.436135947704315186e-02,8.073046207427978516e-01,2.047665268182754517e-01,-3.517495468258857727e-02,-7.073377817869186401e-02,-9.530265629291534424e-02,2.691034078598022461e-01,5.034837126731872559e-01,-2.726609408855438232e-01,-3.284545242786407471e-01,-2.277971655130386353e-01,3.839190900325775146e-01,-6.180198192596435547e-01
4.546570032835006714e-02,-4.320244863629341125e-02,5.435960888862609863e-01,1.740938574075698853e-01,-1.915895938873291016e-01,-1.169199347496032715e-01,-9.849070757627487183e-02,5.245229601860046387e-01,7.078650593757629395e-01,-1.343971937894821167e-01,-1.906371861696243286e-01,-5.280437320470809937e-02,2.711372077465057373e-01,-6.186355352401733398e-01
1.019592359662055969e-01,2.461319565773010254e-01,9.823609590530395508e-01,3.013256192207336426e-01,-2.225713878870010376e-01,-3.063751757144927979e-01,-8.680258877575397491e-03,3.665762245655059814e-01,4.162447452545166016e-01,-4.409941136837005615e-01,-2.031295597553253174e-01,-1.670402940362691879e-03,3.077163100242614746e-01,-6.013526916503906250e-01
2.670429050922393799e-01,6.785716116428375244e-02,7.678480148315429688e-01,3.323034569621086121e-02,-6.859085708856582642e-02,-4.476525783538818359e-01,3.585800155997276306e-02,4.016973972320556641e-01,3.806430995464324951e-01,-5.272956490516662598e-01,1.732191070914268494e-02,-2.926902286708354950e-02,1.431470215320587158e-01,-6.368289589881896973e-01
1.508519500494003296e-01,-8.503066003322601318e-02,6.797568202018737793e-01,1.485869884490966797e-01,-5.548334494233131409e-02,-5.436006784439086914e-01,-3.334455192089080811e-02,4.120942056179046631e-01,5.999330282211303711e-01,-3.621028065681457520e-01,2.020991742610931396e-01,-2.941308543086051941e-02,2.363726645708084106e-01,-7.150279283523559570e-01
2.003144323825836182e-01,-3.387183882296085358e-03,6.252233386039733887e-01,-1.872347742319107056e-01,1.683468073606491089e-01,-2.984291613101959229e-01,-3.236202895641326904e-02,5.010046958923339844e-01,4.214040637016296387e-01,-4.923371076583862305e-01,1.000491902232170105e-01,1.770559884607791901e-02,-5.843011289834976196e-02,-6.594999432563781738e-01
2.958681285381317139e-01,1.717788577079772949e-01,7.936753630638122559e-01,-3.317422270774841309e-01,-5.083058029413223267e-02,-2.294605225324630737e-01,-4.530027136206626892e-02,4.554235935211181641e-01,3.179582357406616211e-01,-3.176025152206420898e-01,-6.250971555709838867e-02,9.465590864419937134e-02,-2.129582315683364868e-01,-9.626426100730895996e-01
2.952649295330047607e-01,1.794144958257675171e-01,6.155558824539184570e-01,-2.952235639095306396e-01,3.032436408102512360e-02,-7.155240178108215332e-01,1.245509907603263855e-01,4.496647715568542480e-01,1.732475310564041138e-01,-3.345721364021301270e-01,1.404836177825927734e-01,1.127986162900924683e-01,-7.830981165170669556e-02,-6.730107069015502930e-01
2.570237219333648682e-01,1.021258905529975891e-01,5.480546355247497559e-01,-2.247617989778518677e-01,1.399235427379608154e-01,-8.042272925376892090e-01,7.452356815338134766e-02,6.994692683219909668e-01,1.964061558246612549e-01,-3.868374824523925781e-01,-2.074902877211570740e-02,1.873684674501419067e-01,-8.475835621356964111e-02,-8.289391994476318359e-01
3.074771761894226074e-01,1.676428318023681641e-01,6.626719236373901367e-01,-2.179331332445144653e-01,1.486452668905258179e-01,-6.651401519775390625e-01,1.218985021114349365e-01,4.320597648620605469e-01,4.307364225387573242e-01,-3.569507300853729248e-01,3.138744533061981201e-01,3.005125522613525391e-01,-2.184662669897079468e-01,-4.661517143249511719e-01
5.100506544113159180e-01,-3.682187944650650024e-02,5.121514201164245605e-01,-2.934605777263641357e-01,2.034367769956588745e-01,-7.158144712448120117e-01,1.119532585144042969e-01,4.391560256481170654e-01,2.882287502288818359e-01,-4.094676375389099121e-01,3.487162292003631592e-02,3.564063832163810730e-02,-3.141048923134803772e-02,-6.391316056251525879e-01
4.248320162296295166e-01,-4.110494628548622131e-02,4.421890676021575928e-01,-1.756940633058547974e-01,1.974167376756668091e-01,-6.971452832221984863e-01,3.846135362982749939e-02,4.357022643089294434e-01,9.545038640499114990e-02,-4.961926937103271484e-01,1.281865593045949936e-02,9.194263815879821777e-02,-2.247085273265838623e-01,-7.102315425872802734e-01
4.059439003467559814e-01,-1.414396911859512329e-01,4.127980172634124756e-01,-3.926751017570495605e-01,2.053758651018142700e-01,-7.123437523841857910e-01,2.032180577516555786e-01,3.239339590072631836e-01,1.507381796836853027e-01,-4.705238938331604004e-01,9.137614816427230835e-02,1.492710560560226440e-01,-2.111331820487976074e-01,-6.020916104316711426e-01
5.395847558975219727e-01,-2.145231962203979492e-01,4.747241735458374023e-01,-1.746901720762252808e-01,1.330193504691123962e-02,-6.013442873954772949e-01,2.008465491235256195e-02,1.792530715465545654e-01,3.150286078453063965e-01,-6.429134607315063477e-01,1.249745413661003113e-01,2.721964418888092041e-01,-1.638720482587814331e-01,-6.410800814628601074e-01
4.970823228359222412e-01,-2.447795122861862183e-01,4.392663836479187012e-01,-3.697960674762725830e-01,5.122357606887817383e-02,-5.282378196716308594e-01,2.021890878677368164e-01,3.054251074790954590e-01,2.158749103546142578e-01,-4.482578933238983154e-01,-4.963044077157974243e-02,2.908580005168914795e-01,-1.707440614700317383e-01,-4.204168319702148438e-01
5.703810453414916992e-01,-2.472900450229644775e-01,5.211710333824157715e-01,-1.954583376646041870e-01,1.822097301483154297e-01,-7.043590545654296875e-01,1.427346561104059219e-02,2.753541991114616394e-02,-5.643238499760627747e-02,-6.626383066177368164e-01,-1.789727658033370972e-01,2.244321256875991821e-01,-1.022710278630256653e-01,-8.797613978385925293e-01
6.299216747283935547e-01,-1.876253634691238403e-01,1.619025468826293945e-01,-2.398196905851364136e-01,2.086165249347686768e-01,-8.106625080108642578e-01,-7.727747410535812378e-02,-7.780370116233825684e-02,-7.725562155246734619e-02,-5.088004469871520996e-01,4.911508876830339432e-04,3.180279731750488281e-01,-3.129592239856719971e-01,-5.734059810638427734e-01
6.955434083938598633e-01,-1.170543208718299866e-01,1.551859676837921143e-01,-8.873206377029418945e-02,-8.613711595535278320e-02,-6.595507264137268066e-01,-2.862916141748428345e-02,-1.026394404470920563e-02,-1.100869029760360718e-01,-6.824986338615417480e-01,-8.399976789951324463e-02,2.376841157674789429e-01,-1.655582785606384277e-01,-4.557991623878479004e-01
6.222404837608337402e-01,-1.928754597902297974e-01,1.622309237718582153e-01,1.993999257683753967e-02,-7.370024174451828003e-02,-5.525155663490295410e-01,-2.093949317932128906e-01,6.643524020910263062e-02,-4.807129874825477600e-02,-6.793432831764221191e-01,-8.382739126682281494e-02,2.622543275356292725e-01,-2.522781305015087128e-02,-5.402901172637939453e-01
7.082166075706481934e-01,-2.616536021232604980e-01,2.505660951137542725e-01,-1.874920576810836792e-01,-1.117278710007667542e-01,-6.627959012985229492e-01,-3.828556239604949951e-01,1.290272176265716553e-02,-9.699662029743194580e-02,-3.905946612358093262e-01,-3.608368635177612305e-01,1.690298318862915039e-01,-5.014025140553712845e-03,-5.010039806365966797e-01
6.805794835090637207e-01,-3.804464936256408691e-01,3.759194612503051758e-01,-1.170452386140823364e-01,-1.290639638900756836e-01,-5.550622940063476562e-01,-2.612128257751464844e-01,-2.350614815950393677e-01,-1.111130714416503906e-01,-7.734377384185791016e-01,-1.387869715690612793e-01,9.570813924074172974e-02,-1.850247979164123535e-01,-4.726899266242980957e-01
9.510210156440734863e-01,-6.471124887466430664e-01,3.463018834590911865e-01,-1.383020449429750443e-02,-1.738382130861282349e-01,-6.010363101959228516e-01,-4.398121535778045654e-01,-1.581061333417892456e-01,-3.572972416877746582e-01,-3.744944632053375244e-01,-2.366164028644561768e-01,1.022546365857124329e-01,-1.873834133148193359e-01,-4.077033102512359619e-01
7.686575055122375488e-01,-4.823352992534637451e-01,3.549256594851613045e-03,-1.667061895132064819e-01,-1.809851527214050293e-01,-5.702511072158813477e-01,-3.273250460624694824e-01,-1.720367819070816040e-01,-6.102713197469711304e-02,-7.676940560340881348e-01,-2.840172946453094482e-01,-5.738236010074615479e-02,-8.527573198080062866e-02,-4.267925024032592773e-01
8.998142480850219727e-01,-4.389820992946624756e-01,6.751363724470138550e-02,-2.944130897521972656e-01,-1.002374961972236633e-01,-6.400474905967712402e-01,-3.756989240646362305e-01,-1.879779994487762451e-01,-3.424277901649475098e-01,-6.232918500900268555e-01,-2.369432151317596436e-01,-1.833702325820922852e-01,-1.489419192075729370e-01,-4.193225204944610596e-01
9.684919118881225586e-01,-5.835382938385009766e-01,2.345358580350875854e-01,-7.923588901758193970e-02,-1.639589518308639526e-01,-5.082542896270751953e-01,-5.639931559562683105e-01,-2.726704180240631104e-01,-2.616469860076904297e-01,-7.741949558258056641e-01,-1.500659137964248657e-01,4.342353716492652893e-02,-2.401865273714065552e-01,-2.747264504432678223e-01
7.043852806091308594e-01,-5.352918505668640137e-01,2.005533576011657715e-01,-3.338623344898223877e-01,-8.469440788030624390e-02,-2.807640731334686279e-01,-5.648084878921508789e-01,-2.629809975624084473e-01,-3.686066567897796631e-01,-7.626436352729797363e-01,-3.500812649726867676e-01,-1.749857068061828613e-01,-5.602309480309486389e-02,-3.129052519798278809e-01
1.069914937019348145e+00,-5.677262544631958008e-01,1.120746955275535583e-01,8.338742703199386597e-02,-1.409793552011251450e-02,-4.379188120365142822e-01,-6.550095677375793457e-01,-2.493919134140014648e-01,-3.032705783843994141e-01,-7.351909279823303223e-01,-5.968502759933471680e-01,-2.387936562299728394e-01,-5.718223378062248230e-02,-2.467037588357925415e-01
9.425124526023864746e-01,-7.698463201522827148e-01,2.052554637193679810e-01,-2.705020606517791748e-01,-2.893550992012023926e-01,-3.004896044731140137e-01,-8.034284710884094238e-01,-1.888077259063720703e-01,-4.659233391284942627e-01,-8.234360814094543457e-01,-4.223945140838623047e-01,-3.307083249092102051e-01,-1.421178430318832397e-01,-2.656495571136474609e-01
9.242758750915527344e-01,-8.969423174858093262e-01,2.007279992103576660e-01,-2.577493786811828613e-01,-4.311128854751586914e-01,-2.005649209022521973e-01,-6.952541470527648926e-01,-1.693180501461029053e-01,-5.681295990943908691e-01,-9.325046539306640625e-01,-4.928944408893585205e-01,-4.562501609325408936e-01,-7.382094115018844604e-02,-8.971185982227325439e-02
9.024527668952941895e-01,-7.225381731986999512e-01,2.398658245801925659e-01,-1.403498798608779907e-01,-2.651340365409851074e-01,-3.219627141952514648e-01,-7.423280477523803711e-01,-3.745032250881195068e-01,-5.427694320678710938e-01,-8.242881894111633301e-01,-5.770104527473449707e-01,-5.483419895172119141e-01,-3.641955852508544922e-01,-1.332942396402359009e-01
7.858307957649230957e-01,-7.391422986984252930e-01,1.530523747205734253e-01,-1.963108628988265991e-01,-2.241632938385009766e-01,4.346086457371711731e-02,-9.107145071029663086e-01,-3.455516397953033447e-01,-2.931350767612457275e-01,-1.000660181045532227e+00,-5.075047016143798828e-01,-3.917192518711090088e-01,-2.035105675458908081e-01,9.932441264390945435e-02
7.560564875602722168e-01,-5.196347236633300781e-01,-6.093339249491691589e-02,-2.392912209033966064e-01,-1.097398921847343445e-01,-4.606528952717781067e-02,-9.277495145797729492e-01,-5.119630098342895508e-01,-4.391550123691558838e-01,-7.887331843376159668e-01,-3.715019822120666504e-01,-4.711697101593017578e-01,-8.137367665767669678e-02,1.481040716171264648e-01
6.863272190093994141e-01,-6.237791180610656738e-01,-2.451518476009368896e-01,-2.268195003271102905e-01,-2.758851647377014160e-01,4.513286426663398743e-02,-9.618718624114990234e-01,-4.553283154964447021e-01,-4.597520530223846436e-01,-9.117831587791442871e-01,-7.699233889579772949e-01,-5.150697231292724609e-01,-2.202218957245349884e-02,2.803499102592468262e-01
7.358739376068115234e-01,-6.397828459739685059e-01,2.372808381915092468e-02,-2.513533234596252441e-01,-4.115367829799652100e-01,2.296249195933341980e-02,-1.024985790252685547e+00,-5.246016383171081543e-01,-4.442610144615173340e-01,-8.637604117393493652e-01,-6.733934283256530762e-01,-4.730595350265502930e-01,-1.148964539170265198e-01,6.281286478042602539e-01
3.763820230960845947e-01,-6.492149829864501953e-01,5.582268815487623215e-03,-3.588434308767318726e-02,-3.993052840232849121e-01,1.316280215978622437e-01,-9.496172666549682617e-01,-5.001438856124877930e-01,-5.145133733749389648e-01,-8.038055896759033203e-01,-7.123082876205444336e-01,-4.438262879848480225e-01,-1.916840970516204834e-01,4.577617645263671875e-01
3.955674469470977783e-01,-4.676041901111602783e-01,-1.608064025640487671e-01,-2.238110154867172241e-01,-3.087165057659149170e-01,1.444801092147827148e-01,-9.539365768432617188e-01,-6.159605383872985840e-01,-8.000521659851074219e-01,-9.251931309700012207e-01,-5.457862615585327148e-01,-4.479016959667205811e-01,-1.191104017198085785e-02,5.772207975387573242e-01
2.690493166446685791e-01,-5.549193024635314941e-01,-9.581863135099411011e-02,6.976412981748580933e-02,-2.776110172271728516e-01,3.182384669780731201e-01,-1.025198340415954590e+00,-4.087957739830017090e-01,-7.919740080833435059e-01,-9.724985361099243164e-01,-7.047857642173767090e-01,-6.086162924766540527e-01,-1.088636443018913269e-01,6.337280273437500000e-01
2.967382073402404785e-01,-7.755263447761535645e-01,-1.811781078577041626e-01,-1.285365223884582520e-02,-3.234060704708099365e-01,2.547177672386169434e-01,-1.073893666267395020e+00,-4.450529217720031738e-01,-6.998686790466308594e-01,-7.652085423469543457e-01,-6.137068867683410645e-01,-5.477885007858276367e-01,-1.711591780185699463e-01,6.606056690216064453e-01
3.174924552440643311e-01,-6.405076980590820312e-01,-1.897795945405960083e-01,1.123078837990760803e-01,-5.008929371833801270e-01,3.210896849632263184e-01,-1.039974808692932129e+00,-5.595369935035705566e-01,-8.758018612861633301e-01,-4.251845180988311768e-01,-6.223720312118530273e-01,-5.728703737258911133e-01,-2.017810493707656860e-01,7.573888897895812988e-01
9.202721714973449707e-02,-4.740341901779174805e-01,-3.343270421028137207e-01,2.482712268829345703e-02,-3.398841619491577148e-01,4.900553524494171143e-01,-9.753822088241577148e-01,-8.356529474258422852e-01,-8.897349238395690918e-01,-4.953989684581756592e-01,-6.400738954544067383e-01,-3.276151716709136963e-01,-9.498428553342819214e-02,6.822691559791564941e-01
1.817711442708969116e-02,-4.455853998661041260e-01,-3.862657248973846436e-01,9.422876685857772827e-02,-1.935842335224151611e-01,3.096754848957061768e-01,-9.228347539901733398e-01,-5.836545228958129883e-01,-8.389605879783630371e-01,-5.472359061241149902e-01,-4.651983678340911865e-01,-3.746898770332336426e-01,1.151981428265571594e-01,7.798610329627990723e-01
2.580561935901641846e-01,-2.911413609981536865e-01,-3.739480972290039062e-01,1.486147940158843994e-01,-4.601807892322540283e-01,3.278696238994598389e-01,-1.048414230346679688e+00,-7.381282448768615723e-01,-7.109791636466979980e-01,-3.197173476219177246e-01,-1.793682128190994263e-01,-4.785189926624298096e-01,3.609078377485275269e-02,7.112724781036376953e-01
1.661692261695861816e-01,-2.325173169374465942e-01,-2.459541857242584229e-01,1.693607121706008911e-01,-2.537354230880737305e-01,1.821746826171875000e-01,-7.383803725242614746e-01,-6.516802906990051270e-01,-8.349159359931945801e-01,-1.860202699899673462e-01,-3.938824832439422607e-01,-4.536299407482147217e-01,-2.739015221595764160e-01,7.057816386222839355e-01
1.077764928340911865e-01,-2.144851833581924438e-01,-3.497233688831329346e-01,1.878433525562286377e-01,-8.831176906824111938e-02,4.140728116035461426e-01,-1.125554680824279785e+00,-6.480323672294616699e-01,-6.915606260299682617e-01,-9.298934042453765869e-02,-2.891938984394073486e-01,-5.377793312072753906e-01,8.439398556947708130e-02,7.319954633712768555e-01
4.606551676988601685e-02,-2.784386575222015381e-01,-2.355838567018508911e-01,1.529051065444946289e-01,-3.627038598060607910e-01,1.330678611993789673e-01,-8.734986782073974609e-01,-7.355180382728576660e-01,-9.701913595199584961e-01,-1.404961347579956055e-01,-2.134177386760711670e-01,-3.301753103733062744e-01,-5.865783616900444031e-02,7.894525527954101562e-01
1.198545992374420166e-01,9.141137450933456421e-02,-4.352718591690063477e-01,3.921255171298980713e-01,-2.372699230909347534e-01,4.821068048477172852e-01,-8.054450750350952148e-01,-5.913329720497131348e-01,-6.406689882278442383e-01,3.525506332516670227e-02,-2.392832487821578979e-01,-3.387325108051300049e-01,-2.269447222352027893e-02,5.849306583404541016e-01
-2.691118419170379639e-01,8.082588016986846924e-02,-3.636274635791778564e-01,3.530670404434204102e-01,-4.147344529628753662e-01,4.450703561305999756e-01,-6.743687987327575684e-01,-8.189852833747863770e-01,-5.615404844284057617e-01,1.369443722069263458e-03,5.829485505819320679e-02,-3.966203033924102783e-01,1.116918250918388367e-01,8.609805703163146973e-01
-2.090787738561630249e-01,8.032049983739852905e-02,-5.012212395668029785e-01,4.718621671199798584e-01,-2.755077481269836426e-01,5.297261849045753479e-02,-4.548222422599792480e-01,-6.685145497322082520e-01,-6.783858537673950195e-01,3.365727141499519348e-02,-2.878041006624698639e-02,-2.890346571803092957e-02,1.106682866811752319e-01,5.052213668823242188e-01
-2.133972197771072388e-02,-2.130485475063323975e-01,-1.566143482923507690e-01,5.739189386367797852e-01,-1.630678921937942505e-01,3.014975190162658691e-01,-7.412341833114624023e-01,-8.208100795745849609e-01,-4.995561540126800537e-01,1.444357484579086304e-01,2.809979952871799469e-02,-3.921197950839996338e-01,4.516454413533210754e-02,5.096859335899353027e-01
-1.473030298948287964e-01,3.502569720149040222e-02,-2.524261474609375000e-01,7.578072547912597656e-01,-1.943060457706451416e-01,1.749124377965927124e-01,-5.639988780021667480e-01,-5.515261888504028320e-01,-3.107433021068572998e-01,1.365616917610168457e-01,7.080581784248352051e-02,-4.006339013576507568e-01,1.506768614053726196e-01,6.193597912788391113e-01
-1.404214501380920410e-01,2.787168510258197784e-02,-2.498666197061538696e-01,7.691715955734252930e-01,-2.941442728042602539e-01,2.848302721977233887e-01,-5.344010591506958008e-01,-8.809143304824829102e-01,-3.032973706722259521e-01,1.330701261758804321e-01,-1.586410552263259888e-01,-4.020418524742126465e-01,1.042779348790645599e-02,4.847163259983062744e-01
-8.883136510848999023e-02,-6.303446833044290543e-03,-2.873297929763793945e-01,5.910424590110778809e-01,-4.492094516754150391e-01,2.057683467864990234e-01,-4.279639124870300293e-01,-7.823937535285949707e-01,-2.794437110424041748e-01,1.283828467130661011e-01,-7.834506779909133911e-02,-1.516710668802261353e-01,1.839868165552616119e-02,5.765185952186584473e-01
-1.083763539791107178e-01,1.543032526969909668e-01,-1.480287760496139526e-01,7.728768587112426758e-01,-4.027810394763946533e-01,3.425032496452331543e-01,-3.192774653434753418e-01,-7.853600978851318359e-01,-9.897158294916152954e-02,6.531857699155807495e-02,5.811208859086036682e-02,-2.350488454103469849e-01,3.475983440876007080e-01,5.682452321052551270e-01
-3.639065325260162354e-01,3.704184666275978088e-02,-8.803734183311462402e-02,9.377900362014770508e-01,-3.385403156280517578e-01,1.731580942869186401e-01,-3.043264150619506836e-01,-8.743466138839721680e-01,1.269346177577972412e-01,4.700706005096435547e-01,3.373648598790168762e-02,-2.117835432291030884e-01,4.217002689838409424e-01,5.807235240936279297e-01
-2.523250579833984375e-01,1.019944176077842712e-01,-3.717746958136558533e-02,9.572317004203796387e-01,-3.022147119045257568e-01,4.173195064067840576e-01,-2.479598969221115112e-01,-7.669472694396972656e-01,-1.292696893215179443e-01,2.698476016521453857e-01,1.017428934574127197e-01,-1.976242512464523315e-01,4.109793901443481445e-01,4.973782598972320557e-01
-3.165712058544158936e-01,1.928611993789672852e-01,5.742394924163818359e-02,1.147417783737182617e+00,-4.748900234699249268e-01,2.645277976989746094e-01,-3.877265751361846924e-01,-7.282480001449584961e-01,-1.228765994310379028e-01,3.735219538211822510e-01,-2.291535586118698120e-02,5.006637051701545715e-02,2.695311605930328369e-01,5.164464116096496582e-01
-3.268483579158782959e-01,6.381541490554809570e-02,-2.993136830627918243e-02,9.535453915596008301e-01,-4.908258318901062012e-01,2.678072452545166016e-01,-2.256956547498703003e-01,-8.381155133247375488e-01,2.242773920297622681e-01,1.939464956521987915e-01,4.650805518031120300e-02,-2.033439427614212036e-01,5.716078877449035645e-01,4.241400063037872314e-01
-4.860818982124328613e-01,-1.930394396185874939e-02,2.202872335910797119e-01,1.135295629501342773e+00,-3.274460434913635254e-01,4.143764078617095947e-01,-2.136847823858261108e-01,-6.252037882804870605e-01,-4.153029248118400574e-02,2.713767588138580322e-01,1.855910420417785645e-01,-1.977641880512237549e-01,6.545924544334411621e-01,2.523740828037261963e-01
-4.058048129081726074e-01,4.244726523756980896e-02,7.307380437850952148e-02,1.171366572380065918e+00,-4.228546619415283203e-01,2.778615951538085938e-01,-9.153626859188079834e-02,-6.940777301788330078e-01,3.553102165460586548e-02,4.439494609832763672e-01,7.201769202947616577e-02,-8.792304247617721558e-02,7.645811438560485840e-01,3.116069138050079346e-01
-2.357651740312576294e-01,1.989773474633693695e-02,1.716718524694442749e-01,1.084765672683715820e+00,-4.453077912330627441e-01,2.197803556919097900e-01,-2.646151185035705566e-01,-5.766806006431579590e-01,7.606939971446990967e-02,2.456135600805282593e-01,4.830610379576683044e-02,-2.136933505535125732e-01,5.492410063743591309e-01,2.604782879352569580e-01
-4.488446116447448730e-01,-1.113750785589218140e-01,7.198293507099151611e-02,1.132592082023620605e+00,-3.430447280406951904e-01,2.366207242012023926e-01,-3.723060786724090576e-01,-5.340084433555603027e-01,2.360105216503143311e-01,4.260737001895904541e-01,4.014390408992767334e-01,-1.685278713703155518e-01,5.814758539199829102e-01,3.698436319828033447e-01
-4.753323793411254883e-01,1.216079220175743103e-01,3.440186977386474609e-01,9.420546293258666992e-01,-2.668925225734710693e-01,3.518963754177093506e-01,-1.735773682594299316e-01,-3.822957575321197510e-01,4.670988395810127258e-02,4.055007994174957275e-01,1.657369583845138550e-01,4.899581521749496460e-02,7.868885397911071777e-01,2.604038715362548828e-01
-6.385105252265930176e-01,-3.163840994238853455e-02,4.115937650203704834e-01,1.142189741134643555e+00,-1.391805410385131836e-01,2.011837065219879150e-01,-2.122201323509216309e-01,-4.830142557621002197e-01,3.020894527435302734e-01,3.969437479972839355e-01,3.792521655559539795e-01,-2.094001621007919312e-01,7.333369255065917969e-01,3.004589974880218506e-01
-5.904642343521118164e-01,-1.514536980539560318e-02,3.777975440025329590e-01,9.302337169647216797e-01,-3.104859590530395508e-01,2.439436018466949463e-01,-2.667336463928222656e-01,-2.527490556240081787e-01,2.544226646423339844e-01,3.782936558127403259e-02,3.349130153656005859e-01,-7.918563485145568848e-02,3.990880548954010010e-01,2.743141949176788330e-01
-3.228757977485656738e-01,9.546805918216705322e-02,2.957418859004974365e-01,9.460712671279907227e-01,-2.372384071350097656e-01,3.571369647979736328e-01,-1.358681321144104004e-01,-5.005808174610137939e-02,1.894104629755020142e-01,3.576388061046600342e-01,4.333289861679077148e-01,-1.820134222507476807e-01,6.785250902175903320e-01,2.209426313638687134e-01
-3.919311761856079102e-01,-6.812207400798797607e-02,5.669075250625610352e-01,8.870291709899902344e-01,-6.509979069232940674e-02,1.401806026697158813e-01,-1.446810662746429443e-01,-2.425442188978195190e-01,2.640236914157867432e-01,1.927216351032257080e-01,4.920518696308135986e-01,-2.374527305364608765e-01,5.993766188621520996e-01,2.015320658683776855e-01
-3.590458631515502930e-01,-1.813242137432098389e-01,4.898038804531097412e-01,7.154868245124816895e-01,1.375794708728790283e-01,1.281668245792388916e-01,-6.253590434789657593e-02,-4.856331739574670792e-03,3.198927640914916992e-01,2.005151659250259399e-01,3.086750805377960205e-01,-1.032456681132316589e-01,3.578894138336181641e-01,1.321125775575637817e-01
-2.169277518987655640e-01,-5.527996271848678589e-02,4.929542243480682373e-01,5.838676691055297852e-01,1.439690142869949341e-01,1.724752783775329590e-01,4.663851112127304077e-02,-1.060190498828887939e-01,2.405321300029754639e-01,1.396995782852172852e-01,5.118518471717834473e-01,-2.298605740070343018e-01,4.776262640953063965e-01,1.627768576145172119e-01
-3.733457028865814209e-01,9.618081897497177124e-02,7.435170412063598633e-01,7.573129534721374512e-01,6.037863343954086304e-02,1.931238323450088501e-01,-1.509385257959365845e-01,1.105612367391586304e-01,2.281334549188613892e-01,3.507356345653533936e-01,5.877392888069152832e-01,-1.341699212789535522e-01,3.551020324230194092e-01,4.261754155158996582e-01
-5.306754112243652344e-01,-1.675846129655838013e-01,3.978568613529205322e-01,4.688962101936340332e-01,4.010113771073520184e-04,1.496203541755676270e-01,2.071989923715591431e-01,1.766691505908966064e-01,1.524378508329391479e-01,2.719884505495429039e-03,3.902753293514251709e-01,-3.349774181842803955e-01,3.785141408443450928e-01,2.330198287963867188e-01
-2.984122037887573242e-01,-2.412178814411163330e-01,4.285727739334106445e-01,6.561731696128845215e-01,2.677492201328277588e-01,-1.559161692857742310e-01,1.213748529553413391e-01,1.467853188514709473e-01,1.517456322908401489e-01,-1.178040518425405025e-03,4.913273155689239502e-01,-2.663241922855377197e-01,2.440322637557983398e-01,2.683461606502532959e-01
-4.641796350479125977e-01,-1.732262969017028809e-01,6.408121585845947266e-01,5.825046300888061523e-01,4.023099839687347412e-01,-3.767180815339088440e-02,9.750156849622726440e-02,2.922056615352630615e-01,1.187061741948127747e-01,1.042508035898208618e-01,7.134993672370910645e-01,-1.828447133302688599e-01,1.154940947890281677e-01,1.857185363769531250e-01
-5.147346854209899902e-01,-3.911336138844490051e-02,5.381823778152465820e-01,5.071769952774047852e-01,4.631833136081695557e-01,-2.455016374588012695e-01,3.739534690976142883e-02,2.405683547258377075e-01,2.020535916090011597e-01,2.198757790029048920e-02,6.960249543190002441e-01,2.395638078451156616e-02,1.923826709389686584e-02,3.800753057003021240e-01
-3.954230248928070068e-01,-2.901897430419921875e-01,5.338481068611145020e-01,2.732784748077392578e-01,4.862221479415893555e-01,-2.497023642063140869e-01,-1.983720622956752777e-02,2.402031272649765015e-01,4.396215081214904785e-01,-1.897991448640823364e-01,6.336761713027954102e-01,-2.664146423339843750e-01,2.007832974195480347e-01,1.420262604951858521e-01
-5.392720699310302734e-01,-1.111562252044677734e-01,6.040023565292358398e-01,5.612779259681701660e-01,6.943179965019226074e-01,-6.717948615550994873e-02,1.979257613420486450e-01,4.175580441951751709e-01,1.798666566610336304e-01,-9.029302746057510376e-02,6.851832866668701172e-01,-5.779963731765747070e-02,-8.732308447360992432e-02,1.329725682735443115e-01
-3.756325542926788330e-01,-8.021792024374008179e-02,3.817092776298522949e-01,3.076082170009613037e-01,6.744735836982727051e-01,-1.448381990194320679e-01,6.621825695037841797e-02,2.911334335803985596e-01,1.321003735065460205e-01,-8.704702556133270264e-02,8.155276179313659668e-01,3.628095611929893494e-02,1.170897707343101501e-01,1.240691840648651123e-01
-5.769513249397277832e-01,-1.725264191627502441e-01,2.117455750703811646e-01,4.895091950893402100e-01,5.809104442596435547e-01,-1.695821881294250488e-01,2.884514629840850830e-01,3.023290336132049561e-01,8.509860932826995850e-02,-8.246713131666183472e-02,6.016227602958679199e-01,5.620380491018295288e-02,-1.620045304298400879e-01,1.266339719295501709e-01
-5.063254833221435547e-01,-6.805375218391418457e-02,3.848132789134979248e-01,3.874319791793823242e-01,5.543969869613647461e-01,-3.899667561054229736e-01,4.448360502719879150e-01,4.566713273525238037e-01,1.382623314857482910e-01,5.668304115533828735e-02,9.557584524154663086e-01,-1.628306694328784943e-02,-3.680732250213623047e-01,1.566623151302337646e-01
-4.578431844711303711e-01,-2.705030441284179688e-01,2.767452597618103027e-01,4.503799378871917725e-01,7.376893758773803711e-01,-4.920449852943420410e-01,2.580306231975555420e-01,3.630211949348449707e-01,2.433577030897140503e-01,-1.342506706714630127e-01,9.061853885650634766e-01,-1.104337628930807114e-02,-2.832043170928955078e-01,2.154589593410491943e-01
-3.746871948242187500e-01,-2.922799289226531982e-01,7.296251505613327026e-02,1.715770661830902100e-01,8.287931084632873535e-01,-4.891480207443237305e-01,4.286326766014099121e-01,3.953819870948791504e-01,1.150231361389160156e-01,-2.620632648468017578e-01,8.799170851707458496e-01,6.532522384077310562e-03,-4.867993295192718506e-02,2.913658134639263153e-02
-2.797909080982208252e-01,-1.797016561031341553e-01,1.240022927522659302e-01,2.304329276084899902e-01,9.377493858337402344e-01,-5.469754934310913086e-01,2.892864346504211426e-01,4.887862205505371094e-01,2.672537863254547119e-01,-3.422966971993446350e-02,7.795249819755554199e-01,1.789955794811248779e-01,-3.632389307022094727e-01,1.187580730766057968e-02
-1.502487808465957642e-01,2.792450785636901855e-02,2.282530814409255981e-01,4.399975836277008057e-01,8.909443020820617676e-01,-5.058375000953674316e-01,3.370711207389831543e-01,4.523344635963439941e-01,1.775455474853515625e-01,8.484525978565216064e-02,9.184972643852233887e-01,1.162946745753288269e-01,-5.008486509323120117e-01,-3.205787017941474915e-02
-3.670808076858520508e-01,8.391250856220722198e-03,1.715854406356811523e-01,4.282540678977966309e-01,8.376361727714538574e-01,-7.230802774429321289e-01,5.094211697578430176e-01,3.611299395561218262e-01,1.980667263269424438e-01,-1.745714694261550903e-01,8.208620548248291016e-01,-5.810690298676490784e-02,-4.398889541625976562e-01,5.246899649500846863e-02
-2.105671167373657227e-02,-1.473867595195770264e-01,2.396918833255767822e-01,4.105522036552429199e-01,8.008266687393188477e-01,-5.289745330810546875e-01,2.342089265584945679e-01,4.437772333621978760e-01,1.882391609251499176e-02,4.285803064703941345e-02,9.775882959365844727e-01,-9.039577841758728027e-02,-6.153734326362609863e-01,-4.154463857412338257e-02
1.838769577443599701e-02,-8.889271877706050873e-03,1.211967840790748596e-01,2.902838289737701416e-01,7.731711864471435547e-01,-6.757085323333740234e-01,5.513916015625000000e-01,5.320120453834533691e-01,1.189954504370689392e-01,-1.634988933801651001e-01,8.438044190406799316e-01,1.638515740633010864e-01,-5.799795985221862793e-01,-8.254339545965194702e-02
5.713522434234619141e-02,-9.175949729979038239e-03,6.203623861074447632e-02,9.041652083396911621e-02,8.327181935310363770e-01,-7.048934698104858398e-01,5.466957688331604004e-01,4.007747769355773926e-01,1.480071526020765305e-02,-1.379061639308929443e-01,7.167195081710815430e-01,8.807654678821563721e-02,-5.647879838943481445e-01,-1.368334144353866577e-01
1.901985257863998413e-01,-3.359548449516296387e-01,1.716427206993103027e-01,3.643889725208282471e-01,1.033746957778930664e+00,-8.716427683830261230e-01,4.171327948570251465e-01,3.330785632133483887e-01,2.387700080871582031e-01,-3.280815184116363525e-01,1.045701265335083008e+00,1.665254123508930206e-03,-7.610545754432678223e-01,-6.304957717657089233e-02
3.165408372879028320e-01,-3.756840825080871582e-01,4.899235442280769348e-02,9.626553207635879517e-02,9.743943214416503906e-01,-8.236900568008422852e-01,3.167510032653808594e-01,3.147048354148864746e-01,1.016616970300674438e-01,-3.300167322158813477e-01,7.013798356056213379e-01,-1.136445552110671997e-01,-7.338848710060119629e-01,-2.379020750522613525e-01
1.908788532018661499e-01,-2.460388094186782837e-01,1.819811910390853882e-01,2.086682170629501343e-01,9.602565169334411621e-01,-7.836875915527343750e-01,2.818652987480163574e-01,3.029533922672271729e-01,1.595267504453659058e-01,-2.257459163665771484e-01,6.833875775337219238e-01,-1.263623833656311035e-01,-8.122553229331970215e-01,-1.492045968770980835e-01
1.813701391220092773e-01,-1.738464385271072388e-01,1.600784659385681152e-01,1.200184673070907593e-01,7.342400550842285156e-01,-9.249945878982543945e-01,3.241176307201385498e-01,4.197065234184265137e-01,2.192200869321823120e-01,-4.804391860961914062e-01,5.479787588119506836e-01,-2.047430723905563354e-01,-7.702868580818176270e-01,3.052319516427814960e-04
4.305757582187652588e-01,-4.234974384307861328e-01,3.098029196262359619e-01,9.210351854562759399e-02,9.100140333175659180e-01,-9.717162251472473145e-01,3.904209434986114502e-01,4.903151094913482666e-02,-1.000356972217559814e-01,-5.430949330329895020e-01,7.592715620994567871e-01,-3.432264626026153564e-01,-7.964632511138916016e-01,-1.641751825809478760e-01
6.828935742378234863e-01,-3.600089251995086670e-01,4.068364500999450684e-01,8.277948200702667236e-02,7.863302826881408691e-01,-7.050513625144958496e-01,3.038833141326904297e-01,3.475174009799957275e-01,1.033936440944671631e-01,-6.992388367652893066e-01,5.361750125885009766e-01,-2.589279115200042725e-01,-7.187876701354980469e-01,-1.380376964807510376e-01
4.492815136909484863e-01,-2.739499211311340332e-01,3.033930063247680664e-01,1.753163933753967285e-01,6.179074048995971680e-01,-5.941826701164245605e-01,2.064146697521209717e-01,3.327039182186126709e-01,1.582237891852855682e-02,-4.782918691635131836e-01,3.882536888122558594e-01,-3.230651915073394775e-01,-6.436222791671752930e-01,4.761698469519615173e-02
5.377088785171508789e-01,-5.612590909004211426e-01,5.412598326802253723e-02,1.103004738688468933e-01,5.278207063674926758e-01,-6.893861889839172363e-01,2.685297131538391113e-01,2.514681220054626465e-01,2.291547209024429321e-01,-5.268056392669677734e-01,2.032513618469238281e-01,-5.520079731941223145e-01,-7.966578006744384766e-01,-2.583624562248587608e-03
3.752131462097167969e-01,-4.652876257896423340e-01,1.463588327169418335e-01,2.776524983346462250e-02,5.926978588104248047e-01,-6.528992056846618652e-01,2.792993485927581787e-01,1.858084350824356079e-01,-1.393080651760101318e-01,-7.952247858047485352e-01,2.457830607891082764e-01,-4.481402933597564697e-01,-6.946044564247131348e-01,1.879226788878440857e-02
4.017552733421325684e-01,-4.366675317287445068e-01,9.836728870868682861e-02,-2.174860239028930664e-02,6.130733489990234375e-01,-5.790259838104248047e-01,1.736116856336593628e-01,2.999335713684558868e-02,3.987785428762435913e-02,-6.121600270271301270e-01,1.439526677131652832e-01,-4.717210233211517334e-01,-6.902682781219482422e-01,1.061640530824661255e-01
6.802486181259155273e-01,-4.316877722740173340e-01,8.313664793968200684e-02,6.012266129255294800e-02,5.638804435729980469e-01,-4.155246913433074951e-01,-3.515306115150451660e-02,7.719879597425460815e-02,-7.599810510873794556e-02,-5.895290374755859375e-01,1.644413769245147705e-01,-4.722656011581420898e-01,-7.538269758224487305e-01,4.794820398092269897e-02
5.997946858406066895e-01,-2.907876074314117432e-01,1.116850525140762329e-01,6.036754697561264038e-02,4.052056670188903809e-01,-3.723405897617340088e-01,5.933855846524238586e-02,-2.771531604230403900e-02,-2.080641090869903564e-01,-7.540047168731689453e-01,6.449369341135025024e-02,-6.604384183883666992e-01,-6.002160906791687012e-01,2.964862585067749023e-01
4.713917970657348633e-01,-7.893411070108413696e-02,1.971299052238464355e-01,1.220188811421394348e-01,3.862583339214324951e-01,-3.003041446208953857e-01,-1.440695226192474365e-01,1.127309203147888184e-01,-1.327454149723052979e-01,-7.580932378768920898e-01,3.526820242404937744e-02,-7.536110877990722656e-01,-8.576738834381103516e-01,3.027516305446624756e-01
3.862555623054504395e-01,-2.361102104187011719e-01,8.776579052209854126e-03,-2.220170758664608002e-02,3.571749031543731689e-01,-3.496763706207275391e-01,-1.891859062016010284e-02,7.192835211753845215e-02,-3.665016591548919678e-01,-1.115930199623107910e+00,1.040361821651458740e-02,-6.798415780067443848e-01,-9.482537508010864258e-01,3.150675296783447266e-01
4.958103299140930176e-01,-4.038393497467041016e-01,-3.566652163863182068e-02,1.354242563247680664e-01,3.006657660007476807e-01,-3.196688890457153320e-01,-3.069429695606231689e-01,3.160320818424224854e-01,-2.052096873521804810e-01,-8.061654567718505859e-01,-1.416987776756286621e-01,-8.351179361343383789e-01,-9.014111161231994629e-01,3.860898315906524658e-01
4.924209117889404297e-01,-2.260403931140899658e-01,2.078245161101222038e-03,-1.956633329391479492e-01,2.590562105178833008e-01,-2.164763063192367554e-01,-1.087130382657051086e-01,7.083825767040252686e-02,-5.622708797454833984e-01,-7.554538249969482422e-01,-2.400527745485305786e-01,-8.415442109107971191e-01,-8.578757047653198242e-01,3.929292857646942139e-01
4.733949303627014160e-01,-1.336659211665391922e-02,-8.344548940658569336e-02,3.758820891380310059e-02,3.675940334796905518e-01,-1.300534754991531372e-01,-1.356599628925323486e-01,2.052014321088790894e-01,-4.744724631309509277e-01,-8.011280298233032227e-01,-3.043878376483917236e-01,-8.990719914436340332e-01,-8.707290291786193848e-01,4.344023466110229492e-01
3.724780380725860596e-01,-1.585166156291961670e-01,-6.598379462957382202e-02,-3.700032457709312439e-02,3.628200292587280273e-01,-1.163118630647659302e-01,-2.551161646842956543e-01,1.774554373696446419e-03,-2.266115695238113403e-01,-8.656039834022521973e-01,-2.724188566207885742e-01,-9.537221193313598633e-01,-8.794340491294860840e-01,4.357768297195434570e-01
5.259904861450195312e-01,-2.052671276032924652e-03,-1.274973992258310318e-02,-9.228672832250595093e-02,3.959469199180603027e-01,-3.960143327713012695e-01,-2.196840792894363403e-01,2.543124556541442871e-01,-3.471293449401855469e-01,-8.094938993453979492e-01,-9.542444348335266113e-02,-8.418359756469726562e-01,-9.454585909843444824e-01,5.175344944000244141e-01
3.271953165531158447e-01,-1.296726763248443604e-01,-4.006480425596237183e-02,-8.525410294532775879e-02,4.266986846923828125e-01,1.093289628624916077e-02,-3.414037227630615234e-01,2.838894128799438477e-01,-4.540807604789733887e-01,-6.303867697715759277e-01,-2.430574595928192139e-01,-8.583353161811828613e-01,-8.537676930427551270e-01,4.773040115833282471e-01
4.803818464279174805e-01,3.271461650729179382e-02,1.013212352991104126e-01,-1.850089132785797119e-01,3.740130364894866943e-01,-6.622654944658279419e-02,-2.433464825153350830e-01,-1.249408465810120106e-03,-5.262374281883239746e-01,-7.049813270568847656e-01,-2.964511513710021973e-01,-1.057302951812744141e+00,-1.008183121681213379e+00,4.509046673774719238e-01
4.032483398914337158e-01,2.734884619712829590e-02,5.314504355192184448e-02,-5.909830704331398010e-02,4.920456409454345703e-01,-8.094706386327743530e-02,-3.023048639297485352e-01,1.027602404356002808e-01,-4.891760051250457764e-01,-7.204727530479431152e-01,-2.017459571361541748e-01,-9.507626891136169434e-01,-8.832479119300842285e-01,5.409690141677856445e-01
1.874411404132843018e-01,3.640231862664222717e-02,-8.561852737329900265e-04,-8.078414946794509888e-02,2.697091698646545410e-01,6.587255001068115234e-02,-2.838959097862243652e-01,2.474677413702011108e-01,-5.639073252677917480e-01,-6.399815082550048828e-01,-2.754653394222259521e-01,-1.106310725212097168e+00,-9.001927971839904785e-01,5.171920657157897949e-01
2.580456137657165527e-01,2.274980098009109497e-01,-4.855316132307052612e-03,-4.149455130100250244e-01,2.564195096492767334e-01,-8.944426476955413818e-02,-3.085570335388183594e-01,3.360861539840698242e-01,-5.513472557067871094e-01,-7.805597782135009766e-01,-2.991043627262115479e-01,-9.987391829490661621e-01,-9.578624367713928223e-01,4.718325436115264893e-01
1.280080974102020264e-01,2.938587069511413574e-01,7.590790838003158569e-02,-2.801610231399536133e-01,2.733246982097625732e-01,-2.767662703990936279e-02,-9.605049341917037964e-02,2.553525567054748535e-01,-5.438924431800842285e-01,-5.988728404045104980e-01,-3.866114020347595215e-01,-9.435603618621826172e-01,-9.533740878105163574e-01,7.265524268150329590e-01
3.797560334205627441e-01,3.503946661949157715e-01,-8.036027848720550537e-02,-3.455584496259689331e-02,2.320657670497894287e-01,1.906754262745380402e-02,-2.543242275714874268e-01,7.664272934198379517e-02,-6.992514133453369141e-01,-5.343467593193054199e-01,-1.896834522485733032e-01,-9.923692941665649414e-01,-9.513621926307678223e-01,5.547860860824584961e-01
1.738992780447006226e-01,3.398977816104888916e-01,-3.389962762594223022e-02,-1.406890898942947388e-01,1.070960387587547302e-01,5.309993773698806763e-02,-8.927899412810802460e-03,3.052038550376892090e-01,-6.126831769943237305e-01,-6.852064132690429688e-01,-4.816981032490730286e-02,-9.450725317001342773e-01,-9.022421240806579590e-01,6.974229812622070312e-01
2.873522602021694183e-02,5.252272486686706543e-01,-2.050797492265701294e-01,-7.227016612887382507e-03,1.960567384958267212e-01,-8.935420215129852295e-02,-1.522104442119598389e-01,3.066120743751525879e-01,-7.797936797142028809e-01,-4.571612775325775146e-01,-1.644929498434066772e-01,-8.897221088409423828e-01,-9.684092402458190918e-01,6.402224302291870117e-01
-3.107873350381851196e-02,4.566345512866973877e-01,4.893349856138229370e-02,-6.362073123455047607e-02,5.257113650441169739e-02,1.098817680031061172e-02,-1.084539294242858887e-01,3.001881539821624756e-01,-5.054152011871337891e-01,-2.987259626388549805e-01,2.324695140123367310e-01,-8.374194502830505371e-01,-8.538333773612976074e-01,6.677062511444091797e-01
