AF3,F7,F3,FC5,T7,P7,O1,O2,P8,T8,FC6,F4,F8,AF4
-2.775119245052337646e-02,-1.175276562571525574e-01,-7.238098233938217163e-02,1.925107389688491821e-01,1.365109086036682129e-01,1.569054089486598969e-02,-1.503303796052932739e-01,-3.691791370511054993e-02,6.967205554246902466e-02,-9.123263508081436157e-02,-4.716262221336364746e-02,-7.479446381330490112e-02,5.981123819947242737e-02,3.303906694054603577e-02
6.630150675773620605e-01,5.526998043060302734e-01,6.891812086105346680e-01,6.207556724548339844e-01,5.934600830078125000e-01,9.146325588226318359e-01,7.246050834655761719e-01,6.887122988700866699e-01,7.826448082923889160e-01,7.259168028831481934e-01,6.267130970954895020e-01,7.081023454666137695e-01,6.601089835166931152e-01,5.976397395133972168e-01
8.522615432739257812e-01,8.279905915260314941e-01,1.157762408256530762e+00,8.214510083198547363e-01,1.086786866188049316e+00,1.334710478782653809e+00,1.327126026153564453e+00,1.153114318847656250e+00,1.615666508674621582e+00,9.749946594238281250e-01,1.193134784698486328e+00,1.187340259552001953e+00,9.218908548355102539e-01,1.222586393356323242e+00
1.269679546356201172e+00,1.182775974273681641e+00,1.286478161811828613e+00,8.831757903099060059e-01,1.383142352104187012e+00,1.650450348854064941e+00,1.548121333122253418e+00,1.493815422058105469e+00,1.652393221855163574e+00,1.201979041099548340e+00,1.362036705017089844e+00,1.533757328987121582e+00,1.350233793258666992e+00,1.343656301498413086e+00
1.056686758995056152e+00,9.737852215766906738e-01,1.113562464714050293e+00,9.976689219474792480e-01,1.255269289016723633e+00,1.464247822761535645e+00,1.431888937950134277e+00,1.342969417572021484e+00,1.591285347938537598e+00,1.160336971282958984e+00,1.390827894210815430e+00,1.001081824302673340e+00,1.183299183845520020e+00,1.103150486946105957e+00
7.049523591995239258e-01,7.388722300529479980e-01,1.137361645698547363e+00,8.630477190017700195e-01,7.090915441513061523e-01,9.289753437042236328e-01,1.095602035522460938e+00,1.188639640808105469e+00,9.125263094902038574e-01,6.550282835960388184e-01,1.175611019134521484e+00,7.126014828681945801e-01,8.129454851150512695e-01,6.271994709968566895e-01
5.165833830833435059e-01,3.076236546039581299e-01,3.363928794860839844e-01,5.027613043785095215e-01,3.956642746925354004e-01,8.078031241893768311e-02,1.601711213588714600e-01,7.157536745071411133e-01,3.556241095066070557e-01,1.404000520706176758e-01,4.480291604995727539e-01,8.250664174556732178e-02,1.143500357866287231e-01,2.426004707813262939e-01
1.599018275737762451e-01,-1.699239015579223633e-02,-1.652110219001770020e-01,1.998080462217330933e-01,-1.973166316747665405e-01,-5.466375946998596191e-01,-7.597686350345611572e-02,2.537384629249572754e-02,-3.718310035765171051e-03,-2.957994043827056885e-01,-1.502977684140205383e-02,-4.207378029823303223e-01,-2.568589523434638977e-02,-3.947328329086303711e-01
-3.432457149028778076e-01,-4.278326928615570068e-01,-4.577606022357940674e-01,-2.554455101490020752e-01,-4.798486232757568359e-01,-4.674105346202850342e-01,-4.984300732612609863e-01,-8.689264953136444092e-02,-5.427437424659729004e-01,-3.419353663921356201e-01,-4.138482511043548584e-01,-7.436174154281616211e-01,-4.520045220851898193e-01,-2.675004005432128906e-01
-3.907071650028228760e-01,-5.264065265655517578e-01,-4.912692308425903320e-01,-3.530724644660949707e-01,-5.121294856071472168e-01,-2.493039220571517944e-01,-4.624594151973724365e-01,-4.655720591545104980e-01,-7.248028516769409180e-01,-3.374143242835998535e-01,-5.044040679931640625e-01,-4.387068450450897217e-01,-3.988929390907287598e-01,-3.720981478691101074e-01
-6.065365076065063477e-01,-2.893888354301452637e-01,-3.482784032821655273e-01,-2.883297502994537354e-01,-4.594634175300598145e-01,1.698713153600692749e-01,-3.715732693672180176e-01,-4.173918068408966064e-01,-2.819669544696807861e-01,-1.586012840270996094e-01,-1.581003218889236450e-01,1.696248501539230347e-01,-5.536030605435371399e-02,-3.160125017166137695e-02
-3.487637937068939209e-01,-1.417033523321151733e-01,2.765216231346130371e-01,-1.503728926181793213e-01,9.887342900037765503e-02,7.496644258499145508e-01,1.033062785863876343e-01,-3.254791498184204102e-01,-2.326384931802749634e-02,3.817287981510162354e-01,-2.393162101507186890e-01,6.522154808044433594e-01,4.267524778842926025e-01,3.968041539192199707e-01
2.413417696952819824e-01,4.803096652030944824e-01,5.176283121109008789e-01,6.914878636598587036e-02,4.979184865951538086e-01,9.801936149597167969e-01,8.790608048439025879e-01,-1.559419091790914536e-02,5.311394333839416504e-01,7.593984007835388184e-01,2.328031510114669800e-01,9.791962504386901855e-01,9.965633749961853027e-01,7.786779403686523438e-01
3.403030335903167725e-01,6.493705511093139648e-01,8.763300776481628418e-01,3.868616223335266113e-01,7.451271414756774902e-01,1.032334208488464355e+00,1.019550085067749023e+00,5.703892707824707031e-01,1.142427206039428711e+00,8.096576333045959473e-01,7.247087359428405762e-01,1.174953937530517578e+00,1.042633295059204102e+00,8.426981568336486816e-01
7.781815528869628906e-01,8.371819853782653809e-01,9.175062775611877441e-01,7.045950293540954590e-01,8.297877311706542969e-01,7.813427448272705078e-01,1.073852896690368652e+00,9.295750856399536133e-01,1.058298349380493164e+00,6.777941584587097168e-01,9.436970949172973633e-01,8.446301221847534180e-01,7.485073208808898926e-01,8.399524688720703125e-01
7.786657214164733887e-01,7.388594150543212891e-01,7.405761480331420898e-01,8.090946078300476074e-01,7.440289855003356934e-01,3.924144208431243896e-01,5.427702069282531738e-01,9.557833671569824219e-01,9.697355628013610840e-01,3.295719623565673828e-01,8.650767803192138672e-01,3.748854398727416992e-01,4.730703234672546387e-01,4.744195044040679932e-01
6.457852721214294434e-01,5.833173990249633789e-01,2.114979773759841919e-01,4.742321372032165527e-01,4.866137802600860596e-01,-4.425894618034362793e-01,1.373103410005569458e-01,8.450351357460021973e-01,4.935418069362640381e-01,-7.958853989839553833e-02,6.638275384902954102e-01,-1.804774105548858643e-01,-2.806032076478004456e-02,-1.907728761434555054e-01
3.015949428081512451e-01,-1.456740796566009521e-01,-2.711474001407623291e-01,4.524416476488113403e-02,3.132514059543609619e-01,-1.161223530769348145e+00,-6.672673225402832031e-01,2.915668487548828125e-01,-1.169019490480422974e-01,-4.516311287879943848e-01,2.891325056552886963e-01,-9.782745242118835449e-01,-5.653069615364074707e-01,-8.832543492317199707e-01
-4.663494601845741272e-02,-6.555700898170471191e-01,-8.805401325225830078e-01,-2.597756385803222656e-01,-4.310870170593261719e-01,-1.471059322357177734e+00,-1.244128823280334473e+00,1.797261275351047516e-02,-8.405839800834655762e-01,-8.867125511169433594e-01,-1.246362030506134033e-01,-1.309271335601806641e+00,-9.569059014320373535e-01,-1.369886517524719238e+00
-5.061844587326049805e-01,-1.035523056983947754e+00,-1.277726650238037109e+00,-6.081976890563964844e-01,-8.300004601478576660e-01,-1.250480771064758301e+00,-1.486236691474914551e+00,-5.030181407928466797e-01,-1.178238868713378906e+00,-1.091365337371826172e+00,-8.759542107582092285e-01,-1.308578133583068848e+00,-1.403667449951171875e+00,-1.272141695022583008e+00
-8.542744517326354980e-01,-1.130822181701660156e+00,-1.573003411293029785e+00,-9.790254235267639160e-01,-1.087749123573303223e+00,-1.058089494705200195e+00,-1.423455476760864258e+00,-1.015566945075988770e+00,-1.334823250770568848e+00,-1.099663138389587402e+00,-1.220243453979492188e+00,-5.866217613220214844e-01,-1.192598819732666016e+00,-1.078332662582397461e+00
-9.478172659873962402e-01,-9.137378931045532227e-01,-1.067680358886718750e+00,-1.145137667655944824e+00,-1.049053788185119629e+00,-6.568173170089721680e-01,-8.287449479103088379e-01,-1.498242259025573730e+00,-1.099241256713867188e+00,-8.009834289550781250e-01,-1.161430239677429199e+00,-1.256371438503265381e-01,-5.616621971130371094e-01,-4.934558272361755371e-01
-9.369447231292724609e-01,-5.638746619224548340e-01,-6.517214775085449219e-01,-1.041214227676391602e+00,-6.426025629043579102e-01,2.003582864999771118e-01,-1.988935023546218872e-01,-1.426971673965454102e+00,-5.959567427635192871e-01,-2.648576498031616211e-01,-9.969782829284667969e-01,3.801790475845336914e-01,-3.341122344136238098e-02,1.926001608371734619e-01
-6.627783179283142090e-01,-3.119737468659877777e-02,2.320721000432968140e-01,-6.896510720252990723e-01,-3.120536804199218750e-01,8.922279477119445801e-01,3.565741479396820068e-01,-1.120301365852355957e+00,1.215275973081588745e-01,4.590601325035095215e-01,-6.479917168617248535e-01,8.810105919837951660e-01,5.824201703071594238e-01,5.278453826904296875e-01
-7.686368376016616821e-02,5.223150253295898438e-01,6.999692320823669434e-01,-2.817765176296234131e-01,4.389701783657073975e-01,9.380169510841369629e-01,1.009939432144165039e+00,-6.310345530509948730e-01,7.968642711639404297e-01,4.221535325050354004e-01,-5.279850959777832031e-02,1.220967650413513184e+00,6.107366681098937988e-01,6.677220463752746582e-01
2.806862890720367432e-01,8.805338144302368164e-01,9.818794727325439453e-01,2.695860862731933594e-01,8.674468994140625000e-01,8.375696539878845215e-01,1.221562385559082031e+00,-2.097083330154418945e-01,1.109465360641479492e+00,8.632231950759887695e-01,6.350480318069458008e-01,8.434802293777465820e-01,6.035255789756774902e-01,5.410942435264587402e-01
6.874309182167053223e-01,6.776255965232849121e-01,9.258578419685363770e-01,4.379210174083709717e-01,9.986482262611389160e-01,1.481424421072006226e-01,1.020028591156005859e+00,3.984789252281188965e-01,1.173762798309326172e+00,7.279915213584899902e-01,8.446593880653381348e-01,4.958696290850639343e-02,3.391492664813995361e-01,1.453975439071655273e-01
8.090810179710388184e-01,7.449685335159301758e-01,7.109537124633789062e-01,7.407891750335693359e-01,8.490928411483764648e-01,-3.629963397979736328e-01,5.873486399650573730e-01,9.578771591186523438e-01,1.012810468673706055e+00,2.571506500244140625e-01,9.437565803527832031e-01,-3.473237752914428711e-01,9.722000919282436371e-03,-4.048267304897308350e-01
8.841497302055358887e-01,2.059904187917709351e-01,6.648643314838409424e-02,6.814846992492675781e-01,8.505017757415771484e-01,-9.266794919967651367e-01,-1.110292524099349976e-01,1.101480603218078613e+00,3.157249689102172852e-01,-2.770355716347694397e-02,8.141793608665466309e-01,-8.570642471313476562e-01,-6.607857942581176758e-01,-4.976197779178619385e-01
3.260504007339477539e-01,-2.464951723814010620e-01,-2.557001113891601562e-01,4.145908057689666748e-01,1.718514114618301392e-01,-1.087681293487548828e+00,-8.958138823509216309e-01,9.544953703880310059e-01,-2.849695384502410889e-01,-5.805740356445312500e-01,3.777038455009460449e-01,-1.059542179107666016e+00,-6.013905405998229980e-01,-8.062760233879089355e-01
1.297936886548995972e-01,-5.579003691673278809e-01,-8.981778025627136230e-01,1.666622906923294067e-01,-3.365960419178009033e-01,-1.074238181114196777e+00,-1.266204118728637695e+00,3.759047687053680420e-01,-1.038104295730590820e+00,-8.265280127525329590e-01,-1.019233092665672302e-02,-1.017022252082824707e+00,-9.940685033798217773e-01,-8.484979271888732910e-01
-3.606956005096435547e-01,-1.024597167968750000e+00,-8.729976415634155273e-01,-3.047224283218383789e-01,-8.677282333374023438e-01,-4.475409090518951416e-01,-1.066053271293640137e+00,5.604307353496551514e-02,-1.288202047348022461e+00,-6.867324113845825195e-01,-8.171014189720153809e-01,-5.643965005874633789e-01,-5.739961862564086914e-01,-2.406684607267379761e-01
-6.483317613601684570e-01,-7.634629607200622559e-01,-7.698635458946228027e-01,-4.733720719814300537e-01,-1.150607347488403320e+00,2.840143442153930664e-01,-8.874476552009582520e-01,-4.904952347278594971e-01,-1.239486813545227051e+00,-4.861465394496917725e-01,-1.113336086273193359e+00,-6.763669848442077637e-02,-3.857352957129478455e-02,7.120946794748306274e-02
-1.129966735839843750e+00,-5.362352132797241211e-01,-6.862846612930297852e-01,-8.136162757873535156e-01,-9.911243319511413574e-01,8.369451165199279785e-01,-2.345198541879653931e-01,-8.378138542175292969e-01,-1.210180997848510742e+00,2.949114190414547920e-03,-1.179765343666076660e+00,6.863358020782470703e-01,4.292280673980712891e-01,5.586720108985900879e-01
-1.273119091987609863e+00,-3.065141737461090088e-01,1.427740305662155151e-01,-5.580584406852722168e-01,-7.270300388336181641e-01,1.393055558204650879e+00,1.735103130340576172e-01,-1.224111080169677734e+00,-6.402820944786071777e-01,3.558130860328674316e-01,-1.262461185455322266e+00,7.709629535675048828e-01,6.689743399620056152e-01,1.184122323989868164e+00
-8.885467052459716797e-01,2.795121967792510986e-01,5.352430343627929688e-01,-4.673479199409484863e-01,-3.755677044391632080e-01,1.008080959320068359e+00,9.103384613990783691e-01,-1.100844979286193848e+00,2.111840061843395233e-02,7.319136857986450195e-01,-8.580536246299743652e-01,4.587006270885467529e-01,9.606031775474548340e-01,1.162206172943115234e+00
-4.630770981311798096e-01,6.516851782798767090e-01,6.878703236579895020e-01,1.557447463274002075e-01,1.151595078408718109e-02,5.347772836685180664e-01,9.552434682846069336e-01,-7.086786627769470215e-01,5.387610197067260742e-01,6.599788665771484375e-01,-3.674291372299194336e-01,1.880648285150527954e-01,7.445558309555053711e-01,6.858569383621215820e-01
-1.888161599636077881e-01,6.726151108741760254e-01,1.076133251190185547e+00,4.983715713024139404e-01,4.472096562385559082e-01,-2.400802522897720337e-01,6.093059182167053223e-01,-2.785043120384216309e-01,7.454618215560913086e-01,5.338187217712402344e-01,1.728294342756271362e-01,-4.152662754058837891e-01,3.374737799167633057e-01,2.682234346866607666e-01
1.766716837882995605e-01,5.336803793907165527e-01,6.407153606414794922e-01,5.669066905975341797e-01,6.054716706275939941e-01,-9.187517762184143066e-01,1.293564140796661377e-01,2.808802723884582520e-01,4.535921812057495117e-01,1.656332612037658691e-01,5.843564867973327637e-01,-1.092208623886108398e+00,-1.969352662563323975e-01,-5.020993947982788086e-01
4.397917091846466064e-01,3.169526755809783936e-01,2.143429666757583618e-01,7.896317243576049805e-01,4.943558871746063232e-01,-1.166186213493347168e+00,-1.967796683311462402e-01,5.749939084053039551e-01,2.188832908868789673e-01,-4.450437724590301514e-01,7.034010291099548340e-01,-1.252467870712280273e+00,-6.645529270172119141e-01,-6.301396489143371582e-01
6.906732916831970215e-01,-1.111168339848518372e-01,-4.458676576614379883e-01,5.949457287788391113e-01,1.110489591956138611e-01,-1.301704049110412598e+00,-8.836779594421386719e-01,9.226603507995605469e-01,-2.447321265935897827e-01,-7.389960289001464844e-01,8.627969026565551758e-01,-1.193532466888427734e+00,-1.057322382926940918e+00,-8.513380885124206543e-01
3.596341907978057861e-01,-9.222121238708496094e-01,-8.723969459533691406e-01,3.902605175971984863e-01,-3.487767577171325684e-01,-7.139508724212646484e-01,-9.638000726699829102e-01,1.068571448326110840e+00,-7.337435483932495117e-01,-7.208470702171325684e-01,2.620267570018768311e-01,-9.632766246795654297e-01,-9.224767088890075684e-01,-8.901346921920776367e-01
-4.277855902910232544e-02,-8.319170475006103516e-01,-1.076669812202453613e+00,-2.066703587770462036e-01,-7.610557079315185547e-01,-2.277493029832839966e-01,-1.046802997589111328e+00,5.808186531066894531e-01,-1.071140885353088379e+00,-6.248169541358947754e-01,-9.216816723346710205e-02,-5.170290917158126831e-02,-5.380291938781738281e-01,-4.038987755775451660e-01
-2.115608900785446167e-01,-8.268341422080993652e-01,-6.485869884490966797e-01,-2.981100678443908691e-01,-8.925992846488952637e-01,6.039254665374755859e-01,-3.397558033466339111e-01,-6.983159482479095459e-02,-1.116196513175964355e+00,-3.007515668869018555e-01,-4.677621126174926758e-01,5.863400101661682129e-01,-1.304868906736373901e-01,1.712158918380737305e-01
-6.593434810638427734e-01,-3.591743707656860352e-01,-4.436024427413940430e-01,-7.044402360916137695e-01,-1.089668989181518555e+00,1.164718747138977051e+00,1.232117339968681335e-01,-3.070578277111053467e-01,-6.621800661087036133e-01,2.806382179260253906e-01,-6.642721891403198242e-01,1.229627013206481934e+00,4.329318702220916748e-01,5.465355515480041504e-01
-7.489529848098754883e-01,-1.679970696568489075e-02,5.008980035781860352e-01,-6.410454511642456055e-01,-7.363362908363342285e-01,1.509563684463500977e+00,9.416635632514953613e-01,-6.249953508377075195e-01,1.299185454845428467e-01,7.873421311378479004e-01,-7.647433876991271973e-01,1.414446473121643066e+00,1.089017271995544434e+00,1.069119215011596680e+00
-3.793936669826507568e-01,3.937436342239379883e-01,9.941293597221374512e-01,-4.775002300739288330e-01,-1.895792186260223389e-01,1.331458330154418945e+00,1.448040127754211426e+00,-7.155376076698303223e-01,9.556242823600769043e-01,1.155534744262695312e+00,-3.186527788639068604e-01,1.286824345588684082e+00,9.772185087203979492e-01,8.128312826156616211e-01
-2.589777112007141113e-01,9.502496719360351562e-01,1.537640452384948730e+00,-3.274675011634826660e-01,4.416916072368621826e-01,8.884426355361938477e-01,1.855766057968139648e+00,-7.016400098800659180e-01,1.389577388763427734e+00,1.190012693405151367e+00,1.958915889263153076e-01,7.071997523307800293e-01,8.524054288864135742e-01,5.789355635643005371e-01
2.345168143510818481e-01,1.276579976081848145e+00,1.788458347320556641e+00,1.802445054054260254e-01,1.048474311828613281e+00,2.090554237365722656e-01,1.693679690361022949e+00,-5.183801054954528809e-01,1.585447072982788086e+00,9.632526636123657227e-01,7.313440442085266113e-01,1.482181400060653687e-01,7.064492106437683105e-01,-5.717089027166366577e-02
6.475116014480590820e-01,1.449025630950927734e+00,1.324489831924438477e+00,7.734272480010986328e-01,1.328370571136474609e+00,-3.842305839061737061e-01,1.153837919235229492e+00,-6.714976392686367035e-03,1.773357868194580078e+00,6.655700206756591797e-01,1.320184469223022461e+00,-3.071303069591522217e-01,1.853348501026630402e-02,-4.192985594272613525e-01
1.052909493446350098e+00,8.880529999732971191e-01,6.432065367698669434e-01,6.713670492172241211e-01,1.312933087348937988e+00,-7.120018005371093750e-01,4.566607177257537842e-01,6.088750362396240234e-01,1.434343099594116211e+00,-4.866820946335792542e-02,1.444143533706665039e+00,-4.745316207408905029e-01,-3.481603264808654785e-01,-6.990920305252075195e-01
1.052460193634033203e+00,5.917354822158813477e-01,-8.302603848278522491e-03,1.027184247970581055e+00,1.287991404533386230e+00,-7.628471255302429199e-01,-3.399173319339752197e-01,1.127502799034118652e+00,7.295194864273071289e-01,-6.621490120887756348e-01,1.586483597755432129e+00,-4.989719018340110779e-02,-5.341608524322509766e-01,-6.929110288619995117e-01
1.234432339668273926e+00,1.352926641702651978e-01,-4.509370028972625732e-01,1.004983544349670410e+00,9.791188240051269531e-01,-3.575455844402313232e-01,-9.215987920761108398e-01,1.282542467117309570e+00,-7.691770792007446289e-02,-7.430334687232971191e-01,9.117404222488403320e-01,1.792220175266265869e-01,-2.106515020132064819e-01,-6.237742304801940918e-01
1.073827624320983887e+00,-3.871365189552307129e-01,-7.040374279022216797e-01,5.885058641433715820e-01,4.829680621623992920e-01,3.724681735038757324e-01,-9.459007382392883301e-01,1.654963970184326172e+00,-3.706643879413604736e-01,-8.191581964492797852e-01,7.641826868057250977e-01,7.443136572837829590e-01,-1.925246715545654297e-01,-2.383259683847427368e-01
6.687930226325988770e-01,-7.302811741828918457e-01,-1.018596172332763672e+00,3.998699784278869629e-01,4.913729429244995117e-02,8.796209692955017090e-01,-8.736879825592041016e-01,1.201766610145568848e+00,-1.070326685905456543e+00,-5.472535490989685059e-01,2.023152709007263184e-01,1.174870729446411133e+00,3.379553556442260742e-01,4.878274500370025635e-01
1.834894865751266479e-01,-5.823139548301696777e-01,-6.748811602592468262e-01,-2.914742827415466309e-01,-4.554398953914642334e-01,1.091923475265502930e+00,-4.864651858806610107e-01,5.558049678802490234e-01,-9.342111349105834961e-01,-1.681933999061584473e-01,-5.759851336479187012e-01,1.102043509483337402e+00,8.036720752716064453e-01,7.531929612159729004e-01
-3.452050387859344482e-01,-3.065969944000244141e-01,-3.420155048370361328e-01,-8.167592287063598633e-01,-6.136282086372375488e-01,8.707357645034790039e-01,-4.965529590845108032e-02,8.452098071575164795e-02,-5.994463562965393066e-01,2.116496413946151733e-01,-1.030560493469238281e+00,8.344626426696777344e-01,9.312923550605773926e-01,1.058825612068176270e+00
-6.728494763374328613e-01,1.464938670396804810e-01,1.208054348826408386e-01,-8.650285601615905762e-01,-4.894252419471740723e-01,2.883327603340148926e-01,4.065360128879547119e-01,-4.700111150741577148e-01,-7.161229103803634644e-02,3.740675449371337891e-01,-1.212894678115844727e+00,6.338222026824951172e-01,1.085139155387878418e+00,6.098966598510742188e-01
-9.759449958801269531e-01,2.698283493518829346e-01,4.294778406620025635e-01,-8.710736632347106934e-01,-9.492953121662139893e-02,-2.995909452438354492e-01,4.619266390800476074e-01,-7.244485020637512207e-01,4.737620651721954346e-01,3.796041309833526611e-01,-1.245370507240295410e+00,-4.688668847084045410e-01,6.214554309844970703e-01,1.508873403072357178e-01
-7.249714136123657227e-01,4.789444208145141602e-01,4.039371609687805176e-01,-6.612154245376586914e-01,2.190146893262863159e-01,-1.186423301696777344e+00,1.670319885015487671e-01,-1.105373620986938477e+00,5.167867541313171387e-01,2.918470203876495361e-01,-7.396745681762695312e-01,-9.098340272903442383e-01,-3.542284667491912842e-02,-3.252631723880767822e-01
-5.582849979400634766e-01,5.979686975479125977e-01,1.852634251117706299e-01,-3.294762372970581055e-01,3.576050400733947754e-01,-1.688146948814392090e+00,-2.382579445838928223e-01,-9.340772032737731934e-01,7.930350899696350098e-01,-4.018201828002929688e-01,-2.142392843961715698e-01,-1.244683861732482910e+00,-5.896179080009460449e-01,-8.481665849685668945e-01
-6.680264323949813843e-02,2.189898341894149780e-01,-1.572867482900619507e-01,2.344308495521545410e-01,6.801042556762695312e-01,-1.825895667076110840e+00,-6.360146403312683105e-01,-6.198869943618774414e-01,4.832946658134460449e-01,-6.742405891418457031e-01,1.229337006807327271e-01,-1.516220211982727051e+00,-1.150482773780822754e+00,-1.472799181938171387e+00
2.496745288372039795e-01,-2.314211279153823853e-01,-6.455304622650146484e-01,2.290670126676559448e-01,6.922160387039184570e-01,-1.407700538635253906e+00,-1.373128294944763184e+00,-5.826482772827148438e-01,-1.484615504741668701e-01,-1.055972576141357422e+00,3.983595967292785645e-01,-1.087181806564331055e+00,-1.313595175743103027e+00,-1.272444367408752441e+00
5.167484283447265625e-01,-7.551567554473876953e-01,-1.390732884407043457e+00,3.362897932529449463e-01,4.545224905014038086e-01,-8.868781924247741699e-01,-1.534835577011108398e+00,1.149386763572692871e-01,-4.244467616081237793e-01,-9.227923154830932617e-01,5.916457176208496094e-01,-3.883790373802185059e-01,-1.131605267524719238e+00,-1.009706974029541016e+00
5.600357055664062500e-01,-9.972616434097290039e-01,-1.225449442863464355e+00,1.963314414024353027e-01,-4.024412017315626144e-03,-1.449918299913406372e-01,-1.606941819190979004e+00,4.215638041496276855e-01,-9.285838007926940918e-01,-8.513175845146179199e-01,2.857764959335327148e-01,1.228707954287528992e-01,-8.801059126853942871e-01,-4.321795701980590820e-01
5.067847371101379395e-01,-1.327843070030212402e+00,-1.503301262855529785e+00,8.681239932775497437e-02,-6.685706973075866699e-01,4.469943940639495850e-01,-1.011065840721130371e+00,4.446413516998291016e-01,-1.294391870498657227e+00,-5.112370848655700684e-01,6.926093995571136475e-02,6.285037994384765625e-01,-4.533412754535675049e-01,1.798031032085418701e-01
8.630621433258056641e-02,-1.122821450233459473e+00,-1.250375747680664062e+00,-3.870399594306945801e-01,-9.958376288414001465e-01,8.846262097358703613e-01,-4.111606776714324951e-01,3.116208910942077637e-01,-1.294963002204895020e+00,2.609632313251495361e-01,-5.319523215293884277e-01,8.347133994102478027e-01,3.270691335201263428e-01,7.485405206680297852e-01
-3.126164972782135010e-01,-7.880499958992004395e-01,-5.809808373451232910e-01,-7.227156758308410645e-01,-1.230002880096435547e+00,7.918229699134826660e-01,4.908650517463684082e-01,-3.427818790078163147e-02,-7.570908665657043457e-01,7.411626577377319336e-01,-8.964150547981262207e-01,4.442355930805206299e-01,4.519628882408142090e-01,9.199695587158203125e-01
-4.708436727523803711e-01,-4.735253751277923584e-01,3.867518305778503418e-01,-1.005804300308227539e+00,-1.150335550308227539e+00,3.552858233451843262e-01,1.136268377304077148e+00,-4.120323359966278076e-01,-2.470341175794601440e-01,1.182480454444885254e+00,-1.177254319190979004e+00,2.072690427303314209e-01,3.924039304256439209e-01,5.419268012046813965e-01
-1.010023713111877441e+00,3.366465568542480469e-01,8.027737736701965332e-01,-1.109935283660888672e+00,-7.731229066848754883e-01,-3.353698924183845520e-02,1.412800431251525879e+00,-9.030461311340332031e-01,4.919489622116088867e-01,1.271075010299682617e+00,-1.038941740989685059e+00,-5.516505241394042969e-01,-5.998281389474868774e-02,4.173932075500488281e-01
-8.673504590988159180e-01,7.870565056800842285e-01,1.269405484199523926e+00,-8.397392034530639648e-01,-1.808856427669525146e-01,-6.404324769973754883e-01,1.367687344551086426e+00,-1.282779574394226074e+00,9.862713217735290527e-01,1.206080555915832520e+00,-9.176847934722900391e-01,-9.628177285194396973e-01,-1.089878305792808533e-01,-3.948831930756568909e-02
-8.802049160003662109e-01,7.413198351860046387e-01,1.099676132202148438e+00,-3.147045969963073730e-01,1.686205267906188965e-01,-8.664111495018005371e-01,1.039837002754211426e+00,-1.182615637779235840e+00,1.013875126838684082e+00,8.642284274101257324e-01,-2.709932029247283936e-01,-1.312344431877136230e+00,-6.541852951049804688e-01,-4.727106392383575439e-01
-2.759944498538970947e-01,7.566010951995849609e-01,8.251734375953674316e-01,2.269791811704635620e-01,5.731198787689208984e-01,-4.288297593593597412e-01,2.564294636249542236e-01,-1.093201398849487305e+00,7.354161143302917480e-01,2.642037272453308105e-01,2.297042906284332275e-01,-1.022761106491088867e+00,-7.235234379768371582e-01,-3.718217909336090088e-01
-1.765599250793457031e-01,3.024517893791198730e-01,6.982955336570739746e-01,6.465866565704345703e-01,1.016752719879150391e+00,9.660698473453521729e-02,-1.788484305143356323e-01,-6.773939728736877441e-01,4.818052351474761963e-01,-2.774370014667510986e-01,9.838066697120666504e-01,-3.469125032424926758e-01,-7.275522947311401367e-01,-3.352996706962585449e-01
5.210697054862976074e-01,2.092186659574508667e-01,-3.747470304369926453e-02,9.806573390960693359e-01,9.535489678382873535e-01,7.524002790451049805e-01,-6.082224249839782715e-01,1.160574704408645630e-01,3.261267393827438354e-02,-4.653870761394500732e-01,9.326633214950561523e-01,5.144697427749633789e-01,-4.128462374210357666e-01,3.132283687591552734e-01
6.885349750518798828e-01,-3.037875294685363770e-01,-1.746143698692321777e-01,1.206907629966735840e+00,5.947724580764770508e-01,1.443107962608337402e+00,-7.314900755882263184e-01,5.603062510490417480e-01,-7.362378835678100586e-01,-2.926575243473052979e-01,1.029625654220581055e+00,9.110629558563232422e-01,1.671631336212158203e-01,6.546372175216674805e-01
8.333358764648437500e-01,-5.932478904724121094e-01,-6.424338817596435547e-01,1.285206794738769531e+00,5.988316982984542847e-02,1.619219303131103516e+00,-6.553635597229003906e-01,1.033431291580200195e+00,-1.395899772644042969e+00,-2.053900659084320068e-01,7.162484526634216309e-01,1.142045855522155762e+00,1.027920484542846680e+00,1.289894819259643555e+00
7.611654996871948242e-01,-8.483955264091491699e-01,-4.215335547924041748e-01,9.689787626266479492e-01,-5.778424739837646484e-01,1.577224373817443848e+00,-3.020815923810005188e-02,1.321965336799621582e+00,-1.485413074493408203e+00,1.697489917278289795e-01,1.493714451789855957e-01,6.981213092803955078e-01,1.207618355751037598e+00,1.332097649574279785e+00
3.617469668388366699e-01,-4.412949085235595703e-01,-2.244455218315124512e-01,5.249665975570678711e-01,-1.102848291397094727e+00,1.300963044166564941e+00,3.217133581638336182e-01,1.454542994499206543e+00,-1.333779931068420410e+00,4.298853278160095215e-01,-1.494948416948318481e-01,3.975566327571868896e-01,1.442776918411254883e+00,1.131970524787902832e+00
1.635218970477581024e-02,-2.119735330343246460e-01,4.005772471427917480e-01,1.091852411627769470e-02,-1.349411010742187500e+00,5.776925086975097656e-01,8.706371188163757324e-01,1.133401989936828613e+00,-7.849683165550231934e-01,6.924272179603576660e-01,-5.203480720520019531e-01,-1.908507794141769409e-01,1.483065009117126465e+00,8.448556661605834961e-01
-5.423306822776794434e-01,4.262043237686157227e-01,5.079815983772277832e-01,-2.934477627277374268e-01,-9.959021806716918945e-01,-3.309430480003356934e-01,1.270169019699096680e+00,5.851187109947204590e-01,-1.676406562328338623e-01,7.355480790138244629e-01,-8.912670612335205078e-01,-9.520571827888488770e-01,8.202683329582214355e-01,2.614261209964752197e-01
-8.857067823410034180e-01,5.825378894805908203e-01,1.041558504104614258e+00,-3.201326131820678711e-01,-6.540288925170898438e-01,-8.808296322822570801e-01,1.054009318351745605e+00,4.994662404060363770e-01,4.778444468975067139e-01,2.174460142850875854e-01,-1.238091707229614258e+00,-1.237031579017639160e+00,4.875608384609222412e-01,-3.788912296295166016e-01
-1.163916587829589844e+00,8.328091502189636230e-01,8.970170617103576660e-01,-4.578839242458343506e-01,-3.286983072757720947e-01,-1.052332401275634766e+00,6.316339373588562012e-01,-2.209473997354507446e-01,7.713549137115478516e-01,-9.591086953878402710e-02,-6.612592935562133789e-01,-1.156775832176208496e+00,-1.996940374374389648e-01,-9.914683103561401367e-01
-8.820554614067077637e-01,7.545959353446960449e-01,7.871386408805847168e-01,-1.688877642154693604e-01,1.094985157251358032e-01,-1.035759210586547852e+00,9.637026488780975342e-02,-5.100975036621093750e-01,8.292093276977539062e-01,-3.611775040626525879e-01,-2.577169537544250488e-01,-6.508625745773315430e-01,-5.588734745979309082e-01,-1.110400199890136719e+00
-4.859167933464050293e-01,4.287229776382446289e-01,5.246971547603607178e-02,-1.260870397090911865e-01,4.991808831691741943e-01,-5.633312463760375977e-01,-6.556000113487243652e-01,-5.319262146949768066e-01,6.961543560028076172e-01,-1.010048270225524902e+00,4.884708523750305176e-01,-1.656843572854995728e-01,-6.475079059600830078e-01,-1.039519786834716797e+00
-2.320666015148162842e-01,2.021445631980895996e-01,-4.464108049869537354e-01,3.721298277378082275e-01,6.368753910064697266e-01,1.676086038351058960e-01,-1.082184433937072754e+00,-6.349145770072937012e-01,3.160736560821533203e-01,-1.177569031715393066e+00,6.940349936485290527e-01,3.578299582004547119e-01,-4.621109962463378906e-01,-6.313754320144653320e-01
3.494270741939544678e-01,-4.743673801422119141e-01,-8.807897567749023438e-01,4.802370667457580566e-01,6.364853382110595703e-01,6.568852066993713379e-01,-1.086647748947143555e+00,-8.700101822614669800e-02,-3.722584992647171021e-02,-1.215805768966674805e+00,1.276531696319580078e+00,1.074698448181152344e+00,-8.495881408452987671e-02,-2.297825813293457031e-01
8.885458111763000488e-01,-7.183758020401000977e-01,-1.055459022521972656e+00,4.777149856090545654e-01,3.195959329605102539e-01,8.817240595817565918e-01,-9.533505439758300781e-01,8.827219903469085693e-02,-4.595024287700653076e-01,-6.563165187835693359e-01,1.035663723945617676e+00,1.417477488517761230e+00,3.073762059211730957e-01,2.503891885280609131e-01
8.716947436332702637e-01,-8.134068250656127930e-01,-1.255168080329895020e+00,4.538629055023193359e-01,2.569858729839324951e-02,6.364134550094604492e-01,-1.689323186874389648e-01,6.331213712692260742e-01,-6.485859751701354980e-01,-2.211712859570980072e-02,1.040424466133117676e+00,1.096303701400756836e+00,7.396715283393859863e-01,2.740016877651214600e-01
8.935258984565734863e-01,-4.672040641307830811e-01,-7.489047050476074219e-01,1.722000986337661743e-01,-3.214781284332275391e-01,3.775475025177001953e-01,2.975165247917175293e-01,9.196608662605285645e-01,-4.915941655635833740e-01,5.581116080284118652e-01,6.353331208229064941e-01,6.903989315032958984e-01,7.057921886444091797e-01,2.664442360401153564e-01
5.479874014854431152e-01,-3.019224703311920166e-01,-1.556985378265380859e-01,-3.106039762496948242e-01,-5.471861362457275391e-01,-3.483744859695434570e-01,8.466348648071289062e-01,8.860307335853576660e-01,1.699748565442860126e-03,7.167391777038574219e-01,1.891486644744873047e-01,2.666052877902984619e-01,3.817771077156066895e-01,-1.607955396175384521e-01
4.059239327907562256e-01,3.185344040393829346e-01,5.852987170219421387e-01,-7.292931675910949707e-01,-6.116448044776916504e-01,-9.725437760353088379e-01,1.255691885948181152e+00,7.741203308105468750e-01,5.200940966606140137e-01,9.346202015876770020e-01,-1.950887739658355713e-01,-3.333289027214050293e-01,3.860556706786155701e-02,-5.646904706954956055e-01
2.605109214782714844e-01,6.330290436744689941e-01,8.802816271781921387e-01,-1.069367170333862305e+00,-3.969339132308959961e-01,-1.209297418594360352e+00,1.118707776069641113e+00,3.723335862159729004e-01,1.263838648796081543e+00,5.464819669723510742e-01,-5.039210319519042969e-01,-4.296236038208007812e-01,-5.056666731834411621e-01,-9.965119957923889160e-01
-2.937459349632263184e-01,1.105351209640502930e+00,1.082964658737182617e+00,-1.112322688102722168e+00,1.642992794513702393e-01,-1.045647382736206055e+00,8.338739275932312012e-01,-4.642550274729728699e-02,1.757993936538696289e+00,1.540515571832656860e-01,-4.380868077278137207e-01,-2.718692719936370850e-01,-8.283277153968811035e-01,-1.213774323463439941e+00
-3.103995025157928467e-01,1.131942391395568848e+00,1.091307044029235840e+00,-8.563434481620788574e-01,5.008832812309265137e-01,-6.461043953895568848e-01,8.300154656171798706e-02,-6.056291460990905762e-01,1.623765110969543457e+00,-2.751991152763366699e-01,-4.332004189491271973e-01,1.182668283581733704e-01,-1.150289297103881836e+00,-1.162557601928710938e+00
-3.123584091663360596e-01,1.078744649887084961e+00,4.382822215557098389e-01,-5.900817513465881348e-01,1.152787566184997559e+00,4.590418189764022827e-02,-7.278072237968444824e-01,-1.038112759590148926e+00,1.479854464530944824e+00,-7.920876741409301758e-01,-1.337838079780340195e-02,6.286265850067138672e-01,-9.708692431449890137e-01,-6.795670390129089355e-01
-2.320668399333953857e-01,5.317770838737487793e-01,-2.873576283454895020e-01,-1.718051880598068237e-01,1.343469262123107910e+00,6.059798598289489746e-01,-1.170473933219909668e+00,-1.020755052566528320e+00,7.509835362434387207e-01,-7.587044239044189453e-01,3.909211754798889160e-01,8.706204295158386230e-01,-4.593455195426940918e-01,-4.321326687932014465e-02
3.413350284099578857e-01,-6.885191053152084351e-02,-8.241218924522399902e-01,3.147626817226409912e-01,1.429455637931823730e+00,1.068199753761291504e+00,-1.589068174362182617e+00,-9.744806289672851562e-01,-6.882015615701675415e-02,-7.468210458755493164e-01,8.976665139198303223e-01,1.214031219482421875e+00,-1.471833437681198120e-01,8.079290986061096191e-01
7.885539531707763672e-01,-5.009151697158813477e-01,-1.110236644744873047e+00,8.548619747161865234e-01,1.196404814720153809e+00,1.243885159492492676e+00,-1.483015418052673340e+00,-7.241539359092712402e-01,-9.235757589340209961e-01,-4.019983112812042236e-01,7.347025871276855469e-01,1.003644108772277832e+00,2.657616734504699707e-01,1.101747274398803711e+00
9.488949179649353027e-01,-6.825845241546630859e-01,-1.176841020584106445e+00,9.095659852027893066e-01,7.921329736709594727e-01,8.423486948013305664e-01,-7.874601483345031738e-01,-2.223409898579120636e-02,-1.222415328025817871e+00,2.468555793166160583e-02,6.345837712287902832e-01,5.622557997703552246e-01,8.093748092651367188e-01,1.172076582908630371e+00
9.400092959403991699e-01,-8.567919731140136719e-01,-7.831959128379821777e-01,8.672937750816345215e-01,3.293379843235015869e-01,1.279767695814371109e-02,-3.050810098648071289e-01,2.897616326808929443e-01,-1.480730652809143066e+00,4.084362983703613281e-01,3.403605222702026367e-01,-2.020812332630157471e-01,9.114217758178710938e-01,1.149019122123718262e+00
9.372867345809936523e-01,-5.857180356979370117e-01,-3.705556094646453857e-01,5.500916242599487305e-01,-3.738802075386047363e-01,-3.833994567394256592e-01,2.459435313940048218e-01,9.236441850662231445e-01,-1.110687136650085449e+00,6.645570397377014160e-01,-3.600637316703796387e-01,-9.244747757911682129e-01,6.417975425720214844e-01,5.710665583610534668e-01
5.321663022041320801e-01,-3.610633909702301025e-01,1.458267271518707275e-01,7.658292353153228760e-02,-7.968624234199523926e-01,-1.072418332099914551e+00,5.808262825012207031e-01,1.041627049446105957e+00,-7.666360735893249512e-01,7.260828018188476562e-01,-7.574082016944885254e-01,-1.662522196769714355e+00,1.522560864686965942e-01,2.073300182819366455e-01
-8.891967684030532837e-02,2.479711547493934631e-02,3.378487825393676758e-01,-2.134711593389511108e-01,-7.061991691589355469e-01,-1.524275660514831543e+00,5.846598744392395020e-01,9.661201238632202148e-01,-2.218496054410934448e-01,5.737311840057373047e-01,-1.184761166572570801e+00,-1.521135091781616211e+00,-2.127352803945541382e-01,-4.506442844867706299e-01
-4.727843999862670898e-01,2.871589660644531250e-01,5.809721350669860840e-01,-3.887652754783630371e-01,-9.199388623237609863e-01,-1.143931746482849121e+00,2.704610526561737061e-01,7.520593404769897461e-01,3.164480328559875488e-01,1.112040653824806213e-01,-1.605653524398803711e+00,-1.365765929222106934e+00,-7.936995029449462891e-01,-5.473713874816894531e-01
-1.195939540863037109e+00,3.058720231056213379e-01,5.925518870353698730e-01,-6.921045780181884766e-01,-3.302942514419555664e-01,-6.417545080184936523e-01,-9.837158769369125366e-02,-7.203099131584167480e-02,5.757576823234558105e-01,-2.704055309295654297e-01,-1.586522459983825684e+00,-5.867125391960144043e-01,-1.047846317291259766e+00,-4.861778318881988525e-01
-1.151804447174072266e+00,2.193624824285507202e-01,4.268536865711212158e-01,-4.049143791198730469e-01,-6.869895756244659424e-02,5.543192103505134583e-02,-5.822662115097045898e-01,-5.265994668006896973e-01,7.231723666191101074e-01,-6.218261122703552246e-01,-1.354160904884338379e+00,2.963567897677421570e-02,-8.152728676795959473e-01,-2.133753746747970581e-01
-1.267187833786010742e+00,8.565857261419296265e-02,-2.850372195243835449e-01,-4.313713610172271729e-01,4.170911908149719238e-01,8.164413571357727051e-01,-9.874069690704345703e-01,-1.059197545051574707e+00,3.877756297588348389e-01,-7.715227007865905762e-01,-6.923526525497436523e-01,3.371586799621582031e-01,-6.244638562202453613e-01,1.516872197389602661e-01
-8.668520450592041016e-01,-5.870163440704345703e-01,-5.340501070022583008e-01,-4.422568157315254211e-02,6.039513945579528809e-01,1.174077749252319336e+00,-1.118048667907714844e+00,-1.367540836334228516e+00,-2.225989848375320435e-01,-6.855686902999877930e-01,-7.932648062705993652e-02,5.890294313430786133e-01,7.629873696714639664e-03,6.698237061500549316e-01
-6.336289644241333008e-01,-7.017453908920288086e-01,-9.816471934318542480e-01,3.621190786361694336e-01,4.919939339160919189e-01,9.877678751945495605e-01,-7.274824380874633789e-01,-1.284472584724426270e+00,-6.489447951316833496e-01,-1.578782498836517334e-01,4.203108847141265869e-01,3.991678059101104736e-01,5.444807410240173340e-01,7.631555199623107910e-01
-6.093765422701835632e-02,-1.011182665824890137e+00,-8.174717426300048828e-01,5.224666595458984375e-01,2.277451008558273315e-01,5.642599463462829590e-01,-8.936691097915172577e-03,-1.136742830276489258e+00,-1.106186628341674805e+00,3.564629554748535156e-01,7.938386201858520508e-01,1.503807455301284790e-01,6.635237932205200195e-01,9.723448157310485840e-01
3.568024635314941406e-01,-1.169443130493164062e+00,-6.661270260810852051e-01,8.603270053863525391e-01,-2.287112623453140259e-01,1.676977872848510742e-01,7.247220873832702637e-01,-5.992054939270019531e-01,-1.233837962150573730e+00,8.247186541557312012e-01,8.950998187065124512e-01,-4.000860154628753662e-01,5.951790809631347656e-01,3.141732215881347656e-01
6.433912515640258789e-01,-8.359279632568359375e-01,-1.233245581388473511e-01,5.256217122077941895e-01,-6.665636301040649414e-01,-6.200188398361206055e-01,1.265020012855529785e+00,-2.073753029108047485e-01,-9.695506691932678223e-01,1.103525996208190918e+00,9.198783040046691895e-01,-8.735781908035278320e-01,3.215315639972686768e-01,2.486188896000385284e-03
6.840310096740722656e-01,-4.541481435298919678e-01,5.533541440963745117e-01,2.433983981609344482e-01,-9.917410612106323242e-01,-7.890558242797851562e-01,1.831774234771728516e+00,5.207525491714477539e-01,-3.110908865928649902e-01,1.257431268692016602e+00,2.914199829101562500e-01,-1.045915603637695312e+00,2.736135153099894524e-03,-8.378002643585205078e-01
4.542717933654785156e-01,4.099875092506408691e-01,1.024005770683288574e+00,2.114980854094028473e-02,-9.700224399566650391e-01,-4.888569414615631104e-01,1.550260782241821289e+00,6.597511172294616699e-01,3.285430371761322021e-01,1.019690394401550293e+00,-1.336587965488433838e-02,-9.017215967178344727e-01,-6.108449101448059082e-01,-9.952541589736938477e-01
1.349508315324783325e-01,7.587895393371582031e-01,1.428428053855895996e+00,-3.832086324691772461e-01,-7.484549880027770996e-01,-4.875331372022628784e-02,1.201336383819580078e+00,6.763262748718261719e-01,6.147180795669555664e-01,4.664114415645599365e-01,-5.150501728057861328e-01,-2.061705291271209717e-01,-9.137765169143676758e-01,-1.026928305625915527e+00
-2.938309907913208008e-01,1.093288183212280273e+00,1.571486711502075195e+00,-3.921483457088470459e-01,-6.466931104660034180e-01,4.490054845809936523e-01,7.295597791671752930e-01,5.629575848579406738e-01,1.267351508140563965e+00,-1.761219501495361328e-01,-4.460636377334594727e-01,4.309968352317810059e-01,-8.188384175300598145e-01,-8.732057213783264160e-01
-3.901339769363403320e-01,1.296967625617980957e+00,1.165174245834350586e+00,-5.626900792121887207e-01,-2.643927931785583496e-01,1.045420289039611816e+00,-6.886451970785856247e-03,3.247956931591033936e-01,1.077204346656799316e+00,-5.744010806083679199e-01,-5.345088839530944824e-01,9.395934343338012695e-01,-6.016398668289184570e-01,-3.864543735980987549e-01
-7.162552475929260254e-01,8.542342185974121094e-01,6.530105471611022949e-01,-3.871627151966094971e-01,4.316119253635406494e-01,1.721485376358032227e+00,-6.826308369636535645e-01,2.685678936541080475e-02,7.479211688041687012e-01,-1.054893851280212402e+00,-3.746563792228698730e-01,1.337212085723876953e+00,-4.914519935846328735e-02,2.168684899806976318e-01
-6.448161005973815918e-01,6.320128440856933594e-01,8.272596448659896851e-02,-4.350703954696655273e-01,8.147124052047729492e-01,1.639600396156311035e+00,-8.478870391845703125e-01,-3.839171230792999268e-01,1.328647881746292114e-01,-9.426978230476379395e-01,1.923182010650634766e-01,1.307549595832824707e+00,6.193434596061706543e-01,7.094095349311828613e-01
-5.965706110000610352e-01,1.187900155782699585e-01,-3.418507874011993408e-01,2.142532914876937866e-01,1.033031344413757324e+00,1.382204055786132812e+00,-8.885563015937805176e-01,-5.241140723228454590e-01,-6.179972290992736816e-01,-5.938282608985900879e-01,6.451784372329711914e-01,5.579342246055603027e-01,8.713549375534057617e-01,8.183107376098632812e-01
-8.959310501813888550e-02,-2.197856158018112183e-01,-8.724568486213684082e-01,7.666085958480834961e-01,9.270232319831848145e-01,4.926606416702270508e-01,-8.642904162406921387e-01,-6.122566461563110352e-01,-9.561370611190795898e-01,-3.797215521335601807e-01,1.096954464912414551e+00,1.697998493909835815e-01,1.283704757690429688e+00,8.338525891304016113e-01
1.767009943723678589e-01,-6.075175404548645020e-01,-8.387842774391174316e-01,1.026303172111511230e+00,3.732461333274841309e-01,-3.100725710391998291e-01,-3.793265819549560547e-01,-3.515014946460723877e-01,-1.369237780570983887e+00,-2.191523276269435883e-02,1.096209764480590820e+00,-5.430676937103271484e-01,1.474201321601867676e+00,3.822415769100189209e-01
6.173096299171447754e-01,-4.502574503421783447e-01,-5.691052079200744629e-01,1.199638843536376953e+00,1.712970435619354248e-02,-9.637062549591064453e-01,1.004744172096252441e-01,6.121380254626274109e-02,-1.119701027870178223e+00,3.538324236869812012e-01,1.082450389862060547e+00,-7.191712260246276855e-01,7.322213649749755859e-01,1.395992040634155273e-01
6.063036918640136719e-01,-1.404091715812683105e-01,-1.301012486219406128e-01,9.181602001190185547e-01,-6.342955231666564941e-01,-1.184144377708435059e+00,4.221078753471374512e-01,4.246855974197387695e-01,-8.087287545204162598e-01,3.232851922512054443e-01,8.377030491828918457e-01,-9.868549108505249023e-01,4.642913341522216797e-01,-4.960837364196777344e-01
6.946045756340026855e-01,1.797678619623184204e-01,3.828475177288055420e-01,5.714959502220153809e-01,-1.052378296852111816e+00,-1.475786805152893066e+00,5.912496447563171387e-01,1.059726953506469727e+00,-2.318004369735717773e-01,1.246924623847007751e-01,3.171809911727905273e-01,-9.133391976356506348e-01,-1.227403655648231506e-01,-9.439271092414855957e-01
6.031068563461303711e-01,6.419493556022644043e-01,5.060989260673522949e-01,1.833374612033367157e-02,-1.148673892021179199e+00,-8.562396764755249023e-01,2.765776813030242920e-01,1.395920038223266602e+00,4.579164683818817139e-01,-3.931882381439208984e-01,-4.896246194839477539e-01,-2.835802137851715088e-01,-5.155095458030700684e-01,-9.818325042724609375e-01
7.455093413591384888e-02,6.967918276786804199e-01,5.706102848052978516e-01,-2.830147147178649902e-01,-1.018352985382080078e+00,-5.718244910240173340e-01,-3.129737079143524170e-01,1.461335539817810059e+00,1.046622514724731445e+00,-8.415193557739257812e-01,-9.068027138710021973e-01,5.388345718383789062e-01,-7.507562041282653809e-01,-5.427497625350952148e-01
-1.530602723360061646e-01,7.423614859580993652e-01,2.014515548944473267e-01,-6.862155795097351074e-01,-7.269480824470520020e-01,1.810585111379623413e-01,-8.166987895965576172e-01,1.534062266349792480e+00,1.374889731407165527e+00,-1.110437035560607910e+00,-1.099178433418273926e+00,8.887358903884887695e-01,-5.529252290725708008e-01,-6.880901753902435303e-02
-7.733247876167297363e-01,5.418565273284912109e-01,-2.714478671550750732e-01,-9.139308333396911621e-01,-1.574958562850952148e-01,5.977819561958312988e-01,-1.276183485984802246e+00,7.578597068786621094e-01,1.480736494064331055e+00,-8.619123697280883789e-01,-9.173598885536193848e-01,1.095303177833557129e+00,-1.398484557867050171e-01,3.237934410572052002e-01
-8.735559582710266113e-01,1.136324033141136169e-01,-9.476037621498107910e-01,-8.369605541229248047e-01,4.489906728267669678e-01,2.913472652435302734e-01,-1.562994122505187988e+00,1.001242399215698242e-01,1.048882722854614258e+00,-8.893768787384033203e-01,-8.458914756774902344e-01,9.197780489921569824e-01,1.726413071155548096e-01,5.897721648216247559e-01
-7.703315615653991699e-01,-2.636936902999877930e-01,-1.386642336845397949e+00,-8.690658807754516602e-01,7.306291460990905762e-01,-1.170986965298652649e-01,-1.241798996925354004e+00,-4.585711061954498291e-01,3.553340137004852295e-01,-3.150449991226196289e-01,-1.249838322401046753e-01,5.853652954101562500e-01,5.954174995422363281e-01,8.702076673507690430e-01
-6.696048974990844727e-01,-6.768577098846435547e-01,-1.433786034584045410e+00,-2.572973668575286865e-01,7.730004787445068359e-01,-5.172185301780700684e-01,-7.726967334747314453e-01,-8.831914663314819336e-01,3.799723228439688683e-03,3.407909274101257324e-01,4.338676333427429199e-01,8.025397360324859619e-02,6.785328388214111328e-01,4.286350309848785400e-01
-1.675763279199600220e-01,-8.997097015380859375e-01,-1.407573103904724121e+00,-8.395019918680191040e-02,8.855513930320739746e-01,-1.211111903190612793e+00,-2.009284216910600662e-03,-1.292839765548706055e+00,-3.664377331733703613e-01,8.322893381118774414e-01,9.491016864776611328e-01,-4.013514816761016846e-01,4.943176209926605225e-01,6.725273281335830688e-02
2.717899382114410400e-01,-9.262902140617370605e-01,-8.673296570777893066e-01,3.124476075172424316e-01,5.464411377906799316e-01,-1.478594303131103516e+00,6.040386557579040527e-01,-1.222571969032287598e+00,-5.085772275924682617e-01,1.005850434303283691e+00,1.018195986747741699e+00,-7.842906713485717773e-01,6.572173535823822021e-02,-3.633069694042205811e-01
7.421591281890869141e-01,-5.671355724334716797e-01,-3.277013897895812988e-01,1.813100427389144897e-01,2.658112943172454834e-01,-1.394335746765136719e+00,1.127159595489501953e+00,-1.025732040405273438e+00,-2.702524065971374512e-01,1.418511152267456055e+00,1.049777269363403320e+00,-5.641300678253173828e-01,-6.955234408378601074e-01,-5.859225392341613770e-01
9.327815771102905273e-01,-2.392099201679229736e-01,3.410508036613464355e-01,2.065705657005310059e-01,-3.911356627941131592e-01,-8.776866197586059570e-01,1.063201427459716797e+00,-6.013873219490051270e-01,3.504413664340972900e-01,1.157930016517639160e+00,8.273599147796630859e-01,-1.783487796783447266e-01,-1.109213829040527344e+00,-8.398748636245727539e-01
1.269549489021301270e+00,3.231762647628784180e-01,9.875907301902770996e-01,-6.049343571066856384e-02,-4.140090644359588623e-01,-2.283207774162292480e-01,8.405224680900573730e-01,-2.484763562679290771e-01,8.141910433769226074e-01,6.027873754501342773e-01,1.987362205982208252e-01,3.827950656414031982e-01,-1.377565026283264160e+00,-6.060791015625000000e-01
9.876258969306945801e-01,6.286462545394897461e-01,1.101550102233886719e+00,-3.822823762893676758e-01,-4.635737538337707520e-01,8.559121489524841309e-01,3.832969665527343750e-01,1.715420186519622803e-01,1.046621322631835938e+00,1.645158231258392334e-01,-4.161944985389709473e-01,1.147599935531616211e+00,-1.427426338195800781e+00,-3.688969314098358154e-01
8.046610951423645020e-01,7.749291658401489258e-01,9.904653429985046387e-01,-6.293846964836120605e-01,-4.838461428880691528e-02,1.290593385696411133e+00,-2.564536929130554199e-01,2.868433892726898193e-01,1.368949770927429199e+00,-3.828270137310028076e-01,-8.305616378784179688e-01,1.208407163619995117e+00,-1.057015538215637207e+00,1.425707042217254639e-01
2.711772918701171875e-01,7.372745275497436523e-01,6.832826137542724609e-01,-8.076545000076293945e-01,4.171487390995025635e-01,1.654402136802673340e+00,-8.742474913597106934e-01,4.663872718811035156e-01,1.180888056755065918e+00,-4.840789139270782471e-01,-9.593157172203063965e-01,1.003513574600219727e+00,-3.301576077938079834e-01,7.559041976928710938e-01
-2.816753685474395752e-01,4.701526463031768799e-01,2.097579985857009888e-01,-7.788337469100952148e-01,5.992413759231567383e-01,1.335392951965332031e+00,-1.078704953193664551e+00,1.968395709991455078e-01,8.834851384162902832e-01,-4.541703462600708008e-01,-8.658210039138793945e-01,5.837988853454589844e-01,2.467300295829772949e-01,1.425520300865173340e+00
-4.511563479900360107e-01,-7.948374748229980469e-02,-2.058382779359817505e-01,-5.488405227661132812e-01,1.297858715057373047e+00,8.895223736763000488e-01,-1.055986046791076660e+00,-3.154043257236480713e-01,-2.232847362756729126e-01,-3.102151155471801758e-01,-7.052051424980163574e-01,-2.792102992534637451e-01,6.371557116508483887e-01,9.666720628738403320e-01
-5.563492178916931152e-01,-4.314054250717163086e-01,-6.651198267936706543e-01,-8.549077808856964111e-02,1.255836486816406250e+00,1.592445671558380127e-01,-8.534974455833435059e-01,-5.126000046730041504e-01,-7.683531045913696289e-01,1.012301445007324219e-01,-5.205720663070678711e-01,-8.784563541412353516e-01,9.859174489974975586e-01,9.480020999908447266e-01
-7.941299080848693848e-01,-8.409541845321655273e-01,-6.152061223983764648e-01,3.096976876258850098e-01,1.123124480247497559e+00,-4.927754104137420654e-01,3.450275212526321411e-02,-9.571243524551391602e-01,-1.462539672851562500e+00,6.845039725303649902e-01,7.920651137828826904e-02,-1.449296951293945312e+00,5.465432405471801758e-01,5.874083638191223145e-01
-3.712479472160339355e-01,-9.379098415374755859e-01,-5.349439978599548340e-01,7.993657588958740234e-01,8.180748820304870605e-01,-7.867697477340698242e-01,5.791878104209899902e-01,-1.195692181587219238e+00,-1.850014328956604004e+00,7.319196462631225586e-01,4.008661806583404541e-01,-1.606867790222167969e+00,2.671486735343933105e-01,-1.739363670349121094e-01
-1.473905593156814575e-01,-8.439760208129882812e-01,-2.504936158657073975e-01,1.187835812568664551e+00,4.545966684818267822e-01,-7.563207149505615234e-01,1.096651673316955566e+00,-1.100253105163574219e+00,-1.752728939056396484e+00,5.817477703094482422e-01,3.842117488384246826e-01,-1.445789456367492676e+00,-3.534165769815444946e-02,-5.114937424659729004e-01
2.588512897491455078e-01,-5.960574150085449219e-01,4.257691204547882080e-01,1.299085736274719238e+00,-1.264189928770065308e-01,-2.906829416751861572e-01,9.638736248016357422e-01,-6.458691358566284180e-01,-1.179916977882385254e+00,3.504781424999237061e-01,3.842700719833374023e-01,-8.481793403625488281e-01,-4.491277635097503662e-01,-7.461611032485961914e-01
4.159975647926330566e-01,-1.522324830293655396e-01,9.189587235450744629e-01,1.087964057922363281e+00,-8.102045059204101562e-01,4.423592686653137207e-01,1.084275364875793457e+00,-2.319425642490386963e-01,-4.403026700019836426e-01,-1.022202596068382263e-01,3.952169418334960938e-02,-2.130707055330276489e-01,-6.474087834358215332e-01,-6.496823430061340332e-01
5.803796648979187012e-01,2.784552574157714844e-01,1.205532193183898926e+00,8.351706266403198242e-01,-1.153316974639892578e+00,9.807643890380859375e-01,4.544738531112670898e-01,4.301674067974090576e-01,2.826496362686157227e-01,-5.112243890762329102e-01,-1.204775348305702209e-01,2.979176640510559082e-01,-3.335235714912414551e-01,-2.265284210443496704e-01
2.580016851425170898e-01,5.273403525352478027e-01,9.563173055648803711e-01,3.896555304527282715e-01,-1.306664109230041504e+00,1.231210589408874512e+00,-1.136910542845726013e-01,7.748963832855224609e-01,5.119162201881408691e-01,-1.002532720565795898e+00,-6.857902407646179199e-01,4.058655202388763428e-01,-2.631210684776306152e-01,1.276229023933410645e-01
-2.546806037425994873e-01,3.258489966392517090e-01,3.451921641826629639e-01,3.108324110507965088e-02,-1.044328451156616211e+00,1.155878186225891113e+00,-4.731021523475646973e-01,1.113669872283935547e+00,7.717423439025878906e-01,-1.188540816307067871e+00,-1.061590194702148438e+00,3.859603404998779297e-01,5.774052739143371582e-01,5.694034099578857422e-01
-5.341202616691589355e-01,2.297571301460266113e-01,-1.270910501480102539e-01,-3.109814524650573730e-01,-4.851929545402526855e-01,6.539506316184997559e-01,-7.090482711791992188e-01,1.382219791412353516e+00,7.721086740493774414e-01,-8.510592579841613770e-01,-1.085195422172546387e+00,-1.528950631618499756e-01,9.051787853240966797e-01,7.551644444465637207e-01
-8.475679159164428711e-01,-6.625737249851226807e-02,-5.982228517532348633e-01,-6.731315255165100098e-01,-4.645565897226333618e-02,-1.871873438358306885e-01,-5.512972474098205566e-01,9.346647858619689941e-01,2.909304797649383545e-01,-6.552455425262451172e-01,-8.856709003448486328e-01,-7.347280383110046387e-01,1.059722661972045898e+00,2.455416172742843628e-01
-1.349614143371582031e+00,-4.524067044258117676e-01,-9.879730343818664551e-01,-7.060254216194152832e-01,2.601458132266998291e-01,-9.341991543769836426e-01,-1.118424311280250549e-01,6.794788837432861328e-01,-1.632659584283828735e-01,3.648475557565689087e-02,-3.698145151138305664e-01,-8.188399672508239746e-01,1.137610077857971191e+00,6.106979399919509888e-02
-1.279627442359924316e+00,-7.149459123611450195e-01,-1.073686480522155762e+00,-3.598906397819519043e-01,5.708683133125305176e-01,-1.381610274314880371e+00,4.414420723915100098e-01,3.020239472389221191e-01,-6.491872668266296387e-01,4.888141751289367676e-01,2.910395264625549316e-01,-9.996196627616882324e-01,8.435194492340087891e-01,-7.345408797264099121e-01
-1.037625551223754883e+00,-9.466078281402587891e-01,-7.853664159774780273e-01,1.535926461219787598e-01,6.706510782241821289e-01,-1.329794406890869141e+00,9.505998492240905762e-01,-5.182791352272033691e-01,-8.538724184036254883e-01,8.791898488998413086e-01,8.543440699577331543e-01,-8.200833201408386230e-01,3.627661168575286865e-01,-9.991668462753295898e-01
-6.245533823966979980e-01,-7.370941042900085449e-01,-2.080869972705841064e-01,2.860381603240966797e-01,2.441279888153076172e-01,-1.068084955215454102e+00,1.292747974395751953e+00,-9.449377059936523438e-01,-7.596632838249206543e-01,7.158702611923217773e-01,1.288036942481994629e+00,-1.888967454433441162e-01,-1.656129658222198486e-01,-1.469730615615844727e+00
-3.400811254978179932e-01,-1.289239823818206787e-01,3.924128115177154541e-01,4.422017037868499756e-01,-1.263066977262496948e-01,-3.905082345008850098e-01,1.593808650970458984e+00,-9.134282469749450684e-01,-6.813189387321472168e-01,5.081108808517456055e-01,1.513146877288818359e+00,6.724552512168884277e-01,-6.906465888023376465e-01,-1.259702444076538086e+00
5.449419021606445312e-01,3.569746911525726318e-01,8.310211300849914551e-01,5.339301824569702148e-01,-6.083670258522033691e-01,4.236330389976501465e-01,1.057726621627807617e+00,-9.639132618904113770e-01,-1.077670156955718994e-01,1.636607199907302856e-01,1.577195882797241211e+00,1.102580785751342773e+00,-1.131482481956481934e+00,-1.034931659698486328e+00
9.830400347709655762e-01,6.789227128028869629e-01,1.250479936599731445e+00,5.108052492141723633e-01,-9.222741127014160156e-01,6.939544081687927246e-01,2.710439860820770264e-01,-4.070283472537994385e-01,5.850380659103393555e-01,-1.905156224966049194e-01,1.140422940254211426e+00,1.679888248443603516e+00,-8.393968939781188965e-01,-3.958246111869812012e-01
9.455135464668273926e-01,1.304352283477783203e+00,1.307315349578857422e+00,-1.385243386030197144e-01,-9.326547384262084961e-01,1.032373189926147461e+00,-2.298413962125778198e-01,-2.287173643708229065e-02,9.537004232406616211e-01,-5.520089864730834961e-01,6.671938896179199219e-01,1.245478510856628418e+00,-5.609336495399475098e-01,1.873832494020462036e-01
1.001392126083374023e+00,1.408243298530578613e+00,8.265158534049987793e-01,-4.262138605117797852e-01,-7.814530730247497559e-01,8.492048382759094238e-01,-1.090381145477294922e+00,3.047103583812713623e-01,1.085188388824462891e+00,-1.161674261093139648e+00,1.730849891901016235e-01,1.083574414253234863e+00,6.134414672851562500e-02,7.130008339881896973e-01
7.200592756271362305e-01,1.303876519203186035e+00,2.351688593626022339e-01,-9.114198684692382812e-01,-4.248938262462615967e-01,4.672275185585021973e-01,-1.477014780044555664e+00,7.217807173728942871e-01,9.820782542228698730e-01,-6.465318202972412109e-01,-2.935076653957366943e-01,2.430367320775985718e-01,6.192979216575622559e-01,9.728201031684875488e-01
2.826401293277740479e-01,8.518647551536560059e-01,-3.897955119609832764e-01,-9.226509928703308105e-01,1.306384354829788208e-01,-2.564749419689178467e-01,-1.740296125411987305e+00,1.062031984329223633e+00,6.528089046478271484e-01,-2.693212032318115234e-01,-6.708222627639770508e-01,-3.029448986053466797e-01,8.484944105148315430e-01,8.065776824951171875e-01
-4.171487316489219666e-02,4.453697800636291504e-01,-9.088034033775329590e-01,-1.045044302940368652e+00,7.054425477981567383e-01,-8.852976560592651367e-01,-1.381623506546020508e+00,9.930731654167175293e-01,-1.733890622854232788e-01,-7.761799544095993042e-02,-7.891967296600341797e-01,-7.616287469863891602e-01,7.082452178001403809e-01,6.595764160156250000e-01
-4.949911236763000488e-01,-1.898303627967834473e-01,-1.215523362159729004e+00,-7.168859243392944336e-01,1.058487772941589355e+00,-1.219635725021362305e+00,-7.261169552803039551e-01,9.135726094245910645e-01,-7.486254572868347168e-01,4.902234077453613281e-01,-3.783785402774810791e-01,-9.616050124168395996e-01,5.527996420860290527e-01,-1.208469364792108536e-02
-6.058895587921142578e-01,-3.645957708358764648e-01,-1.235936641693115234e+00,-5.366644859313964844e-01,1.056248664855957031e+00,-1.243663430213928223e+00,-1.895811110734939575e-01,4.623611569404602051e-01,-1.052612543106079102e+00,7.542106509208679199e-01,-1.310376375913619995e-01,-6.610294580459594727e-01,-1.214549988508224487e-01,-2.803751528263092041e-01
-5.679740309715270996e-01,-6.921155452728271484e-01,-9.722447991371154785e-01,-2.274551801383495331e-02,1.088685989379882812e+00,-7.106726169586181641e-01,2.118289768695831299e-01,-1.074665263295173645e-01,-1.167054176330566406e+00,7.548809647560119629e-01,5.362285375595092773e-01,-2.969930469989776611e-01,-6.057965159416198730e-01,-5.008422136306762695e-01
-5.280403494834899902e-01,-4.797497689723968506e-01,-2.541899085044860840e-01,3.481580913066864014e-01,3.985398709774017334e-01,-1.407496631145477295e-01,5.830665230751037598e-01,-6.039906740188598633e-01,-6.768622994422912598e-01,6.088644862174987793e-01,8.083931803703308105e-01,4.098059833049774170e-01,-8.114625811576843262e-01,-2.148603200912475586e-01
-6.891029328107833862e-02,-2.616797089576721191e-01,2.358618676662445068e-01,6.720637083053588867e-01,-1.133071258664131165e-01,4.909526705741882324e-01,3.608966767787933350e-01,-7.708706855773925781e-01,-6.656935065984725952e-02,2.283308357000350952e-01,6.367863416671752930e-01,8.703613877296447754e-01,-7.068524360656738281e-01,-4.909643158316612244e-02
2.774887979030609131e-01,3.367557227611541748e-01,4.612399339675903320e-01,9.529461860656738281e-01,-6.469624042510986328e-01,8.222849965095520020e-01,1.260393410921096802e-01,-6.781924962997436523e-01,5.461260080337524414e-01,-3.704796731472015381e-01,5.074364542961120605e-01,8.880933523178100586e-01,-8.352226018905639648e-01,5.122501850128173828e-01
7.574899196624755859e-01,6.718096733093261719e-01,5.754186511039733887e-01,7.943239808082580566e-01,-8.387557864189147949e-01,9.095954895019531250e-01,-5.847411155700683594e-01,-3.942330777645111084e-01,1.093323111534118652e+00,-6.306095123291015625e-01,1.507637351751327515e-01,9.242480397224426270e-01,-3.431434333324432373e-01,9.216353893280029297e-01
8.893787860870361328e-01,5.991306304931640625e-01,4.736325442790985107e-01,4.844059944152832031e-01,-8.254613280296325684e-01,4.691306948661804199e-01,-8.490217328071594238e-01,4.637204483151435852e-02,1.417941927909851074e+00,-6.870318055152893066e-01,-3.296934068202972412e-01,1.973085552453994751e-01,4.821366369724273682e-01,1.283191204071044922e+00
9.330714941024780273e-01,4.678426384925842285e-01,-1.899236626923084259e-02,1.526074260473251343e-01,-7.099761962890625000e-01,-2.801525294780731201e-01,-1.004527568817138672e+00,3.629346489906311035e-01,1.632287740707397461e+00,-4.547031819820404053e-01,-9.102218747138977051e-01,-1.797646433115005493e-01,7.333136796951293945e-01,1.115879893302917480e+00
6.028278470039367676e-01,-9.482249617576599121e-02,-4.901815950870513916e-01,-1.961862593889236450e-01,-3.583128750324249268e-01,-7.727354168891906738e-01,-9.292928576469421387e-01,8.137826323509216309e-01,1.333215117454528809e+00,-1.009258069097995758e-02,-1.177519083023071289e+00,-7.480791211128234863e-01,1.049752235412597656e+00,6.394162774085998535e-01
9.796909242868423462e-02,-3.500444889068603516e-01,-1.080165743827819824e+00,-6.181800961494445801e-01,2.782312333583831787e-01,-1.147918462753295898e+00,-3.269674777984619141e-01,1.000139474868774414e+00,7.173866033554077148e-01,5.219548940658569336e-01,-1.399835944175720215e+00,-9.139105677604675293e-01,7.465983629226684570e-01,1.826385110616683960e-01
-1.493173837661743164e-01,-7.808229923248291016e-01,-1.178383588790893555e+00,-7.020767331123352051e-01,6.971792578697204590e-01,-1.136511206626892090e+00,4.091369211673736572e-01,8.449950218200683594e-01,9.948772192001342773e-02,9.226620197296142578e-01,-1.053564667701721191e+00,-7.180083990097045898e-01,1.786852777004241943e-01,-5.739134550094604492e-01
-6.524053215980529785e-01,-1.110377669334411621e+00,-1.142497301101684570e+00,-3.641744554042816162e-01,1.114498615264892578e+00,-6.881195306777954102e-01,1.099491596221923828e+00,3.437070846557617188e-01,-5.820956826210021973e-01,1.192327737808227539e+00,-6.528607606887817383e-01,-2.200181633234024048e-01,-3.881221115589141846e-01,-1.167090654373168945e+00
-6.264758110046386719e-01,-1.310564041137695312e+00,-4.275400042533874512e-01,-3.400757014751434326e-01,1.098732948303222656e+00,-3.342445939779281616e-02,1.614581704139709473e+00,9.185845404863357544e-02,-7.313917875289916992e-01,1.187375307083129883e+00,2.214640192687511444e-02,3.023644685745239258e-01,-8.296846151351928711e-01,-1.193572640419006348e+00
-4.724374711513519287e-01,-1.114097476005554199e+00,3.213918209075927734e-01,1.823674589395523071e-01,1.107004165649414062e+00,6.160678863525390625e-01,1.778062224388122559e+00,-5.553947687149047852e-01,-9.362449049949645996e-01,8.916636705398559570e-01,5.198479890823364258e-01,8.963528275489807129e-01,-1.086550593376159668e+00,-1.029485583305358887e+00
-1.832382380962371826e-01,-4.789586067199707031e-01,8.202136158943176270e-01,4.755582809448242188e-01,5.113973021507263184e-01,1.488267660140991211e+00,1.371144771575927734e+00,-1.318962335586547852e+00,-4.447893500328063965e-01,1.936325728893280029e-01,9.247159361839294434e-01,1.019054055213928223e+00,-1.035221338272094727e+00,-6.672555804252624512e-01
1.225437521934509277e-01,-3.291245922446250916e-02,1.327224850654602051e+00,7.772489190101623535e-01,2.009169608354568481e-01,1.668776035308837891e+00,8.301845788955688477e-01,-1.359458088874816895e+00,3.671904327347874641e-03,-3.497912287712097168e-01,1.082486748695373535e+00,1.037342429161071777e+00,-7.893844246864318848e-01,-2.961476147174835205e-01
6.710811853408813477e-01,5.637893676757812500e-01,1.636482119560241699e+00,6.845646500587463379e-01,-1.666507720947265625e-01,1.617795944213867188e+00,2.303402870893478394e-01,-1.619531154632568359e+00,3.131778538227081299e-01,-7.480493783950805664e-01,8.493274450302124023e-01,7.347612977027893066e-01,-3.956492245197296143e-01,4.864737987518310547e-01
8.487394452095031738e-01,8.661629557609558105e-01,1.320560336112976074e+00,5.499179959297180176e-01,-5.264005064964294434e-01,1.232402920722961426e+00,-5.297632217407226562e-01,-1.248111248016357422e+00,6.714280843734741211e-01,-1.139331579208374023e+00,4.617806077003479004e-01,-3.164730966091156006e-02,6.731344759464263916e-02,4.320009052753448486e-01
9.558637738227844238e-01,7.256112694740295410e-01,1.031179547309875488e+00,4.000075757503509521e-01,-5.901675820350646973e-01,4.620680212974548340e-01,-9.210489988327026367e-01,-9.928861856460571289e-01,6.787557601928710938e-01,-9.399906396865844727e-01,1.644598506391048431e-02,-6.087106466293334961e-01,6.950482726097106934e-01,3.264120817184448242e-01
1.125605583190917969e+00,7.486734390258789062e-01,4.848439991474151611e-01,-3.298567235469818115e-02,-4.521615505218505859e-01,-1.395246386528015137e-01,-9.247422814369201660e-01,-3.580917418003082275e-01,5.014037489891052246e-01,-6.538473963737487793e-01,-6.914904117584228516e-01,-1.199102878570556641e+00,7.581657767295837402e-01,5.466501414775848389e-02
8.894189596176147461e-01,3.547589480876922607e-01,-1.168026477098464966e-01,-3.209731876850128174e-01,4.744593426585197449e-02,-5.972898006439208984e-01,-9.211831688880920410e-01,4.665457457304000854e-02,-6.584087014198303223e-02,-2.401005029678344727e-01,-1.073092579841613770e+00,-1.472930788993835449e+00,7.245251536369323730e-01,-3.787785172462463379e-01
2.519954144954681396e-01,-2.537858188152313232e-01,-5.505523681640625000e-01,-6.637233495712280273e-01,5.875480771064758301e-01,-6.351366043090820312e-01,-3.287838399410247803e-01,8.497759699821472168e-01,-8.293820619583129883e-01,3.346711862832307816e-03,-1.356931447982788086e+00,-1.098793148994445801e+00,3.366855680942535400e-01,-6.604824662208557129e-01
-2.636812925338745117e-01,-5.155366659164428711e-01,-8.793936371803283691e-01,-5.414611697196960449e-01,9.121463894844055176e-01,-5.093837976455688477e-01,3.438296616077423096e-01,7.304232120513916016e-01,-1.378167271614074707e+00,2.763071060180664062e-01,-1.063126444816589355e+00,-5.590186715126037598e-01,-1.446473002433776855e-01,-9.828836321830749512e-01
-7.204655408859252930e-01,-7.676613926887512207e-01,-6.965391635894775391e-01,-4.008699655532836914e-01,1.125589370727539062e+00,-5.168640986084938049e-02,1.008855938911437988e+00,9.127188920974731445e-01,-1.789218068122863770e+00,3.127238750457763672e-01,-6.817195415496826172e-01,-2.077585607767105103e-01,-4.243088662624359131e-01,-9.095928668975830078e-01
-1.080456614494323730e+00,-6.205435395240783691e-01,-3.164432644844055176e-01,-2.180822491645812988e-01,9.811304211616516113e-01,7.038635611534118652e-01,9.242259860038757324e-01,5.527419447898864746e-01,-1.691388964653015137e+00,3.044283017516136169e-02,-4.320935904979705811e-02,2.326311469078063965e-01,-6.889656782150268555e-01,-5.183410644531250000e-01
-1.336866140365600586e+00,-1.759579330682754517e-01,1.913279443979263306e-01,1.609269678592681885e-01,4.418109059333801270e-01,1.013672113418579102e+00,6.726002097129821777e-01,1.755726486444473267e-01,-1.192297935485839844e+00,-2.989843189716339111e-01,5.256549715995788574e-01,6.235400438308715820e-01,-4.020473659038543701e-01,-1.237093284726142883e-01
-1.060208201408386230e+00,-5.239695683121681213e-02,3.332818150520324707e-01,6.377503871917724609e-01,-1.161266267299652100e-01,9.128556251525878906e-01,4.136883020401000977e-01,6.707424670457839966e-02,-6.797988414764404297e-01,-7.122942209243774414e-01,6.987901329994201660e-01,3.053857684135437012e-01,-1.587771922349929810e-01,5.949038267135620117e-01
-6.297740936279296875e-01,4.422538280487060547e-01,7.218084335327148438e-01,9.822008013725280762e-01,-6.673607230186462402e-01,3.252142965793609619e-01,-8.718200027942657471e-03,-4.449478387832641602e-01,2.207822650671005249e-01,-8.910741806030273438e-01,9.180586338043212891e-01,-1.170233562588691711e-01,4.192712903022766113e-01,1.115630149841308594e+00
-2.576647400856018066e-01,7.012241482734680176e-01,6.173413395881652832e-01,9.061847329139709473e-01,-1.379471421241760254e+00,-2.395350039005279541e-01,-7.049600481986999512e-01,-5.427605509757995605e-01,7.215414047241210938e-01,-9.813704490661621094e-01,9.742407202720642090e-01,-5.685964226722717285e-01,1.091827630996704102e+00,1.160153985023498535e+00
7.250824570655822754e-02,8.733593821525573730e-01,1.390371192246675491e-02,7.418853044509887695e-01,-1.378849506378173828e+00,-1.159592032432556152e+00,-1.241495728492736816e+00,-2.194434106349945068e-01,1.138604402542114258e+00,-8.416841626167297363e-01,6.472867727279663086e-01,-1.013149142265319824e+00,1.279877066612243652e+00,7.769804000854492188e-01
4.327316284179687500e-01,7.210715413093566895e-01,-4.962691664695739746e-01,4.641377031803131104e-01,-1.452701091766357422e+00,-1.519949913024902344e+00,-1.069876551628112793e+00,1.744419708847999573e-02,1.128908514976501465e+00,-3.146076798439025879e-01,2.033798545598983765e-01,-1.160223960876464844e+00,1.380421996116638184e+00,5.535267591476440430e-01
3.360401391983032227e-01,3.192379176616668701e-01,-1.175686478614807129e+00,-7.501762011088430882e-04,-1.160540580749511719e+00,-1.788640141487121582e+00,-7.929091453552246094e-01,4.125297665596008301e-01,7.954045534133911133e-01,3.950010240077972412e-01,-3.566552996635437012e-01,-9.101006388664245605e-01,1.002273559570312500e+00,-1.565493047237396240e-01
4.101750850677490234e-01,-1.196570321917533875e-01,-1.410165309906005859e+00,-4.737863838672637939e-01,-4.320458173751831055e-01,-1.701132655143737793e+00,-2.488203346729278564e-01,8.268819451332092285e-01,3.612541556358337402e-01,8.866325020790100098e-01,-4.451646804809570312e-01,-3.315117359161376953e-01,6.012951135635375977e-01,-6.464629173278808594e-01
-2.578080445528030396e-02,-6.745908856391906738e-01,-1.488082885742187500e+00,-7.685957551002502441e-01,-1.735249534249305725e-02,-1.032032012939453125e+00,4.387681484222412109e-01,1.314914107322692871e+00,-2.646110653877258301e-01,1.195589900016784668e+00,-3.575469851493835449e-01,5.457320809364318848e-01,-2.469681352376937866e-01,-8.959162235260009766e-01
-3.419573903083801270e-01,-8.239288330078125000e-01,-1.064840912818908691e+00,-9.507120847702026367e-01,3.941711783409118652e-01,-3.079737424850463867e-01,8.207616209983825684e-01,1.507776618003845215e+00,-5.615132451057434082e-01,1.115533471107482910e+00,-3.643743395805358887e-01,1.186267852783203125e+00,-6.499083042144775391e-01,-7.087778449058532715e-01
-4.852230250835418701e-01,-6.693802475929260254e-01,-4.347294569015502930e-01,-9.638814330101013184e-01,6.946346163749694824e-01,6.081542372703552246e-01,1.179776430130004883e+00,1.223699569702148438e+00,-1.027700662612915039e+00,1.080548167228698730e+00,1.082594618201255798e-01,1.604344367980957031e+00,-9.043655395507812500e-01,-4.965744018554687500e-01
-8.334841728210449219e-01,-2.587378621101379395e-01,-6.974356621503829956e-02,-7.818414568901062012e-01,6.665890812873840332e-01,1.122088789939880371e+00,9.943210482597351074e-01,1.021747350692749023e+00,-9.335164427757263184e-01,7.370523810386657715e-01,6.887468695640563965e-01,1.401873230934143066e+00,-1.136474490165710449e+00,1.212731152772903442e-01
-9.511080384254455566e-01,2.099335659295320511e-03,6.830739974975585938e-01,-3.926818966865539551e-01,4.830020070075988770e-01,9.124498963356018066e-01,4.280561804771423340e-01,4.737190306186676025e-01,-1.977650523185729980e-01,1.395265460014343262e-01,1.059837579727172852e+00,1.243464469909667969e+00,-6.809610128402709961e-01,7.447437047958374023e-01
-3.402073085308074951e-01,4.705433845520019531e-01,1.251949310302734375e+00,1.072462275624275208e-01,-1.841640919446945190e-01,6.430563926696777344e-01,-2.737568020820617676e-01,-1.970179527997970581e-01,4.274781346321105957e-01,-4.460811018943786621e-01,1.281240463256835938e+00,7.236133813858032227e-01,-4.535984396934509277e-01,1.051256060600280762e+00
-7.768278568983078003e-02,9.500780105590820312e-01,1.063084602355957031e+00,2.386425733566284180e-01,-2.358441352844238281e-01,-1.357032917439937592e-02,-9.636753797531127930e-01,-7.875538468360900879e-01,8.055222630500793457e-01,-5.169973969459533691e-01,1.314690828323364258e+00,6.612554937601089478e-02,1.837171316146850586e-01,8.405386805534362793e-01
4.614099562168121338e-01,1.127542018890380859e+00,1.012137889862060547e+00,3.626832664012908936e-01,-7.618111968040466309e-01,-3.900994062423706055e-01,-1.475548386573791504e+00,-1.257670998573303223e+00,1.077792167663574219e+00,-6.223216056823730469e-01,8.834480047225952148e-01,-5.431555509567260742e-01,5.180134177207946777e-01,5.456110239028930664e-01
9.577862620353698730e-01,1.144582152366638184e+00,3.613031208515167236e-01,3.544105887413024902e-01,-9.151804447174072266e-01,-7.214389443397521973e-01,-1.365217924118041992e+00,-1.216347455978393555e+00,9.952663183212280273e-01,-3.613668084144592285e-01,4.504255652427673340e-01,-9.026864767074584961e-01,3.474247455596923828e-01,3.328716754913330078e-02
1.350802421569824219e+00,8.456624746322631836e-01,-2.853223085403442383e-01,-8.442047238349914551e-02,-7.706474661827087402e-01,-7.290931344032287598e-01,-1.317055821418762207e+00,-9.906070828437805176e-01,7.838887572288513184e-01,1.412100791931152344e-01,-1.842076927423477173e-01,-4.709841012954711914e-01,3.315248340368270874e-02,-4.471270442008972168e-01
1.203264355659484863e+00,1.584146022796630859e-01,-5.518501400947570801e-01,-2.004838436841964722e-01,-2.409635633230209351e-01,-3.273063004016876221e-01,-4.049170911312103271e-01,-6.514490842819213867e-01,2.236495018005371094e-01,5.479074716567993164e-01,-8.021464347839355469e-01,-1.391700655221939087e-01,-6.101090312004089355e-01,-6.430316567420959473e-01
1.151922702789306641e+00,-2.191198915243148804e-01,-9.573077559471130371e-01,-4.459170699119567871e-01,2.388936877250671387e-01,4.413037002086639404e-01,1.020484715700149536e-01,-1.617685705423355103e-01,-4.027320742607116699e-01,7.581933736801147461e-01,-1.412046670913696289e+00,5.476483702659606934e-01,-8.788081407546997070e-01,-8.058407902717590332e-01
5.869771838188171387e-01,-6.609271168708801270e-01,-8.234047889709472656e-01,-9.429343938827514648e-01,6.376777291297912598e-01,1.109572291374206543e+00,6.037822365760803223e-01,3.292033374309539795e-01,-8.180558085441589355e-01,6.939007639884948730e-01,-1.555905818939208984e+00,9.330370426177978516e-01,-1.259114384651184082e+00,-6.583743095397949219e-01
-1.552357687614858150e-03,-8.157418966293334961e-01,-3.681538105010986328e-01,-6.269019246101379395e-01,1.081090927124023438e+00,1.275983095169067383e+00,1.029108166694641113e+00,6.121013760566711426e-01,-8.914165496826171875e-01,2.198196202516555786e-01,-1.381312847137451172e+00,7.454211115837097168e-01,-1.372624635696411133e+00,-5.001439154148101807e-02
-4.013126194477081299e-01,-9.171117544174194336e-01,2.762458026409149170e-01,-5.236099958419799805e-01,1.216695070266723633e+00,1.564857959747314453e+00,1.015538573265075684e+00,6.363334059715270996e-01,-1.075812816619873047e+00,-1.389069855213165283e-01,-1.007193088531494141e+00,6.459823250770568848e-01,-9.027310609817504883e-01,5.200371742248535156e-01
-6.171245574951171875e-01,-5.596446394920349121e-01,6.989960074424743652e-01,-5.605723708868026733e-03,1.010819673538208008e+00,1.328721284866333008e+00,7.958603501319885254e-01,6.491673588752746582e-01,-5.332547426223754883e-01,-7.246126532554626465e-01,-4.739515781402587891e-01,1.653454452753067017e-01,-3.470593392848968506e-01,8.373768925666809082e-01
-5.705113410949707031e-01,-2.276058197021484375e-01,8.942691087722778320e-01,1.730440855026245117e-01,3.340676128864288330e-01,5.428078174591064453e-01,3.802486360073089600e-01,1.105794087052345276e-01,2.582176029682159424e-01,-8.932099938392639160e-01,5.537113174796104431e-02,-4.092063605785369873e-01,5.401060730218887329e-02,8.867052197456359863e-01
-6.517486572265625000e-01,2.072115391492843628e-01,1.124782085418701172e+00,1.063281297683715820e+00,-6.446950882673263550e-02,-2.569107413291931152e-01,-4.761308729648590088e-01,-2.184364050626754761e-01,8.102486729621887207e-01,-1.150856852531433105e+00,4.143559932708740234e-01,-1.006407141685485840e+00,7.998682856559753418e-01,7.764905691146850586e-01
-4.156172573566436768e-01,4.014638960361480713e-01,7.841365337371826172e-01,1.202086091041564941e+00,-5.536977052688598633e-01,-1.023915767669677734e+00,-4.883511066436767578e-01,-6.121149659156799316e-01,1.518141627311706543e+00,-1.067605376243591309e+00,6.731646656990051270e-01,-1.389799714088439941e+00,1.063275337219238281e+00,2.489195317029953003e-01
-8.298054337501525879e-03,3.009641468524932861e-01,3.581136465072631836e-01,1.104906678199768066e+00,-8.909447193145751953e-01,-1.301598429679870605e+00,-6.760554909706115723e-01,-9.905485510826110840e-01,1.537529468536376953e+00,-4.629350602626800537e-01,3.946605622768402100e-01,-1.180486083030700684e+00,9.481848478317260742e-01,-7.452785968780517578e-02
4.366077482700347900e-01,2.556355297565460205e-01,3.345195576548576355e-02,1.177806854248046875e+00,-8.361064195632934570e-01,-1.168061852455139160e+00,-2.562913596630096436e-01,-9.338445067405700684e-01,1.446288466453552246e+00,-8.710145950317382812e-03,2.736074030399322510e-01,-4.649533927440643311e-01,6.798314452171325684e-01,-8.515697717666625977e-01
5.549755096435546875e-01,-2.476826012134552002e-01,-6.118153929710388184e-01,9.782780408859252930e-01,-7.263639569282531738e-01,-5.385679602622985840e-01,3.413284420967102051e-01,-8.769772648811340332e-01,8.280003070831298828e-01,6.001734137535095215e-01,-4.440213441848754883e-01,2.509330399334430695e-02,1.684516370296478271e-01,-1.100296378135681152e+00
9.225877523422241211e-01,-6.397076249122619629e-01,-1.095627427101135254e+00,4.338454008102416992e-01,-2.394281476736068726e-01,1.164073348045349121e-01,1.052165985107421875e+00,-5.314325094223022461e-01,1.721760630607604980e-01,8.640319705009460449e-01,-6.435087919235229492e-01,5.754814743995666504e-01,-1.579522341489791870e-01,-1.310613751411437988e+00
6.288664340972900391e-01,-1.039954185485839844e+00,-8.649857044219970703e-01,-1.537187993526458740e-01,2.325075268745422363e-01,7.962219119071960449e-01,1.358064651489257812e+00,-9.185102581977844238e-02,-5.597819685935974121e-01,8.142123222351074219e-01,-9.732521772384643555e-01,1.034189820289611816e+00,-5.190482139587402344e-01,-8.164255619049072266e-01
3.728813827037811279e-01,-1.278593182563781738e+00,-3.701104223728179932e-01,-5.218306779861450195e-01,1.016581058502197266e+00,1.130990862846374512e+00,1.544544100761413574e+00,3.272477686405181885e-01,-1.106139063835144043e+00,4.676697254180908203e-01,-7.986557483673095703e-01,9.648230671882629395e-01,-8.004286289215087891e-01,-4.180422723293304443e-01
-3.277754411101341248e-02,-7.318527102470397949e-01,1.186204478144645691e-01,-7.203809022903442383e-01,1.164997339248657227e+00,1.248840570449829102e+00,1.426062345504760742e+00,6.744774580001831055e-01,-1.195343017578125000e+00,-2.687027212232351303e-03,-6.796817779541015625e-01,6.267911195755004883e-01,-2.810012698173522949e-01,9.564313292503356934e-02
-2.864466011524200439e-01,-6.574144959449768066e-01,7.202627062797546387e-01,-4.907891750335693359e-01,1.242705345153808594e+00,5.665524005889892578e-01,7.285219430923461914e-01,9.403313994407653809e-01,-1.250707745552062988e+00,-3.258467018604278564e-01,-1.063815876841545105e-01,1.365101933479309082e-01,-5.707513168454170227e-02,2.472905814647674561e-01
-7.522521615028381348e-01,-1.800089143216609955e-03,1.240660190582275391e+00,-4.498815238475799561e-01,9.266211986541748047e-01,1.152216792106628418e-01,9.879513829946517944e-02,8.348662257194519043e-01,-7.352887988090515137e-01,-6.785941123962402344e-01,4.851002097129821777e-01,-6.735840439796447754e-01,6.454101204872131348e-01,6.121698617935180664e-01
-6.545076370239257812e-01,4.490763545036315918e-01,1.356196284294128418e+00,-2.538873851299285889e-01,4.552355408668518066e-01,-4.316261708736419678e-01,-8.462015390396118164e-01,5.916143655776977539e-01,-3.383665978908538818e-01,-8.684774637222290039e-01,9.196774959564208984e-01,-1.191933035850524902e+00,9.186010360717773438e-01,3.970218598842620850e-01
-5.785511732101440430e-01,8.793388605117797852e-01,1.142563223838806152e+00,1.929406821727752686e-01,-7.891498506069183350e-02,-1.040753126144409180e+00,-1.336051225662231445e+00,2.357703894376754761e-01,3.676604628562927246e-01,-8.283904194831848145e-01,1.329723954200744629e+00,-1.188152074813842773e+00,9.834494590759277344e-01,3.390193730592727661e-02
-6.063424944877624512e-01,1.126831889152526855e+00,6.799983382225036621e-01,3.256188333034515381e-01,-3.234361708164215088e-01,-1.122558236122131348e+00,-1.508394718170166016e+00,-5.345482826232910156e-01,4.526144266128540039e-01,-4.429554343223571777e-01,1.069547057151794434e+00,-9.030421972274780273e-01,6.643632054328918457e-01,-4.029977619647979736e-01
-8.061799220740795135e-03,9.387908577919006348e-01,-1.429247111082077026e-01,3.964250385761260986e-01,-7.155588865280151367e-01,-6.879605054855346680e-01,-1.505060315132141113e+00,-1.091499924659729004e+00,3.183341026306152344e-01,1.689818874001502991e-02,9.425245523452758789e-01,-5.635081529617309570e-01,4.126880466938018799e-01,-7.980581521987915039e-01
2.699303328990936279e-01,7.521280646324157715e-01,-7.815052270889282227e-01,3.155182003974914551e-01,-6.486082077026367188e-01,-1.247483119368553162e-01,-8.810972571372985840e-01,-1.116403698921203613e+00,1.322268843650817871e-01,6.065157651901245117e-01,4.513644576072692871e-01,-3.210684657096862793e-02,-2.638019025325775146e-01,-9.545259475708007812e-01
6.411789655685424805e-01,3.714627921581268311e-01,-1.137664079666137695e+00,6.683304905891418457e-02,-4.449745714664459229e-01,3.556753396987915039e-01,-3.172423839569091797e-01,-9.687134623527526855e-01,-3.479261100292205811e-01,7.026865482330322266e-01,-3.372380509972572327e-02,3.436567783355712891e-01,-5.447377562522888184e-01,-5.943393111228942871e-01
5.681111812591552734e-01,-1.378562748432159424e-01,-1.348120331764221191e+00,-3.528700768947601318e-01,1.865086029283702374e-03,8.177506923675537109e-01,2.561780512332916260e-01,-6.363461017608642578e-01,-1.097189545631408691e+00,7.286527752876281738e-01,-4.320510923862457275e-01,8.082140088081359863e-01,-1.150582671165466309e+00,-1.435416936874389648e-02
6.339964866638183594e-01,-6.252799034118652344e-01,-1.061395645141601562e+00,-8.171395659446716309e-01,1.591997891664505005e-01,1.170613765716552734e+00,6.044573187828063965e-01,-2.432776838541030884e-01,-1.477195024490356445e+00,5.782863497734069824e-01,-1.082302689552307129e+00,4.162241816520690918e-01,-9.599766135215759277e-01,6.180176138877868652e-01
2.726160287857055664e-01,-6.596182584762573242e-01,-8.633312582969665527e-01,-1.014016032218933105e+00,5.223492383956909180e-01,6.906707882881164551e-01,6.058648824691772461e-01,2.316052615642547607e-01,-1.366847515106201172e+00,3.486278057098388672e-01,-1.160676717758178711e+00,2.616839669644832611e-02,-5.994223952293395996e-01,1.059559106826782227e+00
-2.073603570461273193e-01,-4.184672236442565918e-01,-1.652035713195800781e-01,-9.074502587318420410e-01,8.407897949218750000e-01,7.152359187602996826e-02,3.729208409786224365e-01,7.871502637863159180e-01,-1.170805811882019043e+00,-5.054005980491638184e-01,-7.776274681091308594e-01,-5.369929671287536621e-01,-2.083791606128215790e-02,1.314470648765563965e+00
-9.213010668754577637e-01,1.454145610332489014e-01,2.041239738464355469e-01,-1.030635118484497070e+00,5.992680788040161133e-01,-6.245352625846862793e-01,-4.116338863968849182e-02,1.378961205482482910e+00,-4.821003973484039307e-01,-5.907150506973266602e-01,-2.905467450618743896e-01,-1.038374423980712891e+00,6.300520300865173340e-01,1.502342820167541504e+00
-1.022882819175720215e+00,4.597695171833038330e-01,4.794929921627044678e-01,-4.081884920597076416e-01,1.151891276240348816e-01,-1.450705647468566895e+00,-7.043337821960449219e-01,1.328853368759155273e+00,2.470076084136962891e-01,-5.763312578201293945e-01,2.772291004657745361e-01,-9.798040986061096191e-01,7.831272482872009277e-01,1.057924389839172363e+00
-1.191159129142761230e+00,6.889263987541198730e-01,3.933108448982238770e-01,-1.619688719511032104e-01,-3.896321058273315430e-01,-1.592953205108642578e+00,-1.087137222290039062e+00,1.191237926483154297e+00,1.051437020301818848e+00,-2.914557754993438721e-01,7.042032480239868164e-01,-8.957387804985046387e-01,8.772743344306945801e-01,5.930628776550292969e-01
-1.378475069999694824e+00,9.245494008064270020e-01,4.346950352191925049e-02,5.898078680038452148e-01,-8.679741024971008301e-01,-1.413890004158020020e+00,-8.306214809417724609e-01,6.577847003936767578e-01,1.331606626510620117e+00,5.927884206175804138e-02,1.263550281524658203e+00,-5.023308396339416504e-01,7.017744183540344238e-01,-2.796334959566593170e-02
-8.379915952682495117e-01,9.313846230506896973e-01,-4.690096378326416016e-01,8.550725579261779785e-01,-1.457472681999206543e+00,-9.832665324211120605e-01,-4.933057725429534912e-01,2.215309441089630127e-01,1.585155248641967773e+00,6.107960343360900879e-01,1.241604566574096680e+00,5.037958025932312012e-01,2.665471434593200684e-01,-5.679925680160522461e-01
-4.213712513446807861e-01,4.062896072864532471e-01,-5.820278525352478027e-01,1.111122608184814453e+00,-1.640845537185668945e+00,-1.908104866743087769e-01,-1.689556241035461426e-01,-2.615978419780731201e-01,1.345295190811157227e+00,9.127682447433471680e-01,9.684650897979736328e-01,9.012494683265686035e-01,-1.914930343627929688e-01,-6.455620527267456055e-01
9.169897437095642090e-02,-9.189038723707199097e-02,-1.016003251075744629e+00,1.086549878120422363e+00,-1.475488066673278809e+00,5.704047083854675293e-01,3.730905055999755859e-01,-5.651746988296508789e-01,7.785050272941589355e-01,1.196167349815368652e+00,5.247464179992675781e-01,1.476787805557250977e+00,-8.216066956520080566e-01,-8.670759797096252441e-01
7.090507149696350098e-01,-5.024426579475402832e-01,-1.133306145668029785e+00,5.588769316673278809e-01,-1.056304216384887695e+00,9.704222083091735840e-01,1.146948337554931641e+00,-8.437706232070922852e-01,1.798830181360244751e-01,1.242403149604797363e+00,2.529450654983520508e-01,1.607479333877563477e+00,-9.356549978256225586e-01,-2.749670743942260742e-01
9.628312587738037109e-01,-7.729446887969970703e-01,-6.730087995529174805e-01,2.376375645399093628e-01,-3.770821988582611084e-01,1.284624218940734863e+00,1.408854007720947266e+00,-5.455642342567443848e-01,-3.258519470691680908e-01,7.113734483718872070e-01,-4.372749328613281250e-01,1.310440540313720703e+00,-8.673168420791625977e-01,-1.013751607388257980e-02
9.963460564613342285e-01,-7.185650467872619629e-01,-1.321083456277847290e-01,-4.314170181751251221e-01,2.900634407997131348e-01,9.991039633750915527e-01,1.207046866416931152e+00,-2.527446746826171875e-01,-9.634047746658325195e-01,1.766798496246337891e-01,-6.297860741615295410e-01,6.623221039772033691e-01,-7.785863876342773438e-01,2.695040702819824219e-01
6.777919530868530273e-01,-8.175186514854431152e-01,5.170697569847106934e-01,-5.414677858352661133e-01,5.496121644973754883e-01,4.011036455631256104e-01,9.317249059677124023e-01,1.242151856422424316e-01,-9.833483695983886719e-01,-4.805349707603454590e-01,-9.002407193183898926e-01,-3.147020936012268066e-03,-1.356078088283538818e-01,2.771435976028442383e-01
4.115085601806640625e-01,-4.573942124843597412e-01,1.162066936492919922e+00,-8.167834281921386719e-01,7.836756110191345215e-01,1.926105283200740814e-02,5.044792294502258301e-01,6.424676775932312012e-01,-6.578568220138549805e-01,-9.206398129463195801e-01,-8.301805257797241211e-01,-4.372575879096984863e-01,3.494932353496551514e-01,3.426832556724548340e-01
5.243918672204017639e-02,1.269636154174804688e-01,1.632560610771179199e+00,-6.814737915992736816e-01,9.307273030281066895e-01,-5.505188703536987305e-01,-2.759885191917419434e-01,8.855121731758117676e-01,-5.159561708569526672e-02,-1.252922296524047852e+00,-3.469350934028625488e-01,-7.352678775787353516e-01,6.953332424163818359e-01,-2.269273847341537476e-01
-3.100426197052001953e-01,5.114906430244445801e-01,1.547286033630371094e+00,-3.791877925395965576e-01,5.540554523468017578e-01,-4.244269132614135742e-01,-9.612631201744079590e-01,8.109740018844604492e-01,5.512368679046630859e-01,-1.001522183418273926e+00,2.221302837133407593e-01,-4.549135565757751465e-01,8.018322587013244629e-01,-7.171989679336547852e-01
-4.806447029113769531e-01,9.352644085884094238e-01,1.336077451705932617e+00,9.507415443658828735e-02,7.129319757223129272e-02,-6.024885550141334534e-02,-1.113425970077514648e+00,6.110032200813293457e-01,8.725618720054626465e-01,-7.361628413200378418e-01,4.159499108791351318e-01,-1.461749821901321411e-01,1.136152744293212891e-01,-1.135796546936035156e+00
-4.293529689311981201e-01,1.054830312728881836e+00,7.223417758941650391e-01,4.067918062210083008e-01,-1.865868717432022095e-01,2.347797304391860962e-01,-8.843441009521484375e-01,5.781788006424903870e-02,1.049277186393737793e+00,-3.651359081268310547e-01,6.429929137229919434e-01,4.294625818729400635e-01,-3.213280439376831055e-01,-1.304139018058776855e+00
-3.403151780366897583e-02,7.829765677452087402e-01,6.201056297868490219e-03,7.662065625190734863e-01,-6.281317472457885742e-01,1.126170277595520020e+00,-3.949119150638580322e-01,-7.257233262062072754e-01,8.082643747329711914e-01,1.615724414587020874e-01,6.246002316474914551e-01,8.368802070617675781e-01,-6.720480918884277344e-01,-1.110128164291381836e+00
2.792148590087890625e-01,2.237748801708221436e-01,-2.174790054559707642e-01,7.062425613403320312e-01,-7.573880553245544434e-01,1.603704571723937988e+00,1.752520203590393066e-01,-1.003605723381042480e+00,5.849031805992126465e-01,2.938144207000732422e-01,3.588186502456665039e-01,9.466083049774169922e-01,-1.200669884681701660e+00,-8.836370706558227539e-01
