AF3,F7,F3,FC5,T7,P7,O1,O2,P8,T8,FC6,F4,F8,AF4
-2.242148518562316895e-01,1.562697440385818481e-02,-2.529902756214141846e-01,-9.682109951972961426e-02,-1.878532618284225464e-01,7.065939903259277344e-02,1.549739688634872437e-01,-4.056220054626464844e-01,6.588657498359680176e-01,-7.623230814933776855e-01,9.901725053787231445e-01,2.566936314105987549e-01,5.486283302307128906e-01,-1.009579181671142578e+00
-1.833619475364685059e-01,-1.800581514835357666e-01,-1.373347640037536621e-01,-2.806301712989807129e-01,-3.533989191055297852e-01,1.192339807748794556e-01,7.569181919097900391e-02,-4.523160755634307861e-01,8.333496451377868652e-01,-7.750332355499267578e-01,9.215443134307861328e-01,2.310553938150405884e-01,5.654608607292175293e-01,-7.557479739189147949e-01
-7.920742779970169067e-02,-7.648841291666030884e-02,-4.657302424311637878e-02,-1.797461658716201782e-01,-3.479828536510467529e-01,2.422637045383453369e-01,1.465150862932205200e-01,-5.272154808044433594e-01,8.395957350730895996e-01,-7.036895751953125000e-01,8.318281769752502441e-01,3.230010569095611572e-01,7.308895587921142578e-01,-9.255743622779846191e-01
-1.557492911815643311e-01,-8.417066931724548340e-02,-4.930420592427253723e-02,-1.954685896635055542e-01,-3.925182819366455078e-01,1.201661601662635803e-01,1.569979786872863770e-01,-3.775351345539093018e-01,6.813915967941284180e-01,-8.508286476135253906e-01,9.305461049079895020e-01,2.889021039009094238e-01,6.267958283424377441e-01,-9.646745324134826660e-01
2.277359217405319214e-01,-1.434543281793594360e-01,1.900047957897186279e-01,-1.743707209825515747e-01,-3.047075271606445312e-01,1.719934493303298950e-01,1.197725236415863037e-01,-4.685836136341094971e-01,6.135244965553283691e-01,-7.532384991645812988e-01,8.964883685111999512e-01,3.396544754505157471e-01,8.427124619483947754e-01,-8.542790412902832031e-01
1.933115422725677490e-01,-1.815927624702453613e-01,5.877150967717170715e-02,-3.537506163120269775e-01,-1.143886968493461609e-01,4.837582111358642578e-01,7.120899111032485962e-02,-5.564590096473693848e-01,7.795502543449401855e-01,-7.435075640678405762e-01,9.149417877197265625e-01,7.550640404224395752e-02,6.049262285232543945e-01,-7.912499904632568359e-01
1.060262322425842285e-01,-1.156213805079460144e-01,3.761378675699234009e-02,-3.942152857780456543e-01,-1.636572480201721191e-01,4.387073814868927002e-01,7.541864365339279175e-02,-2.137463837862014771e-01,7.079948782920837402e-01,-5.943998694419860840e-01,7.375528216361999512e-01,2.896693348884582520e-01,6.630361676216125488e-01,-9.478484988212585449e-01
1.810762882232666016e-01,-3.467178642749786377e-01,1.829852312803268433e-01,-3.608542680740356445e-01,-2.378752082586288452e-01,5.538231134414672852e-01,-8.626542985439300537e-02,-2.553118169307708740e-01,5.364416241645812988e-01,-9.072576165199279785e-01,5.813554525375366211e-01,1.365332156419754028e-01,6.225110888481140137e-01,-6.404394507408142090e-01
1.412682533264160156e-01,-1.743202060461044312e-01,2.748962640762329102e-01,-5.975600481033325195e-01,-5.666106343269348145e-01,4.802891910076141357e-01,2.743193805217742920e-01,-3.648323714733123779e-01,5.217559337615966797e-01,-6.058647036552429199e-01,7.940515875816345215e-01,3.137726485729217529e-01,7.248017787933349609e-01,-5.940173864364624023e-01
2.393156737089157104e-01,-3.229125961661338806e-02,6.474043428897857666e-02,-4.140074551105499268e-01,-3.252055048942565918e-01,5.571961998939514160e-01,1.964043229818344116e-01,-1.643285602331161499e-01,6.775398850440979004e-01,-7.487390041351318359e-01,5.000964403152465820e-01,4.137194156646728516e-02,7.064614295959472656e-01,-5.739574432373046875e-01
4.110694229602813721e-01,-5.961645022034645081e-02,1.470239311456680298e-01,-5.690859556198120117e-01,-1.586629152297973633e-01,6.030749082565307617e-01,1.922803074121475220e-01,-4.179909527301788330e-01,5.676479935646057129e-01,-7.032662630081176758e-01,4.692686796188354492e-01,1.924121007323265076e-02,7.731561660766601562e-01,-5.377839803695678711e-01
3.163529038429260254e-01,-1.557747870683670044e-01,3.197080790996551514e-01,-1.998603790998458862e-01,-3.292489647865295410e-01,7.207805514335632324e-01,7.182555645704269409e-02,-1.913000792264938354e-01,4.424611032009124756e-01,-6.130958199501037598e-01,4.653776586055755615e-01,2.512432336807250977e-01,6.637307405471801758e-01,-4.726707637310028076e-01
4.499233961105346680e-01,6.249434128403663635e-02,2.263864874839782715e-01,-4.506875872611999512e-01,-4.590504169464111328e-01,8.112353682518005371e-01,4.841450601816177368e-03,-5.251329764723777771e-02,5.211694240570068359e-01,-6.832711696624755859e-01,3.993490636348724365e-01,2.837800979614257812e-01,8.362466096878051758e-01,-5.548779964447021484e-01
5.481275916099548340e-01,1.665029115974903107e-02,2.802728414535522461e-01,-3.977876007556915283e-01,-1.842903047800064087e-01,6.953088641166687012e-01,9.557048976421356201e-02,-1.898762881755828857e-01,5.068328976631164551e-01,-5.217214226722717285e-01,2.060611099004745483e-01,-1.017281636595726013e-01,5.747205018997192383e-01,-4.855893850326538086e-01
5.226647853851318359e-01,-5.592456459999084473e-02,2.949923276901245117e-01,-3.735512793064117432e-01,-4.402203261852264404e-01,6.584746837615966797e-01,-8.955245465040206909e-02,-2.383423745632171631e-01,3.673761785030364990e-01,-5.312131643295288086e-01,1.777885258197784424e-01,1.975868791341781616e-01,4.773150086402893066e-01,-3.450644314289093018e-01
4.000662565231323242e-01,5.856764316558837891e-02,2.285275459289550781e-01,-3.854712843894958496e-01,-3.163748085498809814e-01,5.925362110137939453e-01,1.919137090444564819e-01,-1.176081895828247070e-01,3.528966009616851807e-01,-5.053497552871704102e-01,1.404589861631393433e-01,-4.390836227685213089e-03,8.085674047470092773e-01,-3.864848017692565918e-01
6.553190946578979492e-01,-2.157213389873504639e-01,3.052819967269897461e-01,-5.596780180931091309e-01,-4.751948714256286621e-01,6.843473911285400391e-01,3.991301730275154114e-02,-1.410030573606491089e-01,2.641356885433197021e-01,-3.851428329944610596e-01,1.748023033142089844e-01,1.116936430335044861e-01,7.320016622543334961e-01,-3.115628957748413086e-01
5.972292423248291016e-01,-2.530180513858795166e-01,4.089586436748504639e-01,-6.437035799026489258e-01,-4.115159213542938232e-01,7.838821411132812500e-01,5.269115418195724487e-02,-3.112134933471679688e-01,2.147323489189147949e-01,-5.797285437583923340e-01,1.137268543243408203e-01,1.265940517187118530e-01,5.451173782348632812e-01,-1.696710884571075439e-01
4.289268255233764648e-01,-2.056683450937271118e-01,2.963531315326690674e-01,-2.274757325649261475e-01,-5.733561515808105469e-01,7.599025964736938477e-01,3.146065771579742432e-02,-7.330781966447830200e-02,3.146099448204040527e-01,-1.513403505086898804e-01,6.176036968827247620e-02,-3.352172672748565674e-02,4.853381514549255371e-01,-5.357694625854492188e-02
4.557658135890960693e-01,-1.109375506639480591e-01,3.151274621486663818e-01,-3.323211669921875000e-01,-3.735213279724121094e-01,5.367786884307861328e-01,8.204072713851928711e-02,-2.366197407245635986e-01,2.092746198177337646e-01,-2.309302836656570435e-01,-4.482924565672874451e-02,1.366120725870132446e-01,7.672966718673706055e-01,9.853648394346237183e-02
5.982734560966491699e-01,-1.688187718391418457e-01,3.063818514347076416e-01,-3.020058274269104004e-01,-5.919460058212280273e-01,5.501093864440917969e-01,2.926797233521938324e-02,-2.314781397581100464e-01,1.827523112297058105e-01,-1.431708335876464844e-01,4.752746783196926117e-03,1.910666525363922119e-01,6.375911831855773926e-01,4.530387371778488159e-02
7.396180033683776855e-01,-1.096814498305320740e-01,4.099988639354705811e-01,-9.937322139739990234e-02,-5.305948853492736816e-01,5.420420169830322266e-01,1.567782163619995117e-01,-7.073466479778289795e-02,2.161252498626708984e-01,-2.825862728059291840e-02,-2.639825642108917236e-01,1.118543595075607300e-01,3.267841041088104248e-01,1.686988770961761475e-02
6.959497332572937012e-01,-2.605011463165283203e-01,2.960228919982910156e-01,1.907436922192573547e-02,-3.142601549625396729e-01,6.053651571273803711e-01,2.168738283216953278e-02,-1.718330085277557373e-01,3.906986489892005920e-02,2.063927352428436279e-01,-1.614201217889785767e-01,7.837679982185363770e-02,3.834144175052642822e-01,2.526701390743255615e-01
9.645734429359436035e-01,-2.194640487432479858e-01,4.405562579631805420e-01,-5.424819886684417725e-02,-4.487936198711395264e-01,6.591066122055053711e-01,-1.086690053343772888e-01,4.132554680109024048e-02,9.486594796180725098e-02,3.045380413532257080e-01,-1.472948044538497925e-01,2.052253484725952148e-01,4.967770278453826904e-01,2.255457490682601929e-01
8.019170761108398438e-01,-3.200078606605529785e-01,2.619782388210296631e-01,1.347882300615310669e-02,-2.928464710712432861e-01,5.344738960266113281e-01,-6.488711386919021606e-02,-4.986157268285751343e-02,-4.385847970843315125e-02,2.698214948177337646e-01,-1.839747130870819092e-01,3.461903929710388184e-01,4.488379955291748047e-01,3.894347250461578369e-01
7.929639816284179688e-01,5.981448665261268616e-02,3.536326885223388672e-01,7.638897746801376343e-02,-3.244090676307678223e-01,5.075010061264038086e-01,-1.723289638757705688e-01,5.284325778484344482e-02,1.490729153156280518e-01,1.249438822269439697e-01,-1.059160232543945312e-01,1.785551309585571289e-01,3.662464618682861328e-01,2.233705222606658936e-01
7.007106542587280273e-01,-1.973536908626556396e-01,5.617938637733459473e-01,3.932942748069763184e-01,-3.198142647743225098e-01,4.869710803031921387e-01,-3.164852857589721680e-01,-2.374275028705596924e-01,-3.308721631765365601e-02,4.901970326900482178e-01,-3.101401627063751221e-01,2.933230996131896973e-01,1.837385296821594238e-01,3.235572278499603271e-01
5.739181637763977051e-01,-1.806100904941558838e-01,4.914653897285461426e-01,2.141471952199935913e-01,-4.162983000278472900e-01,5.303097963333129883e-01,-4.364828765392303467e-01,-7.483623921871185303e-02,4.349261522293090820e-02,3.512243032455444336e-01,-2.949410378932952881e-01,2.596987187862396240e-01,3.247545361518859863e-01,2.116500288248062134e-01
5.333747863769531250e-01,-2.724186889827251434e-02,3.962432444095611572e-01,2.797515094280242920e-01,-4.294610023498535156e-01,5.373755097389221191e-01,-3.423393964767456055e-01,-2.834164500236511230e-01,-7.099416106939315796e-02,3.361499607563018799e-01,-2.147191315889358521e-01,2.750385403633117676e-01,9.866210818290710449e-02,4.811924397945404053e-01
5.096043944358825684e-01,-3.010895662009716034e-02,4.415996372699737549e-01,3.323814868927001953e-01,-3.916007578372955322e-01,5.959947109222412109e-01,-4.489687681198120117e-01,-2.140421606600284576e-02,-1.220624446868896484e-01,3.654750585556030273e-01,-1.329942345619201660e-01,1.590282320976257324e-01,1.765569299459457397e-01,3.225968778133392334e-01
6.187022328376770020e-01,-1.097041275352239609e-02,4.451397359371185303e-01,3.175336122512817383e-01,-1.592336148023605347e-01,6.661347746849060059e-01,-5.969355702400207520e-01,-2.744797766208648682e-01,-3.258932232856750488e-01,3.437777757644653320e-01,-2.275089174509048462e-01,2.831877470016479492e-01,-9.048728644847869873e-02,1.945853233337402344e-01
4.504368305206298828e-01,3.523725271224975586e-02,3.518519699573516846e-01,3.613478243350982666e-01,-3.022675812244415283e-01,5.697143673896789551e-01,-6.793722510337829590e-01,-2.003497928380966187e-01,-1.151120141148567200e-01,3.970386385917663574e-01,-3.903967440128326416e-01,2.920241057872772217e-01,-1.029449552297592163e-01,1.363284289836883545e-01
4.114964604377746582e-01,2.458609454333782196e-02,5.456910133361816406e-01,4.226318299770355225e-01,-8.027275651693344116e-02,3.810595571994781494e-01,-8.443164825439453125e-01,-2.555502057075500488e-01,-3.068991899490356445e-01,3.275218605995178223e-01,-1.726212352514266968e-01,9.711714833974838257e-02,-1.040984541177749634e-01,3.006983101367950439e-01
1.817977875471115112e-01,-2.876590378582477570e-02,3.571724593639373779e-01,2.107990980148315430e-01,1.386226713657379150e-01,3.210162222385406494e-01,-9.678553342819213867e-01,-2.357987500727176666e-02,-3.371952474117279053e-01,4.114876091480255127e-01,-2.891820073127746582e-01,2.921051383018493652e-01,-3.579039871692657471e-01,2.666880190372467041e-01
1.261223852634429932e-01,-9.168626740574836731e-03,3.541801571846008301e-01,3.898251950740814209e-01,1.073014140129089355e-01,4.752752780914306641e-01,-9.336975216865539551e-01,-2.441482096910476685e-01,-4.310185015201568604e-01,3.756142854690551758e-01,-1.552816331386566162e-01,2.486000657081604004e-01,-1.585591584444046021e-01,3.078118264675140381e-01
1.484910249710083008e-01,-3.178710490465164185e-02,1.720120161771774292e-01,2.201157808303833008e-01,2.302217036485671997e-01,4.013114869594573975e-01,-9.128488898277282715e-01,-1.393389701843261719e-01,-3.743244409561157227e-01,3.825582265853881836e-01,8.564518764615058899e-03,1.818773895502090454e-01,-2.024824023246765137e-01,1.708191633224487305e-01
1.268161088228225708e-01,-7.204470038414001465e-02,1.433999538421630859e-01,2.975661754608154297e-01,1.852766722440719604e-01,2.130013108253479004e-01,-1.037692785263061523e+00,-3.246514499187469482e-01,-3.694631159305572510e-01,1.130294427275657654e-01,1.206496451050043106e-02,1.512910127639770508e-01,-1.455181092023849487e-01,1.167977005243301392e-01
-1.391639374196529388e-02,1.355897039175033569e-01,1.562046259641647339e-01,2.609339356422424316e-01,3.196386098861694336e-01,3.120331764221191406e-01,-7.591862082481384277e-01,-2.594417631626129150e-01,-5.951005220413208008e-01,3.961266577243804932e-01,-6.603483855724334717e-02,-5.127680487930774689e-03,-3.556305766105651855e-01,2.805772423744201660e-01
2.263905294239521027e-02,7.556357979774475098e-02,6.587002426385879517e-02,2.140672057867050171e-01,2.378621697425842285e-01,1.536389291286468506e-01,-1.111300349235534668e+00,3.906695172190666199e-02,-6.303314566612243652e-01,3.348304331302642822e-01,7.127646356821060181e-03,1.677833646535873413e-01,-3.457501828670501709e-01,1.302124410867691040e-01
4.681611061096191406e-02,3.783654272556304932e-01,1.935954391956329346e-02,3.923616707324981689e-01,4.852780401706695557e-01,3.632193207740783691e-01,-1.012955665588378906e+00,-2.747538127005100250e-02,-6.647176742553710938e-01,8.301044255495071411e-02,-1.209630444645881653e-01,-8.245700597763061523e-02,-1.080991029739379883e-01,4.028905034065246582e-01
8.699498325586318970e-02,2.935132980346679688e-01,-1.064662709832191467e-01,6.071689352393150330e-02,4.654220044612884521e-01,4.021124243736267090e-01,-1.188754200935363770e+00,-7.410843670368194580e-02,-5.437246561050415039e-01,1.543840393424034119e-02,1.264741271734237671e-01,1.236992701888084412e-02,-1.909532845020294189e-01,4.219910800457000732e-01
-2.260541729629039764e-02,4.232445359230041504e-01,-1.055409610271453857e-01,1.556864529848098755e-01,5.726771950721740723e-01,1.583531796932220459e-01,-9.732674360275268555e-01,-9.306693822145462036e-02,-7.294784784317016602e-01,1.598706394433975220e-01,-1.100135296583175659e-01,-2.686233026906847954e-03,-4.723504483699798584e-01,2.671883702278137207e-01
8.273238688707351685e-02,1.659190505743026733e-01,-2.603565454483032227e-01,1.934695541858673096e-01,9.188870787620544434e-01,2.319811433553695679e-01,-9.913679361343383789e-01,-1.378713101148605347e-01,-4.417035281658172607e-01,4.542634785175323486e-01,-1.010055392980575562e-01,-6.229705736041069031e-02,-4.094318449497222900e-01,1.297002881765365601e-01
7.204777002334594727e-02,3.026115894317626953e-01,-1.807790696620941162e-01,2.282581329345703125e-01,6.703394651412963867e-01,2.425145208835601807e-01,-1.297802209854125977e+00,1.019474864006042480e-02,-5.164812207221984863e-01,2.521150410175323486e-01,1.360585093498229980e-01,-5.568609386682510376e-02,-3.621170818805694580e-01,4.815612733364105225e-01
-1.049449071288108826e-01,5.549060702323913574e-01,-3.997985422611236572e-01,1.725655496120452881e-01,8.195401430130004883e-01,-3.161447495222091675e-02,-1.167490005493164062e+00,-1.505161821842193604e-01,-4.900214970111846924e-01,2.197331786155700684e-01,6.359425187110900879e-02,-2.319674640893936157e-01,-2.767096161842346191e-01,4.450492560863494873e-01
4.324724152684211731e-02,6.656946539878845215e-01,-4.610199332237243652e-01,4.629362747073173523e-02,9.141008853912353516e-01,1.586810350418090820e-01,-9.309039115905761719e-01,-2.711233496665954590e-02,-4.839960038661956787e-01,8.869861811399459839e-02,5.359753966331481934e-02,-1.903952062129974365e-01,-2.019657492637634277e-01,3.250231742858886719e-01
-1.079141423106193542e-01,3.696491420269012451e-01,-3.554297387599945068e-01,8.689160645008087158e-02,6.049277186393737793e-01,1.876327991485595703e-01,-1.031446456909179688e+00,-2.642284333705902100e-01,-6.759448051452636719e-01,2.019693553447723389e-01,-3.454315941780805588e-03,6.527865678071975708e-02,-2.494160085916519165e-01,3.129529654979705811e-01
-2.253620475530624390e-01,7.171841859817504883e-01,-4.230776131153106689e-01,1.723764091730117798e-02,7.393599748611450195e-01,1.009566709399223328e-01,-9.958916306495666504e-01,-9.028975665569305420e-02,-4.350276291370391846e-01,-2.119334600865840912e-02,-1.543142180889844894e-02,1.028587445616722107e-01,-2.601212859153747559e-01,3.768654465675354004e-01
-9.758907556533813477e-02,5.995979905128479004e-01,-3.431066572666168213e-01,-7.569883763790130615e-02,7.352442741394042969e-01,1.991540044546127319e-01,-8.715522289276123047e-01,-2.025764435529708862e-01,-1.909497827291488647e-01,6.681669503450393677e-02,6.459492444992065430e-02,1.531207412481307983e-01,-7.181799411773681641e-02,2.570941448211669922e-01
-1.334071755409240723e-01,7.116568088531494141e-01,-4.651361405849456787e-01,-1.718237400054931641e-01,1.048010945320129395e+00,4.345271363854408264e-02,-1.027910113334655762e+00,-2.663555145263671875e-01,-4.220719337463378906e-01,1.558312177658081055e-01,6.377150863409042358e-02,2.330551594495773315e-01,1.831628084182739258e-01,3.445182442665100098e-01
1.240156218409538269e-01,7.551255822181701660e-01,-5.986022949218750000e-01,5.259789153933525085e-02,8.414976000785827637e-01,-8.733028918504714966e-02,-8.727294206619262695e-01,-4.672018587589263916e-01,-1.256648600101470947e-01,2.103200182318687439e-03,-8.189931511878967285e-02,1.928666979074478149e-01,-3.873492404818534851e-02,1.026453897356987000e-01
-2.744343280792236328e-01,6.022194623947143555e-01,-5.184074640274047852e-01,-5.127090588212013245e-02,8.740218877792358398e-01,9.895405173301696777e-02,-9.394199848175048828e-01,-3.232288062572479248e-01,3.820405900478363037e-02,-6.212810054421424866e-02,1.170652657747268677e-01,1.339102089405059814e-01,-1.349026560783386230e-01,1.982819586992263794e-01
-2.209320962429046631e-01,7.071187496185302734e-01,-4.301292002201080322e-01,-1.660349220037460327e-01,9.624902606010437012e-01,1.002583801746368408e-01,-8.586044907569885254e-01,-2.729040086269378662e-01,-2.748582065105438232e-01,-9.190667420625686646e-03,-4.075927659869194031e-02,1.797410249710083008e-01,-4.357975348830223083e-02,1.713954359292984009e-01
-1.123284399509429932e-01,7.471213340759277344e-01,-5.513070821762084961e-01,-5.329914018511772156e-02,9.348483085632324219e-01,1.355316936969757080e-01,-7.981907725334167480e-01,-5.101335048675537109e-01,1.197765991091728210e-01,-8.569949120283126831e-02,-1.268728226423263550e-01,3.193520307540893555e-01,1.209716498851776123e-01,1.069971472024917603e-01
-2.988854190334677696e-03,5.899261236190795898e-01,-5.176613330841064453e-01,-1.696187257766723633e-01,1.180098176002502441e+00,-1.531909257173538208e-01,-6.676124334335327148e-01,-5.904833674430847168e-01,1.490858104079961777e-02,-1.674576699733734131e-01,8.408170193433761597e-02,3.487532734870910645e-01,1.525142788887023926e-01,1.065028756856918335e-01
-1.170422509312629700e-01,7.124801278114318848e-01,-5.075905323028564453e-01,-2.398822456598281860e-01,7.600687146186828613e-01,-2.941293716430664062e-01,-5.903709530830383301e-01,-5.887559056282043457e-01,3.599625825881958008e-02,-1.133281514048576355e-01,9.063707292079925537e-02,3.341491520404815674e-01,6.128683686256408691e-03,-2.631907723844051361e-02
-8.452733606100082397e-02,4.485497176647186279e-01,-6.771563291549682617e-01,-3.441511392593383789e-01,8.090968728065490723e-01,-2.761031389236450195e-01,-6.595240831375122070e-01,-7.300525903701782227e-01,1.961068361997604370e-01,-1.615598648786544800e-01,-2.933840453624725342e-02,5.488587617874145508e-01,2.095819115638732910e-01,1.385858654975891113e-01
-1.767555326223373413e-01,5.737202167510986328e-01,-7.465048432350158691e-01,-2.162484973669052124e-01,7.672825455665588379e-01,-4.764301478862762451e-01,-4.487898945808410645e-01,-5.784783363342285156e-01,5.788091197609901428e-02,-2.310069650411605835e-01,2.744277417659759521e-01,4.706344008445739746e-01,2.865928411483764648e-01,-1.067871823906898499e-01
-1.845753490924835205e-01,4.902768135070800781e-01,-5.040513277053833008e-01,-4.952769577503204346e-01,5.475986003875732422e-01,-4.347507357597351074e-01,-6.053898334503173828e-01,-5.690929293632507324e-01,1.398770213127136230e-01,-1.034504324197769165e-01,2.581276893615722656e-01,6.031901240348815918e-01,1.719403564929962158e-01,-2.737298980355262756e-02
-5.194307491183280945e-02,3.486630022525787354e-01,-5.982031226158142090e-01,-4.264349639415740967e-01,9.235515594482421875e-01,-3.224447071552276611e-01,-5.340233445167541504e-01,-6.905115842819213867e-01,9.187821298837661743e-02,-3.890197277069091797e-01,2.959375381469726562e-01,6.975339651107788086e-01,2.923794090747833252e-01,-2.446501404047012329e-01
-1.873671412467956543e-01,3.282496333122253418e-01,-6.049270629882812500e-01,-5.132820606231689453e-01,8.404607772827148438e-01,-5.977474451065063477e-01,-3.137908279895782471e-01,-6.601153612136840820e-01,1.366467177867889404e-01,-3.647336959838867188e-01,4.510661661624908447e-01,5.860304236412048340e-01,2.808693349361419678e-01,-2.373259663581848145e-01
-1.166711971163749695e-01,2.195213586091995239e-01,-3.845438957214355469e-01,-4.459665715694427490e-01,5.928320288658142090e-01,-6.460519433021545410e-01,-1.971885859966278076e-01,-6.717805862426757812e-01,1.866848319768905640e-01,-3.216104805469512939e-01,5.179904103279113770e-01,7.161197662353515625e-01,2.081152498722076416e-01,-3.513013124465942383e-01
-2.143711596727371216e-01,2.486508786678314209e-01,-3.095879554748535156e-01,-4.799752831459045410e-01,5.657845139503479004e-01,-6.652376055717468262e-01,-2.403837442398071289e-01,-6.966111660003662109e-01,2.173876762390136719e-01,-3.112462162971496582e-01,3.119378387928009033e-01,7.795056700706481934e-01,1.381120830774307251e-01,-1.922321021556854248e-01
-8.656761795282363892e-02,1.845998317003250122e-01,-2.576871514320373535e-01,-4.011335074901580811e-01,7.168119549751281738e-01,-2.326673120260238647e-01,-3.988615572452545166e-01,-6.565533876419067383e-01,2.238439619541168213e-01,-3.575520813465118408e-01,5.825005769729614258e-01,9.572252631187438965e-01,2.266021817922592163e-01,-3.400364816188812256e-01
-1.758092790842056274e-01,1.710789948701858521e-01,-3.114207684993743896e-01,-2.829863429069519043e-01,4.740054607391357422e-01,-4.318850338459014893e-01,-2.035506665706634521e-01,-7.184804081916809082e-01,3.316857218742370605e-01,-3.513403832912445068e-01,3.881223201751708984e-01,8.505300879478454590e-01,2.425385564565658569e-01,-4.872471988201141357e-01
-1.675158925354480743e-02,1.595716029405593872e-01,-2.511622905731201172e-01,-4.960882663726806641e-01,4.029631614685058594e-01,-3.592943251132965088e-01,-1.101593226194381714e-01,-4.811131358146667480e-01,2.036138176918029785e-01,-4.849286377429962158e-01,6.874891519546508789e-01,8.652989268302917480e-01,7.089316099882125854e-02,-4.110330045223236084e-01
-1.363788694143295288e-01,5.415638536214828491e-02,-2.677182853221893311e-01,-5.135875344276428223e-01,3.543750941753387451e-01,-2.384712845087051392e-01,-3.525926768779754639e-01,-8.084837794303894043e-01,1.981361359357833862e-01,-3.002757728099822998e-01,6.547194123268127441e-01,9.723368883132934570e-01,8.399349451065063477e-02,-6.992443799972534180e-01
-1.023837476968765259e-01,2.773150801658630371e-01,-1.413845717906951904e-01,-5.235145688056945801e-01,5.847248435020446777e-01,-2.211915403604507446e-01,-2.798740565776824951e-01,-5.482797026634216309e-01,3.855914771556854248e-01,-4.800330996513366699e-01,5.329784154891967773e-01,8.852555751800537109e-01,7.294235378503799438e-02,-5.459226369857788086e-01
-5.839521437883377075e-02,-7.335528731346130371e-03,-1.203977614641189575e-01,-6.275837421417236328e-01,4.449950158596038818e-01,-2.337288707494735718e-01,-2.936770915985107422e-01,-5.435528159141540527e-01,3.484405875205993652e-01,-5.525827407836914062e-01,6.862002015113830566e-01,9.757701754570007324e-01,1.325388345867395401e-02,-7.390284538269042969e-01
-4.922887310385704041e-02,2.419588416814804077e-01,-1.346629112958908081e-02,-5.732349157333374023e-01,6.136443614959716797e-01,-1.508718878030776978e-01,-2.209080159664154053e-01,-4.989554584026336670e-01,3.504903018474578857e-01,-4.779216945171356201e-01,5.183579325675964355e-01,1.120451331138610840e+00,-7.300044596195220947e-02,-4.238204658031463623e-01
-4.004225134849548340e-01,-6.176331639289855957e-02,-5.207586288452148438e-02,-6.686362028121948242e-01,4.787578582763671875e-01,-1.217913031578063965e-01,-2.233057022094726562e-01,-5.370185971260070801e-01,3.911677300930023193e-01,-5.315472483634948730e-01,6.462253332138061523e-01,9.847415685653686523e-01,-1.787432581186294556e-01,-7.170388102531433105e-01
-1.660047322511672974e-01,1.185940429568290710e-01,-1.403932571411132812e-01,-7.014067173004150391e-01,4.037255048751831055e-01,-3.296449780464172363e-01,-2.535744905471801758e-01,-3.667415976524353027e-01,2.308378517627716064e-01,-7.457691431045532227e-01,7.094478607177734375e-01,1.038558125495910645e+00,-3.675813376903533936e-01,-6.882458329200744629e-01
-3.071617484092712402e-01,-1.707258820533752441e-02,-1.257345825433731079e-01,-9.356835484504699707e-01,6.188218593597412109e-01,3.196639940142631531e-02,-2.871506810188293457e-01,-2.868651449680328369e-01,4.062986969947814941e-01,-9.598574042320251465e-01,7.965367436408996582e-01,8.788309097290039062e-01,5.018178746104240417e-02,-6.765346527099609375e-01
-2.354283630847930908e-01,9.072863310575485229e-02,8.515385538339614868e-02,-7.679882645606994629e-01,2.917992174625396729e-01,1.196076050400733948e-01,1.380586065351963043e-02,-3.160350620746612549e-01,1.622095406055450439e-01,-7.647756934165954590e-01,7.299261093139648438e-01,7.415926456451416016e-01,-7.117288559675216675e-02,-8.010025024414062500e-01
-7.637938857078552246e-02,1.819458752870559692e-01,1.278982590883970261e-02,-1.037821292877197266e+00,5.169705748558044434e-01,5.132376775145530701e-02,-2.492298185825347900e-01,-1.155769824981689453e-01,9.867164492607116699e-02,-6.727560162544250488e-01,7.528712153434753418e-01,7.232818603515625000e-01,-1.087832078337669373e-01,-1.061562895774841309e+00
-1.405284851789474487e-01,-6.028782203793525696e-02,-6.275821477174758911e-02,-9.046124219894409180e-01,5.563232302665710449e-01,-2.550190687179565430e-02,-1.507720053195953369e-01,-2.525108158588409424e-01,1.954733282327651978e-01,-7.907103300094604492e-01,4.957545399665832520e-01,7.651685476303100586e-01,-2.106934413313865662e-02,-8.521050214767456055e-01
-1.496591120958328247e-01,-2.686353959143161774e-02,4.566795751452445984e-02,-8.469814658164978027e-01,4.407812356948852539e-01,4.924984276294708252e-02,-1.643180102109909058e-01,-3.107207417488098145e-01,2.684527337551116943e-01,-7.359737753868103027e-01,6.717700362205505371e-01,5.719331502914428711e-01,-9.660001099109649658e-02,-8.649452924728393555e-01
-7.940369844436645508e-02,4.873628728091716766e-03,1.680287532508373260e-02,-9.908974766731262207e-01,3.773627877235412598e-01,3.668628931045532227e-01,8.348695933818817139e-02,-4.724430292844772339e-02,1.215269491076469421e-01,-9.677462577819824219e-01,6.091706156730651855e-01,4.838865697383880615e-01,-2.054047957062721252e-02,-7.332426309585571289e-01
-1.757852435111999512e-01,-8.450900763273239136e-02,3.731122240424156189e-02,-1.184282064437866211e+00,4.718492627143859863e-01,3.553468585014343262e-01,1.357489377260208130e-01,-2.047022432088851929e-02,6.900813430547714233e-02,-8.499076366424560547e-01,6.156747341156005859e-01,4.876393973827362061e-01,-8.188335224986076355e-03,-7.523525953292846680e-01
-2.184598520398139954e-02,2.628760412335395813e-02,4.953249916434288025e-02,-1.071546196937561035e+00,3.131945729255676270e-01,3.352393805980682373e-01,1.737449467182159424e-01,-1.537337303161621094e-01,1.160352677106857300e-01,-8.640895485877990723e-01,5.272464156150817871e-01,5.494527220726013184e-01,-1.107121631503105164e-01,-5.982422232627868652e-01
-9.182543307542800903e-02,1.460719853639602661e-01,9.134207665920257568e-02,-1.051733493804931641e+00,3.605277538299560547e-01,2.931619286537170410e-01,1.363252252340316772e-01,1.877183616161346436e-01,1.248629838228225708e-01,-7.248595952987670898e-01,4.445754885673522949e-01,4.023154377937316895e-01,-1.860330998897552490e-01,-6.529226303100585938e-01
-1.200712844729423523e-01,-1.454757153987884521e-01,-3.214969858527183533e-02,-8.911932706832885742e-01,2.796318233013153076e-01,3.035362064838409424e-01,1.938134878873825073e-01,2.636966407299041748e-01,2.124424874782562256e-01,-7.330992817878723145e-01,6.873689889907836914e-01,5.515221953392028809e-01,7.912131398916244507e-02,-3.753682076930999756e-01
2.053332775831222534e-01,2.074199020862579346e-01,5.137754976749420166e-02,-1.031181335449218750e+00,4.047295749187469482e-01,2.971628904342651367e-01,2.629037797451019287e-01,2.140675336122512817e-01,4.204860329627990723e-02,-8.141438364982604980e-01,5.549276471138000488e-01,6.216025948524475098e-01,-2.787269651889801025e-01,-4.522444307804107666e-01
1.769620627164840698e-01,4.046272113919258118e-02,4.094055667519569397e-02,-9.995344281196594238e-01,4.217908978462219238e-01,6.518375277519226074e-01,3.226033449172973633e-01,1.917056739330291748e-01,-1.728593721054494381e-03,-6.725462079048156738e-01,4.985302984714508057e-01,4.312619268894195557e-01,-1.035280525684356689e-01,-4.451568424701690674e-01
1.031321957707405090e-01,1.628369539976119995e-01,5.905557796359062195e-02,-1.118581533432006836e+00,2.029537707567214966e-01,5.160627365112304688e-01,1.826893389225006104e-01,3.504602909088134766e-01,2.334360778331756592e-02,-5.507331490516662598e-01,3.517584502696990967e-01,4.422741234302520752e-01,-2.037479728460311890e-01,-2.152170538902282715e-01
1.582554131746292114e-01,1.122652813792228699e-01,3.472230732440948486e-01,-9.997941255569458008e-01,1.052111089229583740e-01,6.602117419242858887e-01,2.598480880260467529e-01,4.938709139823913574e-01,-4.534919187426567078e-02,-4.760931730270385742e-01,3.112781345844268799e-01,1.922039687633514404e-01,-8.092309534549713135e-02,-2.383417785167694092e-01
3.512156903743743896e-01,3.683655560016632080e-01,2.937921881675720215e-01,-8.587596416473388672e-01,1.152154430747032166e-01,5.173643231391906738e-01,3.503278791904449463e-01,4.830159842967987061e-01,-4.764287546277046204e-02,-5.656522512435913086e-01,1.320697516202926636e-01,1.975446492433547974e-01,-3.290697038173675537e-01,-2.834165990352630615e-01
2.992152273654937744e-01,5.433173775672912598e-01,2.076774090528488159e-01,-8.968387842178344727e-01,2.371303737163543701e-01,7.266756296157836914e-01,2.229979932308197021e-01,3.594989180564880371e-01,7.953558862209320068e-02,-4.527158737182617188e-01,1.070327013731002808e-01,3.404667377471923828e-01,-1.014403104782104492e-01,-7.809837907552719116e-02
2.463216632604598999e-01,2.903168499469757080e-01,2.231520563364028931e-01,-7.634736299514770508e-01,1.761046350002288818e-01,6.467716693878173828e-01,5.422976613044738770e-01,4.103853404521942139e-01,-7.025010883808135986e-02,-5.562673211097717285e-01,3.814502805471420288e-02,2.465911805629730225e-01,-2.373658120632171631e-01,-2.292289286851882935e-01
6.584574282169342041e-02,1.347977817058563232e-01,1.685235947370529175e-01,-7.778494358062744141e-01,1.717996299266815186e-01,7.746039032936096191e-01,3.551789522171020508e-01,4.500190615653991699e-01,2.566648423671722412e-01,-1.976963579654693604e-01,-1.798382699489593506e-01,2.844274640083312988e-01,-4.680334329605102539e-01,-2.124962061643600464e-01
5.484170839190483093e-02,2.764004468917846680e-01,2.841849327087402344e-01,-7.870745062828063965e-01,1.499040722846984863e-01,8.784946203231811523e-01,5.280763506889343262e-01,4.317898452281951904e-01,-8.259312598966062069e-04,-2.739249467849731445e-01,-1.613192111253738403e-01,3.494288027286529541e-01,-1.701289862394332886e-01,-3.148906826972961426e-01
2.660498619079589844e-01,2.323458790779113770e-01,4.488335251808166504e-01,-5.265660881996154785e-01,4.351415485143661499e-02,8.018104434013366699e-01,-1.215151045471429825e-02,5.846229195594787598e-01,1.566707044839859009e-01,-3.635211288928985596e-01,3.071994148194789886e-02,1.733166277408599854e-01,-3.625936806201934814e-01,-1.682444363832473755e-01
1.803528517484664917e-01,2.006269842386245728e-01,2.147764563560485840e-01,-3.765325844287872314e-01,4.978850483894348145e-02,6.304992437362670898e-01,1.858792901039123535e-01,5.037219524383544922e-01,-1.217806637287139893e-01,-1.581484973430633545e-01,1.418100390583276749e-02,2.449893504381179810e-01,-4.463166594505310059e-01,-1.619459241628646851e-01
-8.393276482820510864e-02,3.440155684947967529e-01,3.522320091724395752e-01,-5.131114125251770020e-01,2.867181003093719482e-01,8.250229358673095703e-01,1.315242350101470947e-01,4.808968007564544678e-01,1.544136703014373779e-01,-1.248682662844657898e-01,-2.186457216739654541e-01,3.339713215827941895e-01,-3.856339156627655029e-01,-4.281337559223175049e-02
8.170156925916671753e-02,1.542496979236602783e-01,4.446783959865570068e-01,-3.396830856800079346e-01,3.705310076475143433e-02,7.443523406982421875e-01,1.255111247301101685e-01,2.159335017204284668e-01,8.554803580045700073e-02,6.079224497079849243e-02,-2.655781432986259460e-02,7.596848160028457642e-02,-4.381457567214965820e-01,-1.814377494156360626e-02
-6.166334450244903564e-02,2.002940326929092407e-01,3.344562649726867676e-01,-5.497573614120483398e-01,1.619001626968383789e-01,7.115000486373901367e-01,2.914294004440307617e-01,2.745643258094787598e-01,1.627437174320220947e-01,-2.104777991771697998e-01,1.216280236840248108e-01,2.586159110069274902e-02,-3.727248013019561768e-01,-5.299426987767219543e-02
2.090491761919111013e-04,-1.116644293069839478e-01,5.881352424621582031e-01,-2.529686093330383301e-01,2.613734006881713867e-01,6.338732242584228516e-01,2.133656591176986694e-01,4.772197902202606201e-01,4.560906812548637390e-02,1.228495165705680847e-01,-1.592428237199783325e-01,-2.323453500866889954e-02,-3.838507235050201416e-01,6.021885946393013000e-02
-1.031821519136428833e-01,1.633410006761550903e-01,3.499973714351654053e-01,-1.950410008430480957e-01,2.355000078678131104e-01,2.972037792205810547e-01,2.766268253326416016e-01,4.141245186328887939e-01,-2.305514067411422729e-01,5.430852528661489487e-03,-5.663596466183662415e-02,1.212733145803213120e-02,-4.496314227581024170e-01,-3.119280003011226654e-02
-1.591426581144332886e-01,2.420983612537384033e-01,5.762290954589843750e-01,-1.857852637767791748e-01,3.534164726734161377e-01,5.476942062377929688e-01,-1.581177487969398499e-02,5.594202876091003418e-01,-2.390225976705551147e-01,2.583041191101074219e-01,1.489577740430831909e-01,-1.007019653916358948e-01,-6.391198039054870605e-01,2.270202338695526123e-02
-2.564367055892944336e-01,2.470353692770004272e-01,3.346754610538482666e-01,-1.624640524387359619e-01,-1.762938797473907471e-01,7.510562539100646973e-01,1.967878192663192749e-01,3.536589145660400391e-01,-2.823207080364227295e-01,9.008349478244781494e-02,-9.822857379913330078e-02,6.876553595066070557e-02,-7.001183629035949707e-01,1.944357603788375854e-01
6.864363700151443481e-02,2.333925664424896240e-01,3.807803094387054443e-01,-2.187717705965042114e-01,1.024837791919708252e-01,5.540153384208679199e-01,6.962687522172927856e-02,5.005272030830383301e-01,-1.724327653646469116e-01,1.395813971757888794e-01,1.115957200527191162e-01,-1.246945112943649292e-01,-5.216635465621948242e-01,1.451751962304115295e-02
-2.523398399353027344e-01,1.106154546141624451e-02,3.764337301254272461e-01,2.193964272737503052e-01,1.681493222713470459e-01,5.615119934082031250e-01,-5.761829763650894165e-02,3.097313940525054932e-01,-3.712362945079803467e-01,1.920501738786697388e-01,-8.956301957368850708e-03,-1.622834354639053345e-01,-6.478470563888549805e-01,3.238913370296359062e-03
-2.812252938747406006e-01,1.875507831573486328e-01,3.350419104099273682e-01,2.370817065238952637e-01,1.185702756047248840e-01,4.170899391174316406e-01,-1.572915464639663696e-01,5.508355498313903809e-01,-3.317658305168151855e-01,1.591256409883499146e-01,1.081110462546348572e-01,-1.520287245512008667e-01,-5.947095751762390137e-01,4.182353988289833069e-02
-5.787653923034667969e-01,1.569204777479171753e-01,3.854677677154541016e-01,2.703269124031066895e-01,5.004605278372764587e-02,7.236518263816833496e-01,-3.818257525563240051e-02,5.871313810348510742e-01,-2.928704023361206055e-01,3.203496634960174561e-01,7.520277053117752075e-02,-2.104739844799041748e-01,-7.481237053871154785e-01,1.479095518589019775e-01
-4.771455824375152588e-01,2.529703974723815918e-01,3.826107680797576904e-01,1.827117800712585449e-01,2.412748634815216064e-01,5.643396377563476562e-01,-3.190361559391021729e-01,4.369261264801025391e-01,-2.613658308982849121e-01,7.788421958684921265e-02,8.032502979040145874e-02,-1.418850719928741455e-01,-5.995510816574096680e-01,-1.264343708753585815e-01
-4.187627434730529785e-01,4.924144744873046875e-01,2.921614050865173340e-01,7.431169599294662476e-02,-1.839574426412582397e-02,5.551540255546569824e-01,-2.864729166030883789e-01,5.857685804367065430e-01,-2.470791339874267578e-01,1.796665936708450317e-01,2.069709450006484985e-01,-2.489627599716186523e-01,-7.571653127670288086e-01,-6.494510453194379807e-03
-4.616571068763732910e-01,6.170045137405395508e-01,3.671597540378570557e-01,8.779635280370712280e-02,2.366941124200820923e-01,5.415859818458557129e-01,-2.950202822685241699e-01,6.334838271141052246e-01,-4.320611357688903809e-01,2.284214273095130920e-02,3.110652267932891846e-01,-4.850355684757232666e-01,-8.422907590866088867e-01,1.578519046306610107e-01
-5.831712484359741211e-01,4.541365206241607666e-01,3.529811799526214600e-01,-1.974578388035297394e-02,4.037643969058990479e-01,3.918431699275970459e-01,-3.630298674106597900e-01,6.213235855102539062e-01,-4.166762828826904297e-01,3.725773990154266357e-01,1.750499904155731201e-01,-1.348556876182556152e-01,-8.719433546066284180e-01,2.381493104621767998e-04
-6.966083645820617676e-01,3.150286078453063965e-01,4.021568000316619873e-01,2.266767919063568115e-01,5.967919826507568359e-01,5.569677352905273438e-01,-3.381636142730712891e-01,6.647031903266906738e-01,-4.654603004455566406e-01,8.415273576974868774e-02,3.154261708259582520e-01,-3.715267479419708252e-01,-7.448868751525878906e-01,1.522478312253952026e-01
-6.328611969947814941e-01,5.794749855995178223e-01,4.457719326019287109e-01,1.955748945474624634e-01,4.421488344669342041e-01,4.192884266376495361e-01,-4.468356370925903320e-01,4.777211546897888184e-01,-3.886895477771759033e-01,-6.787344813346862793e-02,1.591856479644775391e-01,-4.925820827484130859e-01,-7.298297882080078125e-01,2.478352338075637817e-01
-8.235004544258117676e-01,6.561177968978881836e-01,1.797192841768264771e-01,3.495812416076660156e-01,6.750284433364868164e-01,5.227839350700378418e-01,-3.675734698772430420e-01,4.484164118766784668e-01,-3.639232814311981201e-01,5.119198560714721680e-02,1.986801922321319580e-01,-2.155840992927551270e-01,-7.272187471389770508e-01,1.521688252687454224e-01
-9.062060117721557617e-01,6.536859869956970215e-01,1.775231957435607910e-01,2.522886693477630615e-01,6.127444505691528320e-01,7.781997323036193848e-01,-5.443947315216064453e-01,3.978325724601745605e-01,-2.197307199239730835e-01,2.619815766811370850e-01,3.039440214633941650e-01,-1.712573766708374023e-01,-7.400729656219482422e-01,3.144199550151824951e-01
-8.124856352806091309e-01,6.111622452735900879e-01,5.219291895627975464e-02,2.633719146251678467e-01,6.097663044929504395e-01,4.684717953205108643e-01,-5.359596610069274902e-01,6.068351268768310547e-01,-4.125054478645324707e-01,-3.483657166361808777e-02,1.650968044996261597e-01,-3.324754536151885986e-01,-6.097058653831481934e-01,3.618465065956115723e-01
-9.666910767555236816e-01,6.739303469657897949e-01,1.901966929435729980e-01,2.886444330215454102e-01,6.460790634155273438e-01,5.089799761772155762e-01,-4.095709323883056641e-01,6.035662293434143066e-01,-4.503155648708343506e-01,1.582476496696472168e-02,2.560626268386840820e-01,-5.704250335693359375e-01,-7.165198326110839844e-01,1.046595051884651184e-01
-7.063571214675903320e-01,5.436375141143798828e-01,2.083533555269241333e-01,1.519210487604141235e-01,8.724903464317321777e-01,3.994151353836059570e-01,-3.605049550533294678e-01,3.121831119060516357e-01,-3.288231790065765381e-01,-1.513478457927703857e-01,2.048114687204360962e-01,-5.060830116271972656e-01,-4.052435457706451416e-01,1.958154141902923584e-01
-8.289093971252441406e-01,7.473576068878173828e-01,-2.052898854017257690e-01,7.420448213815689087e-02,6.206569075584411621e-01,3.626128137111663818e-01,-3.584615290164947510e-01,4.609116315841674805e-01,-3.635218143463134766e-01,-1.466197073459625244e-01,3.929510414600372314e-01,-5.117437243461608887e-01,-6.189174652099609375e-01,2.683612108230590820e-01
-8.192501068115234375e-01,6.147665977478027344e-01,-1.415218859910964966e-01,3.944472596049308777e-02,6.730954647064208984e-01,1.167346388101577759e-01,-4.217813014984130859e-01,3.899995684623718262e-01,-2.773309051990509033e-01,-2.358018904924392700e-01,1.997491717338562012e-01,-6.112926602363586426e-01,-2.894618511199951172e-01,2.714374959468841553e-01
-8.065468668937683105e-01,8.026916384696960449e-01,-1.129730716347694397e-01,7.979010045528411865e-02,6.366275548934936523e-01,1.863979846239089966e-01,-4.317303597927093506e-01,2.570720613002777100e-01,-3.303197324275970459e-01,-1.176593005657196045e-01,2.268727868795394897e-01,-4.005776643753051758e-01,-4.652633368968963623e-01,3.442632257938385010e-01
-7.420927286148071289e-01,6.596100926399230957e-01,-7.935371994972229004e-02,2.084609717130661011e-01,6.791079640388488770e-01,1.872449815273284912e-01,-1.669719368219375610e-01,3.704044818878173828e-01,-4.034776091575622559e-01,-1.748836971819400787e-02,3.370796740055084229e-01,-3.547749817371368408e-01,-2.598484754562377930e-01,3.291703462600708008e-01
-6.013588309288024902e-01,6.505867242813110352e-01,-1.648154556751251221e-01,9.181167185306549072e-02,8.246040940284729004e-01,1.246233657002449036e-02,-1.948106139898300171e-01,2.614207863807678223e-01,-3.593532145023345947e-01,-3.108114376664161682e-02,2.433571070432662964e-01,-3.135777115821838379e-01,-1.942723244428634644e-01,3.086495995521545410e-01
-8.103520274162292480e-01,4.056982696056365967e-01,-1.020533740520477295e-01,2.871891260147094727e-01,7.649740576744079590e-01,-5.422899872064590454e-02,-2.854406535625457764e-01,9.116650372743606567e-02,-3.761972784996032715e-01,-2.429355829954147339e-01,4.762391448020935059e-01,-1.429550200700759888e-01,-6.540566682815551758e-02,3.473628759384155273e-01
-8.106402754783630371e-01,4.383133351802825928e-01,-9.604770690202713013e-02,1.837589740753173828e-01,6.838024854660034180e-01,1.193071976304054260e-01,-2.450680285692214966e-01,2.328354418277740479e-01,-1.579420417547225952e-01,-9.404599666595458984e-02,3.394766449928283691e-01,-4.297531247138977051e-01,-9.186859428882598877e-02,2.141067683696746826e-01
-7.605036497116088867e-01,3.305709660053253174e-01,6.626717001199722290e-02,3.400366902351379395e-01,5.752874016761779785e-01,-9.686975926160812378e-02,-1.395894736051559448e-01,9.736944735050201416e-02,-7.702151685953140259e-02,1.865669153630733490e-02,4.565275907516479492e-01,-2.555709481239318848e-01,-1.182263046503067017e-01,5.151270031929016113e-01
-7.430346012115478516e-01,3.829829096794128418e-01,-9.061551839113235474e-02,1.595962196588516235e-01,3.685601353645324707e-01,-1.638076007366180420e-01,-2.216118127107620239e-01,1.495752017945051193e-02,-1.008512452244758606e-01,-1.113162748515605927e-02,1.442850679159164429e-01,-1.876155436038970947e-01,-1.404141634702682495e-01,6.014135479927062988e-01
-5.696876645088195801e-01,4.061976671218872070e-01,1.344967186450958252e-01,2.665315568447113037e-01,5.528236627578735352e-01,-3.256474137306213379e-01,6.763709243386983871e-03,-1.181318014860153198e-01,1.318896771408617496e-03,1.282539498060941696e-02,3.324929475784301758e-01,9.171872586011886597e-02,2.306640148162841797e-01,3.376114666461944580e-01
-7.820445895195007324e-01,4.940668046474456787e-01,-6.447093933820724487e-02,2.175136208534240723e-01,6.204707622528076172e-01,-1.552806645631790161e-01,-3.711564838886260986e-02,-8.679787069559097290e-02,3.253210484981536865e-01,1.129311248660087585e-01,3.222303986549377441e-01,1.724013686180114746e-01,-2.812123298645019531e-02,5.209218859672546387e-01
-5.584068298339843750e-01,4.939152002334594727e-01,6.875769793987274170e-02,1.539183557033538818e-01,3.838373720645904541e-01,-3.476795554161071777e-01,3.084934130311012268e-02,-1.755662634968757629e-02,1.953706145286560059e-01,1.586932092905044556e-01,4.148824512958526611e-01,2.645634710788726807e-01,1.136230677366256714e-01,3.153642416000366211e-01
-5.268484950065612793e-01,2.672485709190368652e-01,-3.827292472124099731e-03,2.102593481540679932e-01,6.209265589714050293e-01,-3.545576930046081543e-01,9.248587489128112793e-02,-2.105451226234436035e-01,3.388688266277313232e-01,1.365868002176284790e-01,1.256849467754364014e-01,1.239438280463218689e-01,2.384850531816482544e-01,2.636549770832061768e-01
-5.931727886199951172e-01,3.103759884834289551e-01,1.929985284805297852e-01,1.515472978353500366e-01,2.712224423885345459e-01,-3.953028917312622070e-01,-1.038353890180587769e-01,-1.472480297088623047e-01,1.948437690734863281e-01,9.480996429920196533e-02,2.487699389457702637e-01,3.835959434509277344e-01,8.343266695737838745e-02,2.886995971202850342e-01
-5.990817546844482422e-01,2.686910033226013184e-01,1.811007857322692871e-01,3.570686578750610352e-01,2.129687964916229248e-01,-4.083879292011260986e-01,-1.003205627202987671e-01,-3.163106739521026611e-01,2.240553796291351318e-01,2.738066017627716064e-01,4.571405053138732910e-01,3.806935548782348633e-01,1.812202185392379761e-01,4.192412495613098145e-01
-4.159081578254699707e-01,3.526537120342254639e-02,2.517825365066528320e-01,1.960752159357070923e-02,2.495593577623367310e-01,-4.563499689102172852e-01,-9.487133356742560863e-04,-2.913937866687774658e-01,2.719528377056121826e-01,7.863486558198928833e-02,1.999598741531372070e-01,4.042698442935943604e-01,3.106997013092041016e-01,2.768586277961730957e-01
-7.113589644432067871e-01,-1.421274393796920776e-01,1.997235119342803955e-01,3.619087934494018555e-01,2.473987340927124023e-01,-6.426386237144470215e-01,1.293958444148302078e-02,-5.312905907630920410e-01,4.297250509262084961e-01,-3.926765546202659607e-02,1.656982004642486572e-01,5.776419639587402344e-01,2.720393240451812744e-01,2.252927124500274658e-01
-4.190967082977294922e-01,-2.522422075271606445e-01,3.277571797370910645e-01,2.978179752826690674e-01,1.009925231337547302e-01,-6.052843332290649414e-01,-5.658325925469398499e-02,-5.778591632843017578e-01,2.013975828886032104e-01,1.090149506926536560e-01,3.720385730266571045e-01,6.159696578979492188e-01,3.504214286804199219e-01,5.464706197381019592e-02
-4.026046097278594971e-01,-1.796500682830810547e-01,3.588131666183471680e-01,3.259000182151794434e-01,4.797056615352630615e-01,-4.095908701419830322e-01,-6.587424874305725098e-02,-3.556946516036987305e-01,1.231667399406433105e-01,-6.484422832727432251e-02,2.987442910671234131e-01,5.189996361732482910e-01,3.261388242244720459e-01,7.486556470394134521e-02
-4.473237693309783936e-01,-4.737963974475860596e-01,3.876603543758392334e-01,2.478721290826797485e-01,1.826330721378326416e-01,-7.620488405227661133e-01,9.337797015905380249e-02,-6.080208420753479004e-01,1.935202628374099731e-01,4.575150832533836365e-02,4.025238156318664551e-01,6.636919975280761719e-01,4.756228029727935791e-01,-8.159230649471282959e-02
-5.217376947402954102e-01,-2.908403575420379639e-01,3.834473192691802979e-01,2.954475395381450653e-02,2.895091772079467773e-01,-6.051106452941894531e-01,2.014473229646682739e-01,-4.653701484203338623e-01,2.709477245807647705e-01,6.407362222671508789e-02,3.678080737590789795e-01,6.089080572128295898e-01,3.478938341140747070e-01,-1.033168062567710876e-01
-3.485428690910339355e-01,-1.605932414531707764e-01,6.129344701766967773e-01,1.030250340700149536e-01,1.726640015840530396e-01,-7.211496829986572266e-01,-1.961726509034633636e-02,-5.089755654335021973e-01,3.089395761489868164e-01,-1.709059327840805054e-01,3.142345249652862549e-01,5.571061372756958008e-01,5.971479415893554688e-01,-1.659625023603439331e-02
-4.017430245876312256e-01,-4.151784479618072510e-01,4.274547994136810303e-01,1.636919677257537842e-01,7.296415418386459351e-02,-6.952547430992126465e-01,-4.781553056091070175e-03,-5.722577571868896484e-01,2.348362356424331665e-01,2.735142596065998077e-03,3.960291445255279541e-01,5.230592489242553711e-01,2.601850330829620361e-01,-1.384253352880477905e-01
-4.199415147304534912e-01,-5.739687085151672363e-01,6.525408029556274414e-01,1.628646552562713623e-01,-1.016833558678627014e-01,-8.487858176231384277e-01,2.444438785314559937e-01,-5.942866206169128418e-01,1.466235369443893433e-01,-1.389592140913009644e-01,3.666878640651702881e-01,6.008949279785156250e-01,3.356133699417114258e-01,9.174745646305382252e-04
-2.665883004665374756e-01,-6.797643899917602539e-01,6.856530308723449707e-01,2.432513609528541565e-02,1.073599010705947876e-01,-6.410692930221557617e-01,1.170339435338973999e-01,-2.728455364704132080e-01,3.214050084352493286e-02,8.594201877713203430e-03,3.977318406105041504e-01,8.601270914077758789e-01,3.608180284500122070e-01,-2.221994400024414062e-01
-2.198240011930465698e-01,-7.700331807136535645e-01,5.814229846000671387e-01,6.079981103539466858e-02,-2.074419986456632614e-03,-5.630884170532226562e-01,1.443131119012832642e-01,-3.720116615295410156e-01,1.164486855268478394e-01,-3.387070819735527039e-02,4.667967855930328369e-01,6.247578859329223633e-01,3.135531246662139893e-01,-1.891302019357681274e-01
-3.026101291179656982e-01,-6.363697052001953125e-01,5.753276348114013672e-01,-3.649609908461570740e-02,-1.166238933801651001e-01,-7.231637835502624512e-01,3.622265458106994629e-01,-5.837865471839904785e-01,-1.269897520542144775e-01,-1.170244216918945312e-01,4.088456034660339355e-01,6.847295165061950684e-01,3.171951472759246826e-01,-1.127041280269622803e-01
-3.273030817508697510e-01,-8.511335849761962891e-01,6.867490410804748535e-01,1.627379953861236572e-01,-1.698408573865890503e-01,-5.722586512565612793e-01,1.784283071756362915e-01,-9.123728424310684204e-02,-1.354597657918930054e-01,-1.365692913532257080e-01,4.082341194152832031e-01,6.619905829429626465e-01,1.933313757181167603e-01,-5.681947246193885803e-02
-6.318213790655136108e-02,-7.693582177162170410e-01,7.808793783187866211e-01,-1.462429314851760864e-01,-2.036360949277877808e-01,-5.563812851905822754e-01,2.642326653003692627e-01,-3.485379517078399658e-01,8.357078582048416138e-02,-1.692298799753189087e-01,2.709912359714508057e-01,6.422562003135681152e-01,1.959018260240554810e-01,-9.337528049945831299e-02
-6.092255935072898865e-02,-6.443218588829040527e-01,5.231590867042541504e-01,-1.026596873998641968e-01,-3.499727696180343628e-02,-5.885088443756103516e-01,3.611565828323364258e-01,-3.185009360313415527e-01,-1.119041889905929565e-01,-9.492044150829315186e-02,4.216906726360321045e-01,8.307143449783325195e-01,3.517593443393707275e-01,-1.015720888972282410e-01
-1.371566653251647949e-01,-8.677206039428710938e-01,6.779935956001281738e-01,-1.813892126083374023e-01,-2.432097345590591431e-01,-3.001523911952972412e-01,-7.098720222711563110e-02,-7.762603461742401123e-03,-5.164526775479316711e-02,4.101565480232238770e-02,2.085674256086349487e-01,7.916151881217956543e-01,1.393800228834152222e-01,-7.541982457041740417e-03
-8.071993291378021240e-02,-7.303626537322998047e-01,7.510629296302795410e-01,-1.204302459955215454e-01,-8.059626072645187378e-02,-1.666409969329833984e-01,-2.750792913138866425e-02,-2.748783230781555176e-01,-1.413651406764984131e-01,5.349174141883850098e-02,4.126300513744354248e-01,4.577167332172393799e-01,3.860507532954216003e-02,-2.028784006834030151e-01
-5.031565949320793152e-02,-7.984564900398254395e-01,7.094423174858093262e-01,-4.795610904693603516e-02,-1.921964287757873535e-01,-2.915970087051391602e-01,4.415626078844070435e-02,-1.159498766064643860e-01,-1.737080514430999756e-01,-2.786206901073455811e-01,1.374375075101852417e-01,6.077991724014282227e-01,1.890395581722259521e-01,1.900062561035156250e-01
-1.175961419939994812e-01,-5.759688019752502441e-01,8.192872405052185059e-01,-3.048809766769409180e-01,-1.364428251981735229e-01,-2.097301632165908813e-01,2.758044600486755371e-01,8.826488256454467773e-02,-4.603554010391235352e-01,-1.382806748151779175e-01,1.590744405984878540e-02,7.059185504913330078e-01,2.870836257934570312e-01,1.950157135725021362e-01
2.506687641143798828e-01,-6.472007036209106445e-01,7.895436882972717285e-01,-1.898960173130035400e-01,-9.113801270723342896e-02,-1.503361016511917114e-01,8.042471855878829956e-02,-3.455057041719555855e-03,-3.505967557430267334e-01,1.129869446158409119e-01,-1.033795252442359924e-01,4.514311254024505615e-01,1.408757865428924561e-01,7.932481169700622559e-02
-3.348198160529136658e-02,-7.265921235084533691e-01,6.805977821350097656e-01,-4.235273301601409912e-01,-9.918821603059768677e-02,-1.683983951807022095e-01,1.860506236553192139e-01,1.121903434395790100e-01,-2.847941815853118896e-01,4.199760500341653824e-03,-1.690883785486221313e-01,6.034642457962036133e-01,4.978841170668601990e-02,1.567267924547195435e-01
1.899168491363525391e-01,-7.825770974159240723e-01,7.181494832038879395e-01,-3.641752600669860840e-01,-4.247672110795974731e-02,-5.500103533267974854e-02,1.934788674116134644e-01,3.048901818692684174e-02,-2.215464562177658081e-01,1.474875677376985550e-02,-2.677829265594482422e-01,4.885710477828979492e-01,2.016340754926204681e-02,2.802043259143829346e-01
3.642363846302032471e-01,-6.150957345962524414e-01,8.483644127845764160e-01,-3.859848976135253906e-01,-1.358055919408798218e-01,-1.121310666203498840e-01,3.283526748418807983e-02,8.350918442010879517e-02,-3.242138028144836426e-01,-9.165887534618377686e-02,-5.265382528305053711e-01,2.991570830345153809e-01,8.559598028659820557e-02,3.317642211914062500e-01
3.640993833541870117e-01,-5.736468434333801270e-01,7.161215543746948242e-01,-4.065733551979064941e-01,-1.094115152955055237e-01,-5.463413521647453308e-02,3.984215855598449707e-01,2.303894311189651489e-01,-2.762396931648254395e-01,7.678221166133880615e-02,-4.895339310169219971e-01,3.477522134780883789e-01,-1.272418051958084106e-01,4.848633110523223877e-01
3.468657135963439941e-01,-7.737835645675659180e-01,7.202404737472534180e-01,-1.613872051239013672e-01,-5.264938622713088989e-02,4.135773517191410065e-03,2.106284797191619873e-01,1.570508927106857300e-01,-3.527345061302185059e-01,-2.996879443526268005e-02,-4.205012619495391846e-01,3.286686241626739502e-01,5.494924262166023254e-02,4.354153275489807129e-01
4.698809981346130371e-01,-6.379727721214294434e-01,5.237442851066589355e-01,-4.419318437576293945e-01,-1.420856565237045288e-01,-1.262388229370117188e-01,1.799593269824981689e-01,2.673245966434478760e-01,-2.738642692565917969e-01,2.034094035625457764e-01,-4.350116550922393799e-01,3.954365253448486328e-01,1.374014168977737427e-01,4.552046954631805420e-01
2.635902464389801025e-01,-6.520717144012451172e-01,5.837690830230712891e-01,-4.320261180400848389e-01,-5.770066753029823303e-02,-1.592962443828582764e-01,1.854805946350097656e-01,2.602438330650329590e-01,-5.800652503967285156e-01,1.495446115732192993e-01,-5.853350162506103516e-01,3.618587553501129150e-01,1.180907525122165680e-02,2.661295235157012939e-01
6.881946325302124023e-01,-6.092590689659118652e-01,8.900799155235290527e-01,-2.101233601570129395e-01,-1.194812357425689697e-01,-6.797944009304046631e-02,2.338308990001678467e-01,2.540102303028106689e-01,-4.548555612564086914e-01,2.835077941417694092e-01,-6.105234622955322266e-01,2.298327684402465820e-01,2.952271401882171631e-01,5.166915059089660645e-01
5.389347672462463379e-01,-6.272374391555786133e-01,7.034931778907775879e-01,-1.036126613616943359e-01,-1.222534850239753723e-01,-2.918877638876438141e-02,3.624969124794006348e-01,5.824888497591018677e-02,-4.573917686939239502e-01,5.798234343528747559e-01,-6.915125846862792969e-01,1.862504631280899048e-01,-6.457736343145370483e-02,5.898059606552124023e-01
5.705512166023254395e-01,-6.390150189399719238e-01,5.292066335678100586e-01,-2.040003538131713867e-01,-2.923964262008666992e-01,-8.832195401191711426e-02,2.982142567634582520e-01,2.948736548423767090e-01,-6.393875479698181152e-01,3.236237466335296631e-01,-7.044025659561157227e-01,3.321164250373840332e-01,-1.061911582946777344e-01,6.998080015182495117e-01
6.713365316390991211e-01,-5.662310123443603516e-01,5.635696649551391602e-01,-9.922742098569869995e-02,6.433321628719568253e-03,-3.260974287986755371e-01,4.581076800823211670e-01,4.801047146320343018e-01,-5.655406117439270020e-01,4.805028736591339111e-01,-5.691177845001220703e-01,2.786565124988555908e-01,-8.801692724227905273e-02,5.405451655387878418e-01
7.481263875961303711e-01,-6.278771758079528809e-01,5.335285067558288574e-01,-6.211572885513305664e-02,-3.455655276775360107e-01,-2.166704833507537842e-01,2.962246537208557129e-01,3.339502513408660889e-01,-5.388994216918945312e-01,4.164443910121917725e-01,-8.128070235252380371e-01,1.992496848106384277e-01,-2.321510203182697296e-02,6.018962860107421875e-01
7.114163637161254883e-01,-8.173061013221740723e-01,6.821208000183105469e-01,-4.934844747185707092e-02,-2.826405763626098633e-01,-5.445882678031921387e-02,4.557526707649230957e-01,3.771246671676635742e-01,-5.141534209251403809e-01,5.591018199920654297e-01,-6.696021556854248047e-01,2.732986509799957275e-01,6.274782866239547729e-02,6.067993044853210449e-01
9.625199437141418457e-01,-6.161810755729675293e-01,5.214818716049194336e-01,-5.226872861385345459e-02,-3.662818372249603271e-01,-7.348504662513732910e-02,3.479763865470886230e-01,4.394295811653137207e-01,-5.978738069534301758e-01,7.441691160202026367e-01,-7.367108464241027832e-01,1.968469172716140747e-01,-2.430610060691833496e-01,7.244963049888610840e-01
6.625531911849975586e-01,-5.340670347213745117e-01,5.759370326995849609e-01,2.101036906242370605e-01,-1.127698868513107300e-01,-5.601582676172256470e-02,1.888514608144760132e-01,4.943310320377349854e-01,-4.590072631835937500e-01,8.098020553588867188e-01,-7.299463748931884766e-01,2.414300292730331421e-01,-1.193235740065574646e-01,9.093167781829833984e-01
5.101475715637207031e-01,-6.011736989021301270e-01,7.315865755081176758e-01,2.985337674617767334e-01,-3.186993598937988281e-01,-2.869192361831665039e-01,6.113885715603828430e-02,3.415927290916442871e-01,-4.408026337623596191e-01,6.304358243942260742e-01,-8.224557638168334961e-01,2.270221561193466187e-01,-3.594249784946441650e-01,8.944142460823059082e-01
3.812238872051239014e-01,-7.080200910568237305e-01,5.233162641525268555e-01,3.403016328811645508e-01,-3.236325681209564209e-01,-3.479707539081573486e-01,1.286968886852264404e-01,6.676527261734008789e-01,-4.936001598834991455e-01,6.521698236465454102e-01,-8.894659876823425293e-01,5.715802907943725586e-01,-3.010982573032379150e-01,7.665463089942932129e-01
4.353884756565093994e-01,-6.209309697151184082e-01,8.612340092658996582e-01,2.603040933609008789e-01,-3.194891214370727539e-01,-5.342703312635421753e-02,5.627402663230895996e-02,4.684706330299377441e-01,-6.160653233528137207e-01,1.027937293052673340e+00,-9.990314245223999023e-01,2.860808074474334717e-01,-3.127788007259368896e-01,7.557273507118225098e-01
6.178699135780334473e-01,-4.969578087329864502e-01,4.983645081520080566e-01,5.565173625946044922e-01,-1.572915911674499512e-01,-2.892458140850067139e-01,-3.188988938927650452e-02,5.325124859809875488e-01,-6.780977249145507812e-01,7.667041420936584473e-01,-7.898516654968261719e-01,1.298375576734542847e-01,-3.411934971809387207e-01,9.736688137054443359e-01
3.809569180011749268e-01,-5.533763766288757324e-01,6.698791980743408203e-01,3.961269557476043701e-01,-1.378722190856933594e-01,-1.009598821401596069e-01,-7.798074930906295776e-02,4.623031616210937500e-01,-5.958678126335144043e-01,8.723616600036621094e-01,-7.971425056457519531e-01,1.096637398004531860e-01,-6.168969273567199707e-01,7.680781483650207520e-01
5.174647569656372070e-01,-4.269179999828338623e-01,3.939644992351531982e-01,4.096455872058868408e-01,-1.325651630759239197e-02,-2.440354824066162109e-01,-2.615293562412261963e-01,3.880990743637084961e-01,-7.101010084152221680e-01,8.292298316955566406e-01,-9.853399991989135742e-01,1.642511636018753052e-01,-5.188776850700378418e-01,9.058663845062255859e-01
1.670420169830322266e-01,-3.041371703147888184e-01,4.787573814392089844e-01,4.708754420280456543e-01,-1.075972318649291992e-01,-1.592487990856170654e-01,-2.274859398603439331e-01,4.657809138298034668e-01,-8.109685778617858887e-01,9.037064909934997559e-01,-8.761682510375976562e-01,-5.756504368036985397e-03,-6.163184046745300293e-01,8.917983770370483398e-01
6.003013253211975098e-02,-3.253420591354370117e-01,4.424725174903869629e-01,4.311569929122924805e-01,-6.799405673518776894e-04,-3.001140058040618896e-01,-4.088534414768218994e-01,4.865392446517944336e-01,-6.591261625289916992e-01,8.873065114021301270e-01,-6.726456880569458008e-01,2.716063857078552246e-01,-6.918005347251892090e-01,6.734733581542968750e-01
-4.878193605691194534e-03,-3.038144111633300781e-01,4.338333904743194580e-01,4.793325662612915039e-01,1.232062056660652161e-01,-1.533230096101760864e-01,-3.559719324111938477e-01,5.742332935333251953e-01,-8.061491847038269043e-01,9.735504388809204102e-01,-7.608647942543029785e-01,1.915087997913360596e-01,-7.327590584754943848e-01,6.646538972854614258e-01
8.125674724578857422e-02,-4.952531456947326660e-01,4.239629507064819336e-01,3.862652480602264404e-01,1.106211170554161072e-01,-2.124413400888442993e-01,-1.978688687086105347e-01,3.842912316322326660e-01,-6.769418716430664062e-01,7.821187973022460938e-01,-8.333298563957214355e-01,-1.962271751835942268e-03,-8.328098654747009277e-01,6.021515130996704102e-01
-6.790584325790405273e-02,-2.994389832019805908e-01,1.113046109676361084e-01,5.234917998313903809e-01,4.448064267635345459e-01,-4.061931967735290527e-01,-3.861763179302215576e-01,5.162069201469421387e-01,-7.881173491477966309e-01,9.183975458145141602e-01,-7.327849268913269043e-01,2.075721137225627899e-02,-7.324682474136352539e-01,6.480621099472045898e-01
1.840313151478767395e-02,-3.919195830821990967e-01,5.626086518168449402e-02,3.282340466976165771e-01,3.713449835777282715e-01,-1.983605176210403442e-01,-4.579089283943176270e-01,6.417289972305297852e-01,-9.600945711135864258e-01,6.903355717658996582e-01,-6.671126484870910645e-01,-1.112417876720428467e-01,-7.752437591552734375e-01,5.327225327491760254e-01
-1.403576582670211792e-01,-2.656898796558380127e-01,2.791083753108978271e-01,3.093508183956146240e-01,5.082730054855346680e-01,-2.058701366186141968e-01,-5.242220759391784668e-01,6.049412488937377930e-01,-9.860473275184631348e-01,7.714311480522155762e-01,-6.025506854057312012e-01,-1.867353916168212891e-01,-8.249540328979492188e-01,7.966746091842651367e-01
-2.055336236953735352e-01,-1.297845840454101562e-01,1.357470452785491943e-01,2.910619080066680908e-01,4.054422974586486816e-01,-2.558711171150207520e-01,-2.844758629798889160e-01,5.625392198562622070e-01,-7.496299743652343750e-01,5.521404743194580078e-01,-5.702980756759643555e-01,-2.176595032215118408e-01,-8.375600576400756836e-01,4.177815020084381104e-01
-3.336496055126190186e-01,-8.812897838652133942e-03,1.683105342090129852e-02,4.339739680290222168e-01,4.233810603618621826e-01,-2.813908755779266357e-01,-2.220012247562408447e-01,6.556562781333923340e-01,-8.111218214035034180e-01,7.071589231491088867e-01,-3.962003588676452637e-01,-3.617665469646453857e-01,-6.207346916198730469e-01,5.922490954399108887e-01
-3.214434683322906494e-01,-8.866921812295913696e-02,-4.499373584985733032e-02,2.144979536533355713e-01,5.716481804847717285e-01,-3.171381950378417969e-01,-4.187499582767486572e-01,6.018262505531311035e-01,-1.089302182197570801e+00,5.586434602737426758e-01,-3.089987933635711670e-01,-4.942747056484222412e-01,-7.146601080894470215e-01,6.044571995735168457e-01
-2.326799631118774414e-01,-1.131087616086006165e-01,-2.086441665887832642e-01,3.018720149993896484e-01,6.210412383079528809e-01,-2.457506954669952393e-01,-4.158473610877990723e-01,7.425231337547302246e-01,-1.017587184906005859e+00,5.811286568641662598e-01,-3.097114264965057373e-01,-4.575968980789184570e-01,-7.286774516105651855e-01,5.300804972648620605e-01
-2.363272756338119507e-01,1.207172051072120667e-01,-2.216591872274875641e-02,3.154876530170440674e-01,6.743703484535217285e-01,-1.960135400295257568e-01,-2.552505731582641602e-01,5.966150760650634766e-01,-9.062317013740539551e-01,2.460826039314270020e-01,-3.452292382717132568e-01,-3.684924840927124023e-01,-6.814759969711303711e-01,8.182836174964904785e-01
-4.761203825473785400e-01,9.091192483901977539e-02,-3.475390970706939697e-01,3.275358080863952637e-01,6.256372928619384766e-01,-1.456153988838195801e-01,-2.068445086479187012e-01,7.657807469367980957e-01,-7.883390784263610840e-01,4.671504795551300049e-01,-2.815179824829101562e-01,-3.802887499332427979e-01,-7.889869809150695801e-01,7.785380482673645020e-01
-2.600373029708862305e-01,1.139780953526496887e-01,-2.668261528015136719e-01,3.537609875202178955e-01,8.516014218330383301e-01,-2.167807370424270630e-01,-2.645968198776245117e-01,9.133456945419311523e-01,-8.570372462272644043e-01,5.334437489509582520e-01,-1.374343782663345337e-01,-4.961945712566375732e-01,-5.960381627082824707e-01,6.967577338218688965e-01
-3.387609124183654785e-01,3.718357682228088379e-01,-3.456814587116241455e-01,1.401136964559555054e-01,7.870180606842041016e-01,-1.266717463731765747e-01,-3.296300768852233887e-01,5.782865881919860840e-01,-5.437592864036560059e-01,4.607588946819305420e-01,-4.237677454948425293e-01,-4.719592332839965820e-01,-5.844131112098693848e-01,7.248973250389099121e-01
-4.227644801139831543e-01,2.086838334798812866e-01,-4.875342845916748047e-01,3.213992714881896973e-01,6.956653594970703125e-01,-1.544091403484344482e-01,-3.275194168090820312e-01,6.831220984458923340e-01,-7.538642287254333496e-01,5.393504500389099121e-01,-4.218339920043945312e-01,-3.822284042835235596e-01,-8.196049332618713379e-01,5.773248076438903809e-01
-2.887798547744750977e-01,2.415858805179595947e-01,-3.705098927021026611e-01,5.128453299403190613e-02,8.312890529632568359e-01,-3.493213951587677002e-01,-1.518604904413223267e-01,4.771703481674194336e-01,-5.863270163536071777e-01,4.043342769145965576e-01,-3.872749805450439453e-01,-3.274918794631958008e-01,-4.988809227943420410e-01,5.459639430046081543e-01
-2.507777512073516846e-01,3.677918612957000732e-01,-4.130797386169433594e-01,2.369693070650100708e-01,9.260102510452270508e-01,-1.907999068498611450e-01,-4.339984953403472900e-01,4.479384124279022217e-01,-5.617945790290832520e-01,2.635542154312133789e-01,-4.057337641716003418e-01,-3.943415880203247070e-01,-4.298913180828094482e-01,6.646627187728881836e-01
-3.434503376483917236e-01,2.618189752101898193e-01,-3.961744010448455811e-01,1.980584263801574707e-01,8.934366703033447266e-01,-2.917031347751617432e-01,-6.357500702142715454e-02,6.109204888343811035e-01,-5.694032311439514160e-01,2.205742150545120239e-01,-4.778954386711120605e-01,-2.518209815025329590e-01,-5.885674953460693359e-01,6.847453117370605469e-01
-5.456095337867736816e-01,3.770877420902252197e-01,-5.706531405448913574e-01,1.977074891328811646e-01,7.903215289115905762e-01,-4.062232375144958496e-01,-1.188486739993095398e-01,5.303386449813842773e-01,-3.379306793212890625e-01,2.179389297962188721e-01,-2.070550769567489624e-01,-4.373261034488677979e-01,-5.477487444877624512e-01,6.178107857704162598e-01
-4.632261395454406738e-01,4.206032454967498779e-01,-5.795680284500122070e-01,1.357427686452865601e-01,8.541328310966491699e-01,-4.200128912925720215e-01,-1.168447956442832947e-01,6.442887187004089355e-01,-1.061314269900321960e-01,2.157895863056182861e-01,-2.935701310634613037e-01,-3.088217973709106445e-01,-3.454888164997100830e-01,4.536754190921783447e-01
-3.002637922763824463e-01,4.445870220661163330e-01,-7.349851131439208984e-01,-1.913082040846347809e-02,5.653405785560607910e-01,-5.064626932144165039e-01,-9.487381577491760254e-02,5.161324143409729004e-01,3.647252544760704041e-02,2.744398117065429688e-01,-4.723716974258422852e-01,-4.020358920097351074e-01,-2.843135595321655273e-01,3.089905977249145508e-01
-5.313555598258972168e-01,2.550835013389587402e-01,-6.300631165504455566e-01,2.184638828039169312e-01,7.879396677017211914e-01,-5.013350248336791992e-01,-4.361896589398384094e-02,3.360220789909362793e-01,-1.487502306699752808e-01,-4.103938117623329163e-02,-2.861496806144714355e-01,-3.504441976547241211e-01,-2.706927061080932617e-01,3.210654854774475098e-01
-3.378421366214752197e-01,1.396436840295791626e-01,-5.652112960815429688e-01,-1.084829568862915039e-01,6.001509428024291992e-01,-5.167002677917480469e-01,-2.549871616065502167e-02,3.565283715724945068e-01,-2.937629260122776031e-02,1.031152158975601196e-01,-1.171377226710319519e-01,-2.626955509185791016e-01,-2.204490900039672852e-01,2.825553715229034424e-01
-3.961159586906433105e-01,1.312122493982315063e-01,-5.827133059501647949e-01,1.882868260145187378e-02,7.330881953239440918e-01,-4.240774214267730713e-01,5.375682562589645386e-02,2.846730053424835205e-01,1.322092413902282715e-01,8.125962316989898682e-02,-1.446030288934707642e-01,-2.476690113544464111e-01,-2.537091672420501709e-01,2.113265693187713623e-01
-4.430102705955505371e-01,3.325937688350677490e-01,-4.697687923908233643e-01,3.344827145338058472e-02,6.821467280387878418e-01,-5.867138504981994629e-01,2.456284761428833008e-01,2.616410553455352783e-01,1.079180166125297546e-01,7.904201745986938477e-02,4.833732172846794128e-02,-2.149022370576858521e-01,-1.749909669160842896e-01,1.112833172082901001e-01
-4.476011395454406738e-01,2.577572762966156006e-01,-6.666509509086608887e-01,-9.200540930032730103e-02,6.398161649703979492e-01,-4.509215652942657471e-01,4.070897400379180908e-01,2.523530125617980957e-01,2.600257694721221924e-01,-9.040762484073638916e-02,-3.860384970903396606e-02,-1.862805634737014771e-01,-7.224393635988235474e-02,1.639810502529144287e-01
-3.363148868083953857e-01,-4.602062702178955078e-02,-6.476801633834838867e-01,1.839767545461654663e-01,5.714272856712341309e-01,-7.093412876129150391e-01,4.272262454032897949e-01,3.714732527732849121e-01,2.813151776790618896e-01,5.399290099740028381e-02,2.717146463692188263e-02,-3.286637365818023682e-02,-3.313091024756431580e-02,6.404484063386917114e-02
-3.061334788799285889e-01,1.492100805044174194e-01,-7.084681391716003418e-01,4.482646286487579346e-02,5.425990223884582520e-01,-8.749953508377075195e-01,5.252051353454589844e-01,1.829402893781661987e-01,2.415398210287094116e-01,1.016769334673881531e-01,1.881409585475921631e-01,-1.193260401487350464e-01,9.852493554353713989e-02,1.918973028659820557e-01
-1.470059007406234741e-01,9.616784006357192993e-02,-4.221792817115783691e-01,2.407613098621368408e-01,4.361589848995208740e-01,-6.328215599060058594e-01,5.348271131515502930e-01,2.422808855772018433e-01,2.220248430967330933e-01,7.533770054578781128e-03,-1.215820945799350739e-02,-6.328178942203521729e-02,4.001684486865997314e-02,1.961694210767745972e-01
-4.436683058738708496e-01,-1.232171431183815002e-01,-7.554174661636352539e-01,1.691735908389091492e-02,1.505814343690872192e-01,-6.324231028556823730e-01,5.118748545646667480e-01,2.204585373401641846e-01,2.080363333225250244e-01,-1.051943674683570862e-01,1.414407938718795776e-01,2.514042332768440247e-02,-3.696158993989229202e-03,-1.464441716670989990e-01
-1.655056923627853394e-01,9.408450871706008911e-02,-3.852032721042633057e-01,-1.599249616265296936e-02,2.520874738693237305e-01,-7.092700600624084473e-01,6.578925848007202148e-01,-6.480342149734497070e-02,3.464424908161163330e-01,-1.430352032184600830e-02,2.176950573921203613e-01,-7.943607866764068604e-03,2.353173643350601196e-01,-1.165677160024642944e-01
-3.245820105075836182e-01,-2.267545759677886963e-01,-2.953597307205200195e-01,-5.185718461871147156e-02,1.898018419742584229e-01,-6.570037603378295898e-01,5.845178961753845215e-01,2.015878856182098389e-01,4.418868124485015869e-01,-8.499296754598617554e-02,1.219844073057174683e-01,-1.914173131808638573e-03,1.436946243047714233e-01,-1.716236174106597900e-01
-1.925748586654663086e-01,-1.137145608663558960e-01,-3.579662442207336426e-01,1.221550628542900085e-02,2.788197807967662811e-02,-6.909620761871337891e-01,7.355336546897888184e-01,1.083692312240600586e-01,5.494573116302490234e-01,9.851281344890594482e-02,2.100064307451248169e-01,2.905259095132350922e-02,1.218831865116953850e-03,-1.634237170219421387e-01
-2.679813504219055176e-01,-2.937454879283905029e-01,-2.808222472667694092e-01,1.198635771870613098e-01,3.746324032545089722e-02,-5.984518527984619141e-01,6.433799862861633301e-01,1.625420302152633667e-01,4.052760004997253418e-01,-1.981361806392669678e-01,1.174052879214286804e-01,1.550811231136322021e-01,7.049383712001144886e-04,-1.869840621948242188e-01
-3.527941107749938965e-01,-2.167300432920455933e-01,-1.282861530780792236e-01,3.103983029723167419e-02,6.366683542728424072e-02,-6.293809413909912109e-01,4.546980857849121094e-01,-2.507383935153484344e-03,3.459556996822357178e-01,-2.144204080104827881e-01,4.331860840320587158e-01,2.228794097900390625e-01,-1.750845611095428467e-01,-2.263456732034683228e-01
-4.352960288524627686e-01,-3.400169909000396729e-01,-2.559301853179931641e-01,2.162000983953475952e-01,-7.163169980049133301e-02,-5.646532177925109863e-01,6.660093665122985840e-01,1.244223415851593018e-01,5.169017314910888672e-01,-4.480552300810813904e-02,2.757304906845092773e-01,2.466727197170257568e-01,2.056766599416732788e-01,-1.356519609689712524e-01
-2.235108166933059692e-01,-3.731059730052947998e-01,-1.269899010658264160e-01,3.298154771327972412e-01,7.289357483386993408e-02,-4.314255714416503906e-01,6.211084723472595215e-01,3.092591762542724609e-01,5.192470550537109375e-01,-3.181895911693572998e-01,3.789497911930084229e-01,2.045695185661315918e-01,2.100244723260402679e-02,-4.685467481613159180e-01
-1.636491715908050537e-01,-4.887996613979339600e-01,8.985567837953567505e-02,-9.129981696605682373e-02,-2.133929878473281860e-01,-3.126125335693359375e-01,6.480445861816406250e-01,2.460578829050064087e-01,5.183393359184265137e-01,-2.696790099143981934e-01,5.660560727119445801e-01,1.983484923839569092e-01,-1.753784343600273132e-02,-4.663695991039276123e-01
-4.302136003971099854e-01,-4.260580241680145264e-01,1.122192144393920898e-01,-1.529394835233688354e-01,-2.087190747261047363e-01,-2.920522093772888184e-01,6.931214928627014160e-01,1.385589390993118286e-01,7.723525166511535645e-01,-4.180084764957427979e-01,3.316251039505004883e-01,1.828599125146865845e-01,1.395345777273178101e-01,-2.314797788858413696e-01
-3.333137333393096924e-01,-4.960715174674987793e-01,7.050163112580776215e-03,9.089343249797821045e-02,-8.492791652679443359e-02,-3.922614455223083496e-01,7.359899282455444336e-01,2.754702866077423096e-01,6.064690947532653809e-01,-5.220350027084350586e-01,5.042839646339416504e-01,1.670105755329132080e-02,3.930478170514106750e-02,-4.354625046253204346e-01
-3.169507682323455811e-01,-4.105958938598632812e-01,1.993767023086547852e-01,-9.715468436479568481e-02,-7.056221365928649902e-02,-3.002530932426452637e-01,6.337633132934570312e-01,1.097831875085830688e-01,4.916523694992065430e-01,-5.164149403572082520e-01,2.228967845439910889e-01,2.488408982753753662e-01,-1.352712064981460571e-01,-3.836914300918579102e-01
-3.511410355567932129e-01,-5.365756154060363770e-01,1.577136069536209106e-01,-3.410274982452392578e-01,-2.233791947364807129e-01,-2.092253118753433228e-01,7.403644919395446777e-01,3.713578581809997559e-01,5.505382418632507324e-01,-3.648657202720642090e-01,5.205618143081665039e-01,-4.888857528567314148e-02,4.292133077979087830e-02,-4.528754353523254395e-01
-3.148836493492126465e-01,-3.795235753059387207e-01,1.592940688133239746e-01,-1.942103058099746704e-01,-2.286500185728073120e-01,-9.800960123538970947e-02,7.361485362052917480e-01,1.177782192826271057e-01,3.650797903537750244e-01,-3.826074004173278809e-01,3.619595170021057129e-01,-7.111747562885284424e-02,9.446078538894653320e-02,-5.713554024696350098e-01
-2.470730394124984741e-01,-5.747234225273132324e-01,1.321954429149627686e-01,-5.237082242965698242e-01,-2.162548005580902100e-01,-5.721190571784973145e-02,8.621373772621154785e-01,3.185783326625823975e-01,3.657654523849487305e-01,-5.041839480400085449e-01,3.359959125518798828e-01,-1.355093568563461304e-01,-1.640732139348983765e-01,-4.877050817012786865e-01
-2.557887434959411621e-01,-5.354143977165222168e-01,4.681843891739845276e-02,-2.706536650657653809e-01,1.113336011767387390e-01,-2.920756116509437561e-02,8.435053229331970215e-01,3.284246027469635010e-01,3.854177892208099365e-01,-3.932246267795562744e-01,3.844431936740875244e-01,-5.232040956616401672e-02,1.999934613704681396e-01,-4.743773341178894043e-01
-2.814863994717597961e-02,-5.442599058151245117e-01,-1.777304336428642273e-02,-2.209482789039611816e-01,-2.030956298112869263e-01,-1.240514516830444336e-01,5.745986700057983398e-01,3.837122321128845215e-01,2.175208777189254761e-01,-4.133146703243255615e-01,4.033663570880889893e-01,-1.005899719893932343e-02,3.225024789571762085e-02,-3.499415814876556396e-01
3.981913626194000244e-02,-6.913374662399291992e-01,3.285398483276367188e-01,-5.669812560081481934e-01,-2.791156768798828125e-01,1.259711831808090210e-01,8.211613297462463379e-01,5.943831205368041992e-01,3.517124652862548828e-01,-5.148980617523193359e-01,3.357577323913574219e-01,-3.440637290477752686e-01,2.136968523263931274e-01,-4.252668321132659912e-01
2.788773179054260254e-02,-6.388565897941589355e-01,1.146745458245277405e-01,-3.563913702964782715e-01,-1.610030680894851685e-01,9.183243662118911743e-02,9.432249069213867188e-01,5.253722667694091797e-01,2.680852413177490234e-01,-1.835134178400039673e-01,2.974291145801544189e-01,-5.235484242439270020e-01,2.661968171596527100e-01,-2.543841004371643066e-01
9.541458636522293091e-02,-3.748043179512023926e-01,6.621486693620681763e-02,-2.968278825283050537e-01,-3.541999459266662598e-01,2.263479679822921753e-01,8.938247561454772949e-01,7.912886142730712891e-01,3.446108698844909668e-01,-4.115793406963348389e-01,1.394772827625274658e-01,-4.103906154632568359e-01,2.142593562602996826e-01,-3.053962290287017822e-01
1.225287094712257385e-01,-4.110876917839050293e-01,-7.798739243298768997e-03,-3.573491275310516357e-01,-8.654469996690750122e-02,3.431960642337799072e-01,9.800335764884948730e-01,8.167189359664916992e-01,2.700738906860351562e-01,-3.676936030387878418e-01,1.545763909816741943e-01,-3.069082498550415039e-01,2.195059508085250854e-01,-2.279859185218811035e-01
1.667964085936546326e-02,-5.543743968009948730e-01,1.504935324192047119e-01,-2.903358042240142822e-01,-3.643555045127868652e-01,4.284741580486297607e-01,1.221662282943725586e+00,6.758494377136230469e-01,2.590660452842712402e-01,-2.530705928802490234e-01,3.052158094942569733e-02,-2.811869680881500244e-01,3.481880128383636475e-01,-5.298481136560440063e-02
2.063889056444168091e-01,-5.324425101280212402e-01,1.864044666290283203e-01,-1.954133063554763794e-01,-3.866308927536010742e-01,4.320519268512725830e-01,1.183078885078430176e+00,8.391852378845214844e-01,9.728831052780151367e-02,-2.164714038372039795e-01,-1.343679521232843399e-02,-3.904077410697937012e-01,2.605974972248077393e-01,-1.034540310502052307e-02
4.033791720867156982e-01,-5.304209589958190918e-01,1.619955897331237793e-01,-2.143592983484268188e-01,-5.382928848266601562e-01,3.371017277240753174e-01,1.101605296134948730e+00,6.448812484741210938e-01,7.500689476728439331e-02,-1.416305899620056152e-01,-1.371988211758434772e-03,-4.481946527957916260e-01,1.985684037208557129e-01,-1.818518191576004028e-01
3.745559751987457275e-01,-4.465091228485107422e-01,3.339873254299163818e-01,-4.253380466252565384e-03,-7.387325167655944824e-01,3.953097462654113770e-01,1.114540338516235352e+00,7.240312695503234863e-01,3.988017737865447998e-01,4.404707998037338257e-02,-9.522902220487594604e-02,-4.410672783851623535e-01,2.233728468418121338e-01,8.876924216747283936e-02
1.682405322790145874e-01,-4.886547625064849854e-01,3.456186950206756592e-01,-9.305410087108612061e-02,-6.317303180694580078e-01,3.170171380043029785e-01,1.030921816825866699e+00,1.005688667297363281e+00,2.854620218276977539e-01,-5.125951021909713745e-02,-3.543367385864257812e-01,-4.896302521228790283e-01,2.541296780109405518e-01,1.528808027505874634e-01
5.639287829399108887e-01,-2.886034250259399414e-01,3.984386324882507324e-01,-3.331711515784263611e-02,-7.724861502647399902e-01,3.869422972202301025e-01,8.778876662254333496e-01,8.060431480407714844e-01,1.523123681545257568e-01,2.221417874097824097e-01,-2.113763242959976196e-01,-3.280237913131713867e-01,7.053552567958831787e-02,2.093232423067092896e-01
3.346178531646728516e-01,-2.951985299587249756e-01,4.792876243591308594e-01,6.475834548473358154e-02,-6.277110576629638672e-01,5.394279956817626953e-01,6.615293622016906738e-01,8.112201094627380371e-01,3.157632052898406982e-01,3.940209373831748962e-02,-4.170192182064056396e-01,-5.317547321319580078e-01,1.925086826086044312e-01,2.890224456787109375e-01
3.048365116119384766e-01,-2.136222720146179199e-01,4.647223055362701416e-01,2.005889415740966797e-01,-6.855949163436889648e-01,4.177536666393280029e-01,9.714225530624389648e-01,7.279739975929260254e-01,2.079094052314758301e-01,1.124016940593719482e-01,-5.626386404037475586e-01,-4.415204823017120361e-01,1.386347562074661255e-01,2.370032519102096558e-01
6.093522906303405762e-01,-4.580067396163940430e-01,2.431572824716567993e-01,1.355042457580566406e-01,-5.663090944290161133e-01,4.788778424263000488e-01,8.644134998321533203e-01,8.734658956527709961e-01,3.672649562358856201e-01,6.545151025056838989e-02,-5.290849804878234863e-01,-4.972274601459503174e-01,2.141869515180587769e-01,3.419105708599090576e-01
2.827512025833129883e-01,-5.547136664390563965e-01,3.882553875446319580e-01,3.540809452533721924e-01,-5.800750255584716797e-01,5.066088438034057617e-01,9.424089193344116211e-01,6.349158287048339844e-01,3.179515898227691650e-01,4.483408629894256592e-01,-5.556640625000000000e-01,-5.719616413116455078e-01,2.559779882431030273e-01,4.527512788772583008e-01
5.616764426231384277e-01,-2.641090750694274902e-01,3.846939802169799805e-01,1.606565862894058228e-01,-7.095670700073242188e-01,4.729315340518951416e-01,5.628528594970703125e-01,7.450681924819946289e-01,4.209458827972412109e-01,3.550368547439575195e-01,-5.847879052162170410e-01,-4.224937856197357178e-01,2.525447309017181396e-01,3.978998661041259766e-01
3.987264633178710938e-01,-2.143551111221313477e-01,6.207487583160400391e-01,3.133408725261688232e-01,-6.459863781929016113e-01,4.007753133773803711e-01,6.385307312011718750e-01,6.438776850700378418e-01,3.389288783073425293e-01,4.652065932750701904e-01,-5.339470505714416504e-01,-5.663151144981384277e-01,2.192598134279251099e-01,3.313087522983551025e-01
3.342128694057464600e-01,-2.007427662611007690e-01,5.317999720573425293e-01,4.165406525135040283e-01,-7.973380684852600098e-01,5.594760179519653320e-01,8.262940049171447754e-01,6.359381079673767090e-01,2.290707528591156006e-01,5.172969698905944824e-01,-7.698271870613098145e-01,-5.238328576087951660e-01,1.094142422080039978e-01,3.572849631309509277e-01
3.901614248752593994e-01,-3.831042647361755371e-01,4.645762145519256592e-01,2.682937383651733398e-01,-7.630168795585632324e-01,3.033100068569183350e-01,5.246251225471496582e-01,3.487192094326019287e-01,8.199466764926910400e-02,4.408183991909027100e-01,-4.556306600570678711e-01,-5.458012819290161133e-01,2.511117458343505859e-01,3.951719105243682861e-01
5.573156476020812988e-01,-2.592124640941619873e-01,3.654707670211791992e-01,4.459553658962249756e-01,-7.596325874328613281e-01,2.336154729127883911e-01,5.096115469932556152e-01,6.941087841987609863e-01,1.715197116136550903e-01,4.328262209892272949e-01,-6.088944673538208008e-01,-6.895506978034973145e-01,-2.343413420021533966e-02,5.223520398139953613e-01
4.438666999340057373e-01,-4.657965600490570068e-01,3.267917931079864502e-01,7.126482129096984863e-01,-6.861967444419860840e-01,1.695438772439956665e-01,6.693066954612731934e-01,3.589975833892822266e-01,6.024000793695449829e-02,7.196059226989746094e-01,-5.236723423004150391e-01,-7.019217610359191895e-01,7.624149322509765625e-02,4.358867704868316650e-01
4.277520179748535156e-01,-4.477185606956481934e-01,5.044250488281250000e-01,5.846069455146789551e-01,-5.404247641563415527e-01,3.322225809097290039e-01,4.618027508258819580e-01,5.501346588134765625e-01,6.148410215973854065e-02,5.309321284294128418e-01,-4.891318976879119873e-01,-6.726768612861633301e-01,-1.189374923706054688e-02,5.694085955619812012e-01
4.634706079959869385e-01,-5.344623923301696777e-01,3.360706865787506104e-01,6.083982586860656738e-01,-8.562096357345581055e-01,2.811402976512908936e-01,4.647547304630279541e-01,4.433990120887756348e-01,-6.062206625938415527e-02,4.004484117031097412e-01,-3.318639099597930908e-01,-7.547979950904846191e-01,7.029966264963150024e-02,3.688813149929046631e-01
1.853565871715545654e-01,-5.536521673202514648e-01,2.912105619907379150e-01,6.447058320045471191e-01,-8.408421277999877930e-01,1.568722277879714966e-01,4.408318400382995605e-01,5.895592570304870605e-01,-6.640106439590454102e-02,5.314326882362365723e-01,-5.534387230873107910e-01,-5.368915796279907227e-01,-1.016620174050331116e-01,3.645319342613220215e-01
3.258532881736755371e-01,-6.211929321289062500e-01,3.560712039470672607e-01,8.380247354507446289e-01,-7.161377668380737305e-01,2.662571072578430176e-01,4.579126536846160889e-01,6.774647235870361328e-01,-3.123627305030822754e-01,5.966781973838806152e-01,-4.398531317710876465e-01,-4.143403172492980957e-01,4.888327419757843018e-02,4.257710576057434082e-01
3.487425148487091064e-01,-3.714098334312438965e-01,4.652533531188964844e-01,7.926666736602783203e-01,-4.979950487613677979e-01,-9.652891010046005249e-02,3.063674867153167725e-01,5.651418566703796387e-01,-2.464507818222045898e-01,7.346557378768920898e-01,-4.509380161762237549e-01,-7.238494753837585449e-01,-7.883612811565399170e-02,5.670988559722900391e-01
2.735984325408935547e-01,-4.831132590770721436e-01,2.846073210239410400e-01,1.017748117446899414e+00,-7.020210027694702148e-01,1.266615688800811768e-01,3.139721453189849854e-01,5.871242284774780273e-01,-3.468901813030242920e-01,7.155290842056274414e-01,-5.691608786582946777e-01,-8.124563694000244141e-01,-1.291193068027496338e-01,4.391860067844390869e-01
1.270634829998016357e-01,-3.559975922107696533e-01,3.890128433704376221e-01,1.016049385070800781e+00,-5.815073847770690918e-01,2.398063391447067261e-01,7.932779937982559204e-02,6.797006130218505859e-01,8.984836749732494354e-03,9.334049820899963379e-01,-4.475486874580383301e-01,-6.886903047561645508e-01,-1.499037537723779678e-02,7.208054065704345703e-01
2.120111286640167236e-01,-3.759258389472961426e-01,1.060913950204849243e-01,1.173615574836730957e+00,-5.463615059852600098e-01,1.302483677864074707e-01,-1.061890944838523865e-01,7.096589803695678711e-01,-2.373120188713073730e-01,7.823992967605590820e-01,-3.715877830982208252e-01,-6.054158806800842285e-01,-1.942145973443984985e-01,6.387819647789001465e-01
3.484879136085510254e-01,-3.866294026374816895e-01,3.107053637504577637e-01,1.133865475654602051e+00,-5.427404642105102539e-01,1.707461327314376831e-01,-6.931996345520019531e-02,4.104718863964080811e-01,-3.164237439632415771e-01,6.298752427101135254e-01,-4.997923374176025391e-01,-7.075698375701904297e-01,-2.545310556888580322e-01,5.897480845451354980e-01
3.926772996783256531e-02,-1.081746667623519897e-01,3.935258388519287109e-01,1.010387301445007324e+00,-5.193614363670349121e-01,2.140308022499084473e-01,-7.663146406412124634e-02,3.942557573318481445e-01,-3.568082451820373535e-01,6.064192652702331543e-01,-4.370698034763336182e-01,-7.158936262130737305e-01,-2.618421614170074463e-01,5.265058875083923340e-01
1.538269370794296265e-01,-3.511561155319213867e-01,2.479248940944671631e-01,1.045147895812988281e+00,-2.550722658634185791e-01,7.702902704477310181e-02,-2.180917561054229736e-01,3.989668190479278564e-01,-2.937254905700683594e-01,9.465008378028869629e-01,-4.217369854450225830e-01,-5.707361698150634766e-01,-2.785374224185943604e-01,7.096368074417114258e-01
2.410808205604553223e-01,-1.226782649755477905e-01,3.002690672874450684e-01,1.016370892524719238e+00,-1.636316478252410889e-01,7.873685657978057861e-02,-2.936106324195861816e-01,4.598519802093505859e-01,-2.558474242687225342e-01,6.776600480079650879e-01,-3.752858042716979980e-01,-8.264110088348388672e-01,8.718625456094741821e-02,6.103658080101013184e-01
2.995742671191692352e-02,-2.613286077976226807e-01,9.509002789855003357e-03,8.697360157966613770e-01,-3.598561584949493408e-01,-6.102601066231727600e-02,-2.569307088851928711e-01,5.563355684280395508e-01,-4.378070831298828125e-01,7.910053730010986328e-01,-4.510074257850646973e-01,-6.912879347801208496e-01,-1.871667802333831787e-01,6.757229566574096680e-01
-1.495165824890136719e-01,-2.594606764614582062e-02,-1.334853917360305786e-01,9.611232876777648926e-01,-8.041748404502868652e-02,1.008099541068077087e-01,-4.759479761123657227e-01,3.330712020397186279e-01,-3.659353554248809814e-01,5.043525099754333496e-01,-4.546230733394622803e-01,-6.397770047187805176e-01,-9.176579117774963379e-02,4.936097264289855957e-01
-3.315794467926025391e-02,-9.713709354400634766e-03,3.444661200046539307e-02,9.302335381507873535e-01,-7.334361970424652100e-02,1.150183472782373428e-02,-3.815217912197113037e-01,6.181692481040954590e-01,-1.735071241855621338e-01,5.552339553833007812e-01,-4.906899929046630859e-01,-9.597370624542236328e-01,-3.537480160593986511e-02,5.244785547256469727e-01
-8.804780989885330200e-02,1.213128119707107544e-01,-1.834901720285415649e-01,9.111314415931701660e-01,-3.045408241450786591e-02,-1.269153505563735962e-01,-5.000804662704467773e-01,4.182742834091186523e-01,-2.787500321865081787e-01,4.559756219387054443e-01,-5.884757041931152344e-01,-7.198436260223388672e-01,-2.122062258422374725e-02,5.096276402473449707e-01
-7.914849370718002319e-02,-2.942150691524147987e-03,-2.065057605504989624e-01,1.005090832710266113e+00,-2.052528224885463715e-02,1.965415328741073608e-01,-3.626573979854583740e-01,3.418048620223999023e-01,-3.249418139457702637e-01,4.529244601726531982e-01,-2.934436500072479248e-01,-8.459107875823974609e-01,1.110344380140304565e-02,6.358042359352111816e-01
1.583337434567511082e-03,3.406330570578575134e-02,-3.759337961673736572e-01,8.533448576927185059e-01,2.348995804786682129e-01,-1.005015820264816284e-01,-4.787615239620208740e-01,2.498291581869125366e-01,-1.678372174501419067e-01,3.991587162017822266e-01,-3.366394042968750000e-01,-7.039295434951782227e-01,-6.677778065204620361e-02,6.198017001152038574e-01
-1.268533170223236084e-01,5.078585818409919739e-02,-5.639279484748840332e-01,7.783801555633544922e-01,1.592758595943450928e-01,-1.662137657403945923e-01,-3.851417899131774902e-01,1.988263130187988281e-01,-2.472359836101531982e-01,4.848911166191101074e-01,-2.613233029842376709e-01,-7.143284678459167480e-01,1.537763029336929321e-01,4.988465011119842529e-01
-1.281830668449401855e-01,8.682969957590103149e-02,-4.177852571010589600e-01,6.207668185234069824e-01,1.463256627321243286e-01,-3.956199884414672852e-01,-4.977664053440093994e-01,3.255403935909271240e-01,-2.178364694118499756e-01,3.891132473945617676e-01,-6.413732469081878662e-02,-8.142023086547851562e-01,-3.297782689332962036e-02,6.117861270904541016e-01
-4.239148925989866257e-03,-1.920520812273025513e-01,-4.309427738189697266e-01,6.182960271835327148e-01,1.307537965476512909e-02,-4.436381161212921143e-02,-3.040678799152374268e-01,2.232648134231567383e-01,-1.393487006425857544e-01,6.262069940567016602e-01,-3.994435667991638184e-01,-7.203480601310729980e-01,4.150047302246093750e-01,5.222511291503906250e-01
-9.732565283775329590e-02,-2.438352443277835846e-03,-6.528000235557556152e-01,7.010977864265441895e-01,7.448028773069381714e-02,-1.839183717966079712e-01,-3.603718876838684082e-01,7.182133197784423828e-02,-1.191019043326377869e-01,3.788356184959411621e-01,-2.726604342460632324e-01,-6.387273073196411133e-01,4.150892794132232666e-01,5.287312269210815430e-01
3.124039061367511749e-02,-1.846752613782882690e-01,-5.877323746681213379e-01,5.983928442001342773e-01,2.628489732742309570e-01,-2.785478234291076660e-01,-2.055518329143524170e-01,1.411377545446157455e-02,-2.070082277059555054e-01,3.594500422477722168e-01,-3.744314312934875488e-01,-6.091775894165039062e-01,4.988499581813812256e-01,6.145879626274108887e-01
3.093081414699554443e-01,4.890689253807067871e-02,-3.711149096488952637e-01,8.096231222152709961e-01,3.262745216488838196e-02,-3.558736443519592285e-01,6.682323664426803589e-02,1.284651905298233032e-01,-1.806246340274810791e-01,3.364527821540832520e-01,-3.775745332241058350e-01,-4.148333072662353516e-01,5.190027952194213867e-01,5.727195143699645996e-01
1.568963825702667236e-01,2.135805934667587280e-01,-4.591840505599975586e-01,7.278118729591369629e-01,1.614910960197448730e-01,-4.636569023132324219e-01,-3.101563155651092529e-01,-7.033784873783588409e-03,5.015670508146286011e-02,5.246679186820983887e-01,-2.260907739400863647e-01,-2.610105872154235840e-01,4.553311467170715332e-01,5.959591269493103027e-01
1.802574992179870605e-01,1.380548626184463501e-01,-4.871288836002349854e-01,7.761301398277282715e-01,-1.012372225522994995e-01,-4.754329323768615723e-01,-1.314102262258529663e-01,-2.076619416475296021e-01,5.487645044922828674e-02,4.146809279918670654e-01,-2.674754261970520020e-01,-4.129677712917327881e-01,6.156923770904541016e-01,6.462060213088989258e-01
1.645166575908660889e-01,-4.535224661231040955e-02,-5.216215848922729492e-01,7.398186326026916504e-01,1.491994261741638184e-01,-3.585129976272583008e-01,-1.853668987751007080e-01,-1.829023212194442749e-01,5.790436640381813049e-02,3.909975290298461914e-01,-1.389423161745071411e-01,-4.211142659187316895e-01,7.622474431991577148e-01,4.729000627994537354e-01
2.052350789308547974e-01,-4.483439028263092041e-02,-5.945622324943542480e-01,7.369268536567687988e-01,4.236453399062156677e-02,-4.009343981742858887e-01,-2.451257593929767609e-02,-2.288346923887729645e-02,2.072007358074188232e-01,3.945646882057189941e-01,-2.431466281414031982e-01,-1.033807247877120972e-01,6.669389605522155762e-01,5.361354947090148926e-01
2.558612227439880371e-01,-1.110789850354194641e-01,-5.051175355911254883e-01,5.755133032798767090e-01,-2.080075144767761230e-01,-5.523895621299743652e-01,-6.368579715490341187e-02,-2.086168229579925537e-01,1.956403404474258423e-01,6.935316920280456543e-01,-3.347584903240203857e-01,5.237102881073951721e-02,4.834735989570617676e-01,4.412722587585449219e-01
3.637176156044006348e-01,-2.362092286348342896e-01,-5.277203917503356934e-01,5.462155342102050781e-01,-7.978382706642150879e-02,-6.559047698974609375e-01,9.586871415376663208e-02,-4.612340927124023438e-01,3.830740451812744141e-01,4.493206441402435303e-01,-3.741694986820220947e-01,6.136232987046241760e-03,6.630262732505798340e-01,5.461934804916381836e-01
1.942935436964035034e-01,1.789236068725585938e-02,-4.577291905879974365e-01,4.488151669502258301e-01,-2.064755558967590332e-01,-6.416342854499816895e-01,-6.503058969974517822e-02,-3.647776544094085693e-01,4.980368614196777344e-01,5.297593474388122559e-01,-2.799465656280517578e-01,3.704032003879547119e-01,7.428098320960998535e-01,4.540193676948547363e-01
4.644192457199096680e-01,-1.987026631832122803e-01,-3.618238270282745361e-01,6.652187705039978027e-01,-2.121182382106781006e-01,-6.180320978164672852e-01,9.759855270385742188e-02,-2.826245129108428955e-01,5.173901915550231934e-01,3.581804335117340088e-01,-1.531822085380554199e-01,4.380132630467414856e-02,5.574052929878234863e-01,4.834751486778259277e-01
5.246787071228027344e-01,-2.156460583209991455e-01,-1.856046617031097412e-01,5.862242579460144043e-01,-1.280406415462493896e-01,-7.227477431297302246e-01,-1.327859610319137573e-01,-6.138811707496643066e-01,2.537886202335357666e-01,4.199325740337371826e-01,-7.147077471017837524e-02,3.539977222681045532e-02,5.800691843032836914e-01,1.804318428039550781e-01
2.504892647266387939e-01,-1.962005943059921265e-01,-3.523623943328857422e-01,5.434845685958862305e-01,-7.179921120405197144e-02,-7.584470510482788086e-01,-5.054196342825889587e-02,-7.048888802528381348e-01,4.900836050510406494e-01,1.702124625444412231e-01,-3.858699500560760498e-01,2.378336489200592041e-01,6.894451379776000977e-01,2.279150336980819702e-01
3.089358210563659668e-01,-3.787874877452850342e-01,-4.563421308994293213e-01,5.633015036582946777e-01,-2.509894669055938721e-01,-7.530490159988403320e-01,8.597233146429061890e-02,-4.775476157665252686e-01,5.907351374626159668e-01,1.188256144523620605e-01,-2.058544903993606567e-01,3.734786212444305420e-01,6.392855644226074219e-01,4.079961776733398438e-01
2.714315354824066162e-01,-4.794396460056304932e-01,-1.845706552267074585e-01,4.405227303504943848e-01,-2.192526459693908691e-01,-6.988012790679931641e-01,-7.943139970302581787e-02,-3.832804262638092041e-01,5.104134678840637207e-01,1.929993629455566406e-01,2.279768511652946472e-02,3.305403292179107666e-01,5.713805556297302246e-01,-6.475876271724700928e-02
3.493950366973876953e-01,-4.262397885322570801e-01,-4.155203700065612793e-01,4.233816564083099365e-01,-3.297603428363800049e-01,-6.210336685180664062e-01,7.106222212314605713e-02,-4.297481775283813477e-01,4.396615922451019287e-01,-2.558021433651447296e-02,-3.259004279971122742e-02,4.287499487400054932e-01,7.850896120071411133e-01,-1.095689088106155396e-01
5.471469461917877197e-02,-4.423682689666748047e-01,-2.247337698936462402e-01,3.049254715442657471e-01,-2.549866139888763428e-01,-7.262927889823913574e-01,1.114939227700233459e-01,-7.003090977668762207e-01,5.211499333381652832e-01,1.748508960008621216e-01,-1.076983511447906494e-01,1.602331846952438354e-01,5.891323685646057129e-01,-2.407201528549194336e-01
4.332202672958374023e-01,-6.085365414619445801e-01,-2.435030937194824219e-01,1.976065486669540405e-01,-2.320788800716400146e-01,-9.302858114242553711e-01,1.034195944666862488e-01,-6.849615573883056641e-01,5.541851520538330078e-01,1.615450680255889893e-01,-1.018389314413070679e-01,4.947625100612640381e-01,7.398677468299865723e-01,-1.646924465894699097e-01
2.065042257308959961e-01,-4.485626220703125000e-01,-2.422332763671875000e-01,-1.365595217794179916e-02,-3.612464368343353271e-01,-8.654280304908752441e-01,3.767230315133929253e-03,-6.598790287971496582e-01,2.584947943687438965e-01,-9.396113455295562744e-02,1.210064142942428589e-01,5.280196070671081543e-01,8.724426627159118652e-01,-1.329226791858673096e-01
3.436948955059051514e-01,-6.531957387924194336e-01,-3.453641831874847412e-01,1.265526115894317627e-01,-2.513767182826995850e-01,-6.238297820091247559e-01,5.070713814347982407e-03,-6.989742517471313477e-01,3.019920885562896729e-01,-2.097902446985244751e-01,2.145376428961753845e-02,2.611165046691894531e-01,6.487409472465515137e-01,-2.918298244476318359e-01
4.451628625392913818e-01,-7.863641977310180664e-01,-2.440756857395172119e-01,1.396951079368591309e-01,-3.516395986080169678e-01,-6.279506683349609375e-01,8.774635195732116699e-02,-4.766362011432647705e-01,2.866378128528594971e-01,-1.275560408830642700e-01,1.239395700395107269e-02,3.561831712722778320e-01,6.168565750122070312e-01,-2.667839825153350830e-01
5.473165512084960938e-01,-9.541873335838317871e-01,-1.083240956068038940e-01,1.772638708353042603e-01,-3.499675393104553223e-01,-5.270242094993591309e-01,4.144389927387237549e-02,-5.355706214904785156e-01,3.355867564678192139e-01,-9.620832651853561401e-02,2.622635662555694580e-01,5.321185588836669922e-01,6.676529645919799805e-01,-2.469558864831924438e-01
6.077576875686645508e-01,-8.014362454414367676e-01,-2.525712847709655762e-01,9.843083471059799194e-02,-2.155722230672836304e-01,-5.085969567298889160e-01,1.868852674961090088e-01,-4.587362110614776611e-01,2.011460363864898682e-01,-3.764959983527660370e-04,5.049832910299301147e-02,3.672151565551757812e-01,7.111846804618835449e-01,-2.556402683258056641e-01
4.183894693851470947e-01,-7.904700636863708496e-01,-7.423925399780273438e-02,-2.113712430000305176e-01,-2.739965617656707764e-01,-2.936260402202606201e-01,1.077976971864700317e-01,-3.111005425453186035e-01,1.692173182964324951e-01,-2.238776162266731262e-02,2.516245841979980469e-01,4.765730500221252441e-01,5.330237150192260742e-01,-1.791905760765075684e-01
6.079035997390747070e-01,-7.456297278404235840e-01,-2.796469442546367645e-02,-6.282256543636322021e-02,-2.591090500354766846e-01,-4.914127886295318604e-01,2.102011255919933319e-02,-4.616093039512634277e-01,3.773656487464904785e-01,-2.048843204975128174e-01,7.807938009500503540e-02,3.635920882225036621e-01,6.612343788146972656e-01,-3.862228095531463623e-01
4.198994636535644531e-01,-6.667434573173522949e-01,-2.042325735092163086e-01,-2.203663289546966553e-01,-4.191142022609710693e-01,-4.930247664451599121e-01,-1.729217469692230225e-01,-4.170444309711456299e-01,2.202470600605010986e-01,-1.449770629405975342e-01,4.380717128515243530e-02,5.679121017456054688e-01,4.159489274024963379e-01,-1.818044334650039673e-01
6.569950580596923828e-01,-5.686857104301452637e-01,-4.825123399496078491e-02,-1.687707751989364624e-01,-2.544462084770202637e-01,-2.975980341434478760e-01,1.381997577846050262e-02,-9.244710206985473633e-02,3.178415447473526001e-02,-2.978533208370208740e-01,3.782781586050987244e-02,3.357196152210235596e-01,5.112735629081726074e-01,-2.700295150279998779e-01
4.800198674201965332e-01,-5.595029592514038086e-01,-1.994609981775283813e-01,-3.425966799259185791e-01,-2.950352132320404053e-01,-4.633046090602874756e-01,1.810753643512725830e-01,-2.277923524379730225e-01,1.462762616574764252e-02,-1.439276337623596191e-01,-2.680639736354351044e-02,4.266384541988372803e-01,5.169469118118286133e-01,-1.705556511878967285e-01
6.024857759475708008e-01,-5.112885236740112305e-01,-4.740865156054496765e-02,-3.424603939056396484e-01,-7.536241412162780762e-02,-2.056549787521362305e-01,4.261343926191329956e-02,1.130475103855133057e-02,2.069158852100372314e-01,-2.451334446668624878e-01,-6.490862462669610977e-03,3.463006317615509033e-01,3.053716123104095459e-01,-3.256276249885559082e-01
7.076805830001831055e-01,-4.548059999942779541e-01,-7.609220594167709351e-02,-4.451403319835662842e-01,-1.067363619804382324e-01,-2.136916369199752808e-01,-1.698714867234230042e-02,6.006515119224786758e-03,1.774221211671829224e-01,-2.098069339990615845e-01,1.952038705348968506e-02,2.528762221336364746e-01,3.808157742023468018e-01,-3.617014586925506592e-01
7.507421374320983887e-01,-5.899291634559631348e-01,-1.305768191814422607e-01,-2.447095215320587158e-01,-2.398948520421981812e-01,1.276466548442840576e-01,8.159619569778442383e-02,-1.360138356685638428e-01,2.402022331953048706e-01,-4.485788941383361816e-02,-2.067840397357940674e-01,1.708223819732666016e-01,6.361650824546813965e-01,-2.632572352886199951e-01
5.425516366958618164e-01,-4.067460298538208008e-01,-6.793837994337081909e-02,-3.716444969177246094e-01,-3.225164711475372314e-01,1.568442434072494507e-01,4.972920753061771393e-03,1.593044996261596680e-01,3.015000522136688232e-01,-2.522225379943847656e-01,-2.146030962467193604e-01,2.843640446662902832e-01,2.636637389659881592e-01,-1.016443297266960144e-01
9.186699986457824707e-01,-5.540021061897277832e-01,-3.035770058631896973e-01,-4.698425829410552979e-01,3.098012506961822510e-02,8.837924152612686157e-02,3.313989639282226562e-01,2.997108399868011475e-01,3.714333474636077881e-01,-2.820673882961273193e-01,-2.159995138645172119e-01,3.783625364303588867e-01,3.375220894813537598e-01,-3.684068024158477783e-01
7.336977720260620117e-01,-2.941302359104156494e-01,-1.423284560441970825e-01,-5.125129818916320801e-01,-1.103708893060684204e-01,2.331482619047164917e-01,2.499428838491439819e-01,1.754346862435340881e-02,1.444191783666610718e-01,-3.058406710624694824e-01,-1.975677162408828735e-01,1.444543898105621338e-01,3.353469967842102051e-01,-1.282769627869129181e-02
7.794244289398193359e-01,-3.957670032978057861e-01,-2.659130096435546875e-01,-4.413402378559112549e-01,-6.554451584815979004e-02,3.933675587177276611e-01,7.613257318735122681e-02,1.403732895851135254e-01,2.291137129068374634e-01,-6.963313370943069458e-02,-3.031127154827117920e-01,1.520006358623504639e-01,3.887752890586853027e-01,-1.222946271300315857e-01
8.526856899261474609e-01,-2.632646858692169189e-01,-9.581990540027618408e-02,-5.176308751106262207e-01,-2.088441848754882812e-01,1.763561815023422241e-01,2.399220317602157593e-01,1.572238802909851074e-01,2.658680379390716553e-01,-3.330796360969543457e-01,-3.587528169155120850e-01,-2.404681779444217682e-02,2.748249471187591553e-01,-3.386614024639129639e-01
8.761260509490966797e-01,-3.653661906719207764e-01,-2.944382131099700928e-01,-4.389584064483642578e-01,-3.235106766223907471e-01,1.797039508819580078e-01,1.413271874189376831e-01,3.176437020301818848e-01,2.947584986686706543e-01,-1.184991449117660522e-01,-3.657557666301727295e-01,2.783470153808593750e-01,4.710585474967956543e-01,-1.241065785288810730e-01
8.137075304985046387e-01,-2.487065941095352173e-01,-2.885359823703765869e-01,-4.466484189033508301e-01,-1.636358499526977539e-01,2.387471944093704224e-01,3.133705258369445801e-01,3.181703090667724609e-01,1.217753440141677856e-01,-3.023559153079986572e-01,-3.457657396793365479e-01,4.004966095089912415e-02,3.050850629806518555e-01,8.769086003303527832e-02
9.516956806182861328e-01,-2.013715803623199463e-01,-2.476127296686172485e-01,-5.664072036743164062e-01,-1.818695664405822754e-01,3.624393641948699951e-01,2.837285697460174561e-01,2.700804173946380615e-01,1.381656676530838013e-01,-8.712387830018997192e-02,-5.147786140441894531e-01,6.081704050302505493e-03,3.692352473735809326e-01,9.262227267026901245e-02
9.000056982040405273e-01,-3.019680082798004150e-01,-5.041220411658287048e-02,-4.855743050575256348e-01,-1.562258452177047729e-01,4.899585843086242676e-01,3.241622745990753174e-01,3.995054066181182861e-01,1.734916307032108307e-02,-1.133178826421499252e-02,-4.535425901412963867e-01,3.191730380058288574e-02,2.320016324520111084e-01,-4.728394001722335815e-02
1.074561595916748047e+00,-2.128583043813705444e-01,-1.340754628181457520e-01,-3.313744068145751953e-01,-2.840225100517272949e-01,2.801714837551116943e-01,4.429674148559570312e-01,3.525857925415039062e-01,7.297801971435546875e-02,8.152987807989120483e-02,-5.408254265785217285e-01,-1.881319582462310791e-01,4.761842191219329834e-01,-7.440573722124099731e-02
1.093457341194152832e+00,-3.702588081359863281e-01,-3.275608122348785400e-01,-4.392854273319244385e-01,-4.512123763561248779e-01,3.698282539844512939e-01,2.613574862480163574e-01,3.654661178588867188e-01,2.019101381301879883e-01,1.642630696296691895e-01,-5.941093564033508301e-01,-9.143559634685516357e-02,3.198540210723876953e-01,7.645228505134582520e-02
1.067115664482116699e+00,-2.607922255992889404e-01,-2.615101039409637451e-01,-2.720804810523986816e-01,-3.880641162395477295e-01,4.604159593582153320e-01,3.651551902294158936e-01,4.677802920341491699e-01,2.383854836225509644e-01,1.037212908267974854e-01,-6.105479598045349121e-01,8.053706027567386627e-03,1.555468291044235229e-01,7.271510362625122070e-02
1.060307145118713379e+00,-1.696295142173767090e-01,-2.396686673164367676e-01,-6.102876365184783936e-02,-2.062125653028488159e-01,2.167341709136962891e-01,3.581469058990478516e-01,3.985056579113006592e-01,-2.077819108963012695e-01,8.136253058910369873e-02,-4.320498406887054443e-01,-1.561590582132339478e-01,2.750686109066009521e-01,1.876712776720523834e-02
1.024838924407958984e+00,-1.545900851488113403e-01,-2.158602327108383179e-01,-2.730377912521362305e-01,-4.044194221496582031e-01,1.871411502361297607e-01,3.473373055458068848e-01,3.157509863376617432e-01,1.698625981807708740e-01,2.718922197818756104e-01,-5.049005746841430664e-01,-2.934352867305278778e-02,1.517572551965713501e-01,1.932959109544754028e-01
8.808583021163940430e-01,-1.170834898948669434e-01,1.694859936833381653e-02,-2.855371236801147461e-01,-2.665841281414031982e-01,2.543134093284606934e-01,2.713836431503295898e-01,3.707278370857238770e-01,2.318418473005294800e-01,2.046650201082229614e-01,-6.211472153663635254e-01,4.936112463474273682e-02,1.624967753887176514e-01,-8.328570984303951263e-03
8.791100978851318359e-01,-1.331459581851959229e-01,-1.905979663133621216e-01,-2.252627536654472351e-02,-4.303945600986480713e-01,1.945503056049346924e-01,1.977571845054626465e-01,3.605590760707855225e-01,2.778959870338439941e-01,1.919030249118804932e-01,-5.292898416519165039e-01,-1.726837903261184692e-01,5.806960538029670715e-02,2.751111686229705811e-01
8.542223572731018066e-01,-4.351499304175376892e-02,-1.439265310764312744e-01,1.467784196138381958e-01,-2.809514403343200684e-01,4.206016361713409424e-01,-2.992572635412216187e-02,5.156118869781494141e-01,2.994714081287384033e-01,4.188453853130340576e-01,-5.480334758758544922e-01,-1.253098100423812866e-01,-1.033845078200101852e-02,-2.016188576817512512e-02
9.624858498573303223e-01,-4.849174618721008301e-02,-1.375574767589569092e-01,6.972308456897735596e-02,-3.075299263000488281e-01,3.489814102649688721e-01,1.625578552484512329e-01,2.502823472023010254e-01,1.085514798760414124e-01,4.008423686027526855e-01,-6.642121076583862305e-01,-1.444702893495559692e-01,-2.004403620958328247e-02,2.382304221391677856e-01
6.451318264007568359e-01,1.267875172197818756e-02,-1.508422642946243286e-01,1.762433052062988281e-01,-2.716244161128997803e-01,3.441149294376373291e-01,-6.755389273166656494e-02,4.808573126792907715e-01,1.033498570322990417e-01,5.281407833099365234e-01,-5.582245588302612305e-01,-8.483189344406127930e-02,-2.478482574224472046e-01,2.037815749645233154e-01
6.182714700698852539e-01,-2.089875750243663788e-02,1.237535327672958374e-01,2.672200798988342285e-01,-2.554155588150024414e-01,4.127095341682434082e-01,-9.104092419147491455e-02,4.650066494941711426e-01,1.817832440137863159e-01,1.087345927953720093e-01,-4.058167040348052979e-01,-2.244041562080383301e-01,-1.177745684981346130e-01,1.218982320278882980e-02
5.768523216247558594e-01,1.623821854591369629e-01,-1.360680162906646729e-01,1.362747251987457275e-01,-1.029842868447303772e-01,6.267855763435363770e-01,8.618306368589401245e-03,5.989468097686767578e-01,3.951658681035041809e-02,4.194896817207336426e-01,-4.180221855640411377e-01,-3.939480483531951904e-01,-2.274367362260818481e-01,-1.461804211139678955e-01
5.757725238800048828e-01,2.096175104379653931e-01,-1.611252278089523315e-01,2.542189359664916992e-01,-1.007913202047348022e-01,4.496380984783172607e-01,-3.085736334323883057e-01,5.053805112838745117e-01,1.952248960733413696e-01,5.596540570259094238e-01,-3.595851957798004150e-01,-4.754923880100250244e-01,-4.265767335891723633e-01,-7.507529109716415405e-02
3.654565215110778809e-01,-3.196303034201264381e-03,-4.318051934242248535e-01,2.145231664180755615e-01,1.045703981071710587e-02,6.602783799171447754e-01,-5.415374040603637695e-02,3.375927805900573730e-01,-7.920724898576736450e-02,2.794995009899139404e-01,-3.421635329723358154e-01,-4.472868740558624268e-01,-4.580909013748168945e-01,-5.022634193301200867e-02
4.468056261539459229e-01,2.134515643119812012e-01,-3.037190139293670654e-01,1.814285218715667725e-01,-1.058454066514968872e-02,4.460013508796691895e-01,-1.945466399192810059e-01,3.949393332004547119e-01,6.154690310359001160e-02,4.354535415768623352e-02,-1.985585838556289673e-01,-4.430466890335083008e-01,-4.037000238895416260e-01,-8.014377951622009277e-02
4.764848649501800537e-01,1.461453437805175781e-01,-4.771750271320343018e-01,1.277048587799072266e-01,1.863234117627143860e-02,4.440983235836029053e-01,-3.564681708812713623e-01,3.504601716995239258e-01,1.784131675958633423e-02,1.964437216520309448e-01,-5.007565766572952271e-02,-5.275756716728210449e-01,-4.743677973747253418e-01,-9.699212759733200073e-02
3.917617201805114746e-01,4.951890558004379272e-02,-3.469699323177337646e-01,1.390556097030639648e-01,2.579672932624816895e-01,3.227816224098205566e-01,-4.235085248947143555e-01,4.040408134460449219e-01,-1.382425054907798767e-02,2.301764488220214844e-01,-2.306675165891647339e-01,-6.105703115463256836e-01,-3.780019581317901611e-01,-9.966224431991577148e-02
1.447367668151855469e-01,2.646915316581726074e-01,-4.582535326480865479e-01,3.220804631710052490e-01,3.308204412460327148e-01,6.373175382614135742e-01,-4.267745912075042725e-01,5.679540038108825684e-01,-2.526223361492156982e-01,-5.350689962506294250e-02,-9.316217899322509766e-02,-5.876545310020446777e-01,-4.496152997016906738e-01,-2.045819908380508423e-01
1.469008922576904297e-01,3.240828216075897217e-01,-4.241779744625091553e-01,1.531257033348083496e-01,3.278206586837768555e-01,5.680599808692932129e-01,-4.351270198822021484e-01,1.699266284704208374e-01,-1.348032802343368530e-01,2.944549918174743652e-01,5.306757614016532898e-02,-5.338407158851623535e-01,-3.757346570491790771e-01,-2.521986961364746094e-01
-5.145891755819320679e-02,3.743917644023895264e-01,-3.239361643791198730e-01,2.185866981744766235e-01,2.293857336044311523e-01,5.454667806625366211e-01,-3.379769325256347656e-01,1.897439509630203247e-01,7.844912260770797729e-02,-1.573212593793869019e-01,1.164996773004531860e-01,-5.894227623939514160e-01,-3.719016313552856445e-01,-2.557917237281799316e-01
1.282514184713363647e-01,4.560490548610687256e-01,-6.431018710136413574e-01,2.485056370496749878e-01,4.831281602382659912e-01,6.014926433563232422e-01,-4.564167559146881104e-01,3.740400671958923340e-01,-9.079419076442718506e-02,-2.628102153539657593e-02,1.861369013786315918e-01,-7.416920065879821777e-01,-5.414002537727355957e-01,-4.475623741745948792e-02
-1.819316595792770386e-01,4.447840154170989990e-01,-6.331173777580261230e-01,3.262080848217010498e-01,3.826173245906829834e-01,7.524774670600891113e-01,-4.216783344745635986e-01,6.043379306793212891e-01,-1.279559731483459473e-01,-1.141660585999488831e-01,7.212716341018676758e-02,-5.779033899307250977e-01,-2.322783619165420532e-01,-1.508661359548568726e-01
-1.165242046117782593e-01,4.349974691867828369e-01,-7.122990489006042480e-01,3.383732438087463379e-01,4.064091444015502930e-01,6.527538299560546875e-01,-4.467350542545318604e-01,5.593796968460083008e-01,2.766128862276673317e-03,1.011498048901557922e-01,6.301905214786529541e-02,-7.946896553039550781e-01,-3.137173354625701904e-01,-1.055601686239242554e-01
1.049727015197277069e-02,4.723991453647613525e-01,-7.419316172599792480e-01,1.893027126789093018e-01,4.244208037853240967e-01,5.747597217559814453e-01,-2.459928691387176514e-01,4.860169589519500732e-01,-2.530406042933464050e-02,-3.269182890653610229e-02,3.619735538959503174e-01,-8.045824170112609863e-01,-5.119960308074951172e-01,-5.910096317529678345e-02
-4.616028442978858948e-02,6.079701781272888184e-01,-6.652193665504455566e-01,2.414211481809616089e-01,4.627920687198638916e-01,4.240383803844451904e-01,-4.156437218189239502e-01,4.655914306640625000e-01,2.211401760578155518e-01,-2.245937883853912354e-01,3.055115640163421631e-01,-7.383721470832824707e-01,-2.441309094429016113e-01,-1.591414660215377808e-01
-1.910868287086486816e-01,8.112507462501525879e-01,-8.104216456413269043e-01,1.703717261552810669e-01,4.537105262279510498e-01,6.581179499626159668e-01,-5.396762490272521973e-01,4.580471813678741455e-01,1.678936630487442017e-01,4.181343689560890198e-02,4.414639472961425781e-01,-8.046147227287292480e-01,-3.627891540527343750e-01,-1.021130979061126709e-01
-1.304612606763839722e-01,7.978934049606323242e-01,-8.126559853553771973e-01,3.498293086886405945e-02,6.137622594833374023e-01,4.591536521911621094e-01,-4.492421448230743408e-01,4.332041740417480469e-01,3.609265014529228210e-02,-2.340041697025299072e-01,1.695584505796432495e-01,-1.041755676269531250e+00,-2.377626746892929077e-01,-3.205140680074691772e-02
-1.965350210666656494e-01,9.955788254737854004e-01,-7.917093634605407715e-01,1.468215137720108032e-01,4.978672266006469727e-01,5.205142498016357422e-01,-3.119455277919769287e-01,3.948214054107666016e-01,2.213894873857498169e-01,-3.276180103421211243e-02,2.203642576932907104e-01,-7.679190039634704590e-01,-1.303723156452178955e-01,-8.180973678827285767e-02
-4.030562937259674072e-02,6.278880238533020020e-01,-7.211513519287109375e-01,2.243145853281021118e-01,7.017331123352050781e-01,5.806819796562194824e-01,-3.222946524620056152e-01,4.240352213382720947e-01,4.001726806163787842e-01,-3.364149928092956543e-01,2.719849348068237305e-01,-5.772548913955688477e-01,-5.117299780249595642e-02,-5.974059179425239563e-02
-3.726495206356048584e-01,7.331689596176147461e-01,-9.553533792495727539e-01,1.527711898088455200e-01,5.624896287918090820e-01,6.730312108993530273e-01,-2.494318187236785889e-01,2.367061674594879150e-01,3.245136439800262451e-01,-2.761280834674835205e-01,2.496795505285263062e-01,-6.240568161010742188e-01,1.441181357949972153e-02,-1.889242678880691528e-01
-2.016777098178863525e-01,9.004811048507690430e-01,-9.217569828033447266e-01,2.752144634723663330e-01,5.391033291816711426e-01,4.793497323989868164e-01,-2.364304214715957642e-01,4.345135390758514404e-01,2.953962981700897217e-01,-1.351874619722366333e-01,1.883918792009353638e-01,-5.681445598602294922e-01,-2.921456284821033478e-02,9.065721184015274048e-03
-2.785200178623199463e-01,8.667569160461425781e-01,-7.153102159500122070e-01,3.117364346981048584e-01,7.558304071426391602e-01,4.566743075847625732e-01,-2.310433834791183472e-01,3.928099870681762695e-01,5.056730508804321289e-01,-1.806227415800094604e-01,1.716715395450592041e-01,-4.546313881874084473e-01,2.268323451280593872e-01,-1.944211125373840332e-01
-3.703735470771789551e-01,8.150650858879089355e-01,-8.690825700759887695e-01,5.473909899592399597e-02,3.094557821750640869e-01,5.003596544265747070e-01,-2.288735359907150269e-01,1.924550831317901611e-01,3.518989682197570801e-01,-2.995944023132324219e-01,3.722130060195922852e-01,-6.374152898788452148e-01,1.211437135934829712e-01,-1.796085238456726074e-01
-2.295656204223632812e-01,7.266533374786376953e-01,-8.344337344169616699e-01,-2.151707652956247330e-03,5.572274327278137207e-01,4.485157728195190430e-01,-2.334840148687362671e-01,4.378981292247772217e-01,6.919111013412475586e-01,-2.704479098320007324e-01,1.153236478567123413e-01,-5.935611724853515625e-01,1.276590824127197266e-01,-1.782679408788681030e-01
-9.285673499107360840e-02,9.570098519325256348e-01,-8.542996048927307129e-01,-5.452497303485870361e-02,5.088654160499572754e-01,3.810751140117645264e-01,2.036691829562187195e-02,-1.468341648578643799e-01,6.901471018791198730e-01,-3.112724721431732178e-01,4.657014906406402588e-01,-4.364227652549743652e-01,4.208728373050689697e-01,-6.558714807033538818e-02
-1.938996016979217529e-01,9.514259099960327148e-01,-8.729635477066040039e-01,1.261962950229644775e-01,4.747568368911743164e-01,3.392171561717987061e-01,-2.851572632789611816e-01,-2.079222500324249268e-01,7.015855908393859863e-01,-4.852844774723052979e-01,4.528324306011199951e-01,-5.901117920875549316e-01,3.825430274009704590e-01,-2.186742126941680908e-01
-6.205692291259765625e-01,8.775913119316101074e-01,-1.074497461318969727e+00,-5.061762034893035889e-02,4.779805243015289307e-01,3.083269894123077393e-01,8.742289990186691284e-02,-1.261724531650543213e-01,7.590243220329284668e-01,-6.102809906005859375e-01,5.468773245811462402e-01,-2.934283912181854248e-01,5.093753337860107422e-01,-3.065895140171051025e-01
