AF3,F7,F3,FC5,T7,P7,O1,O2,P8,T8,FC6,F4,F8,AF4
-2.437584698200225830e-01,8.989833295345306396e-02,7.005847245454788208e-02,-1.983664371073246002e-02,-9.972564131021499634e-02,7.819461822509765625e-02,1.244530826807022095e-02,-2.346282750368118286e-01,3.980601951479911804e-02,2.969415858387947083e-02,-4.345479421317577362e-03,-6.767461448907852173e-02,-2.076191455125808716e-01,-1.058855354785919189e-01
4.581534266471862793e-01,4.856704473495483398e-01,4.797200560569763184e-01,4.797831177711486816e-01,4.433062970638275146e-01,3.731992840766906738e-01,6.091839075088500977e-01,7.662340402603149414e-01,4.429735839366912842e-01,4.755891263484954834e-01,5.560909509658813477e-01,4.700615406036376953e-01,5.554728507995605469e-01,6.326725482940673828e-01
8.285523056983947754e-01,1.054912686347961426e+00,9.812453389167785645e-01,9.079470038414001465e-01,8.301639556884765625e-01,9.063785672187805176e-01,1.314752578735351562e+00,1.177144408226013184e+00,5.893287658691406250e-01,9.379565715789794922e-01,9.465671777725219727e-01,1.164783477783203125e+00,1.103441476821899414e+00,1.236537337303161621e+00
1.019805550575256348e+00,1.331110358238220215e+00,1.146654367446899414e+00,1.202319741249084473e+00,1.325545668601989746e+00,1.340222477912902832e+00,1.572172522544860840e+00,1.659365057945251465e+00,1.143241405487060547e+00,1.406827688217163086e+00,1.266778349876403809e+00,1.352719545364379883e+00,1.501214146614074707e+00,1.512231349945068359e+00
1.228097558021545410e+00,1.545110106468200684e+00,1.337958455085754395e+00,1.521281242370605469e+00,1.430834054946899414e+00,1.414777517318725586e+00,1.594578623771667480e+00,1.756958007812500000e+00,1.350636720657348633e+00,1.631976842880249023e+00,1.612856388092041016e+00,1.726351857185363770e+00,1.776863813400268555e+00,1.660056352615356445e+00
1.243836879730224609e+00,1.632269144058227539e+00,1.254860520362854004e+00,1.753430366516113281e+00,1.631707906723022461e+00,1.575427055358886719e+00,1.747207522392272949e+00,1.948615312576293945e+00,1.243295907974243164e+00,1.608674287796020508e+00,1.563805818557739258e+00,1.693188786506652832e+00,1.763214468955993652e+00,1.840300798416137695e+00
1.017250776290893555e+00,1.577386736869812012e+00,1.101989150047302246e+00,1.501429080963134766e+00,1.409269452095031738e+00,1.454407691955566406e+00,1.445887088775634766e+00,1.937114119529724121e+00,1.199988842010498047e+00,1.457853317260742188e+00,1.277059197425842285e+00,1.774488568305969238e+00,1.621991157531738281e+00,1.674559831619262695e+00
8.609578609466552734e-01,1.203950166702270508e+00,8.382765650749206543e-01,1.241079568862915039e+00,1.015884995460510254e+00,1.345254302024841309e+00,1.410553097724914551e+00,1.384865283966064453e+00,9.544751048088073730e-01,1.396255731582641602e+00,1.227255225181579590e+00,1.579560041427612305e+00,1.500743389129638672e+00,1.502662420272827148e+00
7.880976200103759766e-01,1.169997930526733398e+00,9.252826571464538574e-01,1.323281288146972656e+00,1.131881952285766602e+00,1.217893600463867188e+00,1.106805443763732910e+00,1.259894371032714844e+00,9.031043648719787598e-01,1.354547619819641113e+00,7.929339408874511719e-01,1.231431007385253906e+00,1.511385560035705566e+00,1.226718902587890625e+00
7.829859256744384766e-01,1.073928356170654297e+00,9.148980379104614258e-01,9.016174077987670898e-01,8.732259273529052734e-01,9.680199027061462402e-01,1.122525691986083984e+00,9.943911433219909668e-01,9.718174934387207031e-01,1.112653374671936035e+00,8.044409751892089844e-01,1.093484640121459961e+00,1.056668996810913086e+00,1.118016719818115234e+00
6.948518753051757812e-01,7.493344545364379883e-01,6.949717998504638672e-01,7.545688152313232422e-01,5.991506576538085938e-01,8.133853673934936523e-01,8.124598264694213867e-01,7.030726671218872070e-01,7.046364545822143555e-01,1.103831648826599121e+00,4.982536137104034424e-01,7.479646801948547363e-01,8.778312206268310547e-01,7.486609220504760742e-01
4.628477096557617188e-01,7.544913887977600098e-01,3.997795879840850830e-01,6.718670725822448730e-01,4.340737462043762207e-01,4.444601237773895264e-01,4.626613855361938477e-01,4.489283561706542969e-01,5.226970314979553223e-01,1.173021197319030762e+00,3.082758784294128418e-01,6.849741339683532715e-01,6.312277317047119141e-01,5.805044174194335938e-01
3.751849234104156494e-01,5.908185839653015137e-01,2.083988338708877563e-01,5.492790937423706055e-01,3.839330971240997314e-01,6.263086199760437012e-01,3.590052127838134766e-01,2.281106561422348022e-01,3.343303203582763672e-01,8.787802457809448242e-01,1.690876334905624390e-01,6.441171169281005859e-01,4.312539398670196533e-01,4.703044295310974121e-01
4.252684861421585083e-02,4.439285099506378174e-01,-7.126488536596298218e-02,2.605207264423370361e-01,5.960859730839729309e-02,4.861063063144683838e-01,-4.913172870874404907e-02,2.241256982088088989e-01,3.540671467781066895e-01,6.743325591087341309e-01,1.286675930023193359e-01,2.589769959449768066e-01,3.010220229625701904e-01,1.112257540225982666e-01
-1.589288711547851562e-01,2.094495892524719238e-01,-2.313269078731536865e-01,1.115408837795257568e-01,-7.472596317529678345e-02,9.055420011281967163e-02,-3.557424247264862061e-01,2.865214273333549500e-02,-2.277095615863800049e-01,6.683342903852462769e-02,-2.326813489198684692e-01,2.862763404846191406e-01,9.580811858177185059e-02,-7.739093899726867676e-02
-3.862906396389007568e-01,-1.858955770730972290e-01,-6.437748670578002930e-01,-2.425973415374755859e-01,-2.143045514822006226e-01,4.508539289236068726e-02,-6.916970014572143555e-01,-1.212458014488220215e-01,-2.355637997388839722e-01,-3.698821961879730225e-01,-2.767659425735473633e-01,-9.162641316652297974e-02,-1.182212904095649719e-01,-3.366432189941406250e-01
-5.581170320510864258e-01,-5.456669330596923828e-01,-6.701375842094421387e-01,-7.085037827491760254e-01,-7.608090639114379883e-01,-8.566402643918991089e-02,-1.149235010147094727e+00,-5.335777997970581055e-01,-5.925153493881225586e-01,-7.674338221549987793e-01,-4.089563786983489990e-01,-5.532861948013305664e-01,-3.604899644851684570e-01,-9.224475622177124023e-01
-8.555709719657897949e-01,-1.084955930709838867e+00,-9.355817437171936035e-01,-7.702647447586059570e-01,-1.087436079978942871e+00,-2.683145403861999512e-01,-1.552803158760070801e+00,-7.685543298721313477e-01,-7.184962034225463867e-01,-1.066243290901184082e+00,-6.346347332000732422e-01,-9.035320281982421875e-01,-4.493608772754669189e-01,-1.237466335296630859e+00
-6.326035857200622559e-01,-1.267612576484680176e+00,-9.583343863487243652e-01,-1.125725030899047852e+00,-1.361552596092224121e+00,-5.163061618804931641e-01,-1.596704125404357910e+00,-9.429225325584411621e-01,-1.061665534973144531e+00,-1.306140780448913574e+00,-9.199993014335632324e-01,-1.190712690353393555e+00,-7.760444879531860352e-01,-1.614099025726318359e+00
-9.930147528648376465e-01,-1.393013358116149902e+00,-8.180299997329711914e-01,-1.237142682075500488e+00,-1.290026783943176270e+00,-8.831059932708740234e-01,-1.531721353530883789e+00,-9.591254591941833496e-01,-1.113822340965270996e+00,-1.213614463806152344e+00,-9.100515246391296387e-01,-1.602662086486816406e+00,-1.030682682991027832e+00,-1.915626049041748047e+00
-5.676935315132141113e-01,-1.263777852058410645e+00,-5.634514093399047852e-01,-1.455212950706481934e+00,-1.390196323394775391e+00,-1.138969063758850098e+00,-1.215326189994812012e+00,-1.110813856124877930e+00,-1.121437191963195801e+00,-1.035758137702941895e+00,-5.959123373031616211e-01,-1.467681646347045898e+00,-1.287305116653442383e+00,-1.640009284019470215e+00
-1.455123424530029297e-01,-1.096937894821166992e+00,-2.844980359077453613e-01,-1.135105609893798828e+00,-1.179037570953369141e+00,-1.321615934371948242e+00,-7.705393433570861816e-01,-9.861743450164794922e-01,-9.577411413192749023e-01,-9.636384248733520508e-01,-5.912337303161621094e-01,-1.608672380447387695e+00,-1.230977773666381836e+00,-1.475560307502746582e+00
1.643012762069702148e-01,-7.923500537872314453e-01,2.274697460234165192e-02,-9.018540978431701660e-01,-9.161070585250854492e-01,-1.348538398742675781e+00,-3.069230616092681885e-01,-7.303916215896606445e-01,-4.609551131725311279e-01,-4.704755842685699463e-01,-3.491330742835998535e-01,-1.333462476730346680e+00,-1.112953782081604004e+00,-9.991887211799621582e-01
4.152590930461883545e-01,-7.717085480690002441e-01,3.504139780998229980e-01,-8.042000532150268555e-01,-3.516367077827453613e-01,-1.166140079498291016e+00,2.473324835300445557e-01,-4.091216325759887695e-01,-1.409839093685150146e-01,-1.935304701328277588e-01,3.465281054377555847e-02,-1.043982386589050293e+00,-8.420940041542053223e-01,-5.762199163436889648e-01
5.051557421684265137e-01,-1.390281468629837036e-01,2.068243324756622314e-01,-4.009735584259033203e-01,-1.832786947488784790e-01,-9.257152080535888672e-01,4.115171730518341064e-01,6.170788034796714783e-02,8.453222364187240601e-02,-1.272035241127014160e-01,3.339308500289916992e-01,-6.400399804115295410e-01,-4.294825792312622070e-01,-8.941651135683059692e-02
4.164199233055114746e-01,1.422088444232940674e-01,6.033848524093627930e-01,1.016578227281570435e-01,2.256602793931961060e-01,-5.525043606758117676e-01,6.603808403015136719e-01,2.870399355888366699e-01,2.979511618614196777e-01,-7.204490900039672852e-02,4.921574294567108154e-01,-6.574959307909011841e-02,-2.916738986968994141e-01,1.272291839122772217e-01
5.646876692771911621e-01,3.869244456291198730e-01,5.097160935401916504e-01,3.547346889972686768e-01,4.306741654872894287e-01,-2.545765340328216553e-01,3.745705783367156982e-01,7.921909093856811523e-01,4.318294823169708252e-01,-9.300563484430313110e-02,5.792040228843688965e-01,1.458363085985183716e-01,4.377327486872673035e-02,6.242172122001647949e-01
3.895136415958404541e-01,4.538086354732513428e-01,4.025641381740570068e-01,5.821321606636047363e-01,5.081768035888671875e-01,3.699821829795837402e-01,4.855851531028747559e-01,1.104936361312866211e+00,5.958642959594726562e-01,2.065576016902923584e-01,6.755563616752624512e-01,4.872801899909973145e-01,4.848805367946624756e-01,7.847197055816650391e-01
2.419854551553726196e-01,3.530608415603637695e-01,2.064459174871444702e-01,6.799220442771911621e-01,5.022807717323303223e-01,5.426947474479675293e-01,2.853556275367736816e-01,8.568152785301208496e-01,5.868527889251708984e-01,2.881474979221820831e-02,4.510743021965026855e-01,6.371577978134155273e-01,7.761119008064270020e-01,8.162589669227600098e-01
7.414399832487106323e-02,3.012013435363769531e-01,1.361683011054992676e-02,7.657953500747680664e-01,6.468563675880432129e-01,6.843135952949523926e-01,4.905160069465637207e-01,9.218447804450988770e-01,1.455034911632537842e-01,3.991838395595550537e-01,2.611365318298339844e-01,7.304422259330749512e-01,7.891031503677368164e-01,4.051199853420257568e-01
4.985114187002182007e-02,2.987616062164306641e-01,5.425464734435081482e-02,6.910368204116821289e-01,4.661613106727600098e-01,6.985703706741333008e-01,3.314489424228668213e-01,4.225401580333709717e-01,8.474224060773849487e-02,4.501261413097381592e-01,1.535592526197433472e-01,6.761695146560668945e-01,1.013231754302978516e+00,8.065900802612304688e-01
-2.112073451280593872e-01,1.932275444269180298e-01,-1.705017387866973877e-01,4.087107479572296143e-01,3.841541707515716553e-01,6.583706140518188477e-01,4.909579455852508545e-01,2.628173828125000000e-01,1.426220387220382690e-01,6.549354791641235352e-01,-2.378599047660827637e-01,5.432741045951843262e-01,6.831034421920776367e-01,4.031921029090881348e-01
-1.873730719089508057e-01,3.678876161575317383e-01,-6.098770536482334137e-03,3.006464242935180664e-01,2.380303144454956055e-01,6.528028249740600586e-01,4.298592805862426758e-01,-1.115976050496101379e-01,-4.371026903390884399e-02,6.088618636131286621e-01,-6.192252635955810547e-01,4.115795493125915527e-01,5.000285506248474121e-01,6.165601611137390137e-01
-2.783684134483337402e-01,3.963607847690582275e-01,-1.452407836914062500e-01,-1.981366872787475586e-01,3.091820180416107178e-01,2.790186703205108643e-01,3.820481598377227783e-01,-5.426807999610900879e-01,1.133445650339126587e-01,7.995005249977111816e-01,-8.461405038833618164e-01,1.879102587699890137e-01,2.275438457727432251e-01,4.189662337303161621e-01
-4.988022446632385254e-01,4.947805106639862061e-01,-4.046913683414459229e-01,1.459799241274595261e-02,3.941980600357055664e-01,4.245269298553466797e-02,3.048707842826843262e-01,-8.747273683547973633e-01,9.454044699668884277e-02,3.706058561801910400e-01,-8.823496103286743164e-01,1.291030943393707275e-01,-2.075755894184112549e-01,6.145002245903015137e-01
-6.712450385093688965e-01,5.107237100601196289e-01,-6.890031695365905762e-01,-1.074807792901992798e-01,4.016330242156982422e-01,3.980435058474540710e-02,4.195158183574676514e-02,-1.037989020347595215e+00,4.700164496898651123e-02,2.973073422908782959e-01,-8.328908085823059082e-01,1.571160107851028442e-01,-4.742157161235809326e-01,5.682307481765747070e-01
-9.247421026229858398e-01,3.248850405216217041e-01,-9.346747398376464844e-01,-3.081167638301849365e-01,1.558839529752731323e-01,-7.785053551197052002e-02,-5.510931611061096191e-01,-8.760906457901000977e-01,-1.975483745336532593e-01,-1.996766924858093262e-01,-8.289400935173034668e-01,3.572414219379425049e-01,-6.386128067970275879e-01,4.762079417705535889e-01
-1.076030015945434570e+00,1.203687712550163269e-01,-1.048712253570556641e+00,-1.192185804247856140e-01,1.865932196378707886e-01,-2.827256917953491211e-02,-8.709740042686462402e-01,-9.941654801368713379e-01,-2.633661031723022461e-01,-5.884184837341308594e-01,-4.613040089607238770e-01,1.837208867073059082e-01,-4.879253804683685303e-01,2.927421331405639648e-01
-1.262292265892028809e+00,-2.137248218059539795e-01,-9.714213609695434570e-01,-2.009837031364440918e-01,-1.309313625097274780e-01,-6.922241300344467163e-02,-1.011026740074157715e+00,-7.773554325103759766e-01,-4.992306828498840332e-01,-1.021920204162597656e+00,-4.730434119701385498e-01,8.008514344692230225e-02,-7.295038700103759766e-01,7.566834241151809692e-02
-1.250044584274291992e+00,-4.451874494552612305e-01,-1.147598743438720703e+00,-3.005318641662597656e-01,-2.466904073953628540e-01,-2.753477990627288818e-01,-1.069354891777038574e+00,-1.147031545639038086e+00,-4.609334468841552734e-01,-1.058196902275085449e+00,-2.890118658542633057e-01,1.200836822390556335e-01,-7.269234061241149902e-01,-2.122792899608612061e-01
-1.029769301414489746e+00,-6.778661012649536133e-01,-7.019326686859130859e-01,-3.592244982719421387e-01,-5.851582884788513184e-01,-1.843273341655731201e-01,-7.213367223739624023e-01,-9.258241653442382812e-01,-6.062831282615661621e-01,-1.045491933822631836e+00,-3.176922500133514404e-01,-1.544296294450759888e-01,-7.739146947860717773e-01,-5.836904048919677734e-01
-7.563205957412719727e-01,-8.709510564804077148e-01,-2.292843610048294067e-01,-4.100866615772247314e-01,-6.456918120384216309e-01,-2.447932809591293335e-01,-3.400353193283081055e-01,-7.900903820991516113e-01,-7.058418393135070801e-01,-8.213486671447753906e-01,-1.985929459333419800e-01,-5.693640112876892090e-01,-5.670251846313476562e-01,-7.170232534408569336e-01
-4.860194623470306396e-01,-8.208636045455932617e-01,1.447940766811370850e-01,-4.585285186767578125e-01,-7.210060954093933105e-01,-3.183552026748657227e-01,4.862695187330245972e-02,-7.136973142623901367e-01,-5.341570377349853516e-01,-8.430810570716857910e-01,-7.983648218214511871e-03,-6.578238010406494141e-01,-5.428667068481445312e-01,-9.174191951751708984e-01
-1.565675884485244751e-01,-5.887195467948913574e-01,4.468127787113189697e-01,-5.565999746322631836e-01,-6.141855120658874512e-01,-5.187069773674011230e-01,5.083083510398864746e-01,-6.755651235580444336e-01,-4.091346263885498047e-01,-5.031365156173706055e-01,2.129799574613571167e-01,-6.811826229095458984e-01,-4.889468848705291748e-01,-7.737099528312683105e-01
2.143318951129913330e-01,-3.213153779506683350e-01,7.870355844497680664e-01,-4.316503107547760010e-01,-4.051733911037445068e-01,-6.019231081008911133e-01,7.695155739784240723e-01,-3.743383288383483887e-01,-1.383401602506637573e-01,-1.477919816970825195e-01,4.663110375404357910e-01,-1.012311816215515137e+00,-4.766253829002380371e-01,-7.865399122238159180e-01
6.740835309028625488e-01,-2.356519252061843872e-01,1.317162513732910156e+00,-4.150313436985015869e-01,-1.359068751335144043e-01,-5.455358028411865234e-01,1.065282821655273438e+00,7.921659201383590698e-02,3.480214774608612061e-01,-1.548441350460052490e-01,9.203449487686157227e-01,-7.831248641014099121e-01,-5.621001124382019043e-01,-2.325759083032608032e-01
8.596730828285217285e-01,1.066500991582870483e-01,1.169966936111450195e+00,-2.169377058744430542e-01,1.884913742542266846e-01,-6.877738237380981445e-01,9.566690325736999512e-01,2.631281912326812744e-01,6.720110177993774414e-01,-1.365757435560226440e-01,9.899671673774719238e-01,-4.321111738681793213e-01,-2.788257300853729248e-01,1.892770640552043915e-02
9.358061552047729492e-01,5.294455885887145996e-01,1.206095576286315918e+00,2.489706128835678101e-01,5.229102969169616699e-01,-6.844500303268432617e-01,9.821022748947143555e-01,7.345177531242370605e-01,9.928210377693176270e-01,6.018768623471260071e-02,1.374908208847045898e+00,-6.179834157228469849e-02,-2.284217029809951782e-01,5.091031789779663086e-01
1.170281767845153809e+00,8.471169471740722656e-01,1.027156829833984375e+00,7.992305755615234375e-01,8.595955371856689453e-01,-3.369911909103393555e-01,9.130773544311523438e-01,1.379323005676269531e+00,1.147116899490356445e+00,4.229484125971794128e-02,1.577765464782714844e+00,3.289295434951782227e-01,3.056552410125732422e-01,8.019535541534423828e-01
1.208796858787536621e+00,8.569515943527221680e-01,1.197259664535522461e+00,9.190589785575866699e-01,9.263258576393127441e-01,-3.505243360996246338e-01,7.849581837654113770e-01,1.855826497077941895e+00,1.238796591758728027e+00,5.128604769706726074e-01,1.620366692543029785e+00,8.150526881217956543e-01,6.938112974166870117e-01,8.156047463417053223e-01
1.001450657844543457e+00,7.104654908180236816e-01,8.689728975296020508e-01,1.543133378028869629e+00,7.223997712135314941e-01,1.872855573892593384e-01,6.231161952018737793e-01,1.875880360603332520e+00,9.046135544776916504e-01,9.968963861465454102e-01,1.558033347129821777e+00,1.152224540710449219e+00,9.401400685310363770e-01,7.974773645401000977e-01
9.270969033241271973e-01,8.246051073074340820e-01,1.052707910537719727e+00,1.430741667747497559e+00,6.565212011337280273e-01,7.637181282043457031e-01,5.971673727035522461e-01,2.011762142181396484e+00,7.247064113616943359e-01,1.190085172653198242e+00,1.129990100860595703e+00,1.395537137985229492e+00,1.355840921401977539e+00,8.208216428756713867e-01
1.029475450515747070e+00,8.092108368873596191e-01,8.791410326957702637e-01,1.437261343002319336e+00,4.594856500625610352e-01,8.184638023376464844e-01,5.643515586853027344e-01,1.925301551818847656e+00,8.003416657447814941e-01,1.649087905883789062e+00,6.045111417770385742e-01,1.408048272132873535e+00,1.780496120452880859e+00,5.625572204589843750e-01
9.144226908683776855e-01,8.608818650245666504e-01,7.409434318542480469e-01,1.338480710983276367e+00,4.944744706153869629e-01,1.157635569572448730e+00,6.432090401649475098e-01,1.911018729209899902e+00,5.810710191726684570e-01,1.914474487304687500e+00,3.329550027847290039e-01,1.473415374755859375e+00,1.866215229034423828e+00,3.426586985588073730e-01
8.525564670562744141e-01,8.382854461669921875e-01,3.278036713600158691e-01,1.044560432434082031e+00,1.472114324569702148e-01,1.522557377815246582e+00,3.432976305484771729e-01,1.257369995117187500e+00,2.050617188215255737e-01,1.933976888656616211e+00,-1.038488969206809998e-01,1.098323583602905273e+00,1.887368798255920410e+00,9.082343429327011108e-02
3.482837378978729248e-01,9.489935040473937988e-01,-3.553710877895355225e-02,8.041987419128417969e-01,1.389785856008529663e-01,1.453721165657043457e+00,-1.545655429363250732e-01,9.264498353004455566e-01,2.309235930442810059e-01,1.721148014068603516e+00,-7.046461105346679688e-01,9.045118689537048340e-01,1.621589779853820801e+00,2.362250387668609619e-01
1.208566576242446899e-01,7.420615553855895996e-01,-4.695798158645629883e-01,5.041475892066955566e-01,2.181374095380306244e-02,1.460842609405517578e+00,-6.558488607406616211e-01,3.740372061729431152e-01,1.935322731733322144e-01,1.664244174957275391e+00,-1.000601768493652344e+00,6.089183092117309570e-01,1.510080337524414062e+00,1.505926437675952911e-02
-2.341277599334716797e-01,5.369835495948791504e-01,-7.854563593864440918e-01,9.482831507921218872e-02,1.108235940337181091e-01,1.136218190193176270e+00,-1.078414559364318848e+00,-8.731672912836074829e-02,-3.519231453537940979e-03,9.478554725646972656e-01,-1.163690567016601562e+00,4.852133691310882568e-01,1.094646930694580078e+00,-2.899714000523090363e-02
-4.235642850399017334e-01,6.049278974533081055e-01,-1.211667299270629883e+00,-2.642188966274261475e-01,-1.229471713304519653e-01,9.824203252792358398e-01,-1.635263442993164062e+00,-5.172123908996582031e-01,-3.305405974388122559e-01,4.466241598129272461e-01,-9.856110215187072754e-01,1.223468855023384094e-01,7.751699686050415039e-01,-1.428571492433547974e-01
-8.430852890014648438e-01,1.211428493261337280e-01,-1.422130823135375977e+00,-4.998938143253326416e-01,-3.390251100063323975e-01,6.075252294540405273e-01,-2.043712854385375977e+00,-8.774730563163757324e-01,-4.223172366619110107e-01,1.223006024956703186e-01,-1.161172032356262207e+00,-7.867840677499771118e-02,5.536931753158569336e-02,-5.025256872177124023e-01
-7.855647206306457520e-01,-2.954483032226562500e-01,-1.481768131256103516e+00,-6.212869286537170410e-01,-6.362445950508117676e-01,5.581440329551696777e-01,-1.919050216674804688e+00,-1.111153483390808105e+00,-8.079188466072082520e-01,-1.008684039115905762e-01,-1.029582619667053223e+00,-3.123414516448974609e-01,-5.001665949821472168e-01,-7.716054320335388184e-01
-1.169572114944458008e+00,-6.687905192375183105e-01,-1.372542738914489746e+00,-8.953208327293395996e-01,-7.699621915817260742e-01,2.034955769777297974e-01,-1.984257459640502930e+00,-1.047980666160583496e+00,-1.226356148719787598e+00,-2.401400059461593628e-01,-9.010793566703796387e-01,-3.367112874984741211e-01,-6.506894230842590332e-01,-9.455362558364868164e-01
-9.707251787185668945e-01,-1.108656048774719238e+00,-9.434555768966674805e-01,-9.853078722953796387e-01,-1.203089118003845215e+00,-3.739063814282417297e-02,-1.444149732589721680e+00,-9.879074692726135254e-01,-1.311705231666564941e+00,-5.251689553260803223e-01,-7.723200321197509766e-01,-5.836306810379028320e-01,-1.072875380516052246e+00,-1.208107948303222656e+00
-5.483428239822387695e-01,-1.515690445899963379e+00,-6.981003284454345703e-01,-1.067270398139953613e+00,-1.227259755134582520e+00,1.537624746561050415e-03,-9.654335975646972656e-01,-1.224512338638305664e+00,-1.526234269142150879e+00,-9.786546230316162109e-01,-5.157799720764160156e-01,-6.911483407020568848e-01,-1.251691460609436035e+00,-1.417810797691345215e+00
-3.108608722686767578e-01,-1.808035731315612793e+00,-4.548322856426239014e-01,-1.201522588729858398e+00,-1.401782035827636719e+00,-5.553982257843017578e-01,-5.178848505020141602e-01,-1.024390578269958496e+00,-1.529522538185119629e+00,-9.610368609428405762e-01,-5.278834700584411621e-01,-1.196345567703247070e+00,-1.309791684150695801e+00,-1.617462754249572754e+00
-7.159744203090667725e-02,-1.766540646553039551e+00,-2.085102498531341553e-01,-1.576457619667053223e+00,-1.298834204673767090e+00,-4.153464436531066895e-01,-3.391567990183830261e-02,-1.217327594757080078e+00,-1.420176863670349121e+00,-1.239115476608276367e+00,-6.293260455131530762e-01,-1.521979212760925293e+00,-1.329535126686096191e+00,-1.503172636032104492e+00
5.462366342544555664e-02,-1.619186282157897949e+00,1.819770969450473785e-02,-1.554424166679382324e+00,-1.187318086624145508e+00,-5.035711526870727539e-01,4.512288570404052734e-01,-1.060400128364562988e+00,-1.061825275421142578e+00,-1.605401873588562012e+00,-3.690142631530761719e-01,-1.632497668266296387e+00,-1.203430652618408203e+00,-1.238580107688903809e+00
2.333149015903472900e-01,-1.409915566444396973e+00,2.368993759155273438e-01,-1.677611708641052246e+00,-9.000764489173889160e-01,-9.714109897613525391e-01,5.048342347145080566e-01,-8.810195922851562500e-01,-6.064231395721435547e-01,-1.656983017921447754e+00,3.060458414256572723e-02,-1.787532925605773926e+00,-1.281917452812194824e+00,-7.210196256637573242e-01
3.317350447177886963e-01,-9.986826181411743164e-01,2.512387931346893311e-01,-1.058642864227294922e+00,-2.880008220672607422e-01,-1.233173012733459473e+00,8.031327128410339355e-01,-9.519557952880859375e-01,-3.082713484764099121e-01,-2.141545057296752930e+00,9.448430687189102173e-02,-1.957679867744445801e+00,-1.326413273811340332e+00,-5.298556089401245117e-01
3.614600598812103271e-01,-7.680330872535705566e-01,1.056964024901390076e-01,-1.081420779228210449e+00,1.495414376258850098e-01,-1.440903067588806152e+00,8.225135207176208496e-01,-5.663177967071533203e-01,2.213363200426101685e-01,-1.871070146560668945e+00,3.689243495464324951e-01,-1.661887049674987793e+00,-1.244461655616760254e+00,2.895518541336059570e-01
2.146058231592178345e-01,-3.686093986034393311e-01,1.025253161787986755e-01,-8.300043940544128418e-01,5.636486411094665527e-01,-1.308732032775878906e+00,8.526135087013244629e-01,-3.628318309783935547e-01,4.669073820114135742e-01,-1.471554160118103027e+00,5.785623788833618164e-01,-1.453542947769165039e+00,-1.283500671386718750e+00,7.038641571998596191e-01
2.447713315486907959e-01,2.760370261967182159e-03,5.382152199745178223e-01,-2.572516798973083496e-01,7.339081168174743652e-01,-1.438715815544128418e+00,1.424844861030578613e+00,-2.773780003190040588e-02,6.313009262084960938e-01,-1.116732239723205566e+00,7.926595211029052734e-01,-8.785734772682189941e-01,-1.101347327232360840e+00,1.042143225669860840e+00
1.762375831604003906e-01,1.086460500955581665e-01,5.648059248924255371e-01,5.826536566019058228e-02,1.076380610466003418e+00,-1.476580739021301270e+00,1.560681939125061035e+00,3.171916604042053223e-01,8.003249764442443848e-01,-6.998074054718017578e-01,8.385385870933532715e-01,-2.914320230484008789e-01,-8.928360342979431152e-01,1.260859370231628418e+00
8.670573681592941284e-02,1.388588547706604004e-01,5.253133773803710938e-01,7.990329861640930176e-01,1.414231181144714355e+00,-1.391952753067016602e+00,1.772596359252929688e+00,8.254675865173339844e-01,9.378901124000549316e-01,-1.092238202691078186e-01,8.034009337425231934e-01,3.188546895980834961e-01,-3.712471723556518555e-01,1.556127429008483887e+00
1.723976284265518188e-01,6.312381029129028320e-01,5.006722211837768555e-01,1.180644512176513672e+00,1.223477602005004883e+00,-1.078773260116577148e+00,1.845466852188110352e+00,9.090642333030700684e-01,8.653744459152221680e-01,2.872275114059448242e-01,5.431483983993530273e-01,7.016896605491638184e-01,-3.927055597305297852e-01,1.540898323059082031e+00
1.248164623975753784e-01,8.817570805549621582e-01,4.250265657901763916e-01,1.406522393226623535e+00,1.164659857749938965e+00,-6.028553843498229980e-01,1.529116868972778320e+00,1.072812080383300781e+00,8.048508763313293457e-01,8.625743985176086426e-01,2.935204505920410156e-01,1.293972253799438477e+00,1.910107135772705078e-01,1.502057313919067383e+00
9.186098724603652954e-02,9.389375448226928711e-01,1.376838684082031250e-01,1.751700520515441895e+00,1.143185496330261230e+00,-2.305353134870529175e-01,1.153880834579467773e+00,1.030416846275329590e+00,1.000076174736022949e+00,7.102841734886169434e-01,-4.971192032098770142e-02,1.329291701316833496e+00,8.085836768150329590e-01,1.260055422782897949e+00
-3.500618040561676025e-01,1.125880718231201172e+00,-2.655926048755645752e-01,1.620328426361083984e+00,1.103386282920837402e+00,2.436123788356781006e-01,6.977999210357666016e-01,8.028902411460876465e-01,7.574474215507507324e-01,7.763900756835937500e-01,-4.190672039985656738e-01,1.544363141059875488e+00,9.932521581649780273e-01,1.203882575035095215e+00
-4.663146138191223145e-01,1.414589405059814453e+00,-7.003316879272460938e-01,1.409533023834228516e+00,9.340071678161621094e-01,5.844866037368774414e-01,1.252748072147369385e-01,2.926322817802429199e-01,6.083222627639770508e-01,8.655989766120910645e-01,-7.103845477104187012e-01,1.658418893814086914e+00,1.447832465171813965e+00,1.148400664329528809e+00
-9.245840311050415039e-01,1.683065056800842285e+00,-6.264678835868835449e-01,1.195287346839904785e+00,8.805277347564697266e-01,7.544253468513488770e-01,-5.793303251266479492e-01,-6.869736313819885254e-02,6.282969117164611816e-01,7.612563967704772949e-01,-7.855279445648193359e-01,1.419821143150329590e+00,1.543452620506286621e+00,1.190003633499145508e+00
-1.179819107055664062e+00,1.787687063217163086e+00,-8.927280306816101074e-01,9.038612246513366699e-01,9.083949327468872070e-01,1.414293169975280762e+00,-1.073216199874877930e+00,-5.731933712959289551e-01,7.640874981880187988e-01,5.547488927841186523e-01,-9.490856528282165527e-01,1.381982803344726562e+00,1.634750604629516602e+00,9.928048849105834961e-01
-1.183761715888977051e+00,1.612937688827514648e+00,-5.961836576461791992e-01,7.344316244125366211e-01,3.894802927970886230e-01,1.034160614013671875e+00,-1.252168655395507812e+00,-8.654184341430664062e-01,3.335321247577667236e-01,8.669093251228332520e-01,-4.918664395809173584e-01,1.330079793930053711e+00,1.313676476478576660e+00,6.754081845283508301e-01
-1.126869678497314453e+00,1.142247796058654785e+00,-5.728986859321594238e-01,5.550820231437683105e-01,2.581287324428558350e-01,1.306800961494445801e+00,-1.472050189971923828e+00,-1.023296117782592773e+00,2.142962962388992310e-01,8.711796998977661133e-01,-4.198281168937683105e-01,1.022573947906494141e+00,1.083499312400817871e+00,2.021109908819198608e-01
-9.227550625801086426e-01,8.815754652023315430e-01,-7.380367070436477661e-02,3.868302404880523682e-01,-7.386976480484008789e-02,1.163537144660949707e+00,-1.341986656188964844e+00,-9.237805008888244629e-01,-1.448272615671157837e-01,8.946754932403564453e-01,-1.904630661010742188e-01,1.033596992492675781e+00,4.788870811462402344e-01,-8.029217272996902466e-02
-4.848054945468902588e-01,3.461846709251403809e-01,1.682987660169601440e-01,1.488155126571655273e-01,-5.284417867660522461e-01,1.022320985794067383e+00,-1.301677703857421875e+00,-7.149615883827209473e-01,-5.073932409286499023e-01,9.268375635147094727e-01,2.664624154567718506e-01,9.577525854110717773e-01,1.430235337466001511e-02,-6.843262910842895508e-01
-2.929597496986389160e-01,7.452049106359481812e-02,3.587433695793151855e-01,-1.108648777008056641e-01,-9.199214577674865723e-01,8.869184255599975586e-01,-7.887747883796691895e-01,-6.665655970573425293e-01,-6.034848093986511230e-01,4.559072256088256836e-01,5.352604985237121582e-01,8.126009702682495117e-01,-2.810470759868621826e-01,-1.329062700271606445e+00
2.055185884237289429e-01,-3.838654458522796631e-01,6.393939256668090820e-01,-1.105416715145111084e-01,-1.490470647811889648e+00,7.863503098487854004e-01,-8.593686223030090332e-01,-2.304660826921463013e-01,-9.561759233474731445e-01,2.687549591064453125e-01,5.133621692657470703e-01,4.178259968757629395e-01,-4.879450201988220215e-01,-1.828935265541076660e+00
2.444424629211425781e-01,-7.899125814437866211e-01,5.935962200164794922e-01,-3.915038108825683594e-01,-1.591931819915771484e+00,6.683958768844604492e-01,-9.475994110107421875e-01,-1.650477647781372070e-01,-7.981568574905395508e-01,5.065982043743133545e-02,8.311255574226379395e-01,2.433891594409942627e-01,-4.524027705192565918e-01,-1.840198397636413574e+00
7.713066339492797852e-01,-8.952943682670593262e-01,7.125774025917053223e-01,-5.237519741058349609e-01,-1.704322934150695801e+00,5.000171661376953125e-01,-5.651513338088989258e-01,1.781917661428451538e-01,-9.745354652404785156e-01,-4.355074763298034668e-01,8.430399298667907715e-01,-1.950121074914932251e-01,-6.707349419593811035e-01,-2.069796800613403320e+00
7.555918097496032715e-01,-9.741586446762084961e-01,8.865640759468078613e-01,-7.262442708015441895e-01,-1.520832180976867676e+00,5.108785033226013184e-01,-4.693451225757598877e-01,2.246693670749664307e-01,-6.701142787933349609e-01,-8.560106754302978516e-01,8.987619876861572266e-01,-9.144961237907409668e-01,-5.313336253166198730e-01,-2.111160993576049805e+00
8.502374291419982910e-01,-9.122009277343750000e-01,8.270100951194763184e-01,-8.476581573486328125e-01,-1.434648156166076660e+00,3.090611398220062256e-01,-1.775036454200744629e-01,5.108663439750671387e-01,-4.145320057868957520e-01,-9.023845791816711426e-01,7.998622059822082520e-01,-1.285380959510803223e+00,-5.247867703437805176e-01,-1.782352447509765625e+00
7.559733986854553223e-01,-9.637051224708557129e-01,8.873279094696044922e-01,-1.200432896614074707e+00,-9.568571448326110840e-01,2.121778428554534912e-01,-2.172016650438308716e-01,4.654510617256164551e-01,-1.252529770135879517e-01,-7.784174680709838867e-01,8.285782337188720703e-01,-1.619141578674316406e+00,-3.527669012546539307e-01,-1.294964790344238281e+00
1.020250082015991211e+00,-8.355330228805541992e-01,8.250405788421630859e-01,-9.383184909820556641e-01,-5.206521749496459961e-01,4.353352636098861694e-02,3.817336559295654297e-01,8.222815990447998047e-01,1.199493259191513062e-01,-5.871927142143249512e-01,6.603257060050964355e-01,-1.640768408775329590e+00,-1.999633312225341797e-01,-6.329993605613708496e-01
1.178610801696777344e+00,-7.992814779281616211e-01,1.019190073013305664e+00,-1.083625435829162598e+00,-2.419275343418121338e-01,-1.438210457563400269e-01,5.889772772789001465e-01,9.938349723815917969e-01,5.743501782417297363e-01,-2.139448672533035278e-01,7.534894943237304688e-01,-1.623512268066406250e+00,-9.703576564788818359e-02,-2.504407763481140137e-01
1.176857948303222656e+00,-9.207661151885986328e-01,9.785034656524658203e-01,-8.082038760185241699e-01,1.575122177600860596e-01,-3.275496661663055420e-01,8.900672197341918945e-01,1.146437406539916992e+00,5.144371390342712402e-01,1.669901162385940552e-01,6.255442500114440918e-01,-1.434851408004760742e+00,3.317942097783088684e-02,1.785635054111480713e-01
1.183104991912841797e+00,-8.307126760482788086e-01,8.511999845504760742e-01,-5.684785842895507812e-01,1.516924351453781128e-01,-7.613918185234069824e-01,1.069078445434570312e+00,1.188286066055297852e+00,3.597067296504974365e-01,2.731520831584930420e-01,3.838278651237487793e-01,-1.281807184219360352e+00,4.279972240328788757e-02,4.289478361606597900e-01
1.159934878349304199e+00,-6.667268276214599609e-01,4.882495701313018799e-01,-1.897843629121780396e-01,4.246317744255065918e-01,-7.113111615180969238e-01,1.082238554954528809e+00,1.495413184165954590e+00,1.937191039323806763e-01,5.892757773399353027e-01,-2.857957268133759499e-03,-1.067401170730590820e+00,2.567267715930938721e-01,7.161739468574523926e-01
9.568116068840026855e-01,-6.078583002090454102e-01,-6.188901513814926147e-02,2.344733476638793945e-01,4.564514160156250000e-01,-9.224665164947509766e-01,9.806712269783020020e-01,1.589164853096008301e+00,2.767557501792907715e-01,4.047437310218811035e-01,-4.879260435700416565e-02,-3.707379996776580811e-01,2.348351478576660156e-01,7.713950276374816895e-01
6.356930732727050781e-01,-1.816970556974411011e-01,-5.144484639167785645e-01,3.866950571537017822e-01,5.882235765457153320e-01,-8.717853426933288574e-01,6.584064960479736328e-01,1.613291978836059570e+00,1.739401966333389282e-01,3.827103376388549805e-01,-6.503288745880126953e-01,3.385123983025550842e-02,2.195937484502792358e-01,1.083845615386962891e+00
9.623176604509353638e-02,7.377738505601882935e-02,-8.782543540000915527e-01,8.904558420181274414e-01,7.311064004898071289e-01,-6.044762730598449707e-01,1.133814975619316101e-01,1.202398657798767090e+00,2.024348080158233643e-01,3.525301218032836914e-01,-8.578422665596008301e-01,1.803387999534606934e-01,2.339152842760086060e-01,1.065454244613647461e+00
-2.613033056259155273e-01,5.078123211860656738e-01,-1.418444871902465820e+00,8.769503235816955566e-01,6.717146039009094238e-01,-5.752380490303039551e-01,-1.564082056283950806e-01,8.490681648254394531e-01,-8.836616761982440948e-03,3.986487090587615967e-01,-1.226758241653442383e+00,3.158229291439056396e-01,4.896487295627593994e-01,1.150952577590942383e+00
-5.798686146736145020e-01,8.106532692909240723e-01,-1.544611930847167969e+00,6.295666694641113281e-01,9.577067494392395020e-01,-3.437030613422393799e-01,-3.802965581417083740e-01,3.794984221458435059e-01,4.200343787670135498e-02,6.013879776000976562e-01,-1.639504313468933105e+00,6.803761124610900879e-01,7.509235143661499023e-01,1.251242876052856445e+00
-9.573912620544433594e-01,1.112656712532043457e+00,-1.415875196456909180e+00,5.000288486480712891e-01,8.405966162681579590e-01,1.491411775350570679e-01,-8.973724842071533203e-01,-1.410842239856719971e-01,-9.450164437294006348e-02,1.018910765647888184e+00,-1.740216970443725586e+00,6.028867959976196289e-01,9.597836732864379883e-01,1.361278891563415527e+00
-1.123695135116577148e+00,9.247483015060424805e-01,-1.237523436546325684e+00,1.972050815820693970e-01,1.024714112281799316e+00,3.715284168720245361e-01,-6.532970666885375977e-01,-7.498520612716674805e-01,2.039174735546112061e-02,9.416412711143493652e-01,-1.660047411918640137e+00,5.286833047866821289e-01,9.715232849121093750e-01,1.533408999443054199e+00
-1.023904919624328613e+00,1.055061936378479004e+00,-9.855062961578369141e-01,5.555135756731033325e-02,6.665350198745727539e-01,4.851452112197875977e-01,-3.757995367050170898e-01,-1.184729814529418945e+00,-3.401314318180084229e-01,9.334015250205993652e-01,-1.439425826072692871e+00,4.684153497219085693e-01,8.560296893119812012e-01,1.377459406852722168e+00
-8.752692341804504395e-01,5.395956635475158691e-01,-7.486141324043273926e-01,-2.470620870590209961e-01,6.453025341033935547e-01,6.509472131729125977e-01,-3.299885392189025879e-01,-1.712620019912719727e+00,-4.949930906295776367e-01,7.597817182540893555e-01,-1.117898344993591309e+00,5.439325571060180664e-01,6.484672427177429199e-01,9.884964227676391602e-01
-7.418423891067504883e-01,2.717475295066833496e-01,-7.361716628074645996e-01,-6.684240698814392090e-01,3.409758806228637695e-01,6.600204706192016602e-01,-1.304596960544586182e-01,-2.022991418838500977e+00,-5.373300909996032715e-01,7.333969473838806152e-01,-7.131446599960327148e-01,4.104004800319671631e-01,3.698810338973999023e-01,7.131642699241638184e-01
-6.734516024589538574e-01,1.868644058704376221e-01,-4.072900116443634033e-01,-3.391806781291961670e-01,-2.526084333658218384e-02,5.829920172691345215e-01,-1.625165790319442749e-01,-2.055219650268554688e+00,-8.424733877182006836e-01,1.912168413400650024e-02,-2.113767564296722412e-01,6.332396268844604492e-01,-1.249588653445243835e-01,1.288980990648269653e-01
-2.889191210269927979e-01,-1.353866755962371826e-01,-2.492859065532684326e-01,-6.082634925842285156e-01,-2.123208343982696533e-01,4.839188456535339355e-01,-5.090619996190071106e-02,-1.852006793022155762e+00,-9.145833253860473633e-01,-4.054338037967681885e-01,2.520933449268341064e-01,5.478884577751159668e-01,-6.862111687660217285e-01,-1.000033244490623474e-01
-2.977508902549743652e-01,-4.615489244461059570e-01,-1.851900368928909302e-01,-4.491208791732788086e-01,-6.650421023368835449e-01,3.719335794448852539e-01,-1.996838860213756561e-02,-1.652297496795654297e+00,-9.241514801979064941e-01,-9.871162176132202148e-01,5.561847090721130371e-01,4.140467047691345215e-01,-1.155238747596740723e+00,-9.461299777030944824e-01
-2.335053682327270508e-02,-5.286157131195068359e-01,1.333991885185241699e-01,-3.746529519557952881e-01,-7.841464281082153320e-01,-6.791569292545318604e-02,-5.993182584643363953e-02,-1.323781371116638184e+00,-6.970029473304748535e-01,-1.215323328971862793e+00,8.136007189750671387e-01,3.606164455413818359e-01,-1.456050753593444824e+00,-1.134600877761840820e+00
-7.459446787834167480e-02,-5.198786258697509766e-01,3.474714159965515137e-01,-3.727708756923675537e-01,-9.423950314521789551e-01,-2.057771086692810059e-01,2.807443439960479736e-01,-1.003591656684875488e+00,-6.280100941658020020e-01,-1.539016604423522949e+00,6.972987055778503418e-01,2.716274261474609375e-01,-1.603495121002197266e+00,-1.170650124549865723e+00
-5.699430406093597412e-02,-3.178165256977081299e-01,6.407185792922973633e-01,-3.683177530765533447e-01,-5.984259843826293945e-01,-9.222576767206192017e-02,2.250363081693649292e-01,-6.063110828399658203e-01,-2.383316606283187866e-01,-1.596408605575561523e+00,7.951000928878784180e-01,1.651615835726261139e-02,-1.800245404243469238e+00,-1.274715542793273926e+00
8.008767664432525635e-02,-3.343162238597869873e-01,9.239261150360107422e-01,-5.109186172485351562e-01,-5.364124178886413574e-01,-2.398895323276519775e-01,5.837939381599426270e-01,-2.556780278682708740e-01,1.615720987319946289e-01,-1.595060110092163086e+00,7.956429719924926758e-01,-3.371742963790893555e-01,-1.802344918251037598e+00,-1.186270833015441895e+00
1.494594216346740723e-01,-2.412936687469482422e-01,1.168927669525146484e+00,-6.099466681480407715e-01,-2.766542434692382812e-01,-3.504270017147064209e-01,9.459360837936401367e-01,-1.656000018119812012e-01,4.771689176559448242e-01,-1.330721020698547363e+00,8.008980154991149902e-01,-5.564613938331604004e-01,-1.595109701156616211e+00,-8.781316280364990234e-01
3.086669743061065674e-01,-2.703824341297149658e-01,1.241627454757690430e+00,-3.394111692905426025e-01,-2.096489071846008301e-01,-3.055834472179412842e-01,1.142266988754272461e+00,4.438072815537452698e-02,9.571508169174194336e-01,-1.064100623130798340e+00,6.665484309196472168e-01,-9.582612514495849609e-01,-1.638086080551147461e+00,-5.430046916007995605e-01
2.968564331531524658e-01,-1.479513645172119141e-01,1.132328510284423828e+00,-7.731521129608154297e-02,2.327399887144565582e-02,-3.180501461029052734e-01,1.369033575057983398e+00,1.879176199436187744e-01,9.724969863891601562e-01,-1.112421870231628418e+00,8.063097596168518066e-01,-9.176486134529113770e-01,-1.044594407081604004e+00,-4.747965037822723389e-01
5.049158334732055664e-01,-2.914845943450927734e-01,9.987311363220214844e-01,-4.229675233364105225e-02,2.397283464670181274e-01,-5.309656262397766113e-01,1.158208131790161133e+00,4.574642777442932129e-01,1.102179527282714844e+00,-9.580566883087158203e-01,7.417626976966857910e-01,-7.896291613578796387e-01,-7.771739363670349121e-01,-2.098893374204635620e-01
4.422971904277801514e-01,-1.754801720380783081e-01,5.819951891899108887e-01,1.082947403192520142e-01,1.981522440910339355e-01,-8.047413825988769531e-01,7.160708904266357422e-01,5.248782634735107422e-01,1.089767098426818848e+00,-8.576108217239379883e-01,8.765188455581665039e-01,-5.115706920623779297e-01,-3.102796971797943115e-01,-3.533375635743141174e-02
3.360746502876281738e-01,-1.587324887514114380e-01,2.445021271705627441e-01,4.204002618789672852e-01,3.016582131385803223e-01,-7.121043205261230469e-01,3.039644062519073486e-01,8.604431748390197754e-01,1.016214370727539062e+00,-8.557199239730834961e-01,5.388786792755126953e-01,-4.459720551967620850e-01,9.140718728303909302e-02,1.155994236469268799e-01
3.002073056995868683e-02,1.635020673274993896e-01,-1.185266971588134766e-01,8.345174193382263184e-01,3.296563625335693359e-01,-9.428740739822387695e-01,-2.339806705713272095e-01,9.920318126678466797e-01,9.717541337013244629e-01,-4.807958900928497314e-01,2.829209268093109131e-01,1.443991661071777344e-01,1.960235685110092163e-01,8.929108083248138428e-02
-5.119858384132385254e-01,5.052021741867065430e-01,-5.477651357650756836e-01,1.262662529945373535e+00,6.352925300598144531e-02,-8.541772961616516113e-01,-8.029114603996276855e-01,1.207490205764770508e+00,8.689318895339965820e-01,-2.107570469379425049e-01,-1.273256540298461914e-02,3.685828745365142822e-01,6.245978474617004395e-01,6.268962472677230835e-02
-7.051802277565002441e-01,7.084766030311584473e-01,-4.061441123485565186e-01,1.521739482879638672e+00,3.125252425670623779e-01,-8.988776803016662598e-01,-1.351858496665954590e+00,1.246134042739868164e+00,7.383542060852050781e-01,4.440540671348571777e-01,-4.163495600223541260e-01,7.769055962562561035e-01,6.972219347953796387e-01,2.450988292694091797e-01
-1.006817102432250977e+00,1.311915993690490723e+00,-3.954919576644897461e-01,1.732943177223205566e+00,3.500703871250152588e-01,-9.744389653205871582e-01,-1.460468769073486328e+00,1.333760261535644531e+00,8.750936388969421387e-01,8.095881938934326172e-01,-6.654521822929382324e-01,9.541052579879760742e-01,8.855155706405639648e-01,1.672249138355255127e-01
-1.003480076789855957e+00,1.340064048767089844e+00,-5.051741003990173340e-01,1.494931340217590332e+00,3.430508375167846680e-01,-8.064634203910827637e-01,-1.339648842811584473e+00,1.044976234436035156e+00,5.975137948989868164e-01,1.197132229804992676e+00,-7.586842775344848633e-01,1.147356271743774414e+00,1.096740722656250000e+00,5.104598999023437500e-01
-9.477291107177734375e-01,1.520295977592468262e+00,-2.843249440193176270e-01,1.401677846908569336e+00,3.579110801219940186e-01,-2.023268491029739380e-01,-1.369347691535949707e+00,7.432610392570495605e-01,4.272201657295227051e-01,1.782020688056945801e+00,-9.176540970802307129e-01,1.258666992187500000e+00,1.338019728660583496e+00,7.086421847343444824e-01
-7.121588587760925293e-01,1.312090992927551270e+00,-3.393179178237915039e-02,9.025011062622070312e-01,3.842649459838867188e-01,6.909437477588653564e-02,-1.293244361877441406e+00,3.142103552818298340e-01,-5.920385941863059998e-02,2.119425296783447266e+00,-7.827283143997192383e-01,1.106583237648010254e+00,1.436856031417846680e+00,7.024329900741577148e-01
-5.471132993698120117e-01,8.966988325119018555e-01,-2.242331355810165405e-01,6.368044018745422363e-01,1.085638627409934998e-01,5.756390094757080078e-01,-1.067842364311218262e+00,-3.016653060913085938e-01,-2.231295555830001831e-01,2.006195545196533203e+00,-7.117874622344970703e-01,7.503363490104675293e-01,1.602757215499877930e+00,6.932424306869506836e-01
-2.731563448905944824e-01,7.941287159919738770e-01,-2.715257406234741211e-01,1.159516945481300354e-01,1.490108110010623932e-02,1.003205657005310059e+00,-9.482007622718811035e-01,-5.193024277687072754e-01,-4.826374053955078125e-01,1.736307621002197266e+00,-1.405158340930938721e-01,6.564096808433532715e-01,1.826436519622802734e+00,5.964593887329101562e-01
1.014135405421257019e-01,3.358944952487945557e-01,-1.065938547253608704e-01,-1.381889134645462036e-01,-8.850289136171340942e-02,1.308258771896362305e+00,-8.499339222908020020e-01,-8.912246823310852051e-01,-1.024157404899597168e+00,1.457269906997680664e+00,4.400214925408363342e-02,5.161223411560058594e-01,1.647845149040222168e+00,1.295184940099716187e-01
3.615406453609466553e-01,-1.407229602336883545e-01,1.443329155445098877e-01,-6.138963699340820312e-01,-4.805301725864410400e-01,1.333600282669067383e+00,-7.149927616119384766e-01,-9.160290956497192383e-01,-1.210587859153747559e+00,1.138461709022521973e+00,4.003368914127349854e-01,4.134241938591003418e-01,1.424657583236694336e+00,-2.526812851428985596e-01
5.461612343788146973e-01,-4.783094525337219238e-01,1.853551417589187622e-01,-9.489858150482177734e-01,-8.933385610580444336e-01,1.482769489288330078e+00,-3.373590111732482910e-01,-8.978055715560913086e-01,-1.581431627273559570e+00,8.418446183204650879e-01,5.142406821250915527e-01,2.545495033264160156e-01,1.339149475097656250e+00,-7.346674799919128418e-01
6.342425942420959473e-01,-7.771701216697692871e-01,3.424716889858245850e-01,-7.934150695800781250e-01,-1.028626441955566406e+00,1.695957303047180176e+00,-3.039389252662658691e-01,-8.426773548126220703e-01,-1.445679903030395508e+00,5.331197381019592285e-01,9.376245737075805664e-01,9.430747479200363159e-02,8.327977061271667480e-01,-1.001038670539855957e+00
7.366083860397338867e-01,-8.210992813110351562e-01,4.969265758991241455e-01,-1.019718050956726074e+00,-1.046447992324829102e+00,1.273600578308105469e+00,1.538754850625991821e-01,-4.597187042236328125e-01,-1.246571302413940430e+00,3.622670173645019531e-01,7.149396538734436035e-01,1.141755804419517517e-01,2.944877147674560547e-01,-1.033641576766967773e+00
8.997069001197814941e-01,-8.535645604133605957e-01,6.892326474189758301e-01,-1.179636836051940918e+00,-1.005222439765930176e+00,1.262040257453918457e+00,9.713758230209350586e-01,1.478706896305084229e-01,-1.164084434509277344e+00,3.245072066783905029e-01,4.863178730010986328e-01,-2.725752890110015869e-01,-3.542962372303009033e-01,-1.165951728820800781e+00
7.777090072631835938e-01,-1.131805300712585449e+00,7.157284021377563477e-01,-1.000398635864257812e+00,-9.890667796134948730e-01,8.698703646659851074e-01,1.416454076766967773e+00,3.076300323009490967e-01,-1.091117143630981445e+00,-8.382379263639450073e-02,3.782297670841217041e-01,-5.887961983680725098e-01,-1.012233495712280273e+00,-7.973043918609619141e-01
1.213439226150512695e+00,-1.065212607383728027e+00,9.722846746444702148e-01,-1.239193439483642578e+00,-4.938094317913055420e-01,5.262846946716308594e-01,1.929092764854431152e+00,6.548143029212951660e-01,-5.601915121078491211e-01,-6.601303070783615112e-02,3.715893328189849854e-01,-9.768198728561401367e-01,-1.103491067886352539e+00,-5.835227370262145996e-01
1.336497664451599121e+00,-1.249221682548522949e+00,7.054404616355895996e-01,-1.353765606880187988e+00,-1.036325916647911072e-01,3.383943140506744385e-01,1.994130015373229980e+00,7.949063777923583984e-01,-2.116569280624389648e-01,-7.173802852630615234e-01,-1.484833774156868458e-03,-1.237957715988159180e+00,-1.268044710159301758e+00,-3.516143560409545898e-01
1.360500812530517578e+00,-1.373618245124816895e+00,2.414726614952087402e-01,-1.325954079627990723e+00,3.073323965072631836e-01,3.315341472625732422e-01,2.092365264892578125e+00,7.928293943405151367e-01,2.406209409236907959e-01,-9.829230308532714844e-01,-3.125900626182556152e-01,-1.598507285118103027e+00,-1.555658221244812012e+00,-4.739743471145629883e-02
1.243052601814270020e+00,-1.403616070747375488e+00,-5.055690556764602661e-02,-1.258863210678100586e+00,4.010488390922546387e-01,-5.804653838276863098e-02,1.811650872230529785e+00,7.994662523269653320e-01,1.450715512037277222e-01,-1.323456287384033203e+00,-5.436046123504638672e-01,-1.877354502677917480e+00,-1.432347416877746582e+00,3.990803360939025879e-01
1.074590921401977539e+00,-1.261800527572631836e+00,-6.040227413177490234e-01,-1.006151676177978516e+00,5.416252017021179199e-01,-2.825991511344909668e-01,1.336421608924865723e+00,5.638430714607238770e-01,4.854515492916107178e-01,-1.457286357879638672e+00,-5.859911441802978516e-01,-2.077454566955566406e+00,-1.253560304641723633e+00,4.474511146545410156e-01
7.627832889556884766e-01,-1.123647332191467285e+00,-6.615272760391235352e-01,-9.285498261451721191e-01,8.753426074981689453e-01,-3.165556788444519043e-01,1.049540400505065918e+00,6.019203066825866699e-01,4.425387382507324219e-01,-1.548645496368408203e+00,-6.771832108497619629e-01,-1.844735980033874512e+00,-1.002722620964050293e+00,7.331321239471435547e-01
2.412566691637039185e-01,-8.568425774574279785e-01,-1.063022255897521973e+00,-3.950162529945373535e-01,9.099584221839904785e-01,-5.859146714210510254e-01,5.000949501991271973e-01,3.536030948162078857e-01,6.089255809783935547e-01,-1.277248382568359375e+00,-7.228397130966186523e-01,-1.467195510864257812e+00,-7.494590878486633301e-01,6.914161443710327148e-01
-2.592809498310089111e-01,-4.824830293655395508e-01,-1.258941054344177246e+00,-1.216589752584695816e-02,1.004815101623535156e+00,-9.027132987976074219e-01,-7.596394047141075134e-03,5.651696920394897461e-01,7.721827030181884766e-01,-9.257460832595825195e-01,-9.815107583999633789e-01,-1.056395292282104492e+00,-5.488789081573486328e-01,8.900586962699890137e-01
-8.089763522148132324e-01,-1.679620333015918732e-02,-1.262895107269287109e+00,4.239313602447509766e-01,8.269413113594055176e-01,-1.169397354125976562e+00,-2.225947529077529907e-01,3.932904899120330811e-01,8.959442377090454102e-01,-7.675080299377441406e-01,-8.324810862541198730e-01,-6.177844405174255371e-01,-1.643165498971939087e-01,6.985611319541931152e-01
-8.760922551155090332e-01,5.223507285118103027e-01,-1.010091662406921387e+00,1.083867669105529785e+00,1.105366826057434082e+00,-1.368797302246093750e+00,-3.905666470527648926e-01,2.840700149536132812e-01,9.311643242835998535e-01,-2.840570509433746338e-01,-8.985240459442138672e-01,2.031042873859405518e-01,-1.467600613832473755e-01,7.896634340286254883e-01
-9.296886324882507324e-01,1.033869028091430664e+00,-7.743516564369201660e-01,1.355821132659912109e+00,1.101009964942932129e+00,-1.396817088127136230e+00,-9.078611135482788086e-01,7.108432054519653320e-02,9.063805937767028809e-01,5.273928120732307434e-02,-1.070522069931030273e+00,4.725065231323242188e-01,6.736506521701812744e-02,1.057304739952087402e+00
-9.336206316947937012e-01,1.369697093963623047e+00,-7.412217259407043457e-01,1.677514076232910156e+00,1.078758239746093750e+00,-1.741784811019897461e+00,-9.420582652091979980e-01,-1.757206022739410400e-01,9.974470734596252441e-01,4.258106052875518799e-01,-8.911845088005065918e-01,9.552543163299560547e-01,2.015643864870071411e-01,9.562522172927856445e-01
-1.060114026069641113e+00,1.584805369377136230e+00,-7.374487519264221191e-01,1.581948518753051758e+00,1.048887133598327637e+00,-1.462625384330749512e+00,-9.176859855651855469e-01,-4.620497226715087891e-01,6.743046045303344727e-01,4.333738386631011963e-01,-8.232231736183166504e-01,1.401884317398071289e+00,5.665160343050956726e-02,9.763721227645874023e-01
-8.573562502861022949e-01,1.685288786888122559e+00,-5.625194311141967773e-01,1.415100574493408203e+00,7.362766861915588379e-01,-1.497855663299560547e+00,-1.182848095893859863e+00,-8.261899352073669434e-01,4.088194668292999268e-01,3.647856116294860840e-01,-5.187083482742309570e-01,1.421979427337646484e+00,1.636780947446823120e-01,7.672967314720153809e-01
-7.812162637710571289e-01,1.473684906959533691e+00,-6.126630306243896484e-01,1.527259469032287598e+00,6.430526971817016602e-01,-1.247964143753051758e+00,-1.358803391456604004e+00,-1.286008954048156738e+00,2.120188474655151367e-01,2.445437312126159668e-01,-9.849331527948379517e-02,1.467502713203430176e+00,9.741301834583282471e-02,8.111298084259033203e-01
-6.466175317764282227e-01,1.280512809753417969e+00,-1.594680100679397583e-01,1.236653566360473633e+00,1.771365553140640259e-01,-9.495756030082702637e-01,-1.655810117721557617e+00,-1.649220347404479980e+00,-5.649729445576667786e-02,2.848049402236938477e-01,2.501804232597351074e-01,1.564201116561889648e+00,2.582981884479522705e-01,8.553537726402282715e-02
-6.413097381591796875e-01,1.118800997734069824e+00,2.217334657907485962e-01,7.121896743774414062e-01,-2.084758281707763672e-01,-5.203797817230224609e-01,-1.445284366607666016e+00,-2.016998052597045898e+00,-4.189539253711700439e-01,3.933823108673095703e-01,6.220833659172058105e-01,1.263334155082702637e+00,2.474987208843231201e-01,-4.071027636528015137e-01
-6.320352554321289062e-01,9.837384819984436035e-01,5.311100482940673828e-01,3.667850494384765625e-01,-7.144392132759094238e-01,3.071181289851665497e-02,-1.369806051254272461e+00,-1.782626509666442871e+00,-4.861170053482055664e-01,3.471032381057739258e-01,1.079299092292785645e+00,1.406931400299072266e+00,3.889523446559906006e-01,-7.961734533309936523e-01
-4.362421929836273193e-01,5.820500850677490234e-01,7.599254846572875977e-01,2.785688340663909912e-01,-1.140379786491394043e+00,5.539850592613220215e-01,-1.113812327384948730e+00,-1.979339957237243652e+00,-6.474343538284301758e-01,3.978952467441558838e-01,1.398632287979125977e+00,1.222777724266052246e+00,6.224491596221923828e-01,-1.286008596420288086e+00
-8.838787674903869629e-02,6.233070492744445801e-01,1.273734927177429199e+00,-1.009129807353019714e-01,-1.356978297233581543e+00,7.867649197578430176e-01,-6.546165943145751953e-01,-1.459494233131408691e+00,-6.410311460494995117e-01,5.388820171356201172e-01,1.652435064315795898e+00,1.426394343376159668e+00,3.496745526790618896e-01,-1.743524193763732910e+00
-1.183567866683006287e-01,4.254246354103088379e-01,1.434610128402709961e+00,-1.062195450067520142e-01,-1.584034085273742676e+00,8.733121752738952637e-01,1.162676699459552765e-02,-1.146666407585144043e+00,-3.990868330001831055e-01,2.225521802902221680e-01,1.574241518974304199e+00,1.345815062522888184e+00,4.129106104373931885e-01,-1.962842702865600586e+00
2.731142342090606689e-01,4.188461601734161377e-01,1.717074155807495117e+00,-1.679270863533020020e-01,-1.685956478118896484e+00,1.136705636978149414e+00,5.210176706314086914e-01,-6.518824100494384766e-01,-2.557777762413024902e-01,2.015133798122406006e-01,1.534489870071411133e+00,1.229708313941955566e+00,-1.184314489364624023e-01,-2.021165370941162109e+00
5.068477392196655273e-01,-5.556746572256088257e-02,1.487260222434997559e+00,-4.691686034202575684e-01,-1.497415542602539062e+00,1.001561403274536133e+00,8.726719021797180176e-01,-4.495504498481750488e-02,-5.683705583214759827e-02,-8.240143954753875732e-02,1.279227018356323242e+00,7.103773951530456543e-01,-2.151733636856079102e-01,-1.789187312126159668e+00
6.667305827140808105e-01,-3.130804896354675293e-01,1.251037240028381348e+00,-5.471156835556030273e-01,-1.214167594909667969e+00,1.128573894500732422e+00,1.434233546257019043e+00,5.862135291099548340e-01,1.983511447906494141e-01,-5.805740952491760254e-01,9.625450968742370605e-01,4.126425683498382568e-01,-6.230664849281311035e-01,-1.308961868286132812e+00
7.080923318862915039e-01,-5.390298366546630859e-01,8.063985109329223633e-01,-5.409870743751525879e-01,-9.820674657821655273e-01,7.881004810333251953e-01,1.069671154022216797e+00,9.142524003982543945e-01,3.241724371910095215e-01,-1.097425341606140137e+00,4.862172901630401611e-01,-1.780762895941734314e-02,-9.860618710517883301e-01,-9.844258427619934082e-01
6.248279809951782227e-01,-1.157967329025268555e+00,3.251909017562866211e-01,-7.503543496131896973e-01,-4.480664134025573730e-01,7.558189034461975098e-01,8.773008584976196289e-01,1.297889947891235352e+00,3.455559015274047852e-01,-1.018971443176269531e+00,6.627193093299865723e-02,-5.305974483489990234e-01,-1.054495573043823242e+00,-7.224590778350830078e-01
2.518979012966156006e-01,-1.100796222686767578e+00,2.490672469139099121e-01,-9.471229314804077148e-01,-2.768649160861968994e-01,4.871092140674591064e-01,7.621238231658935547e-01,1.342242956161499023e+00,3.107395470142364502e-01,-9.922036528587341309e-01,-1.640481799840927124e-01,-1.003052473068237305e+00,-1.087170124053955078e+00,-2.527682483196258545e-01
-1.871676146984100342e-01,-1.262524724006652832e+00,-2.316631525754928589e-01,-8.824334740638732910e-01,-1.433712840080261230e-01,3.590259253978729248e-01,4.954514205455780029e-01,1.526846051216125488e+00,4.221870303153991699e-01,-9.405104517936706543e-01,-3.710402548313140869e-01,-1.463616728782653809e+00,-1.000199079513549805e+00,-1.408854126930236816e-02
-4.645742177963256836e-01,-1.370527267456054688e+00,-3.395033478736877441e-01,-8.289142251014709473e-01,2.882444486021995544e-02,3.633387088775634766e-01,3.939647674560546875e-01,1.524924635887145996e+00,2.802166044712066650e-01,-6.857988238334655762e-01,-3.457984328269958496e-01,-1.727065682411193848e+00,-9.921863675117492676e-01,3.741766139864921570e-02
-3.736177682876586914e-01,-1.344418883323669434e+00,-3.529511094093322754e-01,-6.274778842926025391e-01,3.823501765727996826e-01,4.238934814929962158e-01,1.769921779632568359e-01,1.269657850265502930e+00,3.547968864440917969e-01,-3.920831978321075439e-01,-5.113660097122192383e-01,-1.689447641372680664e+00,-4.441514909267425537e-01,5.528509616851806641e-01
-7.736819386482238770e-01,-1.197046875953674316e+00,-4.608253240585327148e-01,-4.054741561412811279e-01,5.234652757644653320e-01,3.528193831443786621e-01,1.823570430278778076e-01,1.112004280090332031e+00,3.456528186798095703e-01,1.648861318826675415e-01,-5.684543251991271973e-01,-1.815466284751892090e+00,6.752806250005960464e-03,6.568431854248046875e-01
-8.218984603881835938e-01,-5.714727640151977539e-01,-5.224581956863403320e-01,-1.481258124113082886e-01,7.989517450332641602e-01,2.553358078002929688e-01,-5.864392593502998352e-02,1.207118988037109375e+00,3.403600454330444336e-01,1.812137514352798462e-01,-5.909770727157592773e-01,-1.462068796157836914e+00,5.745906233787536621e-01,8.840745091438293457e-01
-6.402789950370788574e-01,-2.502211928367614746e-01,-5.450746417045593262e-01,9.723220765590667725e-02,9.990636706352233887e-01,1.917708665132522583e-01,-5.994804203510284424e-02,1.244398832321166992e+00,1.926248371601104736e-01,3.896818459033966064e-01,-7.546005845069885254e-01,-1.096126437187194824e+00,9.236526489257812500e-01,1.331175804138183594e+00
-5.274457335472106934e-01,2.203079313039779663e-01,-6.519295573234558105e-01,3.870139122009277344e-01,1.149601936340332031e+00,-7.555047422647476196e-02,-3.547312319278717041e-02,7.761300206184387207e-01,2.419804781675338745e-01,7.602383494377136230e-01,-8.809939622879028320e-01,-8.375554680824279785e-01,1.300328969955444336e+00,1.408364295959472656e+00
-4.045361876487731934e-01,1.729031801223754883e-01,-8.078681826591491699e-01,5.721338391304016113e-01,1.410310745239257812e+00,-2.607188224792480469e-01,-5.034166574478149414e-01,7.090411782264709473e-01,7.816862314939498901e-02,6.262198686599731445e-01,-8.872517347335815430e-01,-3.374734818935394287e-01,1.576424479484558105e+00,1.959670662879943848e+00
-2.802307009696960449e-01,3.878548145294189453e-01,-8.543047308921813965e-01,8.407970070838928223e-01,1.505968093872070312e+00,-6.242225766181945801e-01,-5.137171149253845215e-01,6.359749436378479004e-01,4.032056406140327454e-02,8.464282155036926270e-01,-8.521132469177246094e-01,-1.242655590176582336e-01,1.462233185768127441e+00,1.802732348442077637e+00
-4.563585296273231506e-02,5.057386755943298340e-01,-5.958897471427917480e-01,9.531880021095275879e-01,1.415302276611328125e+00,-5.789971947669982910e-01,-6.913096308708190918e-01,6.834233552217483521e-02,-4.160078167915344238e-01,1.070586204528808594e+00,-5.431920886039733887e-01,6.087200343608856201e-02,1.585393071174621582e+00,1.874812483787536621e+00
1.074950993061065674e-01,2.258570939302444458e-01,-4.263496100902557373e-01,4.248010516166687012e-01,1.134292721748352051e+00,-5.830684304237365723e-01,-6.747612953186035156e-01,-1.577162444591522217e-01,-5.922560095787048340e-01,1.216907024383544922e+00,-4.106381833553314209e-01,3.143522441387176514e-01,1.332835912704467773e+00,1.618547081947326660e+00
2.764171063899993896e-01,5.174782872200012207e-01,-3.258000910282135010e-01,4.173057377338409424e-01,9.012475013732910156e-01,-7.814642190933227539e-01,-5.763052701950073242e-01,-7.230362892150878906e-01,-9.405118227005004883e-01,1.484708070755004883e+00,-1.600691676139831543e-01,3.693502247333526611e-01,1.151270508766174316e+00,1.265904307365417480e+00
1.975742876529693604e-01,2.594753205776214600e-01,3.189082741737365723e-01,-4.494746029376983643e-02,5.708538293838500977e-01,-5.160420536994934082e-01,-4.160284399986267090e-01,-9.225886464118957520e-01,-1.070303916931152344e+00,1.562849402427673340e+00,3.141230344772338867e-01,3.178345263004302979e-01,1.040897965431213379e+00,7.638487219810485840e-01
2.824465036392211914e-01,5.527868866920471191e-01,4.963509142398834229e-01,-2.472477257251739502e-01,1.135370731353759766e-01,-2.537441551685333252e-01,-1.122433170676231384e-01,-1.209259867668151855e+00,-1.148805499076843262e+00,1.543437361717224121e+00,4.622980058193206787e-01,4.092542827129364014e-01,8.847344517707824707e-01,1.495912820100784302e-01
6.951116919517517090e-01,3.441405892372131348e-01,6.379629969596862793e-01,-3.404792547225952148e-01,-3.558343350887298584e-01,-9.604580700397491455e-02,5.248541831970214844e-01,-1.252776265144348145e+00,-1.259367585182189941e+00,1.369379043579101562e+00,7.275900244712829590e-01,3.964107930660247803e-01,7.756931781768798828e-01,-6.050506234169006348e-01
7.903015613555908203e-01,3.739911019802093506e-01,6.422815918922424316e-01,-7.448067665100097656e-01,-9.148932695388793945e-01,3.632967174053192139e-01,8.952707052230834961e-01,-1.218503117561340332e+00,-9.662542939186096191e-01,1.374335885047912598e+00,8.403382301330566406e-01,6.378235220909118652e-01,6.110761761665344238e-01,-1.002194046974182129e+00
1.160845875740051270e+00,4.472381770610809326e-01,7.739504575729370117e-01,-9.446559548377990723e-01,-7.610027790069580078e-01,6.327261328697204590e-01,1.023216843605041504e+00,-1.051327466964721680e+00,-8.507775068283081055e-01,5.943531394004821777e-01,7.315481901168823242e-01,6.103198528289794922e-01,3.768063485622406006e-01,-1.398888111114501953e+00
1.408915877342224121e+00,3.989102244377136230e-01,3.171533942222595215e-01,-7.006728053092956543e-01,-1.104827404022216797e+00,7.034327983856201172e-01,1.207000851631164551e+00,-6.971204280853271484e-01,-3.475628495216369629e-01,1.164654120802879333e-01,4.954502284526824951e-01,8.824138641357421875e-01,1.271712034940719604e-01,-1.370536684989929199e+00
1.322532176971435547e+00,2.763566374778747559e-01,5.713310465216636658e-02,-8.600632548332214355e-01,-1.007154107093811035e+00,8.721966147422790527e-01,9.005756378173828125e-01,-4.492270946502685547e-01,1.408433448523283005e-02,-3.664682805538177490e-01,1.463361382484436035e-01,8.115519881248474121e-01,-1.368945091962814331e-01,-1.517848014831542969e+00
1.255082488059997559e+00,2.605079300701618195e-02,-2.452191114425659180e-01,-4.944076836109161377e-01,-8.848295807838439941e-01,8.932353854179382324e-01,6.318258643150329590e-01,7.328794896602630615e-02,3.527546525001525879e-01,-8.748669028282165527e-01,-3.443386778235435486e-02,6.176431179046630859e-01,-6.167637705802917480e-01,-1.410183668136596680e+00
1.038388371467590332e+00,-4.062036573886871338e-01,-3.510015010833740234e-01,-4.851568043231964111e-01,-8.200800418853759766e-01,6.849490404129028320e-01,5.572778582572937012e-01,5.961896777153015137e-01,6.292970776557922363e-01,-1.214011788368225098e+00,-4.702461361885070801e-01,4.396488964557647705e-01,-1.020669221878051758e+00,-1.302144050598144531e+00
4.866603314876556396e-01,-5.266233086585998535e-01,-5.437814593315124512e-01,-5.625695586204528809e-01,-6.503427028656005859e-01,4.208950996398925781e-01,9.682501852512359619e-02,6.834653019905090332e-01,7.067451477050781250e-01,-1.352162241935729980e+00,-5.179101824760437012e-01,1.033012047410011292e-01,-1.333713412284851074e+00,-1.243074893951416016e+00
1.453039795160293579e-01,-8.419834971427917480e-01,-5.411409139633178711e-01,-3.123743832111358643e-01,-5.662809610366821289e-01,1.091994717717170715e-01,-2.498341947793960571e-01,7.100313305854797363e-01,8.229889869689941406e-01,-1.594382882118225098e+00,-6.140125393867492676e-01,-3.020722568035125732e-01,-1.762215137481689453e+00,-1.158907055854797363e+00
-1.550782322883605957e-01,-7.810391187667846680e-01,-4.520676434040069580e-01,-3.964886665344238281e-01,-3.626523613929748535e-01,1.566790491342544556e-01,-2.470699846744537354e-01,7.470864057540893555e-01,9.198606014251708984e-01,-1.494940161705017090e+00,-7.464827299118041992e-01,-4.880833029747009277e-01,-2.020786285400390625e+00,-1.058149337768554688e+00
-5.440424680709838867e-01,-6.084128618240356445e-01,-6.152172088623046875e-01,-2.911070585250854492e-01,-4.081323444843292236e-01,-4.316948726773262024e-02,-4.261105060577392578e-01,5.312349796295166016e-01,1.070084095001220703e+00,-1.453109860420227051e+00,-5.848103761672973633e-01,-9.990413784980773926e-01,-2.025788545608520508e+00,-7.167661190032958984e-01
-8.127418756484985352e-01,-4.829015731811523438e-01,-3.992678225040435791e-01,-1.473171114921569824e-01,-2.917699217796325684e-01,-2.577053010463714600e-01,-4.705241918563842773e-01,1.271951347589492798e-01,9.784298539161682129e-01,-1.238151669502258301e+00,-4.699285030364990234e-01,-8.806673884391784668e-01,-1.852519035339355469e+00,-7.883683443069458008e-01
-1.036760568618774414e+00,-2.361360639333724976e-01,-5.476052761077880859e-01,8.290190249681472778e-03,-2.211117148399353027e-01,-2.202962487936019897e-01,-7.838945984840393066e-01,1.813571006059646606e-01,1.148996353149414062e+00,-1.470808506011962891e+00,-2.511512637138366699e-01,-8.548628687858581543e-01,-1.751460194587707520e+00,-2.388310283422470093e-01
-8.708708882331848145e-01,1.104682460427284241e-01,-5.088835954666137695e-01,4.974235594272613525e-01,-2.065368890762329102e-01,-5.574061274528503418e-01,-8.670916557312011719e-01,-2.768619358539581299e-01,1.197653532028198242e+00,-1.442167878150939941e+00,-4.443866014480590820e-02,-9.283099174499511719e-01,-1.459081530570983887e+00,-1.895337365567684174e-02
-1.164427518844604492e+00,4.107955992221832275e-01,-4.811396598815917969e-01,8.764581084251403809e-01,-6.692487001419067383e-02,-5.971615910530090332e-01,-1.171863436698913574e+00,-4.039355739951133728e-02,1.055156946182250977e+00,-1.260405778884887695e+00,-2.129106223583221436e-02,-4.038045406341552734e-01,-1.034656643867492676e+00,2.820731699466705322e-01
-7.979984283447265625e-01,6.911967992782592773e-01,-4.872924685478210449e-01,1.186076402664184570e+00,6.711183190345764160e-01,-6.997610926628112793e-01,-1.309849023818969727e+00,-3.087774515151977539e-01,9.968475699424743652e-01,-1.303613185882568359e+00,2.352938503026962280e-01,-1.447721719741821289e-01,-6.454367637634277344e-01,9.056836366653442383e-01
-9.369921684265136719e-01,7.973117828369140625e-01,-4.816814064979553223e-01,1.440463423728942871e+00,5.315169095993041992e-01,-5.574818849563598633e-01,-1.461121678352355957e+00,-4.155718982219696045e-01,6.041845083236694336e-01,-1.090600013732910156e+00,3.981681168079376221e-01,2.696771621704101562e-01,1.677086800336837769e-01,1.205817461013793945e+00
-9.566322565078735352e-01,8.296838998794555664e-01,2.678144574165344238e-01,1.729476690292358398e+00,1.043220639228820801e+00,-9.002387523651123047e-01,-1.532343149185180664e+00,-4.656728804111480713e-01,2.594034075736999512e-01,-3.556419909000396729e-01,4.285628795623779297e-01,7.608168721199035645e-01,4.976863563060760498e-01,1.494789123535156250e+00
-8.302837014198303223e-01,7.247840166091918945e-01,4.647206366062164307e-01,1.714463472366333008e+00,8.338776230812072754e-01,-9.956139326095581055e-01,-1.342325448989868164e+00,-6.471943259239196777e-01,3.392400592565536499e-02,3.119587898254394531e-01,7.099469304084777832e-01,7.029268741607666016e-01,7.735035419464111328e-01,1.525978446006774902e+00
-8.581262230873107910e-01,9.030736088752746582e-01,8.874217271804809570e-01,1.491509675979614258e+00,6.615576148033142090e-01,-1.142543077468872070e+00,-7.123503088951110840e-01,-7.722840309143066406e-01,-3.742144405841827393e-01,6.164904236793518066e-01,6.163995862007141113e-01,1.000164985656738281e+00,1.207096934318542480e+00,1.498890995979309082e+00
-4.078901410102844238e-01,6.704986691474914551e-01,1.355120301246643066e+00,1.248106241226196289e+00,3.058272600173950195e-01,-1.033814072608947754e+00,-2.475306540727615356e-01,-8.524422645568847656e-01,-9.112686514854431152e-01,1.091916322708129883e+00,9.615385532379150391e-01,8.189362883567810059e-01,1.034465432167053223e+00,1.072456240653991699e+00
-3.590914607048034668e-01,7.182978987693786621e-01,1.391644597053527832e+00,7.168043851852416992e-01,1.994894444942474365e-01,-1.186583518981933594e+00,7.377544045448303223e-01,-1.242505073547363281e+00,-1.018896460533142090e+00,1.487501621246337891e+00,1.310409188270568848e+00,8.562515974044799805e-01,1.253307342529296875e+00,9.200828671455383301e-01
4.600926861166954041e-02,6.616757512092590332e-01,1.490486502647399902e+00,4.451220333576202393e-01,-2.048673033714294434e-01,-9.756503701210021973e-01,9.804674386978149414e-01,-1.109632253646850586e+00,-1.405925989151000977e+00,1.461450099945068359e+00,1.324416995048522949e+00,6.986592411994934082e-01,9.883948564529418945e-01,1.678308397531509399e-01
3.902557790279388428e-01,6.534397006034851074e-01,1.381614208221435547e+00,6.870436668395996094e-02,-4.088228046894073486e-01,-7.366932630538940430e-01,1.381456255912780762e+00,-1.206601858139038086e+00,-1.375793695449829102e+00,1.122773885726928711e+00,1.291053891181945801e+00,5.121667981147766113e-01,9.491291046142578125e-01,-1.369438413530588150e-02
5.831331014633178711e-01,5.001991987228393555e-01,1.191261172294616699e+00,-4.747350215911865234e-01,-6.571086645126342773e-01,-3.458094894886016846e-01,1.531606793403625488e+00,-8.444976806640625000e-01,-1.318868756294250488e+00,1.198252081871032715e+00,1.216033577919006348e+00,6.154413223266601562e-01,7.526351213455200195e-01,-4.530441761016845703e-01
8.653489947319030762e-01,2.011110037565231323e-01,7.896031141281127930e-01,-8.871787190437316895e-01,-6.013268828392028809e-01,-1.036637425422668457e-01,1.728518605232238770e+00,-7.748256921768188477e-01,-1.058087468147277832e+00,8.306414484977722168e-01,8.979181647300720215e-01,4.671028852462768555e-01,5.185047984123229980e-01,-6.103222966194152832e-01
8.913992643356323242e-01,3.998568654060363770e-02,5.151587128639221191e-01,-7.960529923439025879e-01,-7.109330296516418457e-01,4.939982593059539795e-01,1.568272590637207031e+00,-8.639042824506759644e-02,-6.431841850280761719e-01,7.101401090621948242e-01,5.156564116477966309e-01,4.130660295486450195e-01,6.156846284866333008e-01,-6.088151335716247559e-01
4.891873598098754883e-01,-3.744072318077087402e-01,2.254458218812942505e-01,-1.252046227455139160e+00,-3.929275870323181152e-01,8.793572783470153809e-01,1.391918897628784180e+00,3.817090094089508057e-01,-6.106415390968322754e-01,6.735990047454833984e-01,-4.914508014917373657e-02,4.257516860961914062e-01,6.346755027770996094e-01,-3.084051907062530518e-01
2.356899082660675049e-01,-6.288642883300781250e-01,1.528538465499877930e-01,-1.107944846153259277e+00,-1.036713644862174988e-01,1.259403347969055176e+00,1.332791090011596680e+00,8.190256357192993164e-01,-4.011293649673461914e-01,4.621173441410064697e-01,-5.630675554275512695e-01,1.672137826681137085e-01,3.968048095703125000e-01,-6.438353657722473145e-01
4.523454979062080383e-02,-1.092469096183776855e+00,-2.147309333086013794e-01,-1.115949869155883789e+00,-1.785155087709426880e-01,1.507048845291137695e+00,1.210168123245239258e+00,1.424113988876342773e+00,-2.186563760042190552e-01,4.675059020519256592e-01,-1.116891980171203613e+00,-9.737291932106018066e-02,2.126470357179641724e-01,-4.178767204284667969e-01
-1.659182161092758179e-01,-1.234847068786621094e+00,-2.729986310005187988e-01,-1.298258066177368164e+00,7.040517777204513550e-02,1.596831202507019043e+00,1.090559482574462891e+00,1.980934977531433105e+00,9.385913610458374023e-02,3.351962268352508545e-01,-1.468805909156799316e+00,-2.746167182922363281e-01,-5.102162249386310577e-03,-2.183755934238433838e-01
-1.832871139049530029e-01,-1.651071429252624512e+00,-5.375566482543945312e-01,-1.410971403121948242e+00,1.250720471143722534e-01,1.759542703628540039e+00,7.708808183670043945e-01,2.024507522583007812e+00,1.381951272487640381e-01,2.245222181081771851e-01,-1.547758102416992188e+00,-7.976549863815307617e-01,-1.746358424425125122e-01,-4.080972373485565186e-01
-3.496115207672119141e-01,-1.775305747985839844e+00,-7.541577219963073730e-01,-1.284765362739562988e+00,1.772468239068984985e-01,1.418513178825378418e+00,7.151032090187072754e-01,2.116370916366577148e+00,1.154238060116767883e-01,-3.022498488426208496e-01,-1.504729747772216797e+00,-1.255810499191284180e+00,-3.867174983024597168e-01,-1.784223616123199463e-01
-5.632008314132690430e-01,-1.712421059608459473e+00,-1.116604804992675781e+00,-1.126524329185485840e+00,1.086325272917747498e-01,1.389731884002685547e+00,2.574725151062011719e-01,1.957322001457214355e+00,2.059501409530639648e-01,-3.918620347976684570e-01,-1.178112030029296875e+00,-1.483663201332092285e+00,-5.787176489830017090e-01,-3.511431515216827393e-01
-4.183403551578521729e-01,-1.445141196250915527e+00,-1.257988929748535156e+00,-1.051242709159851074e+00,3.208180069923400879e-01,1.137735247611999512e+00,-2.476333379745483398e-01,1.685510039329528809e+00,4.942991137504577637e-01,-8.473681211471557617e-01,-1.203235268592834473e+00,-1.773269057273864746e+00,-6.103411316871643066e-01,-4.743777811527252197e-01
-3.234801590442657471e-01,-8.591894507408142090e-01,-1.441112875938415527e+00,-9.976466298103332520e-01,3.786269724369049072e-01,9.922299981117248535e-01,-6.905981302261352539e-01,1.183612108230590820e+00,5.044176578521728516e-01,-9.459195137023925781e-01,-1.129899144172668457e+00,-1.929510474205017090e+00,-9.845941662788391113e-01,-9.179134666919708252e-02
-2.458458989858627319e-01,-4.948234260082244873e-01,-1.256752371788024902e+00,-6.042450666427612305e-01,5.128237605094909668e-01,6.359027028083801270e-01,-1.333630323410034180e+00,7.917909622192382812e-01,6.888768672943115234e-01,-8.755060434341430664e-01,-7.039293646812438965e-01,-1.941327810287475586e+00,-8.353910446166992188e-01,7.786242663860321045e-02
-1.250100135803222656e-01,-4.125820994377136230e-01,-1.264004826545715332e+00,-1.932831555604934692e-01,6.524199247360229492e-01,4.920992553234100342e-01,-1.660866737365722656e+00,2.885705828666687012e-01,7.423977851867675781e-01,-8.141099810600280762e-01,-3.889389932155609131e-01,-1.561529517173767090e+00,-7.042298316955566406e-01,2.306449413299560547e-01
-2.144268900156021118e-01,1.195616796612739563e-01,-9.484769105911254883e-01,1.874827742576599121e-01,8.737939596176147461e-01,3.395597934722900391e-01,-1.801341056823730469e+00,1.182988882064819336e-01,7.338952422142028809e-01,-3.811242282390594482e-01,-2.970516979694366455e-01,-1.273346781730651855e+00,-3.617120683193206787e-01,6.071296334266662598e-01
-3.418368697166442871e-01,2.290710210800170898e-01,-5.283426642417907715e-01,7.673635482788085938e-01,1.029252886772155762e+00,5.238465964794158936e-02,-1.938309431076049805e+00,-1.641311198472976685e-01,7.059457898139953613e-01,-6.806275993585586548e-02,-6.283482909202575684e-02,-9.033852219581604004e-01,7.074419409036636353e-02,7.904933094978332520e-01
4.137446731328964233e-02,5.033465623855590820e-01,1.351216584444046021e-01,1.135997533798217773e+00,1.018133759498596191e+00,5.987070873379707336e-02,-1.648434162139892578e+00,-3.780120909214019775e-01,4.217914342880249023e-01,2.951769232749938965e-01,1.935895085334777832e-01,-1.346358507871627808e-01,2.400001585483551025e-01,8.826437592506408691e-01
-8.531393483281135559e-03,5.846714973449707031e-01,1.946076154708862305e-01,1.330700397491455078e+00,7.716748714447021484e-01,-2.013826072216033936e-01,-1.087958931922912598e+00,-7.473876476287841797e-01,6.843745708465576172e-02,4.966519474983215332e-01,2.778764665126800537e-01,1.371273547410964966e-01,6.373438239097595215e-01,8.618239760398864746e-01
3.119666576385498047e-01,9.590786099433898926e-01,8.529931306838989258e-01,1.709457516670227051e+00,4.002555906772613525e-01,-3.980799913406372070e-01,-8.040754795074462891e-01,-9.608792662620544434e-01,-8.232040703296661377e-02,6.216048598289489746e-01,3.221735656261444092e-01,6.196212172508239746e-01,9.167332053184509277e-01,7.099530696868896484e-01
6.728093624114990234e-01,1.134666085243225098e+00,7.953236699104309082e-01,1.642701029777526855e+00,-5.546035245060920715e-02,-8.699629306793212891e-01,-3.598418235778808594e-01,-1.045592308044433594e+00,-4.166699647903442383e-01,8.029850721359252930e-01,5.260488986968994141e-01,8.693685531616210938e-01,1.113344073295593262e+00,3.839890956878662109e-01
9.766127467155456543e-01,1.172422170639038086e+00,6.982055902481079102e-01,1.458940863609313965e+00,-5.023776888847351074e-01,-1.012139558792114258e+00,-2.674020528793334961e-01,-1.061525821685791016e+00,-5.841166377067565918e-01,6.777807474136352539e-01,8.701525330543518066e-01,1.088310241699218750e+00,1.059344649314880371e+00,-2.088811695575714111e-01
1.208509445190429688e+00,1.315671086311340332e+00,7.787281870841979980e-01,1.378861904144287109e+00,-6.236861944198608398e-01,-1.474884629249572754e+00,8.981062471866607666e-02,-1.405721306800842285e+00,-4.686757326126098633e-01,6.046439409255981445e-01,1.014495730400085449e+00,1.168714165687561035e+00,8.719899058341979980e-01,-4.538763165473937988e-01
1.543268203735351562e+00,1.473571896553039551e+00,4.182612597942352295e-01,9.162943959236145020e-01,-9.821806550025939941e-01,-1.497364163398742676e+00,5.098240375518798828e-01,-1.489512681961059570e+00,-5.071251988410949707e-01,4.288412034511566162e-01,1.052090764045715332e+00,1.289201259613037109e+00,6.292961835861206055e-01,-9.052179455757141113e-01
1.390547871589660645e+00,1.815245628356933594e+00,2.915608584880828857e-01,4.682914018630981445e-01,-1.409834027290344238e+00,-1.469160914421081543e+00,5.220597982406616211e-01,-1.476712107658386230e+00,-3.780650794506072998e-01,3.151992857456207275e-01,9.179279208183288574e-01,1.391309738159179688e+00,5.585557818412780762e-01,-9.296444058418273926e-01
1.217053294181823730e+00,1.705160975456237793e+00,1.623749881982803345e-01,9.892443567514419556e-02,-1.355650901794433594e+00,-1.415683865547180176e+00,5.433813929557800293e-01,-1.411228537559509277e+00,-2.487613633275032043e-02,3.191742300987243652e-01,7.551749348640441895e-01,1.424146294593811035e+00,2.067985981702804565e-01,-1.420527935028076172e+00
7.477424740791320801e-01,1.269623279571533203e+00,2.788049578666687012e-01,1.694633811712265015e-02,-1.366617918014526367e+00,-1.137291908264160156e+00,7.099881768226623535e-01,-9.231742620468139648e-01,1.295156590640544891e-02,2.817821502685546875e-01,5.584016442298889160e-01,1.323180079460144043e+00,-2.125178128480911255e-01,-1.136188745498657227e+00
6.190738081932067871e-01,7.705144286155700684e-01,2.701677083969116211e-01,-3.444755971431732178e-01,-1.198897004127502441e+00,-9.771146178245544434e-01,8.361996412277221680e-01,-8.682386279106140137e-01,2.629929780960083008e-01,4.538777768611907959e-01,8.236363530158996582e-02,1.465289711952209473e+00,-3.926093280315399170e-01,-9.913334250450134277e-01
1.196259930729866028e-01,3.751447498798370361e-01,1.554951816797256470e-01,-2.826291918754577637e-01,-8.825634121894836426e-01,-4.970009624958038330e-01,1.149332761764526367e+00,-4.171986877918243408e-01,2.935735583305358887e-01,1.616571396589279175e-01,-3.600913882255554199e-01,1.463315486907958984e+00,-8.787451982498168945e-01,-7.600445747375488281e-01
-2.670047581195831299e-01,-2.083115726709365845e-01,9.136886149644851685e-02,-4.193353652954101562e-01,-8.602940440177917480e-01,-2.278332561254501343e-01,1.076716780662536621e+00,1.646285504102706909e-01,5.290559530258178711e-01,-2.934128232300281525e-02,-5.351015329360961914e-01,1.333105444908142090e+00,-1.075983762741088867e+00,-4.648784697055816650e-01
-4.772551059722900391e-01,-7.696316838264465332e-01,-8.205216377973556519e-02,-3.536338806152343750e-01,-5.759382247924804688e-01,4.897029697895050049e-02,1.134516835212707520e+00,4.435442090034484863e-01,3.662202060222625732e-01,-4.474544227123260498e-01,-5.760176181793212891e-01,1.058723211288452148e+00,-9.085080027580261230e-01,-1.970015317201614380e-01
-6.873165965080261230e-01,-1.047495126724243164e+00,-2.348997592926025391e-01,-4.516929686069488525e-01,-5.275490283966064453e-01,3.653360307216644287e-01,9.857262969017028809e-01,1.002491474151611328e+00,4.709032475948333740e-01,-1.031381964683532715e+00,-7.158918380737304688e-01,7.048214673995971680e-01,-9.916276931762695312e-01,-2.672464251518249512e-01
-6.772439479827880859e-01,-9.440909624099731445e-01,-7.265595793724060059e-01,-4.230437576770782471e-01,-3.174978494644165039e-01,7.663722038269042969e-01,5.997899174690246582e-01,1.023917317390441895e+00,2.539243698120117188e-01,-1.362237334251403809e+00,-8.032371997833251953e-01,1.767536550760269165e-01,-1.103728532791137695e+00,-3.921197354793548584e-02
-7.886077165603637695e-01,-1.198557734489440918e+00,-5.265970826148986816e-01,-5.109980106353759766e-01,-1.999867558479309082e-01,7.617326378822326660e-01,-5.514901503920555115e-02,9.117639064788818359e-01,3.847713172435760498e-01,-1.619900941848754883e+00,-4.185848832130432129e-01,-1.201221123337745667e-01,-1.078193902969360352e+00,-3.335908427834510803e-02
-8.476294279098510742e-01,-9.885092973709106445e-01,-5.797157287597656250e-01,-6.334779858589172363e-01,2.313665151596069336e-01,7.034489512443542480e-01,-3.100849092006683350e-01,8.836439251899719238e-01,6.097908616065979004e-01,-1.773795127868652344e+00,-2.668483257293701172e-01,-9.567485451698303223e-01,-1.142763257026672363e+00,2.731484770774841309e-01
-1.136192083358764648e+00,-1.055391073226928711e+00,-4.049502611160278320e-01,-4.997049272060394287e-01,4.796334803104400635e-01,6.117622852325439453e-01,-6.791036725044250488e-01,7.680713534355163574e-01,6.445117592811584473e-01,-1.776588916778564453e+00,1.424133479595184326e-01,-1.304961085319519043e+00,-1.211437344551086426e+00,4.443194568157196045e-01
-1.282653808593750000e+00,-9.675610661506652832e-01,-6.364281475543975830e-02,-6.288400292396545410e-01,7.326931357383728027e-01,5.530768632888793945e-01,-9.009434580802917480e-01,2.130192518234252930e-01,6.501897573471069336e-01,-1.319392442703247070e+00,3.800952434539794922e-01,-1.601265192031860352e+00,-1.134349226951599121e+00,6.797018051147460938e-01
-1.116211295127868652e+00,-8.087162971496582031e-01,3.481691479682922363e-01,-3.298875093460083008e-01,1.092469811439514160e+00,6.030354499816894531e-01,-7.185525298118591309e-01,8.568844059482216835e-04,4.864082336425781250e-01,-1.086474418640136719e+00,6.859277486801147461e-01,-1.854431629180908203e+00,-1.020276188850402832e+00,1.014671444892883301e+00
-1.053817749023437500e+00,-6.853772401809692383e-01,9.135726690292358398e-01,-7.261461019515991211e-02,1.312397241592407227e+00,2.348601669073104858e-01,-6.474104523658752441e-01,-2.581177055835723877e-01,3.433132171630859375e-01,-5.854871869087219238e-01,7.713577747344970703e-01,-1.786560773849487305e+00,-9.253721237182617188e-01,1.397737026214599609e+00
-1.096192836761474609e+00,-6.772039532661437988e-01,9.838497042655944824e-01,2.984429597854614258e-01,1.484438776969909668e+00,3.006317615509033203e-01,-4.480547010898590088e-01,-4.490593373775482178e-01,3.690729290246963501e-02,-2.727034986019134521e-01,6.522838473320007324e-01,-1.485139131546020508e+00,-6.786774396896362305e-01,1.748846888542175293e+00
-6.351170539855957031e-01,-5.219915509223937988e-01,1.137776613235473633e+00,2.939427196979522705e-01,1.638574361801147461e+00,3.891458213329315186e-01,-8.103409409523010254e-02,-4.239803254604339600e-01,-3.482881188392639160e-01,-8.576505631208419800e-02,4.871983826160430908e-01,-1.202444314956665039e+00,3.112978860735893250e-02,1.756988644599914551e+00
-2.407019883394241333e-01,-5.577673912048339844e-01,1.089036464691162109e+00,5.539166927337646484e-01,1.700102210044860840e+00,4.664446711540222168e-01,1.638965768506750464e-04,-4.360523223876953125e-01,-6.166583895683288574e-01,2.200787365436553955e-01,5.021873712539672852e-01,-7.698233127593994141e-01,2.445968240499496460e-01,1.959642171859741211e+00
1.529675126075744629e-01,-2.849452495574951172e-01,1.124124407768249512e+00,7.098996043205261230e-01,1.395758271217346191e+00,2.611254155635833740e-01,2.952615916728973389e-01,-6.538557410240173340e-01,-1.030349850654602051e+00,2.472545951604843140e-01,5.220982432365417480e-01,-5.443824529647827148e-01,8.574416637420654297e-01,1.466966986656188965e+00
4.822426736354827881e-01,1.741960197687149048e-01,6.589387655258178711e-01,9.365652203559875488e-01,8.021367192268371582e-01,4.180843383073806763e-02,2.336715310811996460e-01,-3.851265907287597656e-01,-1.241488218307495117e+00,5.447164773941040039e-01,4.473483860492706299e-01,-3.488119542598724365e-01,1.234027266502380371e+00,9.005180597305297852e-01
4.786541163921356201e-01,3.607052564620971680e-01,6.964641213417053223e-01,7.124810218811035156e-01,5.022944211959838867e-01,-6.392467767000198364e-02,2.709563970565795898e-01,-1.633870452642440796e-01,-1.341955661773681641e+00,9.850303530693054199e-01,2.520462870597839355e-01,-1.231745854020118713e-01,1.612254738807678223e+00,3.095937073230743408e-01
9.736491441726684570e-01,5.912881493568420410e-01,3.890758454799652100e-01,4.965447187423706055e-01,4.214283451437950134e-02,-2.204743772745132446e-01,3.369844853878021240e-01,-2.340963631868362427e-01,-1.326080918312072754e+00,1.213529348373413086e+00,2.214791327714920044e-01,1.569472551345825195e-01,2.007923603057861328e+00,-5.671558529138565063e-02
8.712260127067565918e-01,8.977212309837341309e-01,1.534806638956069946e-01,2.651034593582153320e-01,-2.203243672847747803e-01,-3.132289946079254150e-01,4.403106272220611572e-01,-2.613978646695613861e-02,-1.295770287513732910e+00,1.599530339241027832e+00,-5.012366175651550293e-02,1.284406632184982300e-01,2.193373918533325195e+00,-8.441701531410217285e-01
8.656551837921142578e-01,8.346354961395263672e-01,3.806121647357940674e-02,-1.092190071940422058e-01,-7.502366304397583008e-01,-4.297685027122497559e-01,5.225009322166442871e-01,3.628199920058250427e-02,-8.491448760032653809e-01,1.632213115692138672e+00,-2.878980636596679688e-01,3.378698527812957764e-01,1.909834623336791992e+00,-1.091403484344482422e+00
5.501006841659545898e-01,8.269267678260803223e-01,-8.937767893075942993e-02,-3.739385902881622314e-01,-1.025328397750854492e+00,-6.092576384544372559e-01,5.293209552764892578e-01,1.350476741790771484e-01,-6.521923542022705078e-01,1.890891909599304199e+00,-3.494160771369934082e-01,3.430292010307312012e-01,1.720911145210266113e+00,-1.220766305923461914e+00
2.980134487152099609e-01,5.344578623771667480e-01,-2.623661160469055176e-01,-7.226358056068420410e-01,-1.083515167236328125e+00,-5.478926301002502441e-01,5.491216778755187988e-01,2.524713426828384399e-02,-2.792616784572601318e-01,1.909023404121398926e+00,-6.884135603904724121e-01,4.334349632263183594e-01,1.264995574951171875e+00,-1.450719952583312988e+00
1.249981001019477844e-01,4.235562086105346680e-01,-4.701306521892547607e-01,-1.035590529441833496e+00,-9.992293119430541992e-01,-5.105203390121459961e-01,6.722219586372375488e-01,4.827386438846588135e-01,-3.171489834785461426e-01,1.714672207832336426e+00,-1.060050129890441895e+00,5.682570338249206543e-01,1.051941394805908203e+00,-1.475280761718750000e+00
3.908168524503707886e-02,9.126608818769454956e-02,-9.108611345291137695e-01,-9.908595681190490723e-01,-1.078081130981445312e+00,-3.807218074798583984e-01,5.950535535812377930e-01,8.590549826622009277e-01,1.487540006637573242e-01,1.373948097229003906e+00,-1.289817452430725098e+00,1.003077507019042969e+00,5.081855058670043945e-01,-1.433599114418029785e+00
-5.036699399352073669e-02,-1.160524338483810425e-01,-1.188578605651855469e+00,-9.469891190528869629e-01,-1.151925921440124512e+00,-1.564198434352874756e-01,2.075407952070236206e-01,1.220748543739318848e+00,2.696630656719207764e-01,7.747447490692138672e-01,-1.559721708297729492e+00,1.060240149497985840e+00,4.889927059412002563e-02,-1.427896022796630859e+00
-1.000453755259513855e-01,-4.577328562736511230e-01,-1.462736845016479492e+00,-8.667472004890441895e-01,-9.978410005569458008e-01,3.531565368175506592e-01,-1.260565668344497681e-01,1.439501762390136719e+00,5.784150958061218262e-01,4.652655720710754395e-01,-1.529942989349365234e+00,1.153108119964599609e+00,-1.647974401712417603e-01,-1.375437259674072266e+00
-3.658069968223571777e-01,-4.986626505851745605e-01,-1.743390917778015137e+00,-5.767104625701904297e-01,-9.919767379760742188e-01,5.586597323417663574e-01,-4.768697023391723633e-01,1.729097127914428711e+00,5.269844532012939453e-01,1.224086433649063110e-01,-1.499400615692138672e+00,8.561960458755493164e-01,-5.336661338806152344e-01,-1.326440811157226562e+00
-1.723218858242034912e-01,-3.337935507297515869e-01,-1.790942430496215820e+00,-5.385352969169616699e-01,-9.144048690795898438e-01,8.043788075447082520e-01,-9.290558695793151855e-01,1.894419312477111816e+00,8.710504174232482910e-01,-4.037299454212188721e-01,-1.026591420173645020e+00,7.163557410240173340e-01,-6.221299171447753906e-01,-1.330541253089904785e+00
