AF3,F7,F3,FC5,T7,P7,O1,O2,P8,T8,FC6,F4,F8,AF4
3.721833229064941406e-02,9.927979111671447754e-01,-2.741779685020446777e-01,3.361005783081054688e-01,-4.197548627853393555e-01,-6.068084761500358582e-02,1.404554098844528198e-01,-1.501267999410629272e-01,-2.135728299617767334e-01,-5.240358710289001465e-01,-1.103917285799980164e-01,-4.467661678791046143e-01,6.610837578773498535e-01,-1.206844374537467957e-01
2.212283611297607422e-01,9.669789671897888184e-01,-1.768057197332382202e-01,2.417089790105819702e-01,-3.835148215293884277e-01,-4.130427241325378418e-01,2.956537008285522461e-01,-5.381383299827575684e-01,-3.041169047355651855e-01,-4.954626858234405518e-01,-4.645782411098480225e-01,-4.080204367637634277e-01,3.962290287017822266e-01,-1.845824420452117920e-01
2.445757389068603516e-01,9.368264079093933105e-01,-3.475298359990119934e-02,2.159840613603591919e-01,-5.199869275093078613e-01,-3.299065530300140381e-01,2.452230751514434814e-01,-3.666366636753082275e-01,-1.614659130573272705e-01,-3.447391986846923828e-01,-2.134796380996704102e-01,-2.840696275234222412e-01,3.334420323371887207e-01,-3.342559635639190674e-01
2.872079908847808838e-01,1.148030757904052734e+00,1.255387216806411743e-01,2.256687432527542114e-01,-1.872570961713790894e-01,-3.727567493915557861e-01,3.721434175968170166e-01,-4.471404552459716797e-01,-2.329198569059371948e-01,-5.432319045066833496e-01,-5.155473202466964722e-02,-3.754548728466033936e-01,4.035548269748687744e-01,-1.937823444604873657e-01
1.959837377071380615e-01,1.033210158348083496e+00,6.510711461305618286e-02,1.665313988924026489e-01,-2.648264169692993164e-01,-3.572502434253692627e-01,4.212498366832733154e-01,-4.955163598060607910e-01,-2.561413347721099854e-01,-3.468135595321655273e-01,6.197916343808174133e-02,-4.230721592903137207e-01,2.369902282953262329e-01,9.803416579961776733e-02
2.654147744178771973e-01,1.166602015495300293e+00,9.721634536981582642e-02,2.136553674936294556e-01,-2.688623070716857910e-01,-3.528155088424682617e-01,1.270955353975296021e-01,-4.486716687679290771e-01,-1.950056999921798706e-01,-4.826664626598358154e-01,1.190762668848037720e-01,-2.844876945018768311e-01,2.608947753906250000e-01,-4.571576416492462158e-02
7.127459347248077393e-02,8.740909695625305176e-01,-1.000897586345672607e-01,8.300149440765380859e-02,-1.917168945074081421e-01,-5.546527504920959473e-01,4.675821363925933838e-01,-6.326255798339843750e-01,-7.826935499906539917e-02,-1.769093573093414307e-01,3.228497132658958435e-02,-3.486291170120239258e-01,2.001406252384185791e-01,6.224183831363916397e-03
-1.324126422405242920e-01,8.559159636497497559e-01,-2.647350169718265533e-02,1.482729017734527588e-01,2.308369148522615433e-03,-4.426066875457763672e-01,4.775589704513549805e-01,-3.689140081405639648e-01,-2.465257942676544189e-01,-2.347785532474517822e-01,2.085460573434829712e-01,-1.324006468057632446e-01,2.641676925122737885e-03,-1.021695211529731750e-01
2.167532220482826233e-02,7.043192386627197266e-01,1.914822012186050415e-01,1.559143513441085815e-01,-4.312845319509506226e-02,-4.758338630199432373e-01,4.566455483436584473e-01,-4.611703455448150635e-01,-2.666717469692230225e-01,-1.767924129962921143e-01,3.500099778175354004e-01,-2.263377308845520020e-01,-1.830243766307830811e-01,-1.062467768788337708e-01
-3.744131699204444885e-02,5.185678005218505859e-01,5.823664739727973938e-02,1.355082392692565918e-01,4.050556570291519165e-02,-4.921039342880249023e-01,3.853187859058380127e-01,-4.255632162094116211e-01,-3.495004177093505859e-01,-1.558991968631744385e-01,5.662212967872619629e-01,-3.046991825103759766e-01,5.709608644247055054e-02,1.054729968309402466e-01
-1.450524181127548218e-01,5.929343700408935547e-01,-1.130459904670715332e-01,3.352421149611473083e-02,1.700588166713714600e-01,-4.645739197731018066e-01,2.656812071800231934e-01,-4.350105822086334229e-01,-4.024749100208282471e-01,-1.717386841773986816e-01,5.159548521041870117e-01,-2.099982798099517822e-01,1.265797168016433716e-01,-1.061634998768568039e-02
-1.041272208094596863e-01,5.125336050987243652e-01,6.739693135023117065e-02,6.889373809099197388e-02,3.297794982790946960e-02,-5.359978079795837402e-01,2.805299162864685059e-01,-5.577698945999145508e-01,-2.153307348489761353e-01,-1.725387275218963623e-01,4.623405337333679199e-01,-1.354820132255554199e-01,-8.236423879861831665e-02,-1.016860269010066986e-02
-2.160297781229019165e-01,2.951536476612091064e-01,-6.231674179434776306e-02,-1.228553950786590576e-01,1.555650234222412109e-01,-6.079296469688415527e-01,1.277527958154678345e-01,-2.829895019531250000e-01,-4.891986548900604248e-01,5.351196974515914917e-02,6.174616217613220215e-01,-1.051913946866989136e-01,-1.888552755117416382e-01,-1.915485262870788574e-01
-3.612300157546997070e-01,3.231956362724304199e-01,4.025289043784141541e-02,-1.643381826579570770e-02,4.090035557746887207e-01,-7.109839320182800293e-01,2.811284922063350677e-02,-3.411480486392974854e-01,-4.455183148384094238e-01,1.998228430747985840e-01,4.482014775276184082e-01,-1.396939754486083984e-01,-1.138568669557571411e-01,-1.135089248418807983e-01
-3.191522061824798584e-01,3.730210661888122559e-01,-1.767418980598449707e-01,-1.296039819717407227e-01,8.955571055412292480e-02,-6.067204475402832031e-01,-9.478349983692169189e-02,-2.033963352441787720e-01,-5.175328850746154785e-01,1.935499459505081177e-01,5.650486946105957031e-01,-1.767559647560119629e-01,-4.867590367794036865e-01,-2.106097340583801270e-01
-3.259924054145812988e-01,2.528660297393798828e-01,-1.749337464570999146e-01,-1.622951626777648926e-01,2.469730228185653687e-01,-5.270570516586303711e-01,-2.211712151765823364e-01,-6.212684884667396545e-02,-6.338114142417907715e-01,6.178077682852745056e-02,4.313945472240447998e-01,-9.728507697582244873e-02,-2.686137259006500244e-01,-4.264957010746002197e-01
-3.716675937175750732e-01,1.653950363397598267e-01,-2.822738587856292725e-01,-2.315344661474227905e-01,1.941586881875991821e-01,-5.901840925216674805e-01,-3.243367671966552734e-01,-1.250108480453491211e-01,-6.755207777023315430e-01,-2.166920155286788940e-02,5.049994587898254395e-01,1.807121559977531433e-02,-4.064311087131500244e-01,-5.319142937660217285e-01
-3.581675589084625244e-01,9.553880244493484497e-02,-3.099495470523834229e-01,-3.075847625732421875e-01,7.707110792398452759e-02,-6.743666529655456543e-01,-3.056762814521789551e-01,5.576988682150840759e-03,-7.235100269317626953e-01,1.272917538881301880e-01,5.334798097610473633e-01,-4.812788683921098709e-03,-3.502381145954132080e-01,-5.836750268936157227e-01
-7.217904925346374512e-01,9.830652177333831787e-02,-3.960689604282379150e-01,-4.732834696769714355e-01,5.750702694058418274e-02,-7.252072691917419434e-01,-5.853265151381492615e-02,3.772807866334915161e-02,-7.652441263198852539e-01,6.651046872138977051e-02,5.715264081954956055e-01,-1.127656251192092896e-01,-4.854560494422912598e-01,-6.792561411857604980e-01
-4.720322489738464355e-01,2.994755469262599945e-02,-5.230625271797180176e-01,-3.790820538997650146e-01,2.679055035114288330e-01,-6.369172334671020508e-01,-4.024065732955932617e-01,1.589460968971252441e-01,-7.375364303588867188e-01,1.407622843980789185e-01,5.344863533973693848e-01,2.557872235774993896e-02,-5.196853876113891602e-01,-6.086531877517700195e-01
-4.519404768943786621e-01,2.688931524753570557e-01,-2.356701046228408813e-01,-2.064378857612609863e-01,8.894360065460205078e-02,-5.042641162872314453e-01,-5.483114123344421387e-01,2.274913340806961060e-01,-7.616301774978637695e-01,1.003652662038803101e-01,4.911669716238975525e-02,1.061820425093173981e-02,-4.827651083469390869e-01,-8.678030967712402344e-01
-7.677961587905883789e-01,3.242745399475097656e-01,-5.332115888595581055e-01,-5.087896585464477539e-01,1.730137690901756287e-02,-3.719115257263183594e-01,-6.571697592735290527e-01,2.231280356645584106e-01,-8.565862774848937988e-01,3.338512778282165527e-01,3.448645770549774170e-01,-1.988048478960990906e-02,-6.631708741188049316e-01,-7.485477328300476074e-01
-7.827880978584289551e-01,1.490970253944396973e-01,-3.078850805759429932e-01,-4.637666940689086914e-01,-1.309224814176559448e-01,-4.887879788875579834e-01,-4.196915924549102783e-01,3.779406547546386719e-01,-9.807072281837463379e-01,2.701483964920043945e-01,2.541110515594482422e-01,-1.709463745355606079e-01,-5.432863235473632812e-01,-8.592191338539123535e-01
-7.743849158287048340e-01,1.942331641912460327e-01,-5.734834074974060059e-01,-2.717776298522949219e-01,8.731023222208023071e-02,-5.203878879547119141e-01,-6.790192127227783203e-01,3.280318379402160645e-01,-7.657949924468994141e-01,4.252531230449676514e-01,2.775357067584991455e-01,-3.929175138473510742e-01,-5.369642376899719238e-01,-7.457787990570068359e-01
-9.523599147796630859e-01,2.580142617225646973e-01,-4.399337470531463623e-01,-3.074242770671844482e-01,-1.932963170111179352e-02,-4.381172955036163330e-01,-4.831295311450958252e-01,4.199464321136474609e-01,-8.592191338539123535e-01,4.983429908752441406e-01,2.227933406829833984e-01,-3.671662509441375732e-01,-5.926281213760375977e-01,-5.305939912796020508e-01
-1.068294286727905273e+00,3.458398580551147461e-01,-4.459678828716278076e-01,-3.647421896457672119e-01,-9.397157281637191772e-02,-3.204848170280456543e-01,-5.275239944458007812e-01,3.550840616226196289e-01,-7.560477852821350098e-01,5.626116991043090820e-01,1.632619500160217285e-01,-3.899256587028503418e-01,-8.437394499778747559e-01,-5.927433967590332031e-01
-9.816195368766784668e-01,3.259999155998229980e-01,-4.656794965267181396e-01,-1.523945778608322144e-01,1.795113459229469299e-02,-2.926288843154907227e-01,-3.455703854560852051e-01,3.638472855091094971e-01,-7.780064940452575684e-01,3.358990550041198730e-01,1.414016485214233398e-01,-5.452755093574523926e-01,-4.864866137504577637e-01,-7.870501279830932617e-01
-8.990630507469177246e-01,1.287763565778732300e-01,-3.418245315551757812e-01,-2.035587280988693237e-01,-5.392137169837951660e-02,-1.493744105100631714e-01,-5.390956997871398926e-01,6.561461687088012695e-01,-5.804649591445922852e-01,4.236999750137329102e-01,8.299388736486434937e-02,-4.053071737289428711e-01,-4.290131032466888428e-01,-6.387805938720703125e-01
-1.033459782600402832e+00,3.052115738391876221e-01,-5.195774435997009277e-01,-3.236350044608116150e-02,-1.273141205310821533e-01,-2.727187871932983398e-01,-2.480040788650512695e-01,6.854163408279418945e-01,-3.985671401023864746e-01,4.599740803241729736e-01,1.253021210432052612e-01,-5.376032590866088867e-01,-5.653142929077148438e-01,-3.182272613048553467e-01
-8.349465727806091309e-01,1.497869640588760376e-01,-5.742912888526916504e-01,-3.434707596898078918e-02,3.411436676979064941e-01,-2.303722798824310303e-01,-5.083783864974975586e-01,6.596599817276000977e-01,-4.448868632316589355e-01,5.553812384605407715e-01,3.561746701598167419e-02,-5.945604443550109863e-01,-3.726964294910430908e-01,-2.441866844892501831e-01
-1.005629897117614746e+00,2.743386328220367432e-01,-5.549790859222412109e-01,1.220906805247068405e-02,-1.275451947003602982e-02,-2.657330334186553955e-01,-5.257811546325683594e-01,4.255604445934295654e-01,-3.728661835193634033e-01,5.202800035476684570e-01,6.740765273571014404e-02,-5.120381116867065430e-01,-3.876095414161682129e-01,-3.206142485141754150e-01
-9.283472895622253418e-01,2.055141180753707886e-01,-5.227268338203430176e-01,1.477658897638320923e-01,-6.350162625312805176e-02,-4.487902224063873291e-01,-3.308987915515899658e-01,5.141595005989074707e-01,-4.162748456001281738e-01,3.402162194252014160e-01,-1.936663389205932617e-01,-4.366093575954437256e-01,-4.478899538516998291e-01,-4.749897420406341553e-01
-8.588991165161132812e-01,2.159724682569503784e-01,-5.234958529472351074e-01,-1.030149310827255249e-01,-2.706382982432842255e-02,-3.899398148059844971e-01,-2.547760009765625000e-01,8.131421804428100586e-01,-4.781312346458435059e-01,1.947705149650573730e-01,-2.174424082040786743e-01,-5.424696803092956543e-01,-4.585859179496765137e-01,-3.314141929149627686e-01
-7.152165174484252930e-01,5.990690737962722778e-02,-4.081251919269561768e-01,-1.162246912717819214e-01,-8.783172816038131714e-02,-6.203638911247253418e-01,-4.894768893718719482e-01,5.999047756195068359e-01,-3.708732426166534424e-01,1.757445186376571655e-01,-1.388313174247741699e-01,-3.313103020191192627e-01,-2.086883038282394409e-01,-2.591323554515838623e-01
-7.241064310073852539e-01,2.195229083299636841e-01,-4.464943408966064453e-01,-2.295211851596832275e-01,2.582990331575274467e-03,-5.951524972915649414e-01,-4.345626235008239746e-01,7.923240661621093750e-01,-6.467190980911254883e-01,1.791077256202697754e-01,-8.264061063528060913e-02,-3.839364945888519287e-01,-6.226287409663200378e-02,-3.785718381404876709e-01
-6.649055480957031250e-01,4.792541638016700745e-02,-2.393411993980407715e-01,8.533804863691329956e-02,-8.290473371744155884e-02,-5.208771824836730957e-01,-2.375041097402572632e-01,7.199371457099914551e-01,-3.626399040222167969e-01,2.980285882949829102e-01,-3.865866065025329590e-01,-2.618594467639923096e-01,-3.253172636032104492e-01,-2.178082466125488281e-01
-6.574178934097290039e-01,1.479357387870550156e-02,-3.112191557884216309e-01,-1.803115569055080414e-02,-1.346280276775360107e-01,-8.619967103004455566e-01,-4.840032756328582764e-01,5.571186542510986328e-01,-4.316341876983642578e-01,-5.260635912418365479e-02,-1.412390470504760742e-01,-2.079732343554496765e-02,-4.174512028694152832e-01,-4.460760056972503662e-01
-6.382179260253906250e-01,-3.682411089539527893e-02,-1.763082444667816162e-01,-3.781319037079811096e-02,2.152332291007041931e-02,-8.483361005783081055e-01,-3.439113199710845947e-01,7.222698330879211426e-01,-3.788329958915710449e-01,1.448029559105634689e-02,-4.178151190280914307e-01,-1.701433211565017700e-01,-4.769037961959838867e-01,-2.466150969266891479e-01
-5.066159963607788086e-01,-1.048998907208442688e-01,-3.728108406066894531e-01,-2.730191051959991455e-01,-1.096354275941848755e-01,-7.545467615127563477e-01,-3.212359547615051270e-01,4.385456740856170654e-01,-5.619434118270874023e-01,-4.509180411696434021e-02,-4.195665121078491211e-01,2.591084688901901245e-03,-3.062264919281005859e-01,-2.001796364784240723e-01
-3.953868746757507324e-01,-1.817328631877899170e-01,-3.991247713565826416e-02,-2.571682929992675781e-01,-2.994373142719268799e-01,-8.525253534317016602e-01,-3.980093896389007568e-01,5.414321422576904297e-01,-3.408309519290924072e-01,-1.274416595697402954e-01,-3.589865267276763916e-01,2.714603543281555176e-01,-2.979923486709594727e-01,-2.692287564277648926e-01
-3.587158620357513428e-01,1.413833908736705780e-02,6.437580287456512451e-02,-4.355579316616058350e-01,-7.649304717779159546e-02,-9.386801123619079590e-01,-1.297237873077392578e-01,2.815619409084320068e-01,-5.289766788482666016e-01,-5.883458629250526428e-02,-3.491513729095458984e-01,9.259378165006637573e-02,-5.356819629669189453e-01,-1.942282319068908691e-01
-3.831124305725097656e-01,-2.732834517955780029e-01,-9.117183275520801544e-03,-3.646954298019409180e-01,-4.805558919906616211e-02,-9.160314202308654785e-01,-2.552334964275360107e-01,1.090162917971611023e-01,-5.728511214256286621e-01,-1.349336206912994385e-01,-2.774474620819091797e-01,1.176819577813148499e-01,-5.840451717376708984e-01,-4.938182234764099121e-01
-4.902780652046203613e-01,-1.062132716178894043e-01,3.886287510395050049e-01,-5.276095271110534668e-01,-1.215125694870948792e-01,-8.229320645332336426e-01,-2.359424084424972534e-01,2.172411084175109863e-01,-4.906778931617736816e-01,-6.767306476831436157e-02,-3.058275282382965088e-01,4.590820074081420898e-01,-6.681007146835327148e-01,-2.421460449695587158e-01
-3.256732821464538574e-01,-1.181091517210006714e-01,3.602255284786224365e-01,-5.510197877883911133e-01,-9.030591696500778198e-02,-7.914401292800903320e-01,-2.416400909423828125e-01,2.958528883755207062e-02,-6.847135424613952637e-01,-1.098898351192474365e-01,-1.007404103875160217e-01,4.147189855575561523e-01,-7.274684906005859375e-01,-3.612859845161437988e-01
-2.638858556747436523e-01,-2.644626498222351074e-01,1.981467306613922119e-01,-6.777232289314270020e-01,3.282523453235626221e-01,-6.972108483314514160e-01,8.529245853424072266e-02,-8.293292671442031860e-02,-7.393929958343505859e-01,2.086004316806793213e-01,-2.169889956712722778e-01,3.183518946170806885e-01,-6.245311498641967773e-01,-2.608807682991027832e-01
-2.573762238025665283e-01,-2.686388194561004639e-01,4.153482615947723389e-01,-6.295337080955505371e-01,2.796663045883178711e-01,-6.626000404357910156e-01,-2.314390689134597778e-01,-8.561744354665279388e-03,-7.392689585685729980e-01,7.926029711961746216e-02,-1.345844417810440063e-01,7.733724266290664673e-02,-5.701124668121337891e-01,-4.439966380596160889e-01
-5.341767072677612305e-01,-2.325093150138854980e-01,5.655605792999267578e-01,-5.565230846405029297e-01,1.109880115836858749e-02,-4.528506100177764893e-01,-1.982486806809902191e-02,9.843292087316513062e-02,-7.279964685440063477e-01,8.013209700584411621e-02,-1.471787840127944946e-01,4.539260566234588623e-01,-8.173794150352478027e-01,-4.187394380569458008e-01
-4.407798647880554199e-01,-2.838592231273651123e-01,6.157413125038146973e-01,-5.155000090599060059e-01,2.182101011276245117e-01,-4.761166870594024658e-01,-2.924238517880439758e-02,5.269252881407737732e-02,-7.795059084892272949e-01,2.847479283809661865e-01,4.111184179782867432e-02,2.006953656673431396e-01,-9.655738472938537598e-01,-5.139666199684143066e-01
-6.279997229576110840e-01,-1.870769262313842773e-01,6.023092865943908691e-01,-3.160349130630493164e-01,2.347455471754074097e-01,-4.368621706962585449e-01,-8.646842837333679199e-02,5.754237994551658630e-02,-8.113896250724792480e-01,2.552414238452911377e-01,-1.189197897911071777e-01,5.896261930465698242e-01,-1.179832339286804199e+00,-2.204650938510894775e-01
-5.412701368331909180e-01,-4.873581528663635254e-01,3.542045354843139648e-01,-6.882324814796447754e-01,3.903705477714538574e-01,-3.174603283405303955e-01,-1.934065967798233032e-01,5.152530595660209656e-02,-8.101319670677185059e-01,2.251905947923660278e-01,-4.641928896307945251e-02,4.426133036613464355e-01,-8.340763449668884277e-01,-4.048261642456054688e-01
-5.310752391815185547e-01,-6.293120980262756348e-01,5.549942255020141602e-01,-6.667067408561706543e-01,3.788346648216247559e-01,-4.259507656097412109e-01,-7.341800630092620850e-02,1.583348512649536133e-01,-7.110924124717712402e-01,3.171112537384033203e-01,-1.239510402083396912e-01,6.260333657264709473e-01,-5.811131596565246582e-01,-4.829187989234924316e-01
-5.974510908126831055e-01,-5.292575359344482422e-01,5.901418328285217285e-01,-6.110649108886718750e-01,3.236074149608612061e-01,-1.670981645584106445e-01,-1.173886209726333618e-01,1.686204522848129272e-01,-5.621288418769836426e-01,4.081015586853027344e-01,-9.237755089998245239e-02,6.243334412574768066e-01,-4.370533227920532227e-01,-3.947699069976806641e-01
-5.981844067573547363e-01,-4.783518910408020020e-01,5.702441334724426270e-01,-6.017909646034240723e-01,1.551865041255950928e-01,-2.042455524206161499e-01,-1.500304043292999268e-01,2.434075772762298584e-01,-7.247423529624938965e-01,5.008592605590820312e-01,-4.996953066438436508e-04,4.788508117198944092e-01,-6.314038038253784180e-01,-5.171626210212707520e-01
-5.983631610870361328e-01,-6.154290437698364258e-01,4.016247093677520752e-01,-4.713312983512878418e-01,4.144019261002540588e-02,-1.593096554279327393e-01,-7.586181163787841797e-02,3.995545208454132080e-01,-5.754367709159851074e-01,3.800247907638549805e-01,-1.081734970211982727e-01,6.485382318496704102e-01,-6.438801288604736328e-01,-6.381733417510986328e-01
-6.860708594322204590e-01,-5.974262356758117676e-01,3.744673132896423340e-01,-5.081172585487365723e-01,1.032653152942657471e-01,-1.845766454935073853e-01,-2.759485840797424316e-01,4.275575578212738037e-01,-3.865049481391906738e-01,4.630267620086669922e-01,-1.496344059705734253e-01,5.357812047004699707e-01,-4.841259419918060303e-01,-5.676822066307067871e-01
-5.502827763557434082e-01,-6.521610617637634277e-01,5.126318335533142090e-01,-6.647369265556335449e-01,-2.158119380474090576e-01,-1.497958600521087646e-01,-2.848452925682067871e-01,3.280640542507171631e-01,-6.955808997154235840e-01,4.658113121986389160e-01,-2.659042477607727051e-01,5.171700119972229004e-01,-5.178861021995544434e-01,-7.310439944267272949e-01
-5.141887664794921875e-01,-4.453913867473602295e-01,3.637306392192840576e-01,-6.394073963165283203e-01,-4.467263072729110718e-02,-1.691580116748809814e-01,-2.850008308887481689e-01,3.499631285667419434e-01,-6.087736487388610840e-01,5.480234622955322266e-01,-1.978632062673568726e-01,7.607917785644531250e-01,-4.020197391510009766e-01,-6.987429857254028320e-01
-5.714200735092163086e-01,-4.916617274284362793e-01,2.010456323623657227e-01,-5.016505718231201172e-01,-1.801742613315582275e-01,-1.816066801548004150e-01,-3.011108040809631348e-01,4.925998151302337646e-01,-4.173178076744079590e-01,4.396610856056213379e-01,-4.314203858375549316e-01,5.829672217369079590e-01,-1.604080796241760254e-01,-9.166356921195983887e-01
-4.536990821361541748e-01,-7.473786473274230957e-01,1.226097494363784790e-01,-4.124014377593994141e-01,-4.112138450145721436e-01,-9.159901738166809082e-02,-3.492367267608642578e-01,4.194715917110443115e-01,-4.219166040420532227e-01,3.726604282855987549e-01,-3.527654707431793213e-01,4.047636687755584717e-01,-3.244873881340026855e-01,-8.466036319732666016e-01
-5.278133153915405273e-01,-3.725569546222686768e-01,1.893161237239837646e-01,-5.048471093177795410e-01,-3.644196391105651855e-01,-3.022598288953304291e-02,-3.326225876808166504e-01,5.278320312500000000e-01,-4.777401387691497803e-01,3.309298157691955566e-01,-5.415243506431579590e-01,5.558230280876159668e-01,-1.687155067920684814e-01,-6.040985584259033203e-01
-4.112865328788757324e-01,-1.733439117670059204e-01,4.383005499839782715e-01,-2.256965786218643188e-01,-5.199816823005676270e-01,-8.614009618759155273e-02,-4.585596621036529541e-01,5.706483125686645508e-01,-5.101453661918640137e-01,4.356824159622192383e-01,-5.158543586730957031e-01,4.372575879096984863e-01,-2.726356685161590576e-01,-6.970862150192260742e-01
-4.352137744426727295e-01,-2.644190490245819092e-01,3.623002767562866211e-01,-2.221259921789169312e-01,-6.532799005508422852e-01,-1.421311311423778534e-02,-2.528516352176666260e-01,3.645383417606353760e-01,-4.995321631431579590e-01,4.540538191795349121e-01,-3.086729645729064941e-01,4.721816182136535645e-01,-1.459879726171493530e-01,-7.463289499282836914e-01
-5.074173212051391602e-01,-1.550781279802322388e-01,2.994864881038665771e-01,-1.613827943801879883e-01,-4.529917538166046143e-01,-7.387508451938629150e-02,-3.734533861279487610e-02,4.431534707546234131e-01,-3.687636852264404297e-01,4.167216122150421143e-01,-6.336077451705932617e-01,4.240264892578125000e-01,1.498809903860092163e-01,-7.636331319808959961e-01
-2.930229604244232178e-01,-2.708309292793273926e-01,3.202359080314636230e-01,-7.335001975297927856e-02,-8.584331274032592773e-01,5.064907949417829514e-03,9.607608616352081299e-02,4.745905697345733643e-01,-2.113139629364013672e-01,3.584068417549133301e-01,-5.324080586433410645e-01,4.370748996734619141e-01,-8.572318404912948608e-02,-5.504145026206970215e-01
-2.225256264209747314e-01,-7.917207665741443634e-03,4.658958911895751953e-01,-6.690230220556259155e-02,-6.380413770675659180e-01,6.037824973464012146e-02,7.612879574298858643e-02,3.810833096504211426e-01,-1.703405082225799561e-01,4.072244167327880859e-01,-4.502628743648529053e-01,4.003444910049438477e-01,-8.496839553117752075e-02,-5.438995361328125000e-01
-5.406531691551208496e-01,6.341677159070968628e-02,4.779471457004547119e-01,-3.333198651671409607e-02,-7.386233210563659668e-01,1.005387976765632629e-01,2.629756927490234375e-01,4.609010219573974609e-01,5.725851282477378845e-02,1.149985641241073608e-01,-6.909891963005065918e-01,3.729815185070037842e-01,-9.116726368665695190e-02,-3.456852138042449951e-01
-3.287116289138793945e-01,2.089005857706069946e-01,3.263183534145355225e-01,4.042068123817443848e-02,-8.079085350036621094e-01,-2.825283631682395935e-02,3.316813409328460693e-01,2.053226530551910400e-01,2.884273231029510498e-01,3.509545326232910156e-01,-4.032417833805084229e-01,3.297621905803680420e-01,-5.516671761870384216e-02,-4.781054556369781494e-01
-2.135449349880218506e-01,1.457687020301818848e-01,6.414905190467834473e-01,1.991040259599685669e-01,-9.167399406433105469e-01,-1.888925582170486450e-01,2.950406074523925781e-01,1.256585568189620972e-01,7.061488926410675049e-02,3.238514959812164307e-01,-4.257257282733917236e-01,4.034259319305419922e-01,-5.176012963056564331e-02,4.332340136170387268e-02
-2.970110177993774414e-01,1.264322251081466675e-01,3.215779364109039307e-01,5.203968882560729980e-01,-8.273251056671142578e-01,-1.942075937986373901e-01,4.660007059574127197e-01,3.686030209064483643e-01,4.097338393330574036e-02,1.451478749513626099e-01,-3.191743493080139160e-01,3.632000982761383057e-01,3.790824860334396362e-02,-1.203383430838584900e-01
-7.766461372375488281e-02,1.504016108810901642e-02,3.768943846225738525e-01,2.200007885694503784e-01,-6.158244013786315918e-01,3.803583234548568726e-02,5.860270261764526367e-01,1.893579512834548950e-01,3.031597435474395752e-01,2.256283164024353027e-01,-3.195226192474365234e-01,4.886240959167480469e-01,7.313979417085647583e-02,-1.734905242919921875e-01
-1.484814733266830444e-01,7.753158919513225555e-03,6.357933878898620605e-01,4.565226137638092041e-01,-5.662173032760620117e-01,-2.932910248637199402e-02,7.499136328697204590e-01,5.250077247619628906e-01,3.641436994075775146e-01,3.183603286743164062e-01,-2.692111134529113770e-01,5.515794754028320312e-01,2.826998531818389893e-01,7.112839724868535995e-03
-6.057841703295707703e-02,-6.585306022316217422e-03,5.247233510017395020e-01,5.563479065895080566e-01,-6.648593544960021973e-01,-1.457463502883911133e-01,6.816737651824951172e-01,3.805723488330841064e-01,5.732399225234985352e-01,1.093330904841423035e-01,-2.666268646717071533e-01,4.755428731441497803e-01,1.499014347791671753e-01,2.036839276552200317e-01
-8.489761501550674438e-02,1.407140344381332397e-01,4.206648468971252441e-01,7.575749754905700684e-01,-5.367061495780944824e-01,-8.019359409809112549e-02,6.390345692634582520e-01,3.667529821395874023e-01,5.241380929946899414e-01,2.080964483320713043e-02,-3.402630984783172607e-01,3.756834268569946289e-01,1.754022538661956787e-01,2.729257643222808838e-01
9.693440049886703491e-02,7.140230387449264526e-02,4.528790116310119629e-01,5.475730895996093750e-01,-8.286972045898437500e-01,-1.876797974109649658e-01,7.194692492485046387e-01,2.866998016834259033e-01,3.228492438793182373e-01,-5.986127629876136780e-02,4.610106348991394043e-02,5.409995913505554199e-01,-3.607869893312454224e-02,4.132069349288940430e-01
2.285308390855789185e-02,-1.480163335800170898e-01,5.591718554496765137e-01,6.126282811164855957e-01,-6.739383935928344727e-01,-2.368302494287490845e-01,7.786080837249755859e-01,3.027755022048950195e-01,4.834807813167572021e-01,-8.644860237836837769e-02,-1.452589035034179688e-01,6.994873881340026855e-01,2.372635155916213989e-01,9.713102877140045166e-02
1.995830535888671875e-01,-1.303482800722122192e-01,5.265350937843322754e-01,4.732288420200347900e-01,-6.418766975402832031e-01,-1.737061887979507446e-01,5.346202254295349121e-01,3.113813102245330811e-01,5.008956789970397949e-01,-6.464301608502864838e-03,-1.362766474485397339e-01,5.583499073982238770e-01,2.727776169776916504e-01,2.227954119443893433e-01
3.685287237167358398e-01,-1.623840332031250000e-01,5.635504722595214844e-01,5.594848394393920898e-01,-7.590805292129516602e-01,-3.423369228839874268e-01,8.995830416679382324e-01,1.750446669757366180e-02,6.657664179801940918e-01,-2.065437585115432739e-01,-1.399072259664535522e-01,7.577549219131469727e-01,5.188546329736709595e-02,2.268127799034118652e-01
2.433837652206420898e-01,-2.873948514461517334e-01,8.191637992858886719e-01,1.951902210712432861e-01,-9.041304588317871094e-01,-3.779599666595458984e-01,7.793213725090026855e-01,6.092416495084762573e-02,5.606589317321777344e-01,-3.040430843830108643e-01,9.204285591840744019e-02,8.127572536468505859e-01,6.097915396094322205e-02,2.891517877578735352e-01
3.551742434501647949e-01,-1.272870600223541260e-01,7.534289956092834473e-01,3.487263321876525879e-01,-7.690169811248779297e-01,-3.185072243213653564e-01,9.164810776710510254e-01,-2.812512516975402832e-01,4.735106527805328369e-01,-3.766921162605285645e-01,-1.332803517580032349e-01,9.716306924819946289e-01,-1.315420567989349365e-01,1.769121587276458740e-01
3.557146191596984863e-01,-1.368732750415802002e-01,8.333440423011779785e-01,4.274619221687316895e-01,-5.803898572921752930e-01,-3.330903351306915283e-01,8.827537894248962402e-01,7.994668185710906982e-02,2.781928181648254395e-01,-4.111280739307403564e-01,1.450040489435195923e-01,8.299706578254699707e-01,1.303791701793670654e-01,1.459257006645202637e-01
2.776823639869689941e-01,-1.884177625179290771e-01,7.016884088516235352e-01,1.946592777967453003e-01,-6.685286164283752441e-01,-5.803351998329162598e-01,8.860877752304077148e-01,-3.828320279717445374e-02,2.617995142936706543e-01,-3.986568748950958252e-01,3.551030755043029785e-01,9.632040262222290039e-01,-3.339874446392059326e-01,3.648486435413360596e-01
3.655424416065216064e-01,-3.143495619297027588e-01,8.298793435096740723e-01,2.063480615615844727e-01,-7.589814066886901855e-01,-3.559851050376892090e-01,8.719520568847656250e-01,-1.209115702658891678e-02,2.396855950355529785e-01,-2.278428673744201660e-01,1.278045028448104858e-01,7.582993507385253906e-01,1.180820446461439133e-02,3.754415214061737061e-01
3.180554211139678955e-01,-4.979699477553367615e-02,1.002151370048522949e+00,2.601281702518463135e-01,-5.626915693283081055e-01,-2.515721321105957031e-01,6.905025839805603027e-01,-3.925541043281555176e-01,1.163253281265497208e-02,-2.736212313175201416e-01,2.558590471744537354e-01,8.928793072700500488e-01,-2.372099645435810089e-02,3.896334767341613770e-01
3.333807587623596191e-01,-3.983925282955169678e-01,9.233332872390747070e-01,2.040487974882125854e-01,-6.076926589012145996e-01,-1.512008607387542725e-01,9.256418943405151367e-01,-2.284525483846664429e-01,1.343682259321212769e-01,-3.260678350925445557e-01,3.490245640277862549e-01,6.224925518035888672e-01,-1.754798442125320435e-01,7.580357044935226440e-02
2.683949172496795654e-01,-1.606468260288238525e-01,7.088112831115722656e-01,2.940606772899627686e-01,-5.109033584594726562e-01,-1.011302769184112549e-01,8.613455891609191895e-01,-2.245629429817199707e-01,1.666248962283134460e-02,-2.388508170843124390e-01,4.506202340126037598e-01,8.140677809715270996e-01,-3.203758001327514648e-01,4.250740408897399902e-01
1.665313355624675751e-02,-3.132832646369934082e-01,8.030074238777160645e-01,3.180547952651977539e-01,-3.606322109699249268e-01,-1.244333609938621521e-01,6.572361588478088379e-01,-2.359470725059509277e-01,8.615692704916000366e-02,-5.107704177498817444e-02,5.693665742874145508e-01,7.624442577362060547e-01,-4.618132412433624268e-01,1.660001128911972046e-01
1.106685921549797058e-01,-3.760040551424026489e-02,7.705739140510559082e-01,4.431086182594299316e-01,-2.906392812728881836e-01,1.305098831653594971e-01,7.110612988471984863e-01,-1.401279419660568237e-01,-9.512208402156829834e-03,2.798348106443881989e-02,6.105553507804870605e-01,5.432527661323547363e-01,-1.430516093969345093e-01,1.560176461935043335e-01
-1.751639097929000854e-01,-2.575297653675079346e-01,7.377145290374755859e-01,3.045621216297149658e-01,-4.492289721965789795e-01,2.345339357852935791e-01,6.861062645912170410e-01,-2.445560395717620850e-01,-3.871409688144922256e-03,7.830303907394409180e-02,5.912917852401733398e-01,3.205424547195434570e-01,-4.706729054450988770e-01,3.700274527072906494e-01
-4.447530955076217651e-03,-3.121594488620758057e-01,7.561790943145751953e-01,3.581955432891845703e-01,-7.375268638134002686e-02,4.112799763679504395e-01,6.999310851097106934e-01,-1.564780026674270630e-01,-5.881092697381973267e-02,1.040278524160385132e-01,7.677323222160339355e-01,3.244926929473876953e-01,-4.051384925842285156e-01,3.399094641208648682e-01
-1.465463489294052124e-01,-1.331035941839218140e-01,5.409723520278930664e-01,5.771594047546386719e-01,-2.291799336671829224e-01,3.338066339492797852e-01,5.610704421997070312e-01,2.128531485795974731e-01,2.864964902400970459e-01,-1.089612138457596302e-03,4.195283353328704834e-01,2.425592690706253052e-01,-2.905516922473907471e-01,2.372409850358963013e-01
-2.656584680080413818e-01,-2.737826108932495117e-01,6.446065902709960938e-01,7.313999533653259277e-01,-3.859331011772155762e-01,1.934590339660644531e-01,5.590539574623107910e-01,4.467697814106941223e-02,2.422254383563995361e-01,3.373371958732604980e-01,8.726050853729248047e-01,2.722612619400024414e-01,-1.602136194705963135e-01,2.550724148750305176e-01
-3.304518163204193115e-01,-1.828339993953704834e-01,4.947550594806671143e-01,3.690654933452606201e-01,-5.900825187563896179e-02,2.239520102739334106e-01,4.608105719089508057e-01,1.125116497278213501e-01,1.155229881405830383e-01,3.088508173823356628e-02,6.592903733253479004e-01,3.556048572063446045e-01,-9.272447228431701660e-02,3.225362300872802734e-01
-2.882302105426788330e-01,-3.127649426460266113e-01,2.192593812942504883e-01,5.221704244613647461e-01,-3.290888965129852295e-01,4.638121426105499268e-01,4.384704232215881348e-01,2.109349966049194336e-01,6.417535990476608276e-02,-8.009945601224899292e-02,5.868901014328002930e-01,1.961851716041564941e-01,-2.918421290814876556e-02,1.399775743484497070e-01
-2.786716520786285400e-01,-4.305262565612792969e-01,2.282614409923553467e-01,6.248387098312377930e-01,-3.981920182704925537e-01,3.266054391860961914e-01,5.812437534332275391e-01,3.278269171714782715e-01,1.077534705400466919e-01,9.299908578395843506e-02,5.720843076705932617e-01,1.301141679286956787e-01,6.410847604274749756e-02,2.473845779895782471e-01
-1.663388758897781372e-01,-1.316224783658981323e-01,2.439336776733398438e-01,5.404671430587768555e-01,-4.995959997177124023e-01,3.176125586032867432e-01,4.187318086624145508e-01,1.622962504625320435e-01,3.362944722175598145e-01,3.612564876675605774e-02,5.777010321617126465e-01,1.815644949674606323e-01,-7.945154607295989990e-02,2.003365606069564819e-01
-1.511364523321390152e-02,-2.482497841119766235e-01,2.153469473123550415e-01,9.056228399276733398e-01,-4.379388689994812012e-01,3.074849247932434082e-01,3.635889291763305664e-01,3.686480820178985596e-01,9.805298596620559692e-02,-1.767981052398681641e-01,2.942458689212799072e-01,-3.880893066525459290e-02,1.032871976494789124e-01,1.876399666070938110e-01
-2.396471053361892700e-02,-8.162702620029449463e-02,1.323842704296112061e-01,8.065154552459716797e-01,-4.417246282100677490e-01,4.152724742889404297e-01,2.864600121974945068e-01,3.086491525173187256e-01,2.557707130908966064e-01,-2.419307641685009003e-02,5.115047693252563477e-01,7.363907527178525925e-03,2.356022000312805176e-01,2.467237859964370728e-01
-6.305681541562080383e-03,-1.496136188507080078e-01,8.165248483419418335e-02,5.753156542778015137e-01,-4.389765858650207520e-01,4.091726541519165039e-01,1.644243448972702026e-01,2.192942947149276733e-01,3.703164756298065186e-01,-1.018285155296325684e-01,2.526708841323852539e-01,-1.102956384420394897e-01,1.797748506069183350e-01,4.206242263317108154e-01
-3.608525916934013367e-02,-1.876522153615951538e-01,1.754574775695800781e-01,8.433572053909301758e-01,-4.920215308666229248e-01,5.026969909667968750e-01,4.584202915430068970e-02,3.520437180995941162e-01,1.347972750663757324e-01,-5.286011844873428345e-02,5.130158066749572754e-01,-3.152058273553848267e-02,-2.228526584804058075e-02,3.134700059890747070e-01
2.030132561922073364e-01,2.315708547830581665e-01,2.138374298810958862e-01,7.322283387184143066e-01,-4.599491357803344727e-01,3.769468069076538086e-01,2.746536135673522949e-01,3.116637468338012695e-01,2.113682329654693604e-01,-3.404529690742492676e-01,3.438006639480590820e-01,-1.489827316254377365e-02,1.295674145221710205e-01,2.960590422153472900e-01
1.329396367073059082e-01,-2.376529388129711151e-02,1.707658767700195312e-01,7.565443515777587891e-01,-5.425589680671691895e-01,2.603294551372528076e-01,3.256376981735229492e-01,1.656748056411743164e-01,2.339841797947883606e-02,-1.913824379444122314e-01,3.207478225231170654e-01,-1.822751462459564209e-01,1.378046274185180664e-01,5.412673354148864746e-01
1.836350262165069580e-01,1.950736790895462036e-01,3.238362958654761314e-03,6.095092296600341797e-01,-4.725654423236846924e-01,2.857600450515747070e-01,5.356827378273010254e-01,3.965626657009124756e-01,2.360800802707672119e-01,-3.473077714443206787e-01,1.433406472206115723e-01,-2.260469645261764526e-01,1.492831557989120483e-01,3.609747886657714844e-01
2.069184780120849609e-01,1.665546000003814697e-01,1.831905841827392578e-01,9.685519337654113770e-01,-5.074852705001831055e-01,2.616702914237976074e-01,3.727311491966247559e-01,2.332174032926559448e-01,2.275744229555130005e-01,-5.149801373481750488e-01,1.794149726629257202e-01,-2.827344238758087158e-01,-1.651967177167534828e-03,4.513841867446899414e-01
3.749372959136962891e-01,4.030896127223968506e-01,2.750117182731628418e-01,7.384757995605468750e-01,-4.601266384124755859e-01,3.227201104164123535e-01,1.937500387430191040e-01,1.580700576305389404e-01,2.132813483476638794e-01,-2.197218835353851318e-01,3.641189038753509521e-01,-2.935598194599151611e-01,-2.174663916230201721e-02,4.647406339645385742e-01
5.125600695610046387e-01,1.670727282762527466e-01,1.737875491380691528e-01,8.590062856674194336e-01,-5.955544114112854004e-01,3.442193269729614258e-01,4.858847856521606445e-01,-6.958950310945510864e-02,1.160103529691696167e-01,-4.483042061328887939e-01,2.381902337074279785e-01,-3.473547101020812988e-01,1.027675196528434753e-01,5.185229778289794922e-01
2.205302566289901733e-01,3.520893752574920654e-01,5.394225120544433594e-01,8.218104839324951172e-01,-3.003507554531097412e-01,2.838220894336700439e-01,6.906185746192932129e-01,-1.515671145170927048e-02,3.353210389614105225e-01,-4.572104513645172119e-01,3.194296658039093018e-01,-3.877575695514678955e-01,2.034596633166074753e-03,4.433902204036712646e-01
2.815529406070709229e-01,5.697268843650817871e-01,2.723686993122100830e-01,7.658243179321289062e-01,-4.819461703300476074e-01,1.925462186336517334e-01,5.668590664863586426e-01,-6.495328247547149658e-02,3.336279988288879395e-01,-6.972271203994750977e-01,6.576435565948486328e-01,-3.839454650878906250e-01,9.655272960662841797e-02,5.792766809463500977e-01
4.208454787731170654e-01,1.437154114246368408e-01,3.796564340591430664e-01,8.151313662528991699e-01,-3.115015923976898193e-01,1.786179542541503906e-01,9.784182310104370117e-01,7.044732570648193359e-02,1.988811343908309937e-01,-2.323532402515411377e-01,5.740803480148315430e-01,-3.660413920879364014e-01,-3.478206321597099304e-02,4.810738861560821533e-01
4.136572778224945068e-01,1.266817301511764526e-01,3.799869418144226074e-01,9.106426239013671875e-01,-2.070443481206893921e-01,1.424216628074645996e-01,9.313692450523376465e-01,-1.183290407061576843e-01,1.248420625925064087e-01,-4.169324338436126709e-01,7.583638429641723633e-01,-2.889643609523773193e-01,1.306127011775970459e-01,5.132480859756469727e-01
3.870548009872436523e-01,1.380938887596130371e-01,4.276321828365325928e-01,8.930534720420837402e-01,-7.533140480518341064e-02,2.790799736976623535e-01,8.411440253257751465e-01,-6.911270320415496826e-02,1.871934682130813599e-01,-3.658851087093353271e-01,5.060022473335266113e-01,-2.667230963706970215e-01,1.682657897472381592e-01,9.150241017341613770e-01
4.198943376541137695e-01,9.139092639088630676e-03,7.393880486488342285e-01,8.773466348648071289e-01,1.668573170900344849e-01,2.916677594184875488e-01,9.152810573577880859e-01,-3.666869699954986572e-01,1.457418054342269897e-01,-3.274887800216674805e-01,5.926280617713928223e-01,-1.344437301158905029e-01,6.497229635715484619e-02,6.776818633079528809e-01
3.250317275524139404e-01,-5.726817529648542404e-03,7.356977462768554688e-01,6.424103975296020508e-01,5.177580565214157104e-02,1.560497283935546875e-01,7.555462121963500977e-01,-3.202158212661743164e-01,1.701929718255996704e-01,-3.677898347377777100e-01,5.809227228164672852e-01,3.467299416661262512e-02,9.911095350980758667e-02,7.090409398078918457e-01
5.633516907691955566e-01,-2.707065641880035400e-01,4.678183197975158691e-01,7.010242342948913574e-01,2.206210792064666748e-01,2.172706127166748047e-01,6.690549850463867188e-01,-2.627380490303039551e-01,-7.417538017034530640e-02,-4.388887584209442139e-01,6.782367229461669922e-01,-2.197057940065860748e-02,1.060293540358543396e-01,7.831299901008605957e-01
4.049731791019439697e-01,6.095165759325027466e-02,5.506383180618286133e-01,4.497485756874084473e-01,2.456449866294860840e-01,2.186706066131591797e-01,6.658267378807067871e-01,-3.033030629158020020e-01,-5.543721839785575867e-02,-2.744615077972412109e-01,6.614708304405212402e-01,1.970621757209300995e-02,-1.881220005452632904e-02,6.297565698623657227e-01
3.707592189311981201e-01,-1.878696680068969727e-01,2.861628532409667969e-01,4.723402559757232666e-01,2.109075039625167847e-01,2.600961029529571533e-01,6.550546884536743164e-01,-2.051925063133239746e-01,-4.901878535747528076e-02,-2.963904142379760742e-01,4.701943993568420410e-01,1.687718480825424194e-01,3.383814124390482903e-03,5.696763396263122559e-01
6.568269133567810059e-01,-1.817708313465118408e-01,3.120362460613250732e-01,5.240875482559204102e-01,2.824735641479492188e-01,-8.409086614847183228e-02,7.733879089355468750e-01,-2.499916255474090576e-01,-1.861095577478408813e-01,-3.606108725070953369e-01,6.120681166648864746e-01,2.861335687339305878e-02,-5.819322168827056885e-02,5.336709022521972656e-01
5.433285832405090332e-01,-2.209715992212295532e-01,5.565917491912841797e-01,2.622396647930145264e-01,2.487731128931045532e-01,2.684780955314636230e-01,5.296051502227783203e-01,-4.249546825885772705e-01,-3.603166341781616211e-01,-2.735683023929595947e-01,8.397167325019836426e-01,2.337532490491867065e-01,-9.909100085496902466e-02,4.594992399215698242e-01
5.109579563140869141e-01,-3.669632673263549805e-01,4.529040157794952393e-01,2.690950334072113037e-01,3.947068750858306885e-01,-2.183014340698719025e-02,5.249390006065368652e-01,-2.701374590396881104e-01,-3.738422095775604248e-01,-3.455445170402526855e-01,8.211919665336608887e-01,1.905796378850936890e-01,-9.107604622840881348e-02,5.569235682487487793e-01
5.511244535446166992e-01,-3.143527805805206299e-01,2.029731571674346924e-01,1.682074517011642456e-01,5.552918314933776855e-01,2.389765232801437378e-01,3.947651088237762451e-01,-2.742767930030822754e-01,-3.118396997451782227e-01,5.253779143095016479e-02,6.040918827056884766e-01,3.187753260135650635e-01,-1.633197814226150513e-01,3.901552855968475342e-01
5.243811011314392090e-01,-1.030309051275253296e-01,4.171634316444396973e-01,1.149693429470062256e-01,3.668549060821533203e-01,6.676910817623138428e-02,4.708721637725830078e-01,-1.499852091073989868e-01,-3.534479737281799316e-01,-2.984900176525115967e-01,6.122334599494934082e-01,3.710300326347351074e-01,-9.476990997791290283e-02,2.106827944517135620e-01
5.784205198287963867e-01,-2.175121903419494629e-01,5.391147136688232422e-01,1.302700936794281006e-01,3.757886290550231934e-01,1.918143332004547119e-01,3.255077898502349854e-01,-2.766621708869934082e-01,-3.769616484642028809e-01,4.942005500197410583e-02,6.708645224571228027e-01,2.414729446172714233e-01,-4.239968061447143555e-01,1.264974772930145264e-01
3.724281191825866699e-01,-1.443518996238708496e-01,5.295602679252624512e-01,-6.957635283470153809e-02,4.438555240631103516e-01,1.891006827354431152e-01,4.162305891513824463e-01,-2.719801366329193115e-01,-4.216741323471069336e-01,1.435972750186920166e-02,4.642090201377868652e-01,1.594816893339157104e-01,-2.694697380065917969e-01,-9.249772876501083374e-02
5.282434821128845215e-01,-1.795148700475692749e-01,4.865699410438537598e-01,-1.304387301206588745e-01,3.105563223361968994e-01,2.746711969375610352e-01,1.816711425781250000e-01,-2.214184552431106567e-01,-5.281854867935180664e-01,1.023650467395782471e-01,7.647098898887634277e-01,1.531274914741516113e-01,-3.166416287422180176e-01,-1.296625733375549316e-01
2.658608555793762207e-01,-1.617533266544342041e-01,3.553450405597686768e-01,-1.873351261019706726e-02,4.708492159843444824e-01,1.905032694339752197e-01,2.549552321434020996e-01,-2.896250188350677490e-01,-6.205623745918273926e-01,1.385053694248199463e-01,7.608762979507446289e-01,1.953969448804855347e-01,-4.473163485527038574e-01,-2.648475766181945801e-01
2.621437013149261475e-01,-1.475859284400939941e-01,2.901076376438140869e-01,-1.463279724121093750e-01,4.349251389503479004e-01,3.148064911365509033e-01,4.790087938308715820e-01,-2.838807404041290283e-01,-6.214070916175842285e-01,3.713144361972808838e-01,7.843391299247741699e-01,1.007056236267089844e-01,-4.113152027130126953e-01,-1.730069052428007126e-03
2.726859450340270996e-01,-7.978336513042449951e-02,2.892625927925109863e-01,-4.362868517637252808e-02,5.284086465835571289e-01,6.541202068328857422e-01,2.495564073324203491e-01,-3.172247111797332764e-01,-7.800107598304748535e-01,3.464483916759490967e-01,6.636590957641601562e-01,3.078525327146053314e-02,-4.391958713531494141e-01,6.776046473532915115e-03
1.861788034439086914e-01,-2.157596051692962646e-01,2.272142171859741211e-01,7.741185254417359829e-04,4.422820210456848145e-01,4.516460597515106201e-01,3.375295698642730713e-01,-8.971661329269409180e-02,-5.519874095916748047e-01,4.466003775596618652e-01,7.737584710121154785e-01,-7.908705621957778931e-02,-4.465516805648803711e-01,-1.779826432466506958e-01
2.962980978190898895e-02,-2.114616483449935913e-01,2.462994456291198730e-01,1.004063114523887634e-01,5.939441919326782227e-01,3.489164412021636963e-01,2.593188583850860596e-01,-1.054776236414909363e-01,-3.830498754978179932e-01,4.880847036838531494e-01,6.909400224685668945e-01,1.377604305744171143e-01,-2.481381446123123169e-01,-3.177317380905151367e-01
-6.409256905317306519e-02,-7.111310958862304688e-02,1.158597171306610107e-01,-2.797135710716247559e-02,3.943185508251190186e-01,5.336635112762451172e-01,3.491789847612380981e-02,8.301862329244613647e-02,-4.884036183357238770e-01,6.449134349822998047e-01,6.564188003540039062e-01,1.671083718538284302e-01,-2.215626835823059082e-01,-5.619134753942489624e-02
-6.597368419170379639e-02,4.942822828888893127e-02,1.559602320194244385e-01,2.853509485721588135e-01,4.048570394515991211e-01,5.463996529579162598e-01,1.713112443685531616e-01,-5.155147239565849304e-02,-3.740836977958679199e-01,5.202122330665588379e-01,6.093115806579589844e-01,3.330016136169433594e-02,-8.735439181327819824e-02,-1.841991096735000610e-01
-9.864744544029235840e-02,-7.394005358219146729e-02,-3.666638582944869995e-02,2.994106113910675049e-01,3.758209347724914551e-01,4.004361033439636230e-01,8.053761720657348633e-02,1.755354404449462891e-01,-2.208504527807235718e-01,6.610602736473083496e-01,5.304726958274841309e-01,-2.109276950359344482e-01,-1.838022172451019287e-01,-2.611543238162994385e-01
-1.332241743803024292e-01,1.574271619319915771e-01,-5.352069437503814697e-02,3.415200710296630859e-01,5.051470994949340820e-01,3.179280757904052734e-01,1.344898045063018799e-01,2.770391106605529785e-01,-4.846398159861564636e-02,5.655844807624816895e-01,4.809794425964355469e-01,-2.776314020156860352e-01,5.207474529743194580e-02,-2.629943788051605225e-01
1.929766498506069183e-02,-1.579297333955764771e-01,-2.572666406631469727e-01,1.963957399129867554e-01,3.336723446846008301e-01,3.794988095760345459e-01,1.765277087688446045e-01,3.344547450542449951e-01,-1.090318560600280762e-01,8.225175142288208008e-01,3.700428605079650879e-01,-7.106785476207733154e-02,-1.360189616680145264e-01,-1.436456441879272461e-01
-1.459407359361648560e-01,7.821646332740783691e-02,-3.249215185642242432e-01,5.384696722030639648e-01,2.238714396953582764e-01,1.392735242843627930e-01,1.390927731990814209e-01,3.364053964614868164e-01,-4.961613193154335022e-02,6.530957221984863281e-01,2.720444500446319580e-01,-6.528988480567932129e-02,1.627682149410247803e-01,-1.415038257837295532e-01
-1.189755871891975403e-01,3.327652439475059509e-02,-3.645107448101043701e-01,3.617588281631469727e-01,2.706156671047210693e-01,3.488522171974182129e-01,2.961938977241516113e-01,2.904322147369384766e-01,7.437088340520858765e-02,5.438012480735778809e-01,3.477542102336883545e-01,9.172383695840835571e-03,2.147777527570724487e-01,-2.319005429744720459e-01
-7.437956519424915314e-03,-1.368791610002517700e-02,-3.701825439929962158e-01,3.774913251399993896e-01,-8.126752078533172607e-02,2.210967242717742920e-01,2.088945657014846802e-01,3.899030387401580811e-01,6.994035840034484863e-02,6.554406285285949707e-01,3.613878488540649414e-01,2.067746594548225403e-02,1.825709491968154907e-01,-3.768489658832550049e-01
2.068959027528762817e-01,6.559839099645614624e-02,-5.612278580665588379e-01,4.313851594924926758e-01,1.512251198291778564e-01,9.748701006174087524e-02,3.044663965702056885e-01,4.364370405673980713e-01,8.508362621068954468e-02,4.857631623744964600e-01,-3.779362514615058899e-02,8.477216213941574097e-02,2.035787999629974365e-01,-2.839496731758117676e-01
1.286062896251678467e-01,-1.115468796342611313e-03,-2.668729722499847412e-01,2.853722572326660156e-01,9.522500447928905487e-03,-3.090856410562992096e-02,6.509967148303985596e-02,5.107631087303161621e-01,3.474397584795951843e-02,3.802077174186706543e-01,-4.581482708454132080e-02,-4.844854772090911865e-02,3.432331383228302002e-01,-2.324221134185791016e-01
2.233480811119079590e-01,2.851121723651885986e-01,-3.160237669944763184e-01,1.980169266462326050e-01,-3.218136355280876160e-02,-3.165867626667022705e-01,1.522958427667617798e-01,3.402392268180847168e-01,6.141567137092351913e-03,4.424431920051574707e-01,1.992582976818084717e-01,2.818618118762969971e-01,8.055738359689712524e-02,-1.804829835891723633e-01
2.682588696479797363e-01,1.032484844326972961e-01,-3.604000806808471680e-01,3.485304415225982666e-01,3.701100125908851624e-03,-2.025880813598632812e-01,5.427847430109977722e-02,3.815426528453826904e-01,1.339217424392700195e-01,4.745053052902221680e-01,5.273742228746414185e-02,2.962566912174224854e-01,-1.450495561584830284e-03,-1.401336491107940674e-01
2.465953230857849121e-01,2.449671179056167603e-01,-2.334368228912353516e-01,1.193726435303688049e-01,-1.804144494235515594e-02,-2.616972625255584717e-01,1.430897712707519531e-01,2.209670394659042358e-01,2.713114321231842041e-01,2.193421572446823120e-01,4.719281569123268127e-02,2.895884811878204346e-01,1.420183628797531128e-01,-1.677974611520767212e-01
3.104640543460845947e-01,7.467268407344818115e-02,-3.394857943058013916e-01,2.157664448022842407e-01,6.851758807897567749e-02,-3.869269788265228271e-01,3.245812952518463135e-01,1.216243803501129150e-01,-6.197369098663330078e-02,2.454398870468139648e-01,3.524974733591079712e-02,2.063337117433547974e-01,-1.878461837768554688e-01,4.142588376998901367e-02
3.472026288509368896e-01,1.500613540410995483e-01,-1.991818100214004517e-01,3.384578526020050049e-01,1.202087402343750000e-01,-3.327631354331970215e-01,4.805431962013244629e-01,2.121294289827346802e-01,-1.227569729089736938e-01,3.170686662197113037e-01,4.841498285531997681e-02,2.239373922348022461e-01,-1.665185987949371338e-01,-2.018506377935409546e-01
2.966290414333343506e-01,2.450581490993499756e-01,-2.238149493932723999e-01,3.062603175640106201e-01,-1.215168610215187073e-01,-3.325352370738983154e-01,6.012514829635620117e-01,1.581835746765136719e-01,3.690856322646141052e-02,1.477071791887283325e-01,1.357607990503311157e-01,3.640777170658111572e-01,-1.294206976890563965e-01,-8.543651551008224487e-02
2.239651530981063843e-01,3.280215561389923096e-01,-3.041648538783192635e-03,2.151408940553665161e-01,6.710009276866912842e-02,-1.361357569694519043e-01,4.570924043655395508e-01,-3.835283219814300537e-02,-5.102482438087463379e-02,2.346942573785781860e-01,2.829886674880981445e-01,3.859059810638427734e-01,-3.368311524391174316e-01,8.052305132150650024e-02
2.660885453224182129e-01,4.880736023187637329e-02,8.928427845239639282e-02,1.744060814380645752e-01,1.787160485982894897e-01,-4.258732795715332031e-01,5.315781831741333008e-01,-4.788563400506973267e-02,1.324243247509002686e-01,3.196731209754943848e-01,2.864600718021392822e-01,6.122857928276062012e-01,-3.586466312408447266e-01,-4.975152760744094849e-02
3.513257801532745361e-01,-2.527164667844772339e-02,-3.137419372797012329e-02,1.941451132297515869e-01,1.378007233142852783e-01,-3.253161013126373291e-01,5.195928812026977539e-01,1.143948733806610107e-01,1.907663643360137939e-01,1.074912101030349731e-01,3.527969419956207275e-01,5.199172496795654297e-01,-4.662518501281738281e-01,2.402635514736175537e-01
2.358450442552566528e-01,1.945463567972183228e-02,3.463326394557952881e-02,1.164982467889785767e-01,3.374706208705902100e-01,-4.581611156463623047e-01,5.103841423988342285e-01,7.443804293870925903e-02,-1.512491554021835327e-01,3.421083390712738037e-01,5.789016485214233398e-01,5.762494206428527832e-01,-3.920597136020660400e-01,2.257075756788253784e-01
2.077341079711914062e-01,-3.151539266109466553e-01,1.228355839848518372e-01,1.797564625740051270e-01,3.781845867633819580e-01,-4.151742458343505859e-01,4.542973935604095459e-01,2.163828164339065552e-01,-4.964588582515716553e-02,4.878473281860351562e-01,3.315139412879943848e-01,4.164959192276000977e-01,-4.200626611709594727e-01,1.354315131902694702e-01
9.905151277780532837e-02,-2.306033819913864136e-01,-4.724992066621780396e-02,6.676076352596282959e-02,4.556031823158264160e-01,-4.543145000934600830e-01,5.369407534599304199e-01,1.494588702917098999e-01,6.124556064605712891e-03,2.956704497337341309e-01,4.190681576728820801e-01,5.863174200057983398e-01,-4.438948333263397217e-01,1.428854316473007202e-01
2.539842724800109863e-01,-1.780474036931991577e-01,1.937942057847976685e-01,3.249395638704299927e-02,3.940834403038024902e-01,-3.485392332077026367e-01,4.345636069774627686e-01,2.137162089347839355e-01,-1.319965571165084839e-01,3.275433182716369629e-01,4.166568517684936523e-01,6.366744637489318848e-01,-4.440082609653472900e-01,2.237477600574493408e-01
-2.056499570608139038e-02,-3.842531144618988037e-01,4.701600968837738037e-02,2.474296092987060547e-01,4.149590432643890381e-01,-3.574104905128479004e-01,3.463721573352813721e-01,1.042414531111717224e-01,8.866504579782485962e-02,5.044301152229309082e-01,5.387711524963378906e-01,5.036807060241699219e-01,-6.360202431678771973e-01,1.529693603515625000e-01
-3.476629406213760376e-02,-5.767009258270263672e-01,-1.679022610187530518e-01,1.690705418586730957e-01,5.614072084426879883e-01,-3.556108772754669189e-01,3.630779683589935303e-01,2.912276983261108398e-01,1.257474869489669800e-01,4.701945483684539795e-01,4.189370572566986084e-01,6.649123430252075195e-01,-7.926017642021179199e-01,-2.517347456887364388e-03
9.400391578674316406e-02,-6.438426375389099121e-01,-1.065279357135295868e-02,2.423523366451263428e-02,4.079747498035430908e-01,-3.141720592975616455e-01,2.083540111780166626e-01,2.710135281085968018e-01,-1.387436985969543457e-01,3.962261378765106201e-01,5.289748311042785645e-01,4.195831418037414551e-01,-5.614370703697204590e-01,3.174436837434768677e-02
-2.238302677869796753e-01,-7.640800476074218750e-01,-2.159913033246994019e-01,1.535650193691253662e-01,5.425724983215332031e-01,-2.084976583719253540e-01,1.701390743255615234e-01,4.639703929424285889e-01,5.420798808336257935e-02,4.899018108844757080e-01,5.284847617149353027e-01,7.670958638191223145e-01,-7.439059019088745117e-01,-3.675964847207069397e-02
-2.452510744333267212e-01,-6.352030634880065918e-01,-1.728496998548507690e-01,-1.052448749542236328e-01,4.993357062339782715e-01,-2.383078783750534058e-01,1.975637674331665039e-02,3.692018687725067139e-01,-1.316665410995483398e-01,3.791221976280212402e-01,5.328559875488281250e-01,8.020151257514953613e-01,-7.043404579162597656e-01,-7.855355739593505859e-02
-5.152042210102081299e-02,-8.040309548377990723e-01,-1.022934019565582275e-01,-1.451851129531860352e-01,4.039591252803802490e-01,-3.744473457336425781e-01,-4.248540382832288742e-03,2.555188834667205811e-01,1.211324483156204224e-01,5.815675854682922363e-01,2.390036433935165405e-01,6.653912663459777832e-01,-5.421499013900756836e-01,-4.496780037879943848e-02
-2.511771023273468018e-02,-8.708515167236328125e-01,-3.191975355148315430e-01,-1.495650857686996460e-01,3.593631982803344727e-01,-4.005013704299926758e-01,-6.190180778503417969e-02,4.424835145473480225e-01,-1.356018357910215855e-03,4.546090364456176758e-01,4.017823636531829834e-01,5.541298389434814453e-01,-8.688892722129821777e-01,-1.454053260385990143e-02
-1.545900553464889526e-01,-6.735745668411254883e-01,-3.253117203712463379e-02,-2.409356832504272461e-01,4.689185023307800293e-01,-2.892237007617950439e-01,-2.456653118133544922e-01,4.609225094318389893e-01,-1.726381927728652954e-01,2.934600114822387695e-01,4.168434143066406250e-01,7.799157500267028809e-01,-6.360594034194946289e-01,-1.196174472570419312e-01
-3.556485474109649658e-01,-7.992675900459289551e-01,-1.469234526157379150e-01,-2.614701688289642334e-01,2.819355726242065430e-01,-2.147019952535629272e-01,-2.890142500400543213e-01,6.502006649971008301e-01,-1.677666753530502319e-01,4.375047683715820312e-01,3.557704389095306396e-01,7.595150470733642578e-01,-6.680383682250976562e-01,-1.649045944213867188e-01
-3.025296926498413086e-01,-9.925016760826110840e-01,-2.600774466991424561e-01,-3.437505066394805908e-01,2.706510424613952637e-01,-1.272210627794265747e-01,-2.877998054027557373e-01,5.044207572937011719e-01,-2.678109705448150635e-01,4.453274011611938477e-01,3.725073039531707764e-01,7.513247132301330566e-01,-4.745632112026214600e-01,-2.434049844741821289e-01
-4.363180994987487793e-01,-8.558242321014404297e-01,-3.047817945480346680e-01,-1.062979251146316528e-01,2.924213409423828125e-01,-2.200122773647308350e-01,-2.577411532402038574e-01,4.970341324806213379e-01,-2.490758597850799561e-01,2.731040418148040771e-01,3.621614575386047363e-01,5.455214977264404297e-01,-6.358114480972290039e-01,-1.957910805940628052e-01
-3.935869038105010986e-01,-9.225384593009948730e-01,-2.384469360113143921e-01,-2.780028581619262695e-01,4.042682945728302002e-01,-1.544969379901885986e-01,-3.430780172348022461e-01,5.097412467002868652e-01,-2.926869988441467285e-01,3.643119633197784424e-01,3.062856793403625488e-01,3.967683315277099609e-01,-5.758414268493652344e-01,-2.401357591152191162e-01
-4.361874163150787354e-01,-6.788423657417297363e-01,-2.332360744476318359e-01,-4.448126554489135742e-01,2.540483474731445312e-01,4.253086168318986893e-03,-5.583245307207107544e-02,5.391003489494323730e-01,-1.923175007104873657e-01,3.478010892868041992e-01,1.093301773071289062e-01,2.482498139142990112e-01,-7.114558815956115723e-01,-6.667400896549224854e-02
-3.008624613285064697e-01,-5.818933248519897461e-01,-2.902060747146606445e-01,-5.999068543314933777e-02,1.795971095561981201e-01,-8.345713466405868530e-02,-2.583253681659698486e-01,5.214305520057678223e-01,-1.644691526889801025e-01,3.456413447856903076e-01,7.839140295982360840e-02,3.031353652477264404e-01,-5.844373106956481934e-01,-7.282309234142303467e-02
-3.941622376441955566e-01,-4.994610548019409180e-01,-2.773826718330383301e-01,-8.200736343860626221e-02,1.445932537317276001e-01,1.635594964027404785e-01,-5.065514147281646729e-02,6.075925230979919434e-01,-3.864352032542228699e-02,2.921337187290191650e-01,1.242273747920989990e-01,2.160130590200424194e-01,-4.279730021953582764e-01,-8.194231986999511719e-02
-4.933014214038848877e-01,-5.801613926887512207e-01,-4.373110830783843994e-01,-2.320874109864234924e-02,2.397047579288482666e-01,2.299504131078720093e-01,-1.944156438112258911e-01,6.946740746498107910e-01,-7.417499553412199020e-03,4.436376392841339111e-01,1.273867487907409668e-01,3.223811686038970947e-01,-4.854088127613067627e-01,-1.719776727259159088e-02
-4.325765669345855713e-01,-4.031709730625152588e-01,-2.565410435199737549e-01,2.687758207321166992e-02,1.065668091177940369e-01,4.271623194217681885e-01,-2.279339283704757690e-01,6.564294695854187012e-01,2.772340476512908936e-01,3.887498080730438232e-01,-3.819438442587852478e-02,2.987022399902343750e-01,-6.521909832954406738e-01,4.235417023301124573e-02
-4.017937481403350830e-01,-5.555790662765502930e-01,-4.151281118392944336e-01,2.365418896079063416e-02,1.408433914184570312e-01,3.099295794963836670e-01,-4.974896460771560669e-02,3.986652195453643799e-01,2.582827806472778320e-01,4.145723283290863037e-01,-6.055500358343124390e-02,-8.800648897886276245e-02,-3.168315589427947998e-01,2.018403857946395874e-01
-5.893752574920654297e-01,-7.260572910308837891e-01,-2.422041594982147217e-01,2.082459330558776855e-01,4.987221956253051758e-02,3.619339764118194580e-01,-5.108112096786499023e-02,5.433191657066345215e-01,2.031022012233734131e-01,3.264934122562408447e-01,-7.445308566093444824e-02,1.062556803226470947e-01,-1.443776488304138184e-01,1.540569365024566650e-01
-3.229935169219970703e-01,-7.353215217590332031e-01,-2.519045472145080566e-01,3.826745450496673584e-01,1.359222680330276489e-01,4.586765468120574951e-01,-4.480034112930297852e-02,7.318685054779052734e-01,6.681312322616577148e-01,3.417148590087890625e-01,7.370630744844675064e-03,-3.665154799818992615e-02,-1.707482188940048218e-01,1.622235178947448730e-01
-5.243905782699584961e-01,-6.062487363815307617e-01,-2.916208505630493164e-01,1.529159843921661377e-01,-7.946269586682319641e-03,1.640087962150573730e-01,-1.314775785431265831e-03,5.630522966384887695e-01,3.348443806171417236e-01,5.978501215577125549e-02,-9.366837888956069946e-02,1.819572038948535919e-02,-1.035700663924217224e-01,4.336938560009002686e-01
-2.787972688674926758e-01,-7.521514892578125000e-01,-4.388439953327178955e-01,2.817363440990447998e-01,5.857450887560844421e-02,2.008077651262283325e-01,-2.300304127857089043e-03,6.613205671310424805e-01,5.414980649948120117e-01,-6.631056964397430420e-02,-2.960387170314788818e-01,2.474816739559173584e-01,-1.991449296474456787e-01,3.784453570842742920e-01
-2.550845146179199219e-01,-5.804192423820495605e-01,-4.296010732650756836e-01,1.427138894796371460e-01,9.014777094125747681e-02,1.081755086779594421e-01,-5.437420308589935303e-02,6.249319314956665039e-01,5.070086717605590820e-01,7.481870055198669434e-02,-1.025081798434257507e-01,2.959489822387695312e-01,1.442224234342575073e-01,3.240837752819061279e-01
-1.818933635950088501e-01,-6.199806332588195801e-01,-3.954106271266937256e-01,4.219450652599334717e-01,1.390427649021148682e-01,2.608674466609954834e-01,-4.058967903256416321e-02,5.638661384582519531e-01,6.035450696945190430e-01,-3.722151741385459900e-02,-2.687874138355255127e-01,2.044468000531196594e-02,4.251404106616973877e-02,4.825973808765411377e-01
-1.067565530538558960e-01,-7.673018574714660645e-01,-1.107526123523712158e-01,1.930866390466690063e-01,7.358375936746597290e-02,6.561041623353958130e-02,1.642645001411437988e-01,4.906385838985443115e-01,6.080780029296875000e-01,-2.897003889083862305e-01,-2.085718661546707153e-01,3.687342107295989990e-01,1.799442917108535767e-01,5.161902904510498047e-01
-5.788440629839897156e-02,-7.861714959144592285e-01,-1.527996659278869629e-01,1.201038211584091187e-01,-1.545341759920120239e-01,1.406757682561874390e-01,1.016198471188545227e-01,5.394231081008911133e-01,5.318306684494018555e-01,-3.252480626106262207e-01,-4.053336083889007568e-01,3.467749953269958496e-01,1.226282045245170593e-01,3.891625702381134033e-01
2.624810338020324707e-01,-4.691860675811767578e-01,-1.918651908636093140e-01,5.000815913081169128e-02,5.206602811813354492e-02,-1.842961907386779785e-01,1.522367000579833984e-01,4.488494992256164551e-01,4.662492275238037109e-01,-4.350807070732116699e-01,-5.220170617103576660e-01,3.797011673450469971e-01,7.257646322250366211e-02,4.069043397903442383e-01
3.784025311470031738e-01,-5.454449057579040527e-01,-5.833890661597251892e-02,5.792075395584106445e-02,2.871711365878582001e-02,1.343384534120559692e-01,3.599999248981475830e-01,2.827664315700531006e-01,5.716827511787414551e-01,-4.823795258998870850e-01,-5.635786056518554688e-01,5.796925425529479980e-01,1.559449583292007446e-01,4.299392998218536377e-01
4.092288911342620850e-01,-7.515650391578674316e-01,1.469215154647827148e-01,1.346438080072402954e-01,-8.324640803039073944e-03,1.355269402265548706e-01,-7.502499502152204514e-03,7.517937570810317993e-02,2.372995615005493164e-01,-4.647017121315002441e-01,-4.011903107166290283e-01,3.794535696506500244e-01,-2.393089383840560913e-01,4.904246032238006592e-01
5.597964525222778320e-01,-7.544267773628234863e-01,2.249866425991058350e-01,3.976792097091674805e-02,1.170501578599214554e-02,4.663928225636482239e-02,3.755517303943634033e-01,2.027283906936645508e-01,3.244122266769409180e-01,-5.232073664665222168e-01,-2.865917086601257324e-01,5.090962648391723633e-01,-5.918667465448379517e-02,4.445382654666900635e-01
5.208903551101684570e-01,-5.304929614067077637e-01,4.388553798198699951e-01,3.549072518944740295e-02,2.269545570015907288e-02,3.569498658180236816e-02,2.112305015325546265e-01,-8.322065323591232300e-02,3.171420693397521973e-01,-5.833337903022766113e-01,-3.460005819797515869e-01,5.262001156806945801e-01,-4.520097747445106506e-02,3.881149590015411377e-01
4.502349197864532471e-01,-5.873459577560424805e-01,4.586944580078125000e-01,-3.065799549221992493e-02,5.155397579073905945e-02,1.865617483854293823e-01,2.799775302410125732e-01,-2.547794878482818604e-01,3.280171155929565430e-01,-6.151694059371948242e-01,-4.056799411773681641e-01,5.817882418632507324e-01,-7.792615890502929688e-02,6.293582916259765625e-01
4.527032077312469482e-01,-6.118867993354797363e-01,3.594113588333129883e-01,-1.865406632423400879e-01,1.225750669836997986e-01,7.012934237718582153e-02,1.899568289518356323e-01,-3.000876903533935547e-01,2.448678761720657349e-01,-6.234553456306457520e-01,-1.842332333326339722e-01,4.680363535881042480e-01,-2.166770249605178833e-01,5.432181358337402344e-01
5.688426494598388672e-01,-5.534691214561462402e-01,5.154613256454467773e-01,-6.360726803541183472e-02,2.927038669586181641e-01,1.510583013296127319e-01,1.831859052181243896e-01,-2.957495748996734619e-01,4.662774205207824707e-01,-6.155601739883422852e-01,-2.199435383081436157e-01,5.035212039947509766e-01,3.214194998145103455e-02,4.523331522941589355e-01
4.472400248050689697e-01,-6.431664824485778809e-01,6.093550920486450195e-01,-2.719234228134155273e-01,2.098743021488189697e-01,1.998180747032165527e-01,5.307772755622863770e-01,-2.654854655265808105e-01,1.763042807579040527e-01,-5.490816831588745117e-01,8.059757947921752930e-02,6.342502832412719727e-01,-2.790553122758865356e-02,5.519530177116394043e-01
4.804717898368835449e-01,-7.245239615440368652e-01,5.906305909156799316e-01,-4.628255218267440796e-02,3.913704156875610352e-01,5.434791445732116699e-01,4.101308286190032959e-01,-5.268002748489379883e-01,2.697280049324035645e-01,-5.410670638084411621e-01,-2.382331900298595428e-02,3.820905983448028564e-01,-2.803321182727813721e-01,5.950882434844970703e-01
4.924762248992919922e-01,-8.366082906723022461e-01,7.488406896591186523e-01,-1.801080852746963501e-01,3.592600822448730469e-01,5.319952368736267090e-01,5.237527489662170410e-01,-4.601424336433410645e-01,8.692397922277450562e-02,-3.859516382217407227e-01,-1.889047212898731232e-02,6.119525432586669922e-01,-3.115704655647277832e-01,4.683623909950256348e-01
3.672431111335754395e-01,-9.107185006141662598e-01,6.296922564506530762e-01,-3.002632409334182739e-02,3.576214015483856201e-01,4.955616593360900879e-01,3.886230587959289551e-01,-4.793004691600799561e-01,3.409586846828460693e-01,-4.009759128093719482e-01,2.007683180272579193e-02,5.824019312858581543e-01,-1.065376773476600647e-01,4.766668081283569336e-01
1.309181451797485352e-01,-9.001343250274658203e-01,4.864085316658020020e-01,-3.201967179775238037e-01,3.382072150707244873e-01,3.855639100074768066e-01,3.273034691810607910e-01,-5.641494989395141602e-01,1.420568078756332397e-01,-2.509551942348480225e-01,7.131579518318176270e-02,6.257982850074768066e-01,-1.257052421569824219e-01,4.310126006603240967e-01
2.847761511802673340e-01,-1.009312868118286133e+00,6.186870932579040527e-01,-2.768017053604125977e-01,4.963467121124267578e-01,4.238063097000122070e-01,5.729833841323852539e-01,-4.680567085742950439e-01,2.905724644660949707e-01,-2.776485085487365723e-01,2.406758815050125122e-01,6.561118364334106445e-01,-9.472166746854782104e-02,5.680183768272399902e-01
1.898132562637329102e-01,-8.200793862342834473e-01,5.983145833015441895e-01,-2.823441624641418457e-01,4.017745554447174072e-01,6.825188994407653809e-01,3.242848515510559082e-01,-3.766434490680694580e-01,3.783386349678039551e-01,-2.192136347293853760e-01,9.837719798088073730e-02,5.325349569320678711e-01,-9.325466305017471313e-02,3.879284560680389404e-01
3.727875351905822754e-01,-7.898834943771362305e-01,4.709681272506713867e-01,-1.699032783508300781e-01,4.307031631469726562e-01,7.000237107276916504e-01,2.859104871749877930e-01,-6.718783378601074219e-01,2.159367501735687256e-01,-8.059266954660415649e-02,3.924530148506164551e-01,4.868620336055755615e-01,2.823173068463802338e-02,4.356924295425415039e-01
2.987407743930816650e-01,-7.230920195579528809e-01,4.416241943836212158e-01,-1.100707948207855225e-01,3.476275801658630371e-01,8.829778432846069336e-01,1.032896935939788818e-01,-4.075149297714233398e-01,2.903470098972320557e-01,-2.186693623661994934e-02,-8.654566854238510132e-02,5.983472466468811035e-01,2.687577307224273682e-01,3.346115052700042725e-01
2.868468761444091797e-01,-9.650847315788269043e-01,3.684272766113281250e-01,-1.357491314411163330e-01,2.787775099277496338e-01,7.117701768875122070e-01,1.825514882802963257e-01,-2.556671798229217529e-01,1.627145856618881226e-01,-1.625380218029022217e-01,1.407748013734817505e-01,4.635011255741119385e-01,2.010793536901473999e-01,2.990901470184326172e-01
5.772883892059326172e-01,-6.114721894264221191e-01,3.645314276218414307e-01,-1.258895099163055420e-01,2.023437619209289551e-01,6.557093262672424316e-01,3.496171236038208008e-01,-3.149141967296600342e-01,3.533346652984619141e-01,-2.864322960376739502e-01,9.858946502208709717e-02,3.093515932559967041e-01,2.720553278923034668e-01,2.216903716325759888e-01
2.218068987131118774e-01,-6.526112556457519531e-01,2.951083481311798096e-01,-1.040409058332443237e-01,1.670331358909606934e-01,8.113321661949157715e-01,1.444359570741653442e-01,-2.719282209873199463e-01,3.151560425758361816e-01,-2.089702337980270386e-01,-1.419209390878677368e-01,4.159954786300659180e-01,1.871836334466934204e-01,2.067471742630004883e-01
4.532792568206787109e-01,-5.346992611885070801e-01,6.272885948419570923e-02,-9.258144348859786987e-02,2.438339963555335999e-02,9.227472543716430664e-01,2.031410932540893555e-01,-3.434886038303375244e-01,2.022493332624435425e-01,-2.791332006454467773e-01,-9.181000292301177979e-02,4.433090686798095703e-01,3.645844459533691406e-01,1.608749628067016602e-01
5.459914207458496094e-01,-6.038011312484741211e-01,3.895895481109619141e-01,-9.793267399072647095e-02,-1.965694501996040344e-02,9.046298265457153320e-01,1.404667049646377563e-01,-3.039021193981170654e-01,4.169704020023345947e-01,-1.569689959287643433e-01,-2.531858384609222412e-01,3.647916018962860107e-01,4.800954163074493408e-01,2.275247424840927124e-01
4.626758992671966553e-01,-6.117042303085327148e-01,6.181831285357475281e-02,-6.945910304784774780e-02,-1.083394885063171387e-01,8.656460046768188477e-01,-4.627645388245582581e-02,-4.416931271553039551e-01,3.985715806484222412e-01,-3.532187342643737793e-01,-1.805670857429504395e-01,3.855945542454719543e-02,6.543204188346862793e-01,1.663210093975067139e-01
2.350429743528366089e-01,-3.337605297565460205e-01,1.589965522289276123e-01,7.350946962833404541e-02,-1.370534151792526245e-01,7.850731611251831055e-01,9.065465629100799561e-02,-4.434790313243865967e-01,2.175773680210113525e-01,-2.001878768205642700e-01,-1.385687738656997681e-01,2.739314436912536621e-01,5.746346116065979004e-01,1.333399862051010132e-01
5.782001018524169922e-01,-2.951674461364746094e-01,-1.362503468990325928e-01,-1.168770343065261841e-02,-1.823800504207611084e-01,8.060978055000305176e-01,2.571282088756561279e-01,-4.776109457015991211e-01,4.650295078754425049e-01,-2.306380867958068848e-01,-6.560179591178894043e-02,1.191483512520790100e-01,5.757817625999450684e-01,1.448378711938858032e-01
4.532223641872406006e-01,-2.427927851676940918e-01,2.442404925823211670e-01,9.751513600349426270e-02,-1.903506815433502197e-01,7.895473241806030273e-01,2.150488644838333130e-01,-2.798034548759460449e-01,4.115520715713500977e-01,-5.144061446189880371e-01,-2.976480126380920410e-01,2.005231827497482300e-01,6.653330326080322266e-01,2.106358855962753296e-01
4.222867786884307861e-01,-7.922066003084182739e-02,1.221566051244735718e-01,3.525286018848419189e-01,-1.471050530672073364e-01,8.501964211463928223e-01,2.148358821868896484e-01,-3.073100149631500244e-01,5.809188485145568848e-01,-2.433652132749557495e-01,-2.888580858707427979e-01,-1.161711215972900391e-01,4.586006999015808105e-01,2.063035666942596436e-01
4.205832481384277344e-01,9.368059784173965454e-02,2.205531746149063110e-01,6.663742661476135254e-02,-1.191922798752784729e-01,9.019433856010437012e-01,3.884180188179016113e-01,-5.011476278305053711e-01,6.465810537338256836e-01,-3.152694106101989746e-01,-2.668923735618591309e-01,-1.023050099611282349e-01,7.313265204429626465e-01,1.860005557537078857e-01
5.290089845657348633e-01,2.661796808242797852e-01,1.270665973424911499e-01,4.000552594661712646e-01,-1.420114487409591675e-01,8.703053593635559082e-01,6.340755224227905273e-01,-4.240086376667022705e-01,6.264279484748840332e-01,-3.105587661266326904e-01,-2.474494576454162598e-01,-9.456520527601242065e-02,9.278295040130615234e-01,4.588164687156677246e-01
5.775340795516967773e-01,2.951269745826721191e-01,2.378477603197097778e-01,5.760136842727661133e-01,-3.866103589534759521e-01,7.195423841476440430e-01,5.049643516540527344e-01,-5.636180043220520020e-01,7.355172634124755859e-01,-3.688972592353820801e-01,-3.632107675075531006e-01,-7.694238424301147461e-02,7.703483700752258301e-01,4.172785580158233643e-01
3.308718502521514893e-01,1.204359307885169983e-01,1.585349142551422119e-01,4.991444945335388184e-01,-2.468153536319732666e-01,8.825797438621520996e-01,4.179684221744537354e-01,-6.226572990417480469e-01,8.923534154891967773e-01,-3.822329044342041016e-01,-1.805370599031448364e-01,-1.311801970005035400e-01,8.196102380752563477e-01,3.302371799945831299e-01
5.453109741210937500e-01,8.934631943702697754e-02,1.067582294344902039e-01,6.370034813880920410e-01,-3.808946013450622559e-01,8.876813054084777832e-01,6.467069387435913086e-01,-5.730193257331848145e-01,7.741936445236206055e-01,-3.370077610015869141e-01,-1.027506515383720398e-01,-2.812665998935699463e-01,8.625532984733581543e-01,7.567723393440246582e-01
5.942046642303466797e-01,2.216442227363586426e-01,-4.479245096445083618e-02,6.355407238006591797e-01,-1.815408766269683838e-01,7.334431409835815430e-01,7.006125450134277344e-01,-6.900511980056762695e-01,7.693111300468444824e-01,-5.724427103996276855e-01,-5.874312296509742737e-02,-1.233611777424812317e-01,1.102533817291259766e+00,6.484609842300415039e-01
8.822068572044372559e-01,3.302994370460510254e-01,1.246433518826961517e-02,6.589677929878234863e-01,-3.107144832611083984e-01,7.130851745605468750e-01,6.640985608100891113e-01,-5.129287838935852051e-01,8.763656616210937500e-01,-2.764051556587219238e-01,-5.447875708341598511e-02,-5.393101274967193604e-02,9.090754985809326172e-01,7.159490585327148438e-01
5.331817865371704102e-01,2.446421086788177490e-01,8.378732018172740936e-03,4.795029163360595703e-01,-1.865653842687606812e-01,6.015191078186035156e-01,6.893008947372436523e-01,-4.818369448184967041e-01,9.319626688957214355e-01,-5.788393616676330566e-01,-3.200583904981613159e-02,-2.920440733432769775e-01,9.681283831596374512e-01,9.011484980583190918e-01
8.029211759567260742e-01,2.840244174003601074e-01,8.335113525390625000e-02,6.630693674087524414e-01,-4.151809960603713989e-02,6.688274741172790527e-01,8.420724868774414062e-01,-5.978972315788269043e-01,9.401553869247436523e-01,-5.254703760147094727e-01,1.982781104743480682e-02,-3.326168656349182129e-02,8.145476579666137695e-01,6.764144897460937500e-01
7.550446391105651855e-01,1.868099868297576904e-01,5.022862553596496582e-02,6.174080371856689453e-01,-2.054168134927749634e-01,5.573097467422485352e-01,7.186176180839538574e-01,-6.587875485420227051e-01,1.093399047851562500e+00,-7.603377103805541992e-01,-5.982992053031921387e-02,-2.704585529863834381e-02,8.753393292427062988e-01,7.896893620491027832e-01
8.472014665603637695e-01,6.939018517732620239e-02,1.082975231111049652e-02,7.135171890258789062e-01,-1.653956919908523560e-01,4.320993125438690186e-01,7.985016703605651855e-01,-5.896762609481811523e-01,9.838097691535949707e-01,-8.079198598861694336e-01,8.105195313692092896e-02,6.011414900422096252e-02,9.148620963096618652e-01,8.096731305122375488e-01
7.532620429992675781e-01,2.512097060680389404e-01,-1.532097607851028442e-01,7.186452746391296387e-01,-3.379089757800102234e-02,3.869423270225524902e-01,7.226978540420532227e-01,-3.636699020862579346e-01,7.896420955657958984e-01,-7.595140933990478516e-01,-3.497178480029106140e-02,9.468072652816772461e-02,7.928084135055541992e-01,8.886178135871887207e-01
8.417180776596069336e-01,1.175070479512214661e-01,-5.601873993873596191e-02,7.026132345199584961e-01,1.865998283028602600e-02,3.254832625389099121e-01,8.269299864768981934e-01,-7.154767513275146484e-01,9.881463050842285156e-01,-8.206311464309692383e-01,3.720487058162689209e-01,2.331667095422744751e-01,8.967583179473876953e-01,7.586524486541748047e-01
1.021069645881652832e+00,1.965490579605102539e-01,7.596769183874130249e-02,4.579601883888244629e-01,-1.268746238201856613e-02,2.718436717987060547e-01,8.325918316841125488e-01,-6.775735616683959961e-01,8.345008492469787598e-01,-8.596020936965942383e-01,6.044604256749153137e-02,8.955851942300796509e-02,7.941958904266357422e-01,7.618784308433532715e-01
1.029362916946411133e+00,2.328694313764572144e-01,1.530593931674957275e-01,3.991756737232208252e-01,-5.481821671128273010e-02,-3.859643591567873955e-03,7.337651848793029785e-01,-7.729120254516601562e-01,6.849997639656066895e-01,-8.821750283241271973e-01,1.192153170704841614e-01,1.723451465368270874e-01,6.221209168434143066e-01,9.121815562248229980e-01
9.730780720710754395e-01,2.991792261600494385e-01,-1.432663500308990479e-01,3.768677711486816406e-01,-2.320128232240676880e-01,2.115931212902069092e-01,5.050584077835083008e-01,-9.247650504112243652e-01,6.519765853881835938e-01,-8.606839179992675781e-01,4.542360603809356689e-01,-3.316617384552955627e-02,7.232703566551208496e-01,7.740249037742614746e-01
9.042490124702453613e-01,1.062312498688697815e-01,7.232138514518737793e-02,4.302792549133300781e-01,1.668222434818744659e-02,3.522718250751495361e-01,5.091368556022644043e-01,-7.829840183258056641e-01,6.008535027503967285e-01,-8.029695749282836914e-01,4.275170862674713135e-01,2.256143838167190552e-01,4.562578201293945312e-01,5.172765851020812988e-01
6.639083027839660645e-01,1.053917035460472107e-01,3.007653057575225830e-01,2.132836729288101196e-01,6.019257754087448120e-02,4.070489108562469482e-01,6.700752973556518555e-01,-9.620219469070434570e-01,3.505638539791107178e-01,-6.784475445747375488e-01,6.018373370170593262e-01,1.623475253582000732e-01,3.824455142021179199e-01,7.788178324699401855e-01
6.324144601821899414e-01,6.110816821455955505e-02,-4.152765125036239624e-02,1.378088593482971191e-01,2.911208570003509521e-01,1.655424386262893677e-01,4.541772305965423584e-01,-7.967727184295654297e-01,3.963029682636260986e-01,-6.810098886489868164e-01,3.085519671440124512e-01,1.565732210874557495e-01,2.976487278938293457e-01,6.550166010856628418e-01
5.233029127120971680e-01,1.645654439926147461e-01,6.434117257595062256e-02,1.016573011875152588e-01,3.157405555248260498e-01,2.624748647212982178e-01,8.129821419715881348e-01,-9.426431655883789062e-01,3.045296967029571533e-01,-5.568265318870544434e-01,5.458531975746154785e-01,7.310542464256286621e-02,3.833196163177490234e-01,5.448472499847412109e-01
4.807087481021881104e-01,1.482994407415390015e-01,-6.856717169284820557e-02,3.809893876314163208e-02,4.020366966724395752e-01,2.559703886508941650e-01,5.775678157806396484e-01,-9.103034734725952148e-01,4.012692868709564209e-01,-6.121756434440612793e-01,6.441050767898559570e-01,-7.863683998584747314e-02,2.734948992729187012e-01,5.422832965850830078e-01
5.823243856430053711e-01,2.410199940204620361e-01,3.860453888773918152e-02,9.646483510732650757e-02,3.526560366153717041e-01,4.673035442829132080e-01,6.013371944427490234e-01,-6.936685442924499512e-01,1.666561067104339600e-01,-4.449010789394378662e-01,6.692781448364257812e-01,-5.152629315853118896e-02,3.485756739974021912e-02,4.289943873882293701e-01
2.897523045539855957e-01,6.820859760046005249e-02,-8.411366492509841919e-03,2.260237783193588257e-01,5.379986166954040527e-01,3.499611318111419678e-01,3.758812546730041504e-01,-8.589689731597900391e-01,9.523952007293701172e-02,-6.518033146858215332e-01,8.288883566856384277e-01,-1.381669342517852783e-01,1.313525587320327759e-01,6.299272775650024414e-01
3.056740164756774902e-01,9.755230695009231567e-02,1.327210199087858200e-02,9.548188745975494385e-02,4.631874561309814453e-01,3.733497262001037598e-01,3.029602766036987305e-01,-7.673064470291137695e-01,2.814719080924987793e-01,-3.101102709770202637e-01,6.606761217117309570e-01,-2.516038715839385986e-01,1.673336178064346313e-01,3.685402870178222656e-01
1.687835454940795898e-01,-1.369948983192443848e-01,-1.696334332227706909e-01,2.396272271871566772e-01,4.093715548515319824e-01,3.940722048282623291e-01,4.080454707145690918e-01,-7.342087626457214355e-01,1.892985552549362183e-01,-3.642069399356842041e-01,8.048371672630310059e-01,-3.633494973182678223e-01,1.115701049566268921e-01,4.343426525592803955e-01
-4.292165976949036121e-04,-8.583500236272811890e-02,-3.210201859474182129e-01,2.104482650756835938e-01,5.240189433097839355e-01,6.035014390945434570e-01,2.958995997905731201e-01,-5.463854670524597168e-01,7.977130822837352753e-03,-1.883598268032073975e-01,8.215312361717224121e-01,-4.316127598285675049e-01,3.026666343212127686e-01,4.183682799339294434e-01
5.734614655375480652e-02,2.274030447006225586e-02,-1.627082079648971558e-01,4.149993956089019775e-01,4.019747376441955566e-01,5.747596025466918945e-01,1.531018018722534180e-01,-5.270376801490783691e-01,1.723156273365020752e-01,-4.369347989559173584e-01,8.310344219207763672e-01,-3.699932992458343506e-01,3.079384267330169678e-01,4.415020942687988281e-01
4.561268910765647888e-02,8.580831810832023621e-03,-5.151933431625366211e-01,3.592848479747772217e-01,4.058430790901184082e-01,6.048486232757568359e-01,7.507725059986114502e-02,-3.851760625839233398e-01,2.726979553699493408e-01,-1.104944646358489990e-01,6.791413426399230957e-01,-3.941853046417236328e-01,1.977361142635345459e-01,6.260852217674255371e-01
-4.900269955396652222e-02,1.324242800474166870e-01,-5.485437512397766113e-01,1.653434932231903076e-01,6.876757740974426270e-01,7.474730610847473145e-01,-1.097111999988555908e-01,-2.872532904148101807e-01,2.481459975242614746e-01,-2.261377125978469849e-02,6.920474767684936523e-01,-5.239869356155395508e-01,4.074004292488098145e-01,1.773200780153274536e-01
4.455484822392463684e-02,-5.918709561228752136e-02,-4.494058787822723389e-01,2.254658490419387817e-01,5.040677189826965332e-01,5.535420179367065430e-01,-2.743363678455352783e-01,-3.708942830562591553e-01,2.450459599494934082e-01,-3.210046589374542236e-01,5.439803600311279297e-01,-5.915890932083129883e-01,4.588061273097991943e-01,5.140978693962097168e-01
-4.366728290915489197e-02,-1.105617359280586243e-01,-6.396688222885131836e-01,1.643778234720230103e-01,4.307884275913238525e-01,5.641766190528869629e-01,-1.822938919067382812e-01,-1.204187646508216858e-01,2.585800290107727051e-01,-9.691032022237777710e-02,5.585724115371704102e-01,-7.368571758270263672e-01,4.741080403327941895e-01,3.264165520668029785e-01
3.864296898245811462e-02,1.839775741100311279e-01,-8.006241917610168457e-01,3.046979606151580811e-01,3.178799152374267578e-01,4.002077579498291016e-01,-2.763149738311767578e-01,-2.179106175899505615e-01,2.205552905797958374e-01,-3.826668858528137207e-01,5.727088451385498047e-01,-6.466114521026611328e-01,3.396448493003845215e-01,4.400987327098846436e-01
-3.477799519896507263e-02,-1.270259022712707520e-01,-5.515204071998596191e-01,2.283383756875991821e-01,3.167362809181213379e-01,5.856155753135681152e-01,-3.608928918838500977e-01,-1.826052516698837280e-01,9.215284138917922974e-02,-4.194656014442443848e-01,2.575218379497528076e-01,-5.801471471786499023e-01,3.179816901683807373e-01,3.641571104526519775e-01
8.947133272886276245e-02,3.023997880518436432e-02,-7.414130568504333496e-01,4.309171438217163086e-02,1.459435820579528809e-01,3.436281681060791016e-01,-3.025882542133331299e-01,-1.898988634347915649e-01,2.732255682349205017e-02,-3.422755599021911621e-01,3.213318288326263428e-01,-8.242576718330383301e-01,6.011316776275634766e-01,2.874317169189453125e-01
-1.790004223585128784e-01,1.972716301679611206e-01,-7.789927721023559570e-01,1.723585724830627441e-01,3.322609663009643555e-01,4.540846347808837891e-01,-2.986087799072265625e-01,-1.571004390716552734e-01,6.750988215208053589e-02,-4.626942276954650879e-01,7.447297871112823486e-02,-5.969138145446777344e-01,3.509243428707122803e-01,1.622335612773895264e-01
1.748339682817459106e-01,1.640339940786361694e-01,-9.345152974128723145e-01,2.170056551694869995e-01,3.887579441070556641e-01,5.269826054573059082e-01,-1.808302253484725952e-01,2.504418138414621353e-03,1.634509414434432983e-01,-4.369451105594635010e-01,1.508743315935134888e-01,-6.918087005615234375e-01,2.697624266147613525e-01,2.194469422101974487e-01
1.353771984577178955e-01,2.707831859588623047e-01,-9.056621789932250977e-01,6.788956373929977417e-02,3.214249014854431152e-01,4.286784529685974121e-01,-1.806859374046325684e-01,-1.174674779176712036e-01,-1.072786301374435425e-01,-5.519075393676757812e-01,8.330397307872772217e-02,-6.057470440864562988e-01,3.466496467590332031e-01,1.381631195545196533e-01
3.501848876476287842e-02,3.570650815963745117e-01,-7.020829916000366211e-01,-3.399963676929473877e-02,9.945801645517349243e-02,3.461301326751708984e-01,-3.110920786857604980e-01,-6.984174996614456177e-02,2.249302417039871216e-01,-4.885273575782775879e-01,7.077714055776596069e-02,-7.506103515625000000e-01,3.380022644996643066e-01,2.390684038400650024e-01
2.911963760852813721e-01,3.092969954013824463e-01,-8.313066959381103516e-01,9.986807405948638916e-02,2.836360037326812744e-01,3.120760321617126465e-01,-2.280339896678924561e-01,-1.293222606182098389e-01,6.544972956180572510e-02,-4.838288426399230957e-01,-1.219115629792213440e-01,-6.820815801620483398e-01,3.675548434257507324e-01,2.181792557239532471e-01
-4.374193027615547180e-02,5.180019736289978027e-01,-7.975270748138427734e-01,3.361470624804496765e-02,1.499166488647460938e-01,2.649230360984802246e-01,-3.607985377311706543e-01,-2.967110872268676758e-01,-1.978236436843872070e-02,-6.298939585685729980e-01,-1.200889796018600464e-01,-7.415708899497985840e-01,1.503001302480697632e-01,4.024387001991271973e-01
1.970030218362808228e-01,5.816533565521240234e-01,-5.886548757553100586e-01,1.385292261838912964e-01,1.930114030838012695e-01,2.538588941097259521e-01,-3.884044885635375977e-01,-4.249287545680999756e-01,-4.617074877023696899e-02,-6.058937907218933105e-01,-3.184958477504551411e-04,-8.097769021987915039e-01,5.132227540016174316e-01,1.914591491222381592e-01
1.124601215124130249e-01,4.629121124744415283e-01,-5.800086259841918945e-01,-1.941969990730285645e-02,4.892261028289794922e-01,9.320921450853347778e-02,-1.064249197952449322e-03,-3.559784591197967529e-01,8.483412116765975952e-02,-6.337243914604187012e-01,4.675724357366561890e-02,-5.524569153785705566e-01,3.109065257012844086e-02,3.513950407505035400e-01
2.791775623336434364e-03,4.166201055049896240e-01,-6.282672882080078125e-01,1.105361729860305786e-01,5.112656354904174805e-01,1.169768944382667542e-01,-2.148927152156829834e-01,-5.683775544166564941e-01,-9.945340454578399658e-02,-5.534847974777221680e-01,1.214848533272743225e-01,-7.585169076919555664e-01,2.767919003963470459e-01,2.326862663030624390e-01
3.274500668048858643e-01,3.804410398006439209e-01,-6.970089673995971680e-01,-3.324788063764572144e-02,6.004678010940551758e-01,3.157093822956085205e-01,1.367564797401428223e-01,-5.239480137825012207e-01,3.193112909793853760e-01,-4.840700030326843262e-01,-5.615941062569618225e-02,-9.346262812614440918e-01,2.880619764328002930e-01,5.979937911033630371e-01
1.235493458807468414e-02,3.600207269191741943e-01,-6.474294066429138184e-01,-5.594788119196891785e-02,5.123726129531860352e-01,4.885902628302574158e-03,-4.570357501506805420e-02,-3.858067393302917480e-01,9.466505609452724457e-03,-5.574157238006591797e-01,5.245092138648033142e-02,-6.803026795387268066e-01,1.890483498573303223e-01,3.140999078750610352e-01
6.636531651020050049e-02,2.061960250139236450e-01,-4.560684263706207275e-01,-2.071295827627182007e-01,8.384833931922912598e-01,1.154837980866432190e-01,-2.757862955331802368e-02,-4.734641015529632568e-01,1.341871470212936401e-01,-4.797308444976806641e-01,4.076276719570159912e-02,-8.125873804092407227e-01,7.930704951286315918e-02,4.058731794357299805e-01
1.668929606676101685e-01,1.877807676792144775e-01,-4.681485295295715332e-01,-1.894432306289672852e-01,6.103755235671997070e-01,9.514638036489486694e-02,-1.493305712938308716e-01,-4.208831191062927246e-01,-1.241125613451004028e-01,-5.077770948410034180e-01,7.967716455459594727e-02,-5.190402269363403320e-01,1.364144384860992432e-01,5.212336182594299316e-01
1.245282888412475586e-01,1.490356922149658203e-01,-3.078153431415557861e-01,-8.299484103918075562e-02,9.456006884574890137e-01,-6.776796281337738037e-02,1.582788862287998199e-02,-5.575206279754638672e-01,-1.001881510019302368e-01,-8.480051159858703613e-01,8.541528135538101196e-02,-4.807541966438293457e-01,3.183871507644653320e-01,5.283872485160827637e-01
1.722130179405212402e-01,1.642716675996780396e-01,-4.397938549518585205e-01,-1.956499665975570679e-01,1.005303502082824707e+00,6.892562657594680786e-02,1.284970249980688095e-02,-3.563642501831054688e-01,-1.175141660496592522e-03,-3.928622603416442871e-01,6.402693688869476318e-02,-4.432179033756256104e-01,7.417676597833633423e-02,3.779185712337493896e-01
1.403664648532867432e-01,1.118832379579544067e-01,-3.730662167072296143e-01,-4.155025482177734375e-01,9.956489205360412598e-01,-1.286396384239196777e-02,-1.580001562833786011e-01,-4.417980313301086426e-01,-1.078665256500244141e-01,-3.705761134624481201e-01,6.755937635898590088e-02,-5.850545167922973633e-01,6.594783067703247070e-02,3.099298775196075439e-01
7.458729296922683716e-02,-1.205478757619857788e-01,-5.473417043685913086e-01,-3.759295642375946045e-01,1.031210899353027344e+00,-8.089068531990051270e-02,-2.151025533676147461e-01,-4.792774021625518799e-01,-1.884253025054931641e-01,-5.164456963539123535e-01,1.486556977033615112e-01,-9.178692847490310669e-02,1.290099471807479858e-01,2.542189359664916992e-01
9.741333872079849243e-02,-7.055456191301345825e-02,-5.488002300262451172e-01,-5.072574615478515625e-01,8.668336272239685059e-01,-1.704139560461044312e-01,-3.351219892501831055e-01,-6.944462060928344727e-01,-3.237391710281372070e-01,-4.864590764045715332e-01,6.566806137561798096e-02,-1.606580168008804321e-01,1.103040426969528198e-01,9.667244553565979004e-02
2.307326048612594604e-01,7.507069408893585205e-02,-2.866059243679046631e-01,-6.225685477256774902e-01,9.130960106849670410e-01,1.822415622882544994e-03,-3.127597272396087646e-01,-3.103384077548980713e-01,-4.163786172866821289e-01,-4.096277952194213867e-01,-5.557044968008995056e-02,-1.119669750332832336e-01,-1.022127456963062286e-02,5.129704624414443970e-02
1.177879571914672852e-01,-2.181706279516220093e-01,-2.965504825115203857e-01,-6.882603168487548828e-01,7.823274135589599609e-01,-2.203495800495147705e-01,-2.912533879280090332e-01,-3.563925921916961670e-01,-3.872009813785552979e-01,-3.926097452640533447e-01,-1.589116007089614868e-01,-1.404705494642257690e-01,-3.650182485580444336e-02,1.382036060094833374e-01
9.967071563005447388e-02,-1.199300680309534073e-02,-3.951727151870727539e-01,-7.604783177375793457e-01,1.014173150062561035e+00,1.966555044054985046e-02,-4.736920893192291260e-01,-5.633286237716674805e-01,-5.299429893493652344e-01,-1.742778569459915161e-01,-4.351006820797920227e-02,5.678113922476768494e-02,-1.145849600434303284e-01,-8.251000940799713135e-02
5.288002267479896545e-02,-2.308797836303710938e-01,-3.004377484321594238e-01,-8.793079257011413574e-01,8.889831900596618652e-01,-6.955818086862564087e-02,-3.439400494098663330e-01,-2.864335179328918457e-01,-6.718356609344482422e-01,-1.869534105062484741e-01,-2.278145104646682739e-01,3.266119584441184998e-02,6.201680004596710205e-02,-2.301851511001586914e-01
1.733279526233673096e-01,-2.292821258306503296e-01,-3.817116022109985352e-01,-1.048499822616577148e+00,9.873904585838317871e-01,-1.642832309007644653e-01,-3.743873536586761475e-01,-5.842634439468383789e-01,-7.374253273010253906e-01,-3.174070417881011963e-01,-1.854460127651691437e-02,-2.579871797934174538e-03,8.034812659025192261e-02,-2.552638649940490723e-01
1.989451199769973755e-01,-5.090076103806495667e-02,-2.815697193145751953e-01,-9.399559497833251953e-01,8.556510210037231445e-01,-2.504579722881317139e-01,-5.371901988983154297e-01,-5.362414717674255371e-01,-5.954971909523010254e-01,-5.992454290390014648e-02,-1.107619702816009521e-01,8.584531396627426147e-02,-2.032258808612823486e-01,-5.020269155502319336e-01
5.603044107556343079e-02,-1.339165419340133667e-01,-2.541390061378479004e-01,-1.054647803306579590e+00,8.270846605300903320e-01,4.011249914765357971e-02,-5.488590002059936523e-01,-2.931246161460876465e-01,-8.225878477096557617e-01,-1.588714122772216797e-01,-1.891053020954132080e-01,-1.311732083559036255e-01,-4.514062777161598206e-02,-4.586795568466186523e-01
-1.813882887363433838e-01,-6.320716440677642822e-02,-4.229535162448883057e-01,-8.742423653602600098e-01,8.820494413375854492e-01,6.868118047714233398e-02,-7.754382491111755371e-01,-4.672533273696899414e-01,-6.175336241722106934e-01,-7.301589846611022949e-02,-2.377131879329681396e-01,-6.951871514320373535e-02,-1.968864649534225464e-01,-5.772426724433898926e-01
-3.430584073066711426e-01,-2.399050295352935791e-01,-4.491693377494812012e-01,-8.459028005599975586e-01,7.318800687789916992e-01,1.084743663668632507e-01,-6.009587645530700684e-01,-4.531190693378448486e-01,-6.135237812995910645e-01,1.750252693891525269e-01,-3.168705403804779053e-01,-8.280836790800094604e-02,-3.126287460327148438e-01,-6.784060597419738770e-01
-3.464704155921936035e-01,8.146957308053970337e-02,-3.645366728305816650e-01,-7.921147942543029785e-01,8.816791176795959473e-01,6.582837551832199097e-02,-6.212485432624816895e-01,-5.214146971702575684e-01,-8.197057247161865234e-01,2.213843464851379395e-01,-2.344924807548522949e-01,-1.463501751422882080e-01,-3.369244635105133057e-01,-5.282517075538635254e-01
-5.774855017662048340e-01,3.711484139785170555e-03,-2.931488156318664551e-01,-9.369532465934753418e-01,7.757890224456787109e-01,1.840431392192840576e-01,-4.981660842895507812e-01,-2.661521136760711670e-01,-5.497823953628540039e-01,2.581544518470764160e-01,-2.964893877506256104e-01,-3.233381211757659912e-01,-1.431141048669815063e-01,-6.965694427490234375e-01
-3.522488772869110107e-01,-8.463998883962631226e-02,-4.465598762035369873e-01,-8.193307518959045410e-01,7.820104360580444336e-01,3.395718038082122803e-01,-6.482906937599182129e-01,-2.687864899635314941e-01,-3.046399056911468506e-01,3.755490481853485107e-01,-1.815644949674606323e-01,-2.600185805931687355e-03,-1.793328970670700073e-01,-5.490705370903015137e-01
-4.878890514373779297e-01,4.211971163749694824e-02,-5.459382534027099609e-01,-6.990848183631896973e-01,7.404188513755798340e-01,1.610301285982131958e-01,-7.601221799850463867e-01,-2.057259380817413330e-01,-5.301067233085632324e-01,3.423304259777069092e-01,-3.157995939254760742e-01,-2.485998868942260742e-01,-1.165024414658546448e-01,-5.347309708595275879e-01
-5.324048399925231934e-01,-6.838528905063867569e-03,-5.300921797752380371e-01,-6.806922554969787598e-01,6.578834652900695801e-01,3.725303113460540771e-01,-7.776234149932861328e-01,-1.055895909667015076e-01,-5.016810894012451172e-01,1.962583512067794800e-01,-2.831407487392425537e-01,-3.029715418815612793e-01,-3.251359239220619202e-02,-4.592848122119903564e-01
-4.618960320949554443e-01,-4.487817734479904175e-02,-4.813733994960784912e-01,-5.756118893623352051e-01,6.131303310394287109e-01,1.171205639839172363e-01,-7.075540423393249512e-01,-9.186415374279022217e-02,-1.745526045560836792e-01,1.864325851202011108e-01,-4.501285254955291748e-01,-3.158181607723236084e-01,2.376506179571151733e-01,-4.675568938255310059e-01
-3.998773097991943359e-01,4.742714762687683105e-02,-4.594389498233795166e-01,-6.269382834434509277e-01,5.207865238189697266e-01,1.753153502941131592e-01,-6.713572144508361816e-01,2.154485881328582764e-01,-2.648410797119140625e-01,3.261745274066925049e-01,-5.392264723777770996e-01,-4.016126990318298340e-01,9.472733736038208008e-02,-8.211861848831176758e-01
-4.088334441184997559e-01,7.147409953176975250e-03,-8.217056393623352051e-01,-5.414883494377136230e-01,4.541492760181427002e-01,1.444809287786483765e-01,-6.474555134773254395e-01,2.066923379898071289e-01,-1.924965977668762207e-01,4.687119126319885254e-01,-6.507232785224914551e-01,-2.577478587627410889e-01,2.703114449977874756e-01,-7.068056464195251465e-01
-5.519284009933471680e-01,5.814160406589508057e-02,-7.041800022125244141e-01,-4.602389037609100342e-01,3.199931979179382324e-01,4.048130512237548828e-01,-8.238997459411621094e-01,-6.909656524658203125e-02,-1.058967709541320801e-01,3.238338232040405273e-01,-7.209436893463134766e-01,-3.911938667297363281e-01,2.827279567718505859e-01,-6.163993477821350098e-01
-3.384868502616882324e-01,8.423219621181488037e-02,-6.996522545814514160e-01,-5.764536857604980469e-01,7.428164035081863403e-02,1.067184805870056152e-01,-7.544845938682556152e-01,2.118288427591323853e-01,-1.834926754236221313e-01,3.609575331211090088e-01,-6.617095470428466797e-01,-3.521333634853363037e-01,5.356493592262268066e-01,-4.261652529239654541e-01
-2.658778727054595947e-01,1.162080746144056320e-02,-7.170967459678649902e-01,-5.482313632965087891e-01,2.353991568088531494e-01,1.204263120889663696e-01,-5.812487602233886719e-01,3.306786715984344482e-01,-3.731128200888633728e-02,9.259849041700363159e-02,-7.271687388420104980e-01,-1.414458900690078735e-01,3.163488507270812988e-01,-4.573530852794647217e-01
-3.613081574440002441e-01,8.939824998378753662e-03,-6.597619056701660156e-01,-4.577349126338958740e-01,4.657573625445365906e-02,-1.565871089696884155e-01,-6.189961433410644531e-01,1.583598405122756958e-01,1.286565512418746948e-01,1.572036743164062500e-01,-7.321454882621765137e-01,6.759604811668395996e-02,5.156711935997009277e-01,-4.280381500720977783e-01
-2.833880484104156494e-01,2.415654808282852173e-01,-8.122510910034179688e-01,-4.021427929401397705e-01,-1.046679839491844177e-01,-2.194580584764480591e-01,-6.630933880805969238e-01,4.854884743690490723e-02,-3.298429027199745178e-02,-1.456540971994400024e-01,-8.304536342620849609e-01,-2.123767435550689697e-01,5.002570748329162598e-01,-3.989786207675933838e-01
-3.373381197452545166e-01,1.820000857114791870e-01,-7.273688316345214844e-01,-5.460001826286315918e-01,-3.887411579489707947e-02,-2.349002659320831299e-01,-6.174879074096679688e-01,1.105046197772026062e-01,7.734687626361846924e-02,-1.458510011434555054e-01,-8.746709227561950684e-01,6.428161263465881348e-02,4.656960666179656982e-01,-3.787440061569213867e-01
-2.091340422630310059e-01,3.001601994037628174e-01,-4.880406260490417480e-01,-4.548405110836029053e-01,-6.956557929515838623e-02,-2.464342564344406128e-01,-4.807102382183074951e-01,3.401038050651550293e-01,2.182079292833805084e-02,-9.551188349723815918e-02,-1.067357063293457031e+00,1.268616169691085815e-01,2.636805772781372070e-01,-3.410646319389343262e-01
-9.872664511203765869e-02,3.284093141555786133e-01,-7.449955940246582031e-01,-2.705257833003997803e-01,-9.012631326913833618e-02,-1.677271872758865356e-01,-3.723162412643432617e-01,-1.054317653179168701e-01,3.109890222549438477e-01,-1.919406652450561523e-01,-1.032674551010131836e+00,1.236365586519241333e-01,3.318475782871246338e-01,-3.670365810394287109e-01
-1.212632060050964355e-01,3.354456424713134766e-01,-4.543158710002899170e-01,-4.746284782886505127e-01,-1.063844934105873108e-01,-3.054220080375671387e-01,-6.369618177413940430e-01,-2.230832129716873169e-01,6.505856662988662720e-02,-3.494851887226104736e-01,-8.291346430778503418e-01,-4.230576753616333008e-02,5.500419139862060547e-01,-3.438721895217895508e-01
-7.405076175928115845e-02,3.714131712913513184e-01,-3.299658596515655518e-01,-5.017501711845397949e-01,-2.841780781745910645e-01,-2.994604408740997314e-01,-3.846952021121978760e-01,-1.926074475049972534e-01,3.216133713722229004e-01,-2.636090219020843506e-01,-8.309029936790466309e-01,7.446506991982460022e-03,3.806091845035552979e-01,-3.713465929031372070e-01
-6.425816565752029419e-03,1.989147663116455078e-01,-2.947341799736022949e-01,-4.312953352928161621e-01,-1.865380406379699707e-01,-3.792258203029632568e-01,-1.641971468925476074e-01,-9.623347222805023193e-02,2.200202643871307373e-01,-2.852629721164703369e-01,-8.418570160865783691e-01,1.380368918180465698e-01,1.808943450450897217e-01,-2.749820649623870850e-01
-1.720701605081558228e-01,4.609657824039459229e-01,-2.715367078781127930e-01,-5.417080521583557129e-01,-1.328280847519636154e-02,-4.802400171756744385e-01,-1.589666754007339478e-01,-1.665882617235183716e-01,2.126894742250442505e-01,-2.512882053852081299e-01,-8.358281254768371582e-01,2.422072142362594604e-01,2.460283339023590088e-01,1.878634648164734244e-04
-2.366499155759811401e-01,2.917150259017944336e-01,-2.161113470792770386e-01,-2.722606062889099121e-01,-2.732407674193382263e-02,-3.697778284549713135e-01,-7.728850841522216797e-02,-2.328353971242904663e-01,1.206653267145156860e-01,-2.405981868505477905e-01,-5.534486174583435059e-01,1.641656756401062012e-01,1.958908885717391968e-01,5.144245922565460205e-02
-3.111309409141540527e-01,1.929212361574172974e-01,-1.829353421926498413e-01,-4.570905268192291260e-01,-7.168874889612197876e-02,-4.176979959011077881e-01,1.782092452049255371e-01,-2.345207929611206055e-01,2.084992267191410065e-02,-3.401771187782287598e-01,-8.131095170974731445e-01,-1.251215930096805096e-03,1.824708878993988037e-01,-1.701389253139495850e-01
-2.500257790088653564e-01,7.079412043094635010e-02,-5.053529515862464905e-02,-4.000765681266784668e-01,-1.793540418148040771e-01,-4.531383216381072998e-01,4.641983658075332642e-02,-5.070642232894897461e-01,3.500420153141021729e-01,-1.677986830472946167e-01,-5.694096684455871582e-01,1.515237092971801758e-01,-4.331826791167259216e-02,4.511264339089393616e-02
-2.126150131225585938e-01,-2.091277949512004852e-02,-3.809800371527671814e-02,-4.208011031150817871e-01,5.715601891279220581e-02,-2.249199450016021729e-01,1.117926239967346191e-01,-3.071521520614624023e-01,7.616263628005981445e-02,-2.523130774497985840e-01,-4.398782551288604736e-01,4.642729461193084717e-01,1.381584554910659790e-01,-6.206745281815528870e-02
-1.125621646642684937e-01,-6.760512012988328934e-03,-1.563366204500198364e-01,-4.788529872894287109e-01,6.401122361421585083e-02,-4.187961816787719727e-01,5.483899638056755066e-02,-3.832614719867706299e-01,1.720930933952331543e-01,-2.395412176847457886e-01,-4.527943432331085205e-01,2.755327820777893066e-01,-6.383714079856872559e-02,-8.003585040569305420e-02
-6.270220875740051270e-02,-7.536927610635757446e-02,-1.250424832105636597e-01,-3.135024011135101318e-01,-1.146442890167236328e-01,-2.083204537630081177e-01,7.361004501581192017e-02,-5.710445642471313477e-01,2.026557223871350288e-03,-3.326929509639739990e-01,-3.490570783615112305e-01,1.731119006872177124e-01,2.657716721296310425e-02,-1.282629817724227905e-01
-3.814324438571929932e-01,-1.950731873512268066e-01,-1.120670661330223083e-01,-3.949200809001922607e-01,-3.775636479258537292e-02,-1.068854033946990967e-01,8.176730945706367493e-03,-3.521116077899932861e-01,1.632528305053710938e-01,-2.062710076570510864e-01,-3.200119137763977051e-01,4.185543060302734375e-01,9.262479096651077271e-02,-4.056509584188461304e-02
-4.126347601413726807e-01,-2.319426238536834717e-01,-1.549525558948516846e-01,-4.979769885540008545e-01,1.774382591247558594e-01,-2.203068137168884277e-01,2.344877272844314575e-02,-3.312826752662658691e-01,1.488588154315948486e-01,-4.489131867885589600e-01,-1.361420154571533203e-01,4.210170805454254150e-01,4.857198148965835571e-02,1.461208909749984741e-01
-3.576820194721221924e-01,-2.789652049541473389e-01,-1.141751185059547424e-01,-3.671146631240844727e-01,6.232383102178573608e-02,-3.817863166332244873e-01,-2.197348475456237793e-01,-3.086366653442382812e-01,3.448912203311920166e-01,-1.733453571796417236e-01,-1.725698411464691162e-01,2.871502637863159180e-01,7.411785423755645752e-02,1.100507155060768127e-01
-2.059791237115859985e-01,-4.132827222347259521e-01,-6.698377430438995361e-02,-6.411989927291870117e-01,1.891510337591171265e-01,-2.298180609941482544e-01,-6.679837405681610107e-02,-3.077908754348754883e-01,9.378446638584136963e-02,-3.073757886886596680e-01,-3.477490842342376709e-01,2.740518450736999512e-01,-8.008599281311035156e-02,-1.963498890399932861e-01
-1.789489239454269409e-01,-4.561232924461364746e-01,-2.523543871939182281e-02,-6.107758283615112305e-01,1.240235939621925354e-01,-3.302696347236633301e-01,-3.494218289852142334e-01,-1.913289427757263184e-01,-1.232356950640678406e-01,-3.568178713321685791e-01,-3.680257201194763184e-01,3.379910886287689209e-01,-6.916671991348266602e-02,6.806704401969909668e-02
-4.757893085479736328e-01,-3.400911986827850342e-01,-2.103407382965087891e-01,-5.153946876525878906e-01,-1.230402514338493347e-01,-2.612186670303344727e-01,-1.238513961434364319e-01,-1.946093738079071045e-01,6.937327235937118530e-02,-4.927044510841369629e-01,-2.820245325565338135e-01,3.235666155815124512e-01,-1.809461414813995361e-01,-1.365489810705184937e-01
-4.257404506206512451e-01,-4.611124098300933838e-01,-1.468634307384490967e-01,-5.985063314437866211e-01,7.626774907112121582e-02,-4.343034327030181885e-01,-2.338870912790298462e-01,-5.460647493600845337e-02,5.874254181981086731e-02,-2.908841073513031006e-01,-2.422622740268707275e-01,2.980198264122009277e-01,-2.596415579319000244e-02,-2.611363828182220459e-01
-4.139864146709442139e-01,-3.600425124168395996e-01,-6.497139483690261841e-02,-6.651486158370971680e-01,-8.542962372303009033e-02,-3.154564499855041504e-01,-5.409680604934692383e-01,-3.171605989336967468e-02,-8.232430368661880493e-02,-2.376228719949722290e-01,-9.795608371496200562e-02,4.253751337528228760e-01,5.392222199589014053e-03,-2.795647084712982178e-01
-4.267261028289794922e-01,-6.481132656335830688e-02,-3.537457883358001709e-01,-5.754005908966064453e-01,-2.028155922889709473e-01,1.474529355764389038e-01,-4.709714353084564209e-01,-8.687765151262283325e-02,-6.670808792114257812e-02,-4.033144414424896240e-01,-4.121038019657135010e-01,1.948287338018417358e-01,-6.642976403236389160e-02,-2.152511924505233765e-01
-2.822218239307403564e-01,-2.309159934520721436e-01,-1.908368915319442749e-01,-5.655469298362731934e-01,-1.856778413057327271e-01,-3.180958703160285950e-02,-4.084623157978057861e-01,1.098975632339715958e-02,-6.896964460611343384e-02,-3.790716230869293213e-01,-4.130798876285552979e-01,2.691712379455566406e-01,-2.781979739665985107e-01,-2.751315236091613770e-01
-5.087481737136840820e-01,-2.824892401695251465e-01,-3.849545419216156006e-01,-4.151890277862548828e-01,-2.009294182062149048e-01,1.806106418371200562e-02,-3.766699433326721191e-01,-1.288165710866451263e-02,-2.018828541040420532e-01,-4.260566532611846924e-01,-4.731955826282501221e-01,2.400636374950408936e-01,1.557239145040512085e-01,-2.028689952567219734e-03
-5.193611979484558105e-01,-3.006612658500671387e-01,-9.038099646568298340e-02,-6.005906462669372559e-01,-2.006152570247650146e-01,-9.325447678565979004e-02,-3.061453402042388916e-01,-1.117017269134521484e-01,-1.483371108770370483e-01,-4.594178795814514160e-01,-2.889826595783233643e-01,3.623031824827194214e-02,-1.074465587735176086e-01,-3.041552007198333740e-01
-6.661225557327270508e-01,-1.350634992122650146e-01,-5.578526854515075684e-02,-4.775329232215881348e-01,-2.374195158481597900e-01,1.324537247419357300e-01,-4.055936336517333984e-01,-3.817154467105865479e-02,5.044256150722503662e-02,-2.338482737541198730e-01,-5.577698349952697754e-01,1.985042840242385864e-01,7.870217412710189819e-02,-1.100492402911186218e-01
-8.328083753585815430e-01,-5.974045023322105408e-02,-2.211051136255264282e-01,-5.289719104766845703e-01,-3.343061506748199463e-01,1.131766214966773987e-01,-3.918098211288452148e-01,6.862305104732513428e-02,-1.229529976844787598e-01,-3.941428363323211670e-01,-1.817497313022613525e-01,-1.363404244184494019e-01,-1.349536329507827759e-01,-9.834794700145721436e-02
-4.818493425846099854e-01,1.863459497690200806e-02,-1.178396567702293396e-01,-4.670788943767547607e-01,-3.220894336700439453e-01,3.123980760574340820e-01,-2.678792774677276611e-01,-6.017771735787391663e-02,-7.865514606237411499e-02,-4.504459202289581299e-01,-4.048461318016052246e-01,-1.848222166299819946e-01,1.689193695783615112e-01,-2.678203582763671875e-01
-5.904407501220703125e-01,-7.382073439657688141e-03,-2.489996403455734253e-01,-2.259869575500488281e-01,-5.187194943428039551e-01,1.307325363159179688e-01,-2.344144582748413086e-01,-1.494532078504562378e-01,9.460795670747756958e-02,-4.155389666557312012e-01,-4.111054837703704834e-01,-3.842585682868957520e-01,1.284253299236297607e-01,9.481550008058547974e-02
-6.170322895050048828e-01,7.621023803949356079e-02,-1.819261014461517334e-01,-1.222946122288703918e-01,-2.655743062496185303e-01,4.092263877391815186e-01,-3.157310783863067627e-01,-6.889241933822631836e-02,7.903907448053359985e-02,-4.061459898948669434e-01,-5.537202358245849609e-01,-3.536094427108764648e-01,2.843818664550781250e-01,4.489506036043167114e-02
-5.925962328910827637e-01,1.572835594415664673e-01,-1.493357568979263306e-01,2.840777114033699036e-02,-3.001468181610107422e-01,4.471050202846527100e-01,-2.500565946102142334e-01,1.062898710370063782e-01,2.006313502788543701e-01,-2.883145213127136230e-01,-3.631410300731658936e-01,-5.471067428588867188e-01,2.554602921009063721e-01,4.480751603841781616e-02
-4.480491876602172852e-01,-8.332935720682144165e-02,-2.155520617961883545e-01,8.812137879431247711e-03,-2.062778025865554810e-01,4.563913643360137939e-01,-1.195767894387245178e-01,3.736628452315926552e-03,2.615671157836914062e-01,-4.711430668830871582e-01,-4.463040530681610107e-01,-5.869193077087402344e-01,5.202893018722534180e-01,1.809810986742377281e-03
-5.307415127754211426e-01,1.185717135667800903e-01,-1.710812151432037354e-01,1.171142384409904480e-01,-4.248805344104766846e-01,4.071601331233978271e-01,-2.060224264860153198e-01,1.265044212341308594e-01,3.386310935020446777e-01,-4.702075421810150146e-01,-4.630236923694610596e-01,-6.899638175964355469e-01,4.744621217250823975e-01,2.183964550495147705e-01
-4.020318984985351562e-01,6.726092100143432617e-02,-1.745181381702423096e-01,2.133010886609554291e-02,-3.185205459594726562e-01,3.102385997772216797e-01,-1.652993410825729370e-01,3.670817823149263859e-04,4.709687232971191406e-01,-4.047739207744598389e-01,-4.197297394275665283e-01,-6.191353797912597656e-01,4.467386007308959961e-01,3.559261560440063477e-01
-1.869901418685913086e-01,1.701114624738693237e-01,-1.742399185895919800e-01,1.709971129894256592e-01,-3.467858135700225830e-01,4.414928555488586426e-01,-2.297651469707489014e-01,-3.117660619318485260e-02,5.297439098358154297e-01,-5.005739331245422363e-01,-4.414471685886383057e-01,-4.385880529880523682e-01,5.182091593742370605e-01,3.613426983356475830e-01
-8.080808073282241821e-02,2.859572172164916992e-01,-1.210200041532516479e-02,1.612932085990905762e-01,-5.603117942810058594e-01,2.575138807296752930e-01,-1.513172090053558350e-01,-4.591968655586242676e-02,4.413455128669738770e-01,-7.769873142242431641e-01,-4.237055778503417969e-01,-4.218986034393310547e-01,7.280106544494628906e-01,3.653773069381713867e-01
-3.268010914325714111e-01,2.373937070369720459e-01,-3.237424790859222412e-01,2.415806502103805542e-01,-4.890878498554229736e-01,2.184148132801055908e-01,-1.934958398342132568e-01,-2.416226118803024292e-01,4.345287680625915527e-01,-9.367414712905883789e-01,-5.627494454383850098e-01,-5.122305154800415039e-01,6.508716940879821777e-01,4.044216573238372803e-01
-1.845527291297912598e-01,2.858869433403015137e-01,-4.125059768557548523e-02,1.124140471220016479e-01,-5.024179816246032715e-01,4.287135601043701172e-02,-1.635277718305587769e-01,-2.062279284000396729e-01,4.277039170265197754e-01,-8.575178384780883789e-01,-5.305800437927246094e-01,-5.302401185035705566e-01,7.371284961700439453e-01,4.910039901733398438e-01
1.241201236844062805e-01,2.721933089196681976e-02,-8.120990544557571411e-02,2.103523463010787964e-01,-3.455880582332611084e-01,2.242978066205978394e-01,-6.365589052438735962e-02,-1.377826035022735596e-01,4.492351710796356201e-01,-1.106678962707519531e+00,-5.640425086021423340e-01,-3.896161019802093506e-01,6.396998167037963867e-01,4.444774389266967773e-01
1.311895251274108887e-01,6.463777273893356323e-02,8.640027791261672974e-02,1.987405493855476379e-02,-5.557817220687866211e-01,8.016591519117355347e-02,-9.036691486835479736e-02,-2.228520065546035767e-01,3.568105101585388184e-01,-7.076571583747863770e-01,-4.238311350345611572e-01,-2.273075580596923828e-01,5.233376026153564453e-01,4.612995684146881104e-01
3.601507246494293213e-01,1.225610077381134033e-01,1.782588511705398560e-01,-7.587249577045440674e-02,-4.513228535652160645e-01,1.712187565863132477e-02,4.201344773173332214e-02,-2.605547904968261719e-01,2.349381297826766968e-01,-1.239774107933044434e+00,-5.978310108184814453e-01,-2.995999753475189209e-01,4.842349588871002197e-01,4.780125617980957031e-01
1.374165564775466919e-01,1.013917475938796997e-01,7.324553281068801880e-02,4.192974418401718140e-02,-4.805496633052825928e-01,-2.495385240763425827e-03,1.666212081909179688e-01,-4.458227455615997314e-01,2.020508497953414917e-01,-1.164088964462280273e+00,-4.617583751678466797e-01,8.384997397661209106e-02,6.723204255104064941e-01,3.937689363956451416e-01
2.539807558059692383e-01,3.283547461032867432e-01,2.378106266260147095e-01,-6.717009842395782471e-02,-5.439790487289428711e-01,9.409728460013866425e-03,2.336347401142120361e-01,-5.836617350578308105e-01,4.259824380278587341e-02,-1.023377895355224609e+00,-4.621288478374481201e-01,-1.264655590057373047e-01,4.012449681758880615e-01,3.734336197376251221e-01
4.127680659294128418e-01,2.934500873088836670e-01,4.396872818470001221e-01,-6.847631931304931641e-02,-2.953904867172241211e-01,-6.378319114446640015e-03,3.259128928184509277e-01,-6.526775360107421875e-01,3.130841627717018127e-02,-1.282384634017944336e+00,-5.589268803596496582e-01,-7.318675518035888672e-02,3.298308849334716797e-01,3.933921158313751221e-01
3.912209570407867432e-01,9.158480167388916016e-02,5.387800335884094238e-01,-5.098814144730567932e-02,-4.862423837184906006e-01,-6.597152352333068848e-02,2.469749152660369873e-01,-6.975671052932739258e-01,1.261778324842453003e-01,-1.054109573364257812e+00,-3.314305543899536133e-01,-1.137241497635841370e-01,5.197345614433288574e-01,3.261579275131225586e-01
2.601940035820007324e-01,4.235949814319610596e-01,4.802080094814300537e-01,-3.852905333042144775e-01,-1.617967933416366577e-01,1.755549013614654541e-01,-8.221600204706192017e-03,-8.536719679832458496e-01,-3.855916857719421387e-02,-1.236205935478210449e+00,-4.071460366249084473e-01,-5.090323090553283691e-02,4.395586550235748291e-01,2.282991856336593628e-01
3.232989311218261719e-01,3.020783662796020508e-01,5.402006506919860840e-01,-4.956549964845180511e-03,-2.395924925804138184e-01,-1.429299414157867432e-01,4.306979179382324219e-01,-8.128268718719482422e-01,-1.109743416309356689e-01,-9.062700867652893066e-01,-6.677109748125076294e-02,-2.050466984510421753e-01,3.097959756851196289e-01,2.627009153366088867e-01
3.417166769504547119e-01,2.031453847885131836e-01,7.302973866462707520e-01,-1.035897880792617798e-01,6.886160373687744141e-02,9.872762113809585571e-02,4.128597378730773926e-01,-9.540919661521911621e-01,-2.266179472208023071e-01,-8.281222581863403320e-01,-9.677557647228240967e-02,-1.169473007321357727e-01,2.978503406047821045e-01,4.426745474338531494e-01
2.651963233947753906e-01,9.297230839729309082e-02,6.023532152175903320e-01,-3.405213356018066406e-01,-1.158807240426540375e-02,1.189097464084625244e-01,3.868666291236877441e-01,-8.488951921463012695e-01,-1.748074293136596680e-01,-9.340201020240783691e-01,-1.669755764305591583e-02,-1.423647850751876831e-01,2.540133297443389893e-01,4.075739979743957520e-01
1.507357060909271240e-01,1.769730150699615479e-01,7.475942969322204590e-01,-3.148576021194458008e-01,9.584110230207443237e-02,1.706571131944656372e-01,3.944028615951538086e-01,-9.384294748306274414e-01,-2.260774224996566772e-01,-8.397851586341857910e-01,-4.562784358859062195e-02,-1.510120332241058350e-01,2.741515636444091797e-01,1.731033027172088623e-01
2.486917972564697266e-01,3.065175116062164307e-01,6.107349395751953125e-01,-3.502701520919799805e-01,-2.631931565701961517e-02,2.823247611522674561e-01,3.437263369560241699e-01,-9.532653689384460449e-01,-2.371544986963272095e-01,-8.660583496093750000e-01,8.600350469350814819e-02,-2.473835498094558716e-01,2.503288984298706055e-01,1.966820806264877319e-01
1.628440767526626587e-01,4.854913055896759033e-02,3.891441226005554199e-01,-2.251628190279006958e-01,1.748683601617813110e-01,5.563090443611145020e-01,2.885213494300842285e-01,-8.225946426391601562e-01,-2.963511943817138672e-01,-5.936371088027954102e-01,1.340269148349761963e-01,-2.784460484981536865e-01,1.554501801729202271e-01,2.377450168132781982e-01
-1.571763888932764530e-03,2.977311015129089355e-01,5.818958878517150879e-01,-1.571298837661743164e-01,7.041629403829574585e-02,3.755211830139160156e-01,1.365895271301269531e-01,-9.323677420616149902e-01,-3.016087710857391357e-01,-5.412312746047973633e-01,-2.229255996644496918e-02,-1.347093284130096436e-01,3.059947192668914795e-01,1.972348242998123169e-01
-5.038743466138839722e-02,1.324830353260040283e-01,4.440975785255432129e-01,-2.311204075813293457e-01,3.926043212413787842e-01,4.254710674285888672e-01,2.012997716665267944e-01,-7.695773243904113770e-01,-1.123150959610939026e-01,-5.072026252746582031e-01,1.848299056291580200e-01,-3.567780554294586182e-01,1.358179301023483276e-01,1.783434152603149414e-01
-1.020785272121429443e-01,-9.897720068693161011e-02,4.315961897373199463e-01,-3.048294186592102051e-01,2.131367623805999756e-01,1.831514686346054077e-01,1.023871675133705139e-01,-8.388643264770507812e-01,-1.208166480064392090e-01,-3.506103754043579102e-01,9.362480789422988892e-02,-9.849504567682743073e-04,4.613956212997436523e-01,9.862931817770004272e-02
-1.363179367035627365e-02,1.850850284099578857e-01,4.829955101013183594e-01,-3.988089263439178467e-01,1.980876475572586060e-01,4.062818586826324463e-01,-4.786689952015876770e-02,-7.059327960014343262e-01,-2.827392220497131348e-01,-4.622913599014282227e-01,2.837626039981842041e-01,-3.627704977989196777e-01,3.930579721927642822e-01,3.850880563259124756e-01
6.321883201599121094e-02,2.091466784477233887e-01,2.452089488506317139e-01,-1.698412746191024780e-01,-1.545569859445095062e-02,5.433367490768432617e-01,7.864909619092941284e-02,-4.353111088275909424e-01,-2.591647803783416748e-01,-4.916510283946990967e-01,1.086253374814987183e-01,-4.741582870483398438e-01,3.015092015266418457e-01,-1.131930127739906311e-01
4.200655966997146606e-02,1.352264136075973511e-01,4.485566020011901855e-01,-2.377693951129913330e-01,1.753053665161132812e-01,4.425916075706481934e-01,-9.005064517259597778e-02,-6.242954730987548828e-01,-1.345493793487548828e-01,-3.722533583641052246e-01,2.080544531345367432e-01,-1.770168691873550415e-01,5.758413076400756836e-01,-2.448573112487792969e-01
