Fp1,Fp2,F7,F3,Fz,F4,F8,FT7,FC3,FCz,FC4,FT8,T3,C3,Cz,C4,T4,TP7,CP3,CPz,CP4,TP8,T5,P3,Pz,P4,T6,O1,Oz,O2,A1,A2
1.956077194213867188e+01,1.201901435852050781e+01,-5.455860137939453125e+00,-6.539794445037841797e+00,7.843723773956298828e+00,1.658269119262695312e+01,1.524221134185791016e+01,2.112581491470336914e+00,-5.897595405578613281e+00,-2.288455247879028320e+00,1.096285057067871094e+01,1.470811367034912109e+01,1.059986877441406250e+01,3.444109678268432617e+00,5.728431046009063721e-03,5.137577056884765625e-01,1.519883889704942703e-02,-2.868213415145874023e+00,-3.167500019073486328e+00,1.128710031509399414e+00,2.963956356048583984e+00,5.311510086059570312e+00,9.330835342407226562e+00,1.273670005798339844e+01,9.810787200927734375e+00,1.132430839538574219e+01,1.165839958190917969e+01,1.531687450408935547e+01,1.275042819976806641e+01,1.337353801727294922e+01,1.442735576629638672e+01,2.046620130538940430e+00
1.194371032714843750e+01,3.966018438339233398e+00,-5.647708415985107422e+00,-5.985122680664062500e+00,3.396748781204223633e+00,6.026099205017089844e+00,5.821845531463623047e+00,-2.315636277198791504e-01,-3.942089319229125977e+00,-1.770400404930114746e+00,4.203100681304931641e+00,5.813674926757812500e+00,2.281823158264160156e+00,-2.767571449279785156e+00,1.916579723358154297e+00,-4.838807284832000732e-01,1.549023509025573730e+00,-1.916171669960021973e+00,1.821602463722229004e+00,-1.438154458999633789e+00,1.474006295204162598e+00,3.167044401168823242e+00,8.819316864013671875e+00,9.773953437805175781e+00,5.867767333984375000e+00,6.646686553955078125e+00,1.032956218719482422e+01,1.518492698669433594e+01,1.319281673431396484e+01,1.138633823394775391e+01,8.192996025085449219e+00,-1.394421386718750000e+01
-4.234325408935546875e+00,-4.593946933746337891e+00,1.419200062751770020e+00,9.377644062042236328e-01,1.709496259689331055e+00,-1.786317110061645508e+00,1.552658796310424805e+00,3.786002397537231445e+00,2.988668680191040039e+00,4.502817630767822266e+00,3.583956360816955566e-01,-8.911386728286743164e-01,-5.254539012908935547e+00,-8.060045242309570312e+00,-4.294589519500732422e+00,-6.581335544586181641e+00,-4.908423900604248047e+00,-8.460863113403320312e+00,-4.114738941192626953e+00,-5.983384132385253906e+00,-3.089118003845214844e+00,-5.036324977874755859e+00,-4.430485248565673828e+00,-6.953731179237365723e-01,-2.960536181926727295e-01,-1.319641321897506714e-01,1.258570909500122070e+00,3.809692859649658203e+00,1.314050197601318359e+00,-1.555852741003036499e-01,-2.788109540939331055e+00,-1.785784530639648438e+01
-1.884111022949218750e+01,-1.475187015533447266e+01,-1.390934944152832031e+00,1.388499975204467773e+00,-3.621060848236083984e+00,-1.043648815155029297e+01,-6.655304431915283203e+00,3.342694938182830811e-01,2.088445663452148438e+00,2.631288290023803711e+00,-4.455980300903320312e+00,-7.293387889862060547e+00,-8.290238380432128906e+00,-7.679334640502929688e+00,-6.103447914123535156e+00,-6.684696197509765625e+00,-6.040346145629882812e+00,-7.267954826354980469e+00,-5.562607288360595703e+00,-3.998439311981201172e+00,-1.480305790901184082e+00,-6.990524291992187500e+00,-1.032314586639404297e+01,-5.159296035766601562e+00,-2.898891687393188477e+00,-3.148616075515747070e+00,-2.699554204940795898e+00,-3.331065893173217773e+00,-7.241276264190673828e+00,-6.133611202239990234e+00,-4.713655948638916016e+00,-1.007440662384033203e+01
-1.427458381652832031e+01,-1.375869941711425781e+01,-6.505001068115234375e+00,-3.965161323547363281e+00,-8.034151077270507812e+00,-1.203171443939208984e+01,-1.232560157775878906e+01,-7.625334739685058594e+00,-5.543004989624023438e+00,-5.638670444488525391e+00,-9.131601333618164062e+00,-1.138095283508300781e+01,-9.387269020080566406e+00,-9.400574684143066406e+00,-5.419701099395751953e+00,-4.980840206146240234e+00,-9.262156486511230469e-02,1.901517659425735474e-01,-7.831278443336486816e-01,-3.257107257843017578e+00,1.099205017089843750e+00,-6.879099011421203613e-01,-2.546128988265991211e+00,4.075676500797271729e-01,6.267600059509277344e-01,-2.659749269485473633e+00,-2.923031806945800781e+00,-1.515555500984191895e+00,-3.662786722183227539e+00,-1.990542411804199219e+00,-4.367252588272094727e-01,-4.461208343505859375e+00
-5.971270084381103516e+00,-4.621872901916503906e+00,-2.734553337097167969e+00,-4.198406219482421875e+00,-7.492492198944091797e+00,-6.249547481536865234e+00,-6.942686557769775391e+00,-5.273317813873291016e+00,-5.619011878967285156e+00,-5.427069187164306641e+00,-9.052747726440429688e+00,-1.180513286590576172e+01,-1.135614204406738281e+01,-1.202716350555419922e+01,-1.023741245269775391e+01,-8.508186340332031250e+00,-3.973872661590576172e+00,-3.648119211196899414e+00,-4.021698951721191406e+00,-6.150066852569580078e+00,-3.587399244308471680e+00,-4.294823169708251953e+00,-5.634788990020751953e+00,-2.224694788455963135e-01,2.416990756988525391e+00,2.503254264593124390e-02,-3.971273183822631836e+00,-3.078758478164672852e+00,-4.750140190124511719e+00,-3.003478765487670898e+00,-8.692591190338134766e-01,-8.615119457244873047e-01
-1.049424266815185547e+01,-4.636497497558593750e+00,4.495214819908142090e-01,2.438196092844009399e-01,-3.078897953033447266e+00,-5.428074359893798828e+00,-4.055907249450683594e+00,4.387388825416564941e-01,5.480942130088806152e-01,-7.840239405632019043e-01,-6.734744548797607422e+00,-1.005542850494384766e+01,-1.022235679626464844e+01,-7.507769107818603516e+00,-9.412174224853515625e+00,-8.443136215209960938e+00,-1.082988929748535156e+01,-9.202487945556640625e+00,-7.164316177368164062e+00,-6.663741588592529297e+00,-9.508193016052246094e+00,-1.363598155975341797e+01,-1.302644729614257812e+01,-7.164764881134033203e+00,-2.243128776550292969e+00,-1.774096637964248657e-01,-2.829106092453002930e+00,-6.157712936401367188e+00,-8.751134872436523438e+00,-6.794469356536865234e+00,-3.255710601806640625e+00,1.535446405410766602e+00
-7.237138748168945312e+00,-6.486886024475097656e+00,-2.146427154541015625e+00,-8.921082019805908203e-01,-5.341107249259948730e-01,-5.316226482391357422e+00,-5.425117015838623047e+00,-3.245014548301696777e-01,8.820656538009643555e-01,-1.163806438446044922e+00,-5.482534408569335938e+00,-7.595832347869873047e+00,-6.217004776000976562e+00,-3.251479387283325195e+00,-2.773144960403442383e+00,-3.622853279113769531e+00,-6.320479869842529297e+00,-6.814018249511718750e+00,-4.751671314239501953e+00,-8.050843238830566406e+00,-1.184246730804443359e+01,-1.393733596801757812e+01,-1.032503700256347656e+01,-9.250401496887207031e+00,-6.943481445312500000e+00,-5.130629539489746094e+00,-5.164248943328857422e+00,-5.817557334899902344e+00,-4.310242176055908203e+00,-3.117184877395629883e+00,-3.507349014282226562e+00,-6.071798205375671387e-01
-3.297617912292480469e+00,-4.525541782379150391e+00,-4.297049522399902344e+00,-5.463691711425781250e+00,-3.066991806030273438e+00,-4.738651752471923828e+00,-6.063419818878173828e+00,-1.852134227752685547e+00,-2.169792413711547852e+00,-1.173520684242248535e+00,-4.116645336151123047e+00,-6.905234336853027344e+00,-6.068897724151611328e+00,-6.775109291076660156e+00,-5.971258640289306641e+00,-7.289107799530029297e+00,-5.887204647064208984e+00,-8.149496078491210938e+00,-8.218738555908203125e+00,-1.221041488647460938e+01,-1.432881164550781250e+01,-1.277643966674804688e+01,-1.042404174804687500e+01,-9.250867843627929688e+00,-9.297366142272949219e+00,-1.034391403198242188e+01,-1.233493518829345703e+01,-9.149973869323730469e+00,-5.106369495391845703e+00,-5.850776672363281250e+00,-9.449341773986816406e+00,-3.030755996704101562e+00
-2.243514060974121094e+00,-3.967831850051879883e+00,-1.942827463150024414e+00,-4.145338535308837891e+00,-2.732595920562744141e+00,-3.100318908691406250e+00,-2.186844587326049805e+00,3.226185441017150879e-01,-3.497915267944335938e-01,2.994583368301391602e+00,8.736314177513122559e-01,-2.690008401870727539e+00,-2.074974775314331055e+00,-2.884337425231933594e+00,-7.673830509185791016e+00,-9.669424057006835938e+00,-1.106956195831298828e+01,-1.058963108062744141e+01,-9.866340637207031250e+00,-6.066025733947753906e+00,-9.326926231384277344e+00,-9.763130187988281250e+00,-9.609210014343261719e+00,-6.139410018920898438e+00,-8.716914176940917969e+00,-8.851341247558593750e+00,-8.693940162658691406e+00,-8.546298980712890625e+00,-8.003792762756347656e+00,-9.401944160461425781e+00,-1.167947101593017578e+01,-5.297860145568847656e+00
-5.141431331634521484e+00,-8.723024368286132812e+00,-2.429273843765258789e+00,-2.208849191665649414e+00,2.175141572952270508e-01,-9.893898963928222656e-01,1.001936674118041992e+00,2.431736946105957031e+00,2.420083522796630859e+00,4.898293495178222656e+00,2.418122768402099609e+00,-1.208488583564758301e+00,1.745694160461425781e+00,5.467155456542968750e+00,1.553472280502319336e+00,-4.988046646118164062e+00,-8.971041679382324219e+00,-8.497017860412597656e+00,-4.265408039093017578e+00,-1.029702186584472656e+00,-2.717575788497924805e+00,-7.256135463714599609e+00,-7.623316287994384766e+00,-4.628366470336914062e+00,-6.047671794891357422e+00,-8.367855072021484375e+00,-8.220288276672363281e+00,-1.007713222503662109e+01,-9.811495780944824219e+00,-9.121961593627929688e+00,-1.049652481079101562e+01,-1.366218185424804688e+01
-1.210889148712158203e+01,-1.638132476806640625e+01,-9.555071830749511719e+00,-8.095019340515136719e+00,-6.902737140655517578e+00,-7.603578567504882812e+00,-6.641031742095947266e+00,-1.010455608367919922e+00,-1.412907719612121582e+00,2.739904403686523438e+00,-1.994816780090332031e+00,-4.569532871246337891e+00,9.199442714452743530e-02,4.026365280151367188e+00,3.789173603057861328e+00,-2.771598100662231445e+00,-3.417407274246215820e+00,-4.908025264739990234e+00,2.842952609062194824e-01,-1.248933911323547363e+00,6.602313518524169922e-01,-4.033703804016113281e+00,-5.161397933959960938e+00,-3.746346473693847656e+00,-3.645761966705322266e+00,-1.010480403900146484e+01,-1.196028518676757812e+01,-1.302947425842285156e+01,-1.495335483551025391e+01,-1.443682670593261719e+01,-1.406747722625732422e+01,-2.054301261901855469e+01
-1.778113555908203125e+01,-2.079035186767578125e+01,-1.035270404815673828e+01,-9.228697776794433594e+00,-1.402657985687255859e+01,-1.763549041748046875e+01,-1.483058452606201172e+01,-5.515517234802246094e+00,-5.836731910705566406e+00,-5.065764114260673523e-02,-3.795783281326293945e+00,-6.098949432373046875e+00,-1.378876805305480957e+00,9.797262549400329590e-01,2.357649505138397217e-01,-2.586511850357055664e+00,1.059916615486145020e+00,1.936544775962829590e+00,6.584555149078369141e+00,4.392999649047851562e+00,5.646050930023193359e+00,-7.996059060096740723e-01,-1.506981015205383301e+00,-9.314602017402648926e-01,-3.018194675445556641e+00,-1.007077884674072266e+01,-9.244742393493652344e+00,-1.078080749511718750e+01,-1.901592636108398438e+01,-1.990986061096191406e+01,-1.667537498474121094e+01,-1.226659297943115234e+01
-1.348309421539306641e+01,-1.100865364074707031e+01,4.553079307079315186e-01,8.516069650650024414e-01,-4.476495265960693359e+00,-1.205254650115966797e+01,-1.017440032958984375e+01,-1.046869635581970215e+00,-5.814052224159240723e-01,1.259229302406311035e+00,-2.835807561874389648e+00,-4.112941265106201172e+00,2.465598344802856445e+00,7.364225864410400391e+00,6.744188785552978516e+00,3.900798320770263672e+00,7.675271987915039062e+00,9.429660797119140625e+00,1.329314804077148438e+01,1.058492469787597656e+01,1.219464111328125000e+01,4.125901699066162109e+00,4.384646415710449219e+00,2.771580934524536133e+00,4.156788289546966553e-01,-5.034570217132568359e+00,-1.304949045181274414e+00,-2.643523216247558594e+00,-9.392821311950683594e+00,-8.790739059448242188e+00,-8.033752441406250000e+00,1.392044901847839355e+00
-1.279887676239013672e+01,-4.492238044738769531e+00,4.564397811889648438e+00,4.292336940765380859e+00,-4.360700845718383789e-01,-6.977599620819091797e+00,-9.562233924865722656e+00,1.196093797683715820e+00,2.178243398666381836e+00,2.003414154052734375e+00,-5.460900306701660156e+00,-7.226577281951904297e+00,-4.107680320739746094e-01,4.808819293975830078e+00,5.390036582946777344e+00,1.532759189605712891e+00,4.149271488189697266e+00,4.887258052825927734e+00,6.693914890289306641e+00,5.500374317169189453e+00,9.974464416503906250e+00,4.618349075317382812e+00,1.701681137084960938e+00,-7.648883461952209473e-01,1.947493672370910645e+00,-2.718218564987182617e+00,-5.191213488578796387e-01,-6.313024461269378662e-02,-2.082576513290405273e+00,-2.205625534057617188e+00,-2.326200008392333984e+00,3.241343736648559570e+00
-1.783056831359863281e+01,-6.250632286071777344e+00,4.002511501312255859e+00,1.912040472030639648e+00,-6.093929767608642578e+00,-1.169491958618164062e+01,-1.395779705047607422e+01,-3.597660303115844727e+00,-4.009428501129150391e+00,-4.405212402343750000e+00,-1.007942390441894531e+01,-1.348816585540771484e+01,-9.210663795471191406e+00,-8.589039802551269531e+00,-9.623326301574707031e+00,-1.033830261230468750e+01,-5.369459152221679688e+00,-2.417672157287597656e+00,-3.112518072128295898e+00,-8.393490314483642578e-01,2.815573930740356445e+00,-3.929202854633331299e-01,-5.025255203247070312e+00,-3.449410438537597656e+00,7.106247544288635254e-01,-3.300605773925781250e+00,-3.462631464004516602e+00,-3.499619483947753906e+00,-6.593149662017822266e+00,-7.409429550170898438e+00,-4.419002056121826172e+00,2.758052110671997070e+00
-5.900322914123535156e+00,-1.560455083847045898e+00,1.169166278839111328e+01,9.029620170593261719e+00,-1.271227598190307617e+00,-7.189836978912353516e+00,-5.094901561737060547e+00,2.103831291198730469e+00,1.317057728767395020e+00,-2.959601163864135742e+00,-4.215528011322021484e+00,-5.067844390869140625e+00,-2.549952030181884766e+00,-4.742481708526611328e+00,-7.641108989715576172e+00,-4.015243053436279297e+00,1.857882738113403320e+00,2.898359060287475586e+00,3.054395318031311035e-01,1.296399235725402832e+00,6.546607613563537598e-01,-6.660450696945190430e-01,-1.302618861198425293e+00,3.806199550628662109e+00,4.947938442230224609e+00,2.452051162719726562e+00,-1.471399545669555664e+00,-7.629854679107666016e-01,-2.635141372680664062e+00,-2.995651960372924805e+00,-9.749398231506347656e-01,1.298144435882568359e+01
9.065344810485839844e+00,6.646260261535644531e+00,2.168204689025878906e+01,2.115360260009765625e+01,1.139775657653808594e+01,6.212016105651855469e+00,8.700750350952148438e+00,1.600019264221191406e+01,1.632768058776855469e+01,9.327647209167480469e+00,7.965454578399658203e+00,8.870137214660644531e+00,8.901846885681152344e+00,6.573993206024169922e+00,6.144893169403076172e+00,1.038374423980712891e+01,1.360852050781250000e+01,9.435707092285156250e+00,4.209323406219482422e+00,-2.054183244705200195e+00,-4.574697017669677734e+00,-1.022017478942871094e+00,1.049949288368225098e+00,4.312096595764160156e+00,4.544996261596679688e+00,4.552499294281005859e+00,-1.580093145370483398e+00,2.613208532333374023e+00,5.021601200103759766e+00,3.625901222229003906e+00,2.381426572799682617e+00,2.538058471679687500e+01
1.023964881896972656e+01,1.164662647247314453e+01,2.132367324829101562e+01,2.140937614440917969e+01,1.508247947692871094e+01,1.180891323089599609e+01,1.106206417083740234e+01,1.423180294036865234e+01,1.332482051849365234e+01,1.018016719818115234e+01,1.109396457672119141e+01,1.204489707946777344e+01,8.503211975097656250e+00,1.995974063873291016e+00,3.586627244949340820e+00,8.032025337219238281e+00,9.676345825195312500e+00,5.382228851318359375e+00,-7.843502759933471680e-01,-5.858151912689208984e+00,-6.825306415557861328e+00,-5.769198536872863770e-01,8.714243173599243164e-01,8.956017494201660156e-01,-9.932466149330139160e-01,5.966708660125732422e-01,-6.978005170822143555e-01,3.541455268859863281e+00,6.254714488983154297e+00,6.019957065582275391e+00,4.360745429992675781e+00,2.641022682189941406e+01
1.094560623168945312e+01,1.478749561309814453e+01,1.984522819519042969e+01,1.854804992675781250e+01,1.316529464721679688e+01,1.068521881103515625e+01,8.500473022460937500e+00,6.973897933959960938e+00,4.772465705871582031e+00,1.543885827064514160e+00,4.406631946563720703e+00,5.461790084838867188e+00,3.058570623397827148e+00,-4.488289833068847656e+00,-3.916698932647705078e+00,-5.626420974731445312e-01,9.509541094303131104e-03,-1.341187357902526855e+00,-3.833889484405517578e+00,-1.937788248062133789e+00,-2.970687627792358398e+00,-1.313177943229675293e-01,-1.454788148403167725e-01,-1.185965389013290405e-01,-2.730822324752807617e+00,-5.496045351028442383e-01,2.887614965438842773e-01,3.344595670700073242e+00,6.057795047760009766e+00,7.419719219207763672e+00,5.661359786987304688e+00,2.472065544128417969e+01
1.291112327575683594e+01,1.557299423217773438e+01,1.803580093383789062e+01,1.593853092193603516e+01,1.107385063171386719e+01,9.959829330444335938e+00,8.062834739685058594e+00,6.384818553924560547e+00,6.107335090637207031e+00,3.654425382614135742e+00,3.042302370071411133e+00,3.655648708343505859e+00,3.744639635086059570e+00,6.463878750801086426e-01,1.278817296028137207e+00,2.107269287109375000e+00,-2.206373214721679688e-01,-1.107305169105529785e+00,-1.663442850112915039e+00,-1.682642698287963867e+00,-2.855029821395874023e+00,-1.627000570297241211e-01,1.088408827781677246e+00,-2.121751308441162109e+00,-5.861652851104736328e+00,-2.986550807952880859e+00,-2.188251495361328125e+00,9.890534281730651855e-01,4.143570899963378906e+00,6.303149223327636719e+00,2.330414772033691406e+00,2.049726486206054688e+01
5.371475219726562500e+00,8.852442741394042969e+00,1.358271503448486328e+01,1.305647468566894531e+01,6.663123607635498047e+00,4.864458084106445312e+00,5.608039855957031250e+00,5.981563091278076172e+00,5.665087223052978516e+00,7.338577747344970703e+00,5.677227497100830078e+00,5.871933937072753906e+00,4.519941329956054688e+00,4.641108036041259766e+00,8.969773292541503906e+00,7.791280746459960938e+00,6.271465778350830078e+00,6.024492740631103516e+00,5.789031505584716797e+00,-2.097827434539794922e+00,-4.770595073699951172e+00,-6.167711615562438965e-01,2.903611183166503906e+00,-4.580992221832275391e+00,-1.171821784973144531e+01,-1.020512771606445312e+01,-6.062374591827392578e+00,-4.410252571105957031e+00,-1.805671334266662598e+00,5.268318653106689453e-01,-8.498191237449645996e-01,1.860709571838378906e+01
5.488403797149658203e+00,9.123913764953613281e+00,1.703938102722167969e+01,1.767028045654296875e+01,1.045339202880859375e+01,5.165277957916259766e+00,6.485761165618896484e+00,9.838875770568847656e+00,8.356989860534667969e+00,7.216256141662597656e+00,6.768751144409179688e+00,8.469730377197265625e+00,6.874811649322509766e+00,7.138369560241699219e+00,1.281280899047851562e+01,1.125123214721679688e+01,1.311694526672363281e+01,1.271558189392089844e+01,1.359140396118164062e+01,5.187426567077636719e+00,9.033717513084411621e-01,2.700080633163452148e+00,4.129215717315673828e+00,-8.120589256286621094e-01,-7.262278079986572266e+00,-7.272024631500244141e+00,-3.551012754440307617e+00,-4.584596633911132812e+00,-1.496743559837341309e+00,1.565282583236694336e+00,4.695946693420410156e+00,2.150523757934570312e+01
5.914167404174804688e+00,1.152490139007568359e+01,1.790962982177734375e+01,1.747119522094726562e+01,1.208844757080078125e+01,7.779911994934082031e+00,7.445221900939941406e+00,9.023677825927734375e+00,9.312205314636230469e+00,8.355120658874511719e+00,6.826766967773437500e+00,8.383563041687011719e+00,9.026053428649902344e+00,1.059497737884521484e+01,1.041376686096191406e+01,9.536058425903320312e+00,9.793651580810546875e+00,1.076926612854003906e+01,9.908793449401855469e+00,7.972614765167236328e+00,6.036826133728027344e+00,8.098150253295898438e+00,5.818013191223144531e+00,2.905793666839599609e+00,-2.534462690353393555e+00,-2.862279415130615234e+00,1.287356376647949219e+00,2.945888996124267578e+00,4.340038776397705078e+00,4.423772335052490234e+00,3.768063068389892578e+00,1.112202930450439453e+01
-4.746342897415161133e-01,1.170462131500244141e+00,4.134486675262451172e+00,4.018781661987304688e+00,3.107063531875610352e+00,3.217540502548217773e+00,3.333985328674316406e+00,-2.149438858032226562e-01,-8.990345597267150879e-01,2.440798282623291016e+00,3.517044067382812500e+00,4.019056320190429688e+00,3.885118246078491211e+00,4.916808605194091797e+00,1.507287263870239258e+00,2.386073350906372070e+00,9.218255281448364258e-01,3.868451595306396484e+00,-1.060665726661682129e+00,4.584021493792533875e-02,2.763985633850097656e+00,9.710801124572753906e+00,8.276876449584960938e+00,1.545197367668151855e+00,-9.894150733947753906e+00,-1.277840614318847656e+01,-2.801513910293579102e+00,6.505275249481201172e+00,5.274860858917236328e+00,-6.496689915657043457e-01,-8.920447349548339844e+00,-5.314924716949462891e+00
1.327523440122604370e-01,-1.431542634963989258e+00,-2.666608333587646484e+00,-3.062798261642456055e+00,5.131369084119796753e-02,1.118932127952575684e+00,1.069156289100646973e+00,-4.039543628692626953e+00,-7.242184162139892578e+00,-6.039564132690429688e+00,-2.588918447494506836e+00,3.317149579524993896e-01,-1.436547875404357910e+00,-2.689681291580200195e+00,-1.118312716484069824e+00,2.518224716186523438e+00,2.687316894531250000e+00,3.137750864028930664e+00,-1.381410002708435059e+00,-1.520262837409973145e+00,1.769823551177978516e+00,9.000177383422851562e+00,8.968361854553222656e+00,2.874572992324829102e+00,-7.720220565795898438e+00,-9.602347373962402344e+00,-1.068743944168090820e+00,6.363933563232421875e+00,5.686890125274658203e+00,2.559044122695922852e+00,-3.413112878799438477e+00,4.142003059387207031e+00
-1.427325606346130371e+00,9.132596015930175781e+00,1.058131599426269531e+01,8.083491325378417969e+00,3.372937679290771484e+00,1.386039733886718750e+00,-1.164000749588012695e+00,-1.355299592018127441e+00,-9.862222075462341309e-01,-3.703577280044555664e+00,-6.251315593719482422e+00,-1.378009557723999023e+00,-3.336499452590942383e+00,-1.786221146583557129e+00,2.287573814392089844e+00,6.144649505615234375e+00,6.566333293914794922e+00,4.960045337677001953e+00,3.023107290267944336e+00,-7.387579083442687988e-01,-8.714882135391235352e-01,6.364506483078002930e-01,2.894344031810760498e-01,-9.870057106018066406e-01,1.235243797302246094e+00,5.981536865234375000e+00,5.965812683105468750e+00,4.150882720947265625e+00,5.816895484924316406e+00,1.044125366210937500e+01,1.309906387329101562e+01,2.428387069702148438e+01
-2.868575334548950195e+00,2.107127666473388672e+00,7.248034477233886719e-01,-2.363801956176757812e+00,-5.511365890502929688e+00,-1.651495218276977539e+00,-3.008285760879516602e+00,-9.136096000671386719e+00,-1.056242370605468750e+01,-8.096605300903320312e+00,-7.035286426544189453e+00,-2.527371644973754883e+00,-4.917658805847167969e+00,4.253197669982910156e+00,7.471899509429931641e+00,7.544366359710693359e+00,5.026265144348144531e+00,6.501200675964355469e+00,5.184365272521972656e+00,-1.676287770271301270e+00,-3.243706703186035156e+00,-3.624388217926025391e+00,-3.340867042541503906e+00,-7.787878036499023438e+00,-4.046356201171875000e+00,1.998237371444702148e+00,3.381699800491333008e+00,8.345004320144653320e-01,2.431391000747680664e+00,7.333608627319335938e+00,8.500879287719726562e+00,3.327024936676025391e+00
7.304137229919433594e+00,-3.468061208724975586e+00,-1.593152141571044922e+01,-1.756752967834472656e+01,-8.846287727355957031e+00,8.204346299171447754e-01,2.448915004730224609e+00,-1.251853275299072266e+01,-1.852722740173339844e+01,-1.380466651916503906e+01,-3.838990688323974609e+00,2.067234516143798828e+00,2.528846859931945801e-01,1.107434749603271484e+01,1.371979236602783203e+01,1.290257263183593750e+01,7.982542991638183594e+00,9.871948242187500000e+00,9.403861999511718750e+00,4.203226566314697266e+00,3.043175697326660156e+00,4.132353305816650391e+00,3.111468076705932617e+00,-4.126114368438720703e+00,-8.427506446838378906e+00,-5.850572586059570312e+00,-2.814415454864501953e+00,2.290973186492919922e+00,5.311647415161132812e+00,4.939299583435058594e+00,-1.981867671012878418e+00,-1.515925025939941406e+01
1.150691127777099609e+01,8.782781600952148438e+00,-3.859130382537841797e+00,-5.190988540649414062e+00,1.433657169342041016e+00,6.602816581726074219e+00,5.853555202484130859e+00,-4.368587493896484375e+00,-4.715036392211914062e+00,-3.539737462997436523e+00,2.048527002334594727e+00,7.786717891693115234e+00,5.523736476898193359e+00,9.619588851928710938e+00,1.002946662902832031e+01,1.296981334686279297e+01,8.741538047790527344e+00,5.350183010101318359e+00,6.512708187103271484e+00,6.147106647491455078e+00,4.863046646118164062e+00,3.773021221160888672e+00,1.579071760177612305e+00,-6.074628829956054688e-01,7.434272170066833496e-01,4.170382499694824219e+00,-2.436281293630599976e-01,2.189830780029296875e+00,8.277441024780273438e+00,8.590034484863281250e+00,4.825901985168457031e+00,7.507794857025146484e+00
2.105524539947509766e+00,9.954429626464843750e+00,7.051072597503662109e+00,4.457338333129882812e+00,1.994227766990661621e+00,3.097629070281982422e+00,1.727190732955932617e+00,-3.325615882873535156e+00,-2.961623668670654297e+00,-9.500404000282287598e-01,1.816373586654663086e+00,4.776167392730712891e+00,1.929943561553955078e+00,-1.343101114034652710e-01,-1.380496740341186523e+00,1.519194006919860840e+00,-1.708342671394348145e+00,-6.639897823333740234e+00,-7.658817768096923828e+00,-8.199384689331054688e+00,-7.756956577301025391e+00,-7.133654594421386719e+00,-6.833885192871093750e+00,-8.531245231628417969e+00,8.531776666641235352e-01,6.814042568206787109e+00,1.710808634757995605e+00,-4.409717082977294922e+00,2.801756143569946289e+00,5.268408775329589844e+00,7.942648887634277344e+00,1.637448310852050781e+01
4.109024628996849060e-02,7.256792783737182617e-01,-1.269686967134475708e-01,-1.807831168174743652e+00,-2.360641002655029297e+00,-5.651492476463317871e-01,8.459368944168090820e-01,-3.933029651641845703e+00,-7.243758678436279297e+00,-5.697152614593505859e+00,-3.163050889968872070e+00,-2.019399166107177734e+00,-2.286707162857055664e+00,-5.201830863952636719e+00,-6.931611537933349609e+00,-7.097239017486572266e+00,-7.301606178283691406e+00,-8.498562812805175781e+00,-1.367668533325195312e+01,-1.620198059082031250e+01,-1.482831668853759766e+01,-9.070784568786621094e+00,-9.506267547607421875e+00,-1.352952384948730469e+01,-8.286594390869140625e+00,-4.107230186462402344e+00,-4.607683658599853516e+00,-9.529593467712402344e+00,-1.365112781524658203e+00,-2.118461132049560547e+00,-3.039862155914306641e+00,-5.741232395172119141e+00
-2.575085878372192383e+00,-2.371558189392089844e+00,-3.627623796463012695e+00,-2.234975576400756836e+00,1.417567729949951172e+00,1.630799770355224609e+00,9.222424626350402832e-01,-3.035924434661865234e+00,-5.441138744354248047e+00,-4.868805885314941406e+00,-2.614205121994018555e+00,-3.540968179702758789e+00,-2.951112508773803711e+00,-2.861462354660034180e+00,-1.472529172897338867e+00,-3.630969762802124023e+00,-7.878545761108398438e+00,-7.461995124816894531e+00,-8.140000343322753906e+00,-8.776874542236328125e+00,-1.005003166198730469e+01,-8.866221427917480469e+00,-1.153649997711181641e+01,-1.355251121520996094e+01,-1.016251373291015625e+01,-7.570678234100341797e+00,-1.041113948822021484e+01,-1.419850063323974609e+01,-7.013032436370849609e+00,-5.702059745788574219e+00,-4.324333190917968750e+00,-1.270295429229736328e+01
-1.264933967590332031e+01,-5.520652294158935547e+00,1.295659899711608887e+00,5.951799392700195312e+00,4.060543060302734375e+00,-1.038907766342163086e+00,-3.177491188049316406e+00,-4.796048641204833984e+00,-6.393946647644042969e+00,-4.700359821319580078e+00,-2.964917719364166260e-01,-2.254304647445678711e+00,-3.653794527053833008e+00,-1.549926280975341797e+00,2.344006061553955078e+00,-8.866137266159057617e-02,-9.123815536499023438e+00,-9.017566680908203125e+00,-5.764801502227783203e+00,-7.623254776000976562e+00,-8.186577796936035156e+00,-1.117453765869140625e+01,-1.130107498168945312e+01,-1.469138908386230469e+01,-8.389085769653320312e+00,-5.667087554931640625e+00,-8.334122657775878906e+00,-1.518346023559570312e+01,-1.150085067749023438e+01,-6.328127384185791016e+00,4.880464076995849609e+00,-1.644750118255615234e+00
-6.797857761383056641e+00,-4.828803539276123047e+00,7.741774320602416992e-01,3.258978366851806641e+00,-4.958651959896087646e-01,-2.452032566070556641e+00,-2.734561860561370850e-01,-2.245039224624633789e+00,-5.317783355712890625e+00,-3.337687253952026367e+00,2.036437273025512695e+00,1.870603442192077637e+00,-1.435965150594711304e-01,-1.026352405548095703e+00,-2.789407074451446533e-01,-2.045866012573242188e+00,-2.883717775344848633e+00,-1.444431900978088379e+00,-4.225082397460937500e+00,-9.740444183349609375e+00,-7.073984622955322266e+00,-1.421975374221801758e+00,9.701634049415588379e-01,-5.386848926544189453e+00,-3.842582941055297852e+00,-3.118579387664794922e+00,7.814063429832458496e-01,-2.833367109298706055e+00,-3.899179935455322266e+00,-2.506530523300170898e+00,8.493070602416992188e+00,1.468304038047790527e+00
7.319213390350341797e+00,5.605831146240234375e+00,4.208998680114746094e+00,4.187572479248046875e+00,4.564823627471923828e+00,5.426063537597656250e+00,7.271793365478515625e+00,5.257233142852783203e+00,2.966046333312988281e+00,3.014728069305419922e+00,6.240550041198730469e+00,7.078047752380371094e+00,4.254030227661132812e+00,6.552315950393676758e-01,-2.355930566787719727e+00,-1.082100391387939453e+00,2.664529800415039062e+00,5.098548889160156250e+00,-1.140363454818725586e+00,-2.139256954193115234e+00,-1.135776489973068237e-01,8.248642921447753906e+00,1.004719448089599609e+01,9.461064338684082031e+00,8.460003852844238281e+00,8.260165214538574219e+00,1.012913322448730469e+01,1.094035530090332031e+01,7.806340694427490234e+00,6.773865699768066406e+00,1.132169342041015625e+01,4.236890316009521484e+00
5.900886058807373047e+00,7.788745880126953125e+00,8.564662933349609375e+00,8.623783111572265625e+00,7.896248817443847656e+00,8.140645980834960938e+00,6.641231536865234375e+00,3.299577713012695312e+00,4.424088478088378906e+00,4.406192779541015625e+00,6.884667396545410156e+00,8.456734657287597656e+00,4.255270481109619141e+00,-7.082120776176452637e-01,-5.503462791442871094e+00,-1.539193272590637207e+00,1.859705090522766113e+00,2.700659513473510742e+00,-8.986523151397705078e-01,1.779054403305053711e+00,2.573688745498657227e+00,5.899319648742675781e+00,7.504620552062988281e+00,9.809853553771972656e+00,1.327047824859619141e+01,1.528420829772949219e+01,1.131396293640136719e+01,1.171668148040771484e+01,9.837750434875488281e+00,1.168983554840087891e+01,1.269295120239257812e+01,6.375894069671630859e+00
1.049654960632324219e+01,7.285496234893798828e+00,8.816025733947753906e+00,7.099742412567138672e+00,5.816488265991210938e+00,7.514490604400634766e+00,8.258721351623535156e+00,8.076038956642150879e-01,3.586235344409942627e-01,-8.130624890327453613e-01,4.471867561340332031e+00,7.447076797485351562e+00,5.858708858489990234e+00,-3.954679369926452637e-01,-2.649278879165649414e+00,5.434451103210449219e-01,7.680978298187255859e+00,9.671236991882324219e+00,5.163838863372802734e+00,3.766614437103271484e+00,5.712094306945800781e+00,1.192832469940185547e+01,1.138044643402099609e+01,8.066577911376953125e+00,9.464477539062500000e+00,1.247710227966308594e+01,1.146308422088623047e+01,1.483633995056152344e+01,1.368503475189208984e+01,1.429939174652099609e+01,1.170441055297851562e+01,6.901580810546875000e+00
2.045569610595703125e+01,1.569525527954101562e+01,1.295856857299804688e+01,9.141173362731933594e+00,9.688830375671386719e+00,1.345372676849365234e+01,1.530417251586914062e+01,7.791424274444580078e+00,5.827497482299804688e+00,2.208700656890869141e+00,6.587436676025390625e+00,8.904203414916992188e+00,7.336395740509033203e+00,1.579685091972351074e+00,3.922638416290283203e+00,5.861308097839355469e+00,1.135943412780761719e+01,1.653897666931152344e+01,1.223450660705566406e+01,1.081249523162841797e+01,1.377833271026611328e+01,2.058564949035644531e+01,1.930728530883789062e+01,1.578665256500244141e+01,1.396653652191162109e+01,1.569742774963378906e+01,1.910808372497558594e+01,2.256256484985351562e+01,2.065963554382324219e+01,2.045878982543945312e+01,1.866584014892578125e+01,1.809734153747558594e+01
1.668355751037597656e+01,1.496446895599365234e+01,1.392747592926025391e+01,1.189425468444824219e+01,1.087227725982666016e+01,1.401073360443115234e+01,1.245422267913818359e+01,7.950565338134765625e+00,7.633809566497802734e+00,5.314060211181640625e+00,7.052103996276855469e+00,1.099156951904296875e+01,4.988464832305908203e+00,1.777933984994888306e-01,9.976634979248046875e-01,3.250817060470581055e+00,2.820110321044921875e+00,5.419482707977294922e+00,5.523365020751953125e+00,8.645641326904296875e+00,1.249751853942871094e+01,1.240057563781738281e+01,1.415133953094482422e+01,1.443120479583740234e+01,1.789860916137695312e+01,1.935859489440917969e+01,1.956195068359375000e+01,1.930663681030273438e+01,1.914633178710937500e+01,2.035350608825683594e+01,1.838472366333007812e+01,2.259783935546875000e+01
1.381596279144287109e+01,3.912560224533081055e+00,3.835996866226196289e+00,3.674653291702270508e+00,3.414977073669433594e+00,6.737239360809326172e+00,4.343283653259277344e+00,-9.913791418075561523e-01,-2.047165155410766602e+00,-2.032869100570678711e+00,2.314521551132202148e+00,8.099050521850585938e+00,3.458096027374267578e+00,-1.785122871398925781e+00,-2.102053880691528320e+00,-1.015692830085754395e+00,-1.348013639450073242e+00,-3.250967025756835938e+00,-4.091183185577392578e+00,-1.665843129158020020e+00,7.255548834800720215e-01,7.380231618881225586e-01,3.683039188385009766e+00,4.965743064880371094e+00,9.400813102722167969e+00,1.029011535644531250e+01,9.630226135253906250e+00,1.102736282348632812e+01,1.293719768524169922e+01,1.083080101013183594e+01,3.133413553237915039e+00,5.828866004943847656e+00
1.098990726470947266e+01,-6.168416500091552734e+00,-6.215550899505615234e+00,-5.582915782928466797e+00,-5.033814907073974609e+00,-2.735745608806610107e-01,1.708331704139709473e-02,-5.686046123504638672e+00,-6.972965240478515625e+00,-6.014418125152587891e+00,-2.584923744201660156e+00,-1.049433946609497070e+00,-3.629103600978851318e-01,-3.337430477142333984e+00,-9.923229217529296875e-01,-3.794246435165405273e+00,-3.423506259918212891e+00,-7.040426254272460938e+00,-9.668613433837890625e+00,-6.911754131317138672e+00,-7.032947063446044922e+00,-4.599349975585937500e+00,-3.160018920898437500e+00,-1.255038976669311523e+00,-2.852078914642333984e+00,-3.111041069030761719e+00,-1.114958763122558594e+00,2.095940589904785156e+00,3.267466545104980469e+00,1.803151369094848633e-01,-7.790673732757568359e+00,-6.020982265472412109e+00
-4.641694724559783936e-01,-7.028010845184326172e+00,-4.473052024841308594e+00,-3.123657703399658203e+00,-4.934017181396484375e+00,-2.902463674545288086e+00,-2.636929750442504883e+00,-2.400080919265747070e+00,-1.417795300483703613e+00,-1.511114597320556641e+00,-4.658246040344238281e+00,-5.810332298278808594e+00,-4.979962825775146484e+00,-4.451889038085937500e+00,-3.608373403549194336e+00,-6.484100818634033203e+00,-1.042913722991943359e+01,-1.362985134124755859e+01,-1.174071598052978516e+01,-4.719666481018066406e+00,-5.049074172973632812e+00,-6.957074642181396484e+00,-6.368574142456054688e+00,-5.495920658111572266e+00,-6.208018779754638672e+00,-6.009219646453857422e+00,-5.806926727294921875e+00,-5.814105987548828125e+00,-2.890284776687622070e+00,-4.268091022968292236e-01,-4.027941703796386719e+00,-4.067303180694580078e+00
-2.261686474084854126e-01,-2.417034387588500977e+00,-3.986361026763916016e-01,-5.944317579269409180e-02,-3.269025564193725586e+00,-2.065696716308593750e+00,-2.570635080337524414e+00,-7.355642318725585938e-01,4.949531853199005127e-01,8.538975119590759277e-01,-8.439183831214904785e-01,2.260469675064086914e+00,2.167842149734497070e+00,1.555060505867004395e+00,1.193300485610961914e+00,1.701279282569885254e+00,-1.879411458969116211e+00,-4.294202327728271484e+00,-3.739191770553588867e+00,1.585042953491210938e+00,3.268831253051757812e+00,1.612803816795349121e+00,8.893443346023559570e-01,9.737786054611206055e-01,2.167595624923706055e+00,8.564906716346740723e-01,-1.296528458595275879e+00,-3.546895742416381836e+00,2.123650014400482178e-01,2.910074234008789062e+00,-2.141235172748565674e-01,-3.287197113037109375e+00
1.089008045196533203e+01,1.034082412719726562e+00,-2.365825176239013672e+00,-3.638360977172851562e+00,-3.382090330123901367e+00,5.046528577804565430e-01,2.184854298830032349e-01,-1.796637177467346191e+00,-1.462500840425491333e-01,1.902676463127136230e+00,4.523741245269775391e+00,9.247448921203613281e+00,1.320796775817871094e+01,9.641321182250976562e+00,1.098327732086181641e+01,1.420217227935791016e+01,1.605054855346679688e+01,1.243828964233398438e+01,8.390229225158691406e+00,9.578253746032714844e+00,1.298243427276611328e+01,1.590595626831054688e+01,1.437762260437011719e+01,1.559748744964599609e+01,1.268553256988525391e+01,9.233519554138183594e+00,7.363906860351562500e+00,6.815744400024414062e+00,5.334508419036865234e+00,4.926361560821533203e+00,2.138615131378173828e+00,-2.255891799926757812e+00
6.354573726654052734e+00,-5.486542701721191406e+00,-6.914974689483642578e+00,-6.162807464599609375e+00,-3.955755710601806641e+00,-1.284241080284118652e+00,-9.301233887672424316e-01,-3.408815860748291016e-01,4.063929080963134766e+00,5.744664669036865234e+00,4.043764114379882812e+00,3.843644142150878906e+00,9.531414985656738281e+00,8.487289428710937500e+00,1.006359863281250000e+01,1.271208763122558594e+01,1.495680522918701172e+01,1.227006721496582031e+01,1.157380199432373047e+01,1.579364109039306641e+01,1.903722000122070312e+01,1.893697547912597656e+01,1.660115814208984375e+01,1.751743125915527344e+01,1.516327762603759766e+01,1.258733367919921875e+01,1.119817352294921875e+01,9.941259384155273438e+00,4.028880596160888672e+00,4.538600444793701172e+00,3.326679706573486328e+00,-5.743491649627685547e+00
-4.525706768035888672e+00,-1.089949321746826172e+01,-8.186234474182128906e+00,-6.867896080017089844e+00,-6.998611927032470703e+00,-6.752011299133300781e+00,-4.513292312622070312e+00,2.131140232086181641e+00,7.354935169219970703e+00,7.170789241790771484e+00,1.192319035530090332e+00,-1.803558826446533203e+00,6.609214544296264648e-01,3.845151662826538086e+00,5.577238082885742188e+00,5.796998977661132812e+00,6.056341648101806641e+00,7.666015148162841797e+00,1.031266593933105469e+01,1.444361400604248047e+01,1.627485084533691406e+01,1.185672283172607422e+01,8.276427268981933594e+00,8.837075233459472656e+00,1.182821941375732422e+01,1.106602668762207031e+01,9.597288131713867188e+00,7.521993160247802734e+00,3.702004671096801758e+00,4.065267562866210938e+00,-4.852466285228729248e-01,-1.375885486602783203e+01
-4.149241447448730469e+00,-1.200222110748291016e+01,-9.219754219055175781e+00,-8.338793754577636719e+00,-1.032681655883789062e+01,-9.149304389953613281e+00,-5.930462360382080078e+00,2.650519013404846191e-01,3.180982112884521484e+00,5.255370616912841797e+00,1.172038197517395020e+00,-1.012932419776916504e+00,-1.125149607658386230e+00,1.166367173194885254e+00,3.580672740936279297e+00,4.342318058013916016e+00,5.525335788726806641e+00,7.066337108612060547e+00,8.187662124633789062e+00,4.055998325347900391e+00,4.285833358764648438e+00,3.216858148574829102e+00,1.836938023567199707e+00,1.604322075843811035e+00,4.731922149658203125e+00,5.551780223846435547e+00,3.395259857177734375e+00,2.189558982849121094e+00,1.698050856590270996e+00,2.720404386520385742e+00,-3.171839714050292969e+00,-1.394721603393554688e+01
-1.035972714424133301e+00,-1.641397857666015625e+01,-1.278350734710693359e+01,-1.013403701782226562e+01,-1.163398647308349609e+01,-8.481110572814941406e+00,-6.314178466796875000e+00,-3.494099617004394531e+00,-3.570278406143188477e+00,1.786733150482177734e+00,-1.994361281394958496e-01,-6.866300106048583984e-01,1.235756352543830872e-01,-3.864721655845642090e-01,-1.410153150558471680e+00,1.746009469032287598e+00,5.214910030364990234e+00,5.778131008148193359e+00,3.848735332489013672e+00,-3.680831432342529297e+00,-4.467312812805175781e+00,2.767122583463788033e-03,1.102062821388244629e+00,-3.097325801849365234e+00,-3.733493089675903320e+00,-9.212457537651062012e-01,-1.285915851593017578e+00,-2.139053583145141602e+00,-2.801436185836791992e+00,-6.743987202644348145e-01,-4.002245426177978516e+00,-9.775131225585937500e+00
3.263200521469116211e+00,-1.427782249450683594e+01,-1.245363140106201172e+01,-1.007700347900390625e+01,-7.169565677642822266e+00,-2.988723754882812500e+00,-3.248689174652099609e+00,-3.299928188323974609e+00,-4.471152305603027344e+00,1.197314739227294922e+00,1.464989662170410156e+00,2.462919950485229492e+00,4.292516708374023438e+00,4.118463039398193359e+00,-6.623479537665843964e-03,2.484101295471191406e+00,3.836033105850219727e+00,6.774018287658691406e+00,4.045915126800537109e+00,1.940852284431457520e+00,8.167964220046997070e-01,4.806882858276367188e+00,5.550680160522460938e+00,3.885209560394287109e-02,-3.022590637207031250e+00,-1.919542312622070312e+00,1.348680019378662109e+00,2.776566267013549805e+00,2.695816993713378906e+00,1.909469962120056152e+00,-4.795779228210449219e+00,-1.334304904937744141e+01
8.322371482849121094e+00,-3.866892576217651367e+00,-7.432298660278320312e+00,-6.432167530059814453e+00,-1.731837540864944458e-02,5.245045661926269531e+00,4.387132644653320312e+00,1.570703029632568359e+00,9.396666884422302246e-01,5.910427570343017578e+00,9.235162734985351562e+00,9.978952407836914062e+00,1.136781978607177734e+01,1.272845840454101562e+01,1.095179462432861328e+01,8.557054519653320312e+00,6.455396652221679688e+00,9.459324836730957031e+00,1.000742721557617188e+01,9.613307952880859375e+00,7.311154365539550781e+00,7.623379230499267578e+00,9.426533699035644531e+00,8.592817306518554688e+00,5.705952167510986328e+00,4.743060588836669922e+00,8.092327117919921875e+00,9.931253433227539062e+00,9.937144279479980469e+00,6.762748718261718750e+00,-3.484103202819824219e+00,-1.676763725280761719e+01
2.447005271911621094e+00,-4.909195423126220703e+00,-1.118813800811767578e+01,-9.728729248046875000e+00,-1.840208411216735840e+00,4.940128326416015625e+00,4.752471923828125000e+00,-3.467474281787872314e-01,-2.938105583190917969e+00,2.141895771026611328e+00,5.841539859771728516e+00,6.105221271514892578e+00,6.547988891601562500e+00,8.018987655639648438e+00,6.972397327423095703e+00,3.274911165237426758e+00,3.007144927978515625e+00,3.414248228073120117e+00,3.801732063293457031e+00,-1.805744171142578125e+00,-3.548071861267089844e+00,-2.726110219955444336e+00,-1.176106691360473633e+00,7.076849229633808136e-03,-1.287570238113403320e+00,-1.355176091194152832e+00,-2.408492088317871094e+00,8.784026503562927246e-01,2.490968704223632812e+00,-6.547170877456665039e-01,-1.349141693115234375e+01,-2.193495559692382812e+01
-9.240896701812744141e-01,-8.521331787109375000e+00,-1.533020114898681641e+01,-1.610320091247558594e+01,-8.032645225524902344e+00,1.093356907367706299e-01,9.339658617973327637e-01,-6.297726631164550781e+00,-1.112965297698974609e+01,-7.709373950958251953e+00,-4.068487644195556641e+00,-3.078844308853149414e+00,-2.465822935104370117e+00,-1.518424630165100098e+00,-1.205744624137878418e+00,-3.481686115264892578e+00,-1.896638751029968262e+00,-2.919897079467773438e+00,-4.270585060119628906e+00,-7.730679512023925781e+00,-6.957242488861083984e+00,-7.296855926513671875e+00,-1.015195465087890625e+01,-8.083423614501953125e+00,-8.556836128234863281e+00,-9.708210945129394531e+00,-1.291333389282226562e+01,-7.306393146514892578e+00,-3.552498340606689453e+00,-5.853101730346679688e+00,-1.797574043273925781e+01,-2.243284606933593750e+01
3.997981786727905273e+00,-7.581918239593505859e+00,-1.203937721252441406e+01,-1.432474803924560547e+01,-8.098814964294433594e+00,-3.254030346870422363e-01,2.193728685379028320e+00,-5.123923778533935547e+00,-7.045022964477539062e+00,-5.249555110931396484e+00,-3.286271691322326660e-01,1.156840801239013672e+00,2.680530786514282227e+00,4.952491521835327148e-01,2.634695291519165039e+00,2.858851194381713867e+00,2.776578664779663086e+00,-1.757590532302856445e+00,-3.755946159362792969e-01,4.128341674804687500e+00,5.608325004577636719e+00,3.592016100883483887e-01,-2.188138484954833984e+00,-6.726808547973632812e-01,-4.215864658355712891e+00,-8.156738281250000000e+00,-7.511887550354003906e+00,-3.578844308853149414e+00,-2.084954738616943359e+00,-4.024746417999267578e+00,-9.996800422668457031e+00,-1.572405529022216797e+01
1.963166117668151855e+00,-1.587173366546630859e+01,-1.456547355651855469e+01,-1.130272102355957031e+01,-8.716479301452636719e+00,-5.380526542663574219e+00,-1.591637849807739258e+00,-4.623713493347167969e+00,-3.639820814132690430e+00,-1.375836014747619629e+00,1.617979884147644043e+00,3.587664604187011719e+00,5.105828762054443359e+00,2.553493499755859375e+00,1.407590270042419434e+00,4.059884071350097656e+00,3.417192935943603516e+00,5.282889008522033691e-01,2.667674303054809570e+00,4.893777370452880859e+00,3.583116292953491211e+00,3.069199323654174805e-01,3.136867284774780273e-01,-2.658496141433715820e+00,-6.647854804992675781e+00,-9.187671661376953125e+00,-8.454635620117187500e+00,-7.996663093566894531e+00,-9.333468437194824219e+00,-1.073265647888183594e+01,-1.374247741699218750e+01,-1.872273635864257812e+01
-9.493246078491210938e+00,-2.306838607788085938e+01,-2.013701057434082031e+01,-1.462028789520263672e+01,-1.430795192718505859e+01,-1.515223503112792969e+01,-1.211534786224365234e+01,-1.256016445159912109e+01,-1.375848770141601562e+01,-1.198740768432617188e+01,-1.120050144195556641e+01,-9.674619674682617188e+00,-1.024672985076904297e+01,-7.199436664581298828e+00,-8.334163665771484375e+00,-7.381142139434814453e+00,-8.567357063293457031e+00,-4.947907924652099609e+00,-5.092869758605957031e+00,-9.267356872558593750e+00,-1.243473529815673828e+01,-1.223470878601074219e+01,-1.384922790527343750e+01,-1.634548568725585938e+01,-1.483528804779052734e+01,-1.510708141326904297e+01,-1.840523147583007812e+01,-2.096534919738769531e+01,-2.039709091186523438e+01,-1.832344436645507812e+01,-1.963191795349121094e+01,-2.666331863403320312e+01
-1.920065116882324219e+01,-1.800146484375000000e+01,-1.384927368164062500e+01,-1.187451362609863281e+01,-1.398335933685302734e+01,-1.761961746215820312e+01,-1.558027458190917969e+01,-1.396886539459228516e+01,-1.400288009643554688e+01,-1.332158946990966797e+01,-1.570310878753662109e+01,-1.665830421447753906e+01,-1.781870460510253906e+01,-1.264754009246826172e+01,-9.843906402587890625e+00,-1.155063438415527344e+01,-1.598121833801269531e+01,-1.525227737426757812e+01,-1.242902755737304688e+01,-1.356401252746582031e+01,-1.643609619140625000e+01,-2.005241775512695312e+01,-2.026031684875488281e+01,-1.777541542053222656e+01,-1.346336936950683594e+01,-1.217898750305175781e+01,-1.538408946990966797e+01,-2.301924133300781250e+01,-2.022354316711425781e+01,-1.332447433471679688e+01,-8.684132575988769531e+00,-1.450886440277099609e+01
-1.280539703369140625e+01,-5.419327259063720703e+00,-4.217090606689453125e-01,3.404009938240051270e-01,-3.986907005310058594e+00,-8.816159248352050781e+00,-6.124249935150146484e+00,-8.304374217987060547e-01,3.907188892364501953e+00,1.412055850028991699e+00,-9.586473107337951660e-01,-2.897337913513183594e+00,-3.344876289367675781e+00,-3.682827949523925781e+00,-2.939591646194458008e+00,-2.977049350738525391e+00,-5.153109550476074219e+00,-1.069544506072998047e+01,-7.112703323364257812e+00,-6.565033912658691406e+00,-7.787168502807617188e+00,-1.051445007324218750e+01,-6.223071575164794922e+00,-4.843011379241943359e+00,-3.245019435882568359e+00,8.047498464584350586e-01,1.628761053085327148e+00,-7.541182041168212891e+00,-6.929582118988037109e+00,-3.315416574478149414e-01,6.389932632446289062e+00,4.804606914520263672e+00
1.594690918922424316e+00,2.133049726486206055e+00,8.190557360649108887e-02,-5.334450602531433105e-01,6.242178678512573242e-01,1.037517189979553223e+00,3.452496051788330078e+00,4.906781673431396484e+00,6.890611648559570312e+00,8.823742866516113281e+00,9.266396522521972656e+00,8.282514572143554688e+00,5.779125213623046875e+00,2.579905986785888672e+00,1.425872325897216797e+00,3.260533571243286133e+00,7.806865215301513672e+00,5.786200523376464844e+00,3.713679075241088867e+00,-2.669227123260498047e+00,-2.774180650711059570e+00,1.335322737693786621e+00,3.993849277496337891e+00,3.000548124313354492e+00,1.733415842056274414e+00,4.914552211761474609e+00,7.143529415130615234e+00,5.918735027313232422e+00,5.315740585327148438e+00,4.608428478240966797e+00,2.591492891311645508e+00,-3.758309125900268555e+00
-4.611300945281982422e+00,-5.243940830230712891e+00,-8.948566436767578125e+00,-1.068692684173583984e+01,-6.481234550476074219e+00,-2.034916639328002930e+00,-9.240739345550537109e-01,-4.554455280303955078e+00,-6.184029579162597656e+00,-3.563543558120727539e-01,1.487144351005554199e+00,6.151769757270812988e-01,-2.628829002380371094e+00,-3.572241544723510742e+00,7.064009904861450195e-01,8.839334845542907715e-01,4.417050838470458984e+00,3.834657669067382812e+00,3.363943576812744141e+00,-4.051907062530517578e+00,-4.535442352294921875e+00,-2.825728893280029297e+00,-3.507811546325683594e+00,-2.882422447204589844e+00,-5.153906345367431641e+00,-5.680352210998535156e+00,-2.285426139831542969e+00,1.630792737007141113e+00,3.627822399139404297e-01,-4.475152015686035156e+00,-8.397863388061523438e+00,-1.890874099731445312e+01
-1.878530120849609375e+01,-2.225333023071289062e+01,-1.858128166198730469e+01,-1.650921440124511719e+01,-1.466742992401123047e+01,-1.426196765899658203e+01,-1.177579402923583984e+01,-1.050560855865478516e+01,-9.901404380798339844e+00,-7.226305484771728516e+00,-9.348140716552734375e+00,-1.180674171447753906e+01,-1.056735992431640625e+01,-7.260780811309814453e+00,-4.296575069427490234e+00,-6.744640350341796875e+00,-9.377907752990722656e+00,-1.250477600097656250e+01,-7.452310085296630859e+00,-7.953958511352539062e+00,-8.466759681701660156e+00,-1.215196704864501953e+01,-1.139118766784667969e+01,-1.351006221771240234e+01,-1.687844657897949219e+01,-1.815170288085937500e+01,-1.246098613739013672e+01,-9.612006187438964844e+00,-1.242811489105224609e+01,-1.899515724182128906e+01,-1.902001953125000000e+01,-2.259981346130371094e+01
-9.629271507263183594e+00,-1.817041778564453125e+01,-1.669031333923339844e+01,-1.354081058502197266e+01,-9.805241584777832031e+00,-1.127215290069580078e+01,-8.595640182495117188e+00,-5.239248752593994141e+00,-4.140987396240234375e+00,-1.062468767166137695e+00,-4.651614665985107422e+00,-7.947230339050292969e+00,-5.140826702117919922e+00,9.957141280174255371e-01,-4.805096626281738281e+00,-8.851609230041503906e+00,-1.293582344055175781e+01,-1.123040771484375000e+01,-8.653026580810546875e+00,-5.886667251586914062e+00,-6.251336574554443359e+00,-6.850402355194091797e+00,-5.272920608520507812e+00,-1.129025840759277344e+01,-1.598440742492675781e+01,-1.587085819244384766e+01,-1.017075920104980469e+01,-7.306910991668701172e+00,-8.486591339111328125e+00,-1.424401855468750000e+01,-1.545669078826904297e+01,-1.815983009338378906e+01
3.788770914077758789e+00,-4.664352893829345703e+00,-1.209234714508056641e+01,-1.102058029174804688e+01,-3.466473221778869629e-01,3.250287771224975586e+00,2.257597446441650391e+00,-1.616039425134658813e-01,-1.484180808067321777e+00,2.979421377182006836e+00,3.974852085113525391e+00,3.013977050781250000e+00,2.533738136291503906e+00,4.864076137542724609e+00,9.084960222244262695e-01,-6.160720586776733398e-01,-1.691395998001098633e+00,1.930255889892578125e+00,6.522482037544250488e-01,9.431402683258056641e-01,4.506906569004058838e-01,2.344525814056396484e+00,2.287806034088134766e+00,-9.751340746879577637e-02,-5.404829502105712891e+00,-7.493349552154541016e+00,-3.838761329650878906e+00,5.748829841613769531e-01,1.043043375015258789e+00,-2.981376886367797852e+00,-7.244054317474365234e+00,-1.945766067504882812e+01
-2.228192329406738281e+00,-8.988634109497070312e+00,-1.381808567047119141e+01,-1.191800594329833984e+01,-4.194693088531494141e+00,-1.707552224397659302e-01,-2.458309173583984375e+00,-3.763541936874389648e+00,-6.210186958312988281e+00,-5.246201515197753906e+00,-4.415973186492919922e+00,-2.720891475677490234e+00,-2.259561538696289062e+00,-3.350211143493652344e+00,1.781738363206386566e-02,8.297750949859619141e-01,2.034242153167724609e+00,1.591763019561767578e+00,1.346956610679626465e+00,-1.683966994285583496e+00,-2.201355695724487305e+00,-2.526102304458618164e+00,-3.170526266098022461e+00,-1.265160679817199707e+00,-3.687666177749633789e+00,-8.525008201599121094e+00,-8.485304832458496094e+00,-4.587892532348632812e+00,-4.873636722564697266e+00,-1.030071067810058594e+01,-1.341164016723632812e+01,-2.100121116638183594e+01
-7.981071472167968750e+00,-2.916282653808593750e+00,-2.447727680206298828e+00,-2.447698831558227539e+00,-6.420801162719726562e+00,-7.815366744995117188e+00,-9.695026397705078125e+00,-6.488310337066650391e+00,-7.649190902709960938e+00,-1.064652156829833984e+01,-1.295325279235839844e+01,-1.381357860565185547e+01,-1.047125625610351562e+01,-9.344236373901367188e+00,-7.774655818939208984e+00,-9.265143394470214844e+00,-8.918005943298339844e+00,-7.868098735809326172e+00,-7.543243408203125000e+00,-7.420025825500488281e+00,-7.699783325195312500e+00,-9.304004669189453125e+00,-9.748416900634765625e+00,-6.460853099822998047e+00,-3.220813512802124023e+00,-5.153126716613769531e+00,-6.699987888336181641e+00,-7.187327384948730469e+00,-7.152660369873046875e+00,-9.032416343688964844e+00,-8.912621498107910156e+00,-3.331999480724334717e-01
-8.277788013219833374e-02,2.316141510009765625e+01,2.324977111816406250e+01,1.981311035156250000e+01,1.135595417022705078e+01,6.964527130126953125e+00,2.698739290237426758e+00,5.459409713745117188e+00,5.210206031799316406e+00,7.496390342712402344e-01,-2.913106441497802734e+00,-7.640601158142089844e+00,-6.991148948669433594e+00,-4.777245044708251953e+00,-7.489340305328369141e+00,-1.038407325744628906e+01,-1.397465133666992188e+01,-1.021196079254150391e+01,-8.295950889587402344e+00,-7.454293966293334961e-01,-1.275332331657409668e+00,-3.384451150894165039e+00,-3.749416828155517578e+00,2.720818042755126953e+00,9.522834777832031250e+00,1.368509006500244141e+01,1.098861980438232422e+01,4.509674072265625000e+00,5.843893527984619141e+00,1.595041656494140625e+01,2.210101699829101562e+01,2.636059570312500000e+01
-4.865734577178955078e+00,2.888115644454956055e+00,4.577170848846435547e+00,4.458585739135742188e+00,3.786475419998168945e+00,5.105534195899963379e-01,-5.221474543213844299e-02,5.695546627044677734e+00,7.985472202301025391e+00,6.292055130004882812e+00,-1.033399343490600586e+00,-6.079767704010009766e+00,-7.434494495391845703e+00,-4.209344387054443359e+00,-4.318196296691894531e+00,-4.686985969543457031e+00,-9.747201919555664062e+00,-8.837265014648437500e+00,-5.384492397308349609e+00,-5.624038353562355042e-02,-3.504307270050048828e+00,-8.498613357543945312e+00,-9.001385688781738281e+00,-3.460174322128295898e+00,4.050459384918212891e+00,6.656333446502685547e+00,8.185116648674011230e-01,-6.159908771514892578e+00,-4.937997817993164062e+00,2.981511354446411133e+00,7.115824222564697266e+00,8.528251647949218750e+00
-1.490411186218261719e+01,-1.237382411956787109e+01,-5.223054409027099609e+00,-4.212445735931396484e+00,-7.665453910827636719e+00,-1.389416122436523438e+01,-1.196450424194335938e+01,-4.879417896270751953e+00,-2.290237426757812500e+00,-1.549098610877990723e+00,-9.260512351989746094e+00,-1.353715896606445312e+01,-1.400098514556884766e+01,-9.060080528259277344e+00,-8.777544975280761719e+00,-9.039721488952636719e+00,-1.153367042541503906e+01,-1.003344154357910156e+01,-8.436563491821289062e+00,-8.554190635681152344e+00,-1.373324680328369141e+01,-1.935503959655761719e+01,-1.978920173645019531e+01,-1.656099128723144531e+01,-9.727778434753417969e+00,-1.014042472839355469e+01,-1.457757854461669922e+01,-1.750033569335937500e+01,-1.500749111175537109e+01,-1.304422855377197266e+01,-1.201390838623046875e+01,3.211492061614990234e+00
-1.528542804718017578e+01,-3.263046741485595703e+00,4.720623493194580078e+00,5.109831809997558594e+00,-9.559201002120971680e-01,-8.244351387023925781e+00,-9.516450881958007812e+00,-2.654579401016235352e+00,-3.370051980018615723e-01,5.404945090413093567e-02,-9.232874870300292969e+00,-1.259035015106201172e+01,-1.249721145629882812e+01,-9.392016410827636719e+00,-1.193013191223144531e+01,-1.439800071716308594e+01,-1.462494373321533203e+01,-1.267692279815673828e+01,-1.137860488891601562e+01,-1.070145988464355469e+01,-1.231923484802246094e+01,-1.641072654724121094e+01,-1.594208431243896484e+01,-1.333863830566406250e+01,-8.673997879028320312e+00,-5.667638778686523438e+00,-6.464245796203613281e+00,-1.055414676666259766e+01,-8.001237869262695312e+00,-1.730069994926452637e+00,3.874058723449707031e+00,1.033141136169433594e+01
8.279654383659362793e-01,8.884860992431640625e+00,1.397556400299072266e+01,1.564094161987304688e+01,1.506917095184326172e+01,7.895769119262695312e+00,4.811574459075927734e+00,1.353937625885009766e+01,1.589756107330322266e+01,1.204084587097167969e+01,-2.831285297870635986e-01,5.230818875133991241e-03,6.709071993827819824e-01,4.446264728903770447e-02,-1.133478283882141113e+00,-1.692180991172790527e+00,-4.091663956642150879e-01,-1.373473763465881348e+00,-1.067889928817749023e+00,9.771515727043151855e-01,4.463958263397216797e+00,4.040966033935546875e+00,3.449350118637084961e+00,7.121703147888183594e+00,9.849489212036132812e+00,1.268541717529296875e+01,1.103505802154541016e+01,8.390563964843750000e+00,8.940409660339355469e+00,1.283964443206787109e+01,1.688010978698730469e+01,1.468640136718750000e+01
1.533781051635742188e+01,2.481441307067871094e+01,2.421042823791503906e+01,2.268171882629394531e+01,2.165115547180175781e+01,1.502318954467773438e+01,1.107954978942871094e+01,1.290358352661132812e+01,1.379546737670898438e+01,8.259203910827636719e+00,4.894449710845947266e+00,6.974054813385009766e+00,8.502514839172363281e+00,7.981987953186035156e+00,1.048166370391845703e+01,1.168835639953613281e+01,1.245554256439208984e+01,1.296374034881591797e+01,1.175180721282958984e+01,1.427827835083007812e+01,1.830872917175292969e+01,2.140276908874511719e+01,1.807576370239257812e+01,1.995713996887207031e+01,2.056640434265136719e+01,2.110861587524414062e+01,1.990948486328125000e+01,2.184730911254882812e+01,2.147651100158691406e+01,2.308470153808593750e+01,2.539385986328125000e+01,2.663526153564453125e+01
6.419154167175292969e+00,1.288939571380615234e+01,1.185487079620361328e+01,9.725532531738281250e+00,6.271734714508056641e+00,6.468894958496093750e+00,3.681088209152221680e+00,-3.723023653030395508e+00,-5.791885852813720703e+00,-5.708871841430664062e+00,1.595644831657409668e+00,5.800792217254638672e+00,7.380543231964111328e+00,7.320078372955322266e+00,1.036007881164550781e+01,1.163898658752441406e+01,1.294298362731933594e+01,1.446673488616943359e+01,1.416218280792236328e+01,1.328324699401855469e+01,1.409634304046630859e+01,1.633756637573242188e+01,1.485236930847167969e+01,1.074062919616699219e+01,8.986149787902832031e+00,7.104168891906738281e+00,9.700569152832031250e+00,1.285658359527587891e+01,1.273614978790283203e+01,8.687754631042480469e+00,9.330000877380371094e+00,2.051342010498046875e+01
-1.338017702102661133e+00,-8.901845812797546387e-01,-1.125913858413696289e+00,-1.279906630516052246e+00,-4.411581039428710938e+00,9.747427701950073242e-01,1.171626687049865723e+00,-3.028647184371948242e+00,-4.123815059661865234e+00,-2.436418771743774414e+00,2.238762140274047852e+00,6.458013534545898438e+00,8.005248069763183594e+00,5.963999271392822266e+00,6.278979778289794922e+00,7.485883712768554688e+00,1.139211273193359375e+01,1.073086929321289062e+01,1.068098545074462891e+01,6.046829223632812500e+00,6.778107166290283203e+00,9.250943183898925781e+00,1.236723613739013672e+01,5.165762901306152344e+00,1.862230777740478516e+00,-7.575424313545227051e-01,3.369025230407714844e+00,5.611815452575683594e+00,3.147092103958129883e+00,-2.364139556884765625e+00,-1.738948583602905273e+00,8.466927528381347656e+00
1.270041179656982422e+01,-1.825303316116333008e+00,-9.418113708496093750e+00,-1.020421218872070312e+01,-5.338027000427246094e+00,2.377264499664306641e+00,6.089053153991699219e+00,3.440145015716552734e+00,6.034452438354492188e+00,6.906797409057617188e+00,1.121683883666992188e+01,1.234413051605224609e+01,1.037487888336181641e+01,6.834344863891601562e+00,4.672237396240234375e+00,7.877140522003173828e+00,1.212118148803710938e+01,1.164125251770019531e+01,7.073673248291015625e+00,7.128153800964355469e+00,1.111327266693115234e+01,1.549501991271972656e+01,1.628294372558593750e+01,9.622067451477050781e+00,5.182537078857421875e+00,1.946373581886291504e+00,4.463316917419433594e+00,7.187277793884277344e+00,1.901544451713562012e+00,-3.669392108917236328e+00,-7.941409111022949219e+00,-1.713415908813476562e+01
2.763829231262207031e+01,2.607972526550292969e+01,2.300530242919921875e+01,1.891429328918457031e+01,1.666257858276367188e+01,1.788672828674316406e+01,1.878260040283203125e+01,1.124452018737792969e+01,8.563035011291503906e+00,8.398828506469726562e+00,2.099694252014160156e+01,2.562153244018554688e+01,1.925804328918457031e+01,9.161869049072265625e+00,3.691842079162597656e+00,1.335850334167480469e+01,1.874407577514648438e+01,1.767882919311523438e+01,7.343282222747802734e+00,1.219684314727783203e+01,1.759283447265625000e+01,2.606735038757324219e+01,2.417566490173339844e+01,2.042530059814453125e+01,1.449424266815185547e+01,1.741441917419433594e+01,1.807157707214355469e+01,2.329298400878906250e+01,2.232646369934082031e+01,2.240339088439941406e+01,1.979308319091796875e+01,1.843311119079589844e+01
2.054134941101074219e+01,2.640700340270996094e+01,2.793321990966796875e+01,2.430167579650878906e+01,1.878586769104003906e+01,1.915281105041503906e+01,1.733444023132324219e+01,1.038451957702636719e+01,5.058417797088623047e+00,4.051510334014892578e+00,1.513367748260498047e+01,2.231144332885742188e+01,1.943529891967773438e+01,8.063362121582031250e+00,1.742895007133483887e+00,1.034059047698974609e+01,1.657678222656250000e+01,1.506268501281738281e+01,7.072122097015380859e+00,8.657402038574218750e+00,1.069066238403320312e+01,1.859272956848144531e+01,1.808432579040527344e+01,1.708526992797851562e+01,1.394509601593017578e+01,1.823184013366699219e+01,1.520008182525634766e+01,1.964227676391601562e+01,2.178854942321777344e+01,2.272503280639648438e+01,2.288062667846679688e+01,3.127191925048828125e+01
1.357418251037597656e+01,1.922628021240234375e+01,1.767358589172363281e+01,1.597262382507324219e+01,1.439257621765136719e+01,1.422598934173583984e+01,1.257296276092529297e+01,7.972161769866943359e+00,4.136955738067626953e+00,1.984823346138000488e+00,8.902080535888671875e+00,1.261684608459472656e+01,1.305635356903076172e+01,4.562910556793212891e+00,-2.517337560653686523e+00,3.401773929595947266e+00,9.037908554077148438e+00,7.544876098632812500e+00,4.537579417228698730e-01,1.602344274520874023e+00,4.550273895263671875e+00,1.098561573028564453e+01,1.022795200347900391e+01,1.080877017974853516e+01,1.135930728912353516e+01,1.341053485870361328e+01,8.952398300170898438e+00,1.039854049682617188e+01,1.167445468902587891e+01,1.458842849731445312e+01,1.816759872436523438e+01,2.225909233093261719e+01
6.506873130798339844e+00,8.571969985961914062e+00,1.059934329986572266e+01,1.080723381042480469e+01,8.288756370544433594e+00,5.370890617370605469e+00,5.412802219390869141e+00,2.520551919937133789e+00,-6.904921531677246094e-01,-1.856663227081298828e+00,4.837406158447265625e+00,5.880908012390136719e+00,4.564297199249267578e+00,7.462086081504821777e-01,-5.005996704101562500e+00,-1.950856208801269531e+00,-8.530638217926025391e-01,-1.612015008926391602e+00,-6.479279518127441406e+00,-1.749279975891113281e+00,2.028647184371948242e+00,6.192355632781982422e+00,5.785390853881835938e+00,7.090627193450927734e+00,8.538490295410156250e+00,1.084207916259765625e+01,7.437040805816650391e+00,6.188288688659667969e+00,6.891891479492187500e+00,1.055037975311279297e+01,1.407176685333251953e+01,1.952358055114746094e+01
-2.153700828552246094e+00,1.215170741081237793e+00,3.621965885162353516e+00,2.218037843704223633e+00,-2.967980146408081055e+00,-3.380609512329101562e+00,-4.806418895721435547e+00,-6.151209831237792969e+00,-6.943324089050292969e+00,-6.059500217437744141e+00,-1.938038468360900879e+00,-8.002592921257019043e-01,-1.523058652877807617e+00,-5.005425214767456055e-01,-2.099786281585693359e+00,-3.630171060562133789e+00,-3.848045349121093750e+00,-1.455009102821350098e+00,-3.210658431053161621e-01,-1.070569679141044617e-01,-8.804208040237426758e-01,-8.082523345947265625e-01,6.724538207054138184e-01,6.772335767745971680e-01,2.370170116424560547e+00,4.308412551879882812e+00,1.310965418815612793e+00,-2.584015846252441406e+00,-1.548001289367675781e+00,-2.300870180130004883e+00,-2.273537397384643555e+00,1.079127979278564453e+01
2.533882141113281250e+00,8.024393081665039062e+00,2.409240961074829102e+00,-1.352919489145278931e-01,-4.899994730949401855e-01,1.041958570480346680e+00,-2.280181169509887695e+00,-3.206664800643920898e+00,-2.967959165573120117e+00,-3.024350404739379883e+00,-9.558047056198120117e-01,6.470691561698913574e-01,1.895164966583251953e+00,1.198897242546081543e+00,3.957147896289825439e-01,1.235975027084350586e+00,5.635512351989746094e+00,9.664730072021484375e+00,1.002777290344238281e+01,7.271911144256591797e+00,7.120634078979492188e+00,6.855939865112304688e+00,7.184071063995361328e+00,2.775587558746337891e+00,2.166139602661132812e+00,1.820803642272949219e+00,3.022905349731445312e+00,6.092121601104736328e-01,1.446498751640319824e+00,-2.300140380859375000e+00,-5.440648555755615234e+00,4.285898685455322266e+00
2.753284931182861328e+00,6.188282012939453125e+00,2.962500810623168945e+00,2.841397762298583984e+00,5.972363471984863281e+00,4.555742263793945312e+00,4.265318870544433594e+00,5.004294395446777344e+00,5.257173538208007812e+00,2.968013525009155273e+00,1.653588891029357910e+00,2.762444496154785156e+00,1.814360499382019043e+00,-3.420048952102661133e-01,-1.561872005462646484e+00,4.136979103088378906e+00,7.872121810913085938e+00,9.689659118652343750e+00,7.265852928161621094e+00,1.005484008789062500e+01,1.319333553314208984e+01,1.430361080169677734e+01,1.271979904174804688e+01,8.039011955261230469e+00,4.944715023040771484e+00,2.084443092346191406e+00,6.884458541870117188e+00,9.432378768920898438e+00,7.828951358795166016e+00,5.677418708801269531e+00,5.133216381072998047e+00,4.718904972076416016e+00
-7.066818237304687500e+00,-2.349365711212158203e+00,3.306712627410888672e+00,4.316912174224853516e+00,2.523045063018798828e+00,-1.078133463859558105e+00,7.505607604980468750e-01,5.178633213043212891e+00,7.959542751312255859e+00,6.061215400695800781e+00,-1.751582145690917969e+00,-2.704829216003417969e+00,-3.135662317276000977e+00,-9.895212948322296143e-02,3.742376565933227539e-01,1.283174991607666016e+00,-3.857207000255584717e-01,-8.455517292022705078e-01,3.576784133911132812e-01,1.883242249488830566e+00,2.371137619018554688e+00,2.230152845382690430e+00,1.922084093093872070e+00,1.847080945968627930e+00,2.022388696670532227e+00,4.792189896106719971e-01,2.774093389511108398e+00,6.222811698913574219e+00,3.676094293594360352e+00,4.459115505218505859e+00,8.240918159484863281e+00,1.178759217262268066e+00
-4.381474018096923828e+00,-7.164741992950439453e+00,-6.594949722290039062e+00,-6.255685806274414062e+00,-7.330313205718994141e+00,-6.589833259582519531e+00,-6.363238334655761719e+00,-2.465267896652221680e+00,2.492954015731811523e+00,4.742654800415039062e+00,-1.750609755516052246e+00,-5.480742931365966797e+00,-3.905498504638671875e+00,1.928613662719726562e+00,4.215449333190917969e+00,-9.528610706329345703e-01,-3.661661386489868164e+00,-4.680021762847900391e+00,-8.726546913385391235e-02,-2.310789346694946289e+00,-4.565695285797119141e+00,-8.770996093750000000e+00,-9.273574829101562500e+00,-6.798697471618652344e+00,-3.144938707351684570e+00,-1.865616440773010254e+00,-3.365044355392456055e+00,-5.527770042419433594e+00,-7.314625263214111328e+00,-6.104992866516113281e+00,-4.605956077575683594e+00,-1.157290744781494141e+01
-3.295199632644653320e+00,-1.199871730804443359e+01,-1.375606727600097656e+01,-1.117649555206298828e+01,-8.270136833190917969e+00,-5.885593891143798828e+00,-5.312616348266601562e+00,-3.572812795639038086e+00,-1.247123718261718750e+00,9.596750736236572266e-01,-1.819176197052001953e+00,-3.915598154067993164e+00,-2.154101610183715820e+00,5.933291912078857422e-01,8.818956613540649414e-01,-1.380061388015747070e+00,-7.303010225296020508e-01,-3.394870758056640625e+00,-1.790877938270568848e+00,-2.746112823486328125e+00,-3.609265327453613281e+00,-8.377628326416015625e+00,-8.979062080383300781e+00,-9.348002433776855469e+00,-8.428287506103515625e+00,-8.286592483520507812e+00,-7.479091644287109375e+00,-9.525537490844726562e+00,-9.988382339477539062e+00,-1.215489768981933594e+01,-1.614444351196289062e+01,-1.586207008361816406e+01
-1.319170951843261719e+01,-1.984610748291015625e+01,-1.399366760253906250e+01,-1.023494911193847656e+01,-8.616142272949218750e+00,-9.407779693603515625e+00,-5.997891426086425781e+00,-2.119251966476440430e+00,-1.992560744285583496e+00,-3.490570306777954102e+00,-8.144247055053710938e+00,-8.132089614868164062e+00,-6.231826305389404297e+00,-2.093892335891723633e+00,-1.808067560195922852e+00,-3.965763807296752930e+00,-3.512821435928344727e+00,-4.132153987884521484e+00,-1.860764384269714355e+00,-3.094465970993041992e+00,-6.706192016601562500e+00,-1.193931198120117188e+01,-1.136664009094238281e+01,-8.959671020507812500e+00,-8.488766670227050781e+00,-1.177029037475585938e+01,-1.122878456115722656e+01,-1.230074977874755859e+01,-1.345138645172119141e+01,-1.397268295288085938e+01,-1.216580963134765625e+01,-1.173501110076904297e+01
-4.977219581604003906e+00,-8.746081352233886719e+00,-6.065574169158935547e+00,-6.631146430969238281e+00,-9.240862846374511719e+00,-7.491237163543701172e+00,-5.640954494476318359e+00,-3.630110740661621094e+00,-3.397655487060546875e+00,-3.594526290893554688e+00,-7.109588623046875000e+00,-1.052850151062011719e+01,-8.277717590332031250e+00,-8.329198360443115234e-01,3.292336702346801758e+00,-3.890528440475463867e+00,-5.754419803619384766e+00,-4.176003932952880859e+00,1.867368102073669434e+00,-7.285746335983276367e-01,-5.727640151977539062e+00,-1.268039703369140625e+01,-1.333587646484375000e+01,-9.414345741271972656e+00,-6.807097434997558594e+00,-8.814792633056640625e+00,-1.122825813293457031e+01,-1.421381855010986328e+01,-1.494725799560546875e+01,-8.879956245422363281e+00,-3.239799976348876953e+00,-1.097142028808593750e+01
9.270369529724121094e+00,-8.456920623779296875e+00,-1.625664520263671875e+01,-1.508682727813720703e+01,-7.898052692413330078e+00,-6.084021329879760742e-01,-2.029766321182250977e+00,-6.600930213928222656e+00,-6.213680267333984375e+00,-1.409012556076049805e+00,-4.859546720981597900e-01,-4.615707397460937500e+00,-1.616006493568420410e+00,2.717087984085083008e+00,6.118498325347900391e+00,3.343594372272491455e-01,8.515257835388183594e-01,-3.290109038352966309e-01,2.591668128967285156e+00,4.405700266361236572e-01,4.375721514225006104e-01,-3.524171829223632812e+00,-5.396903991699218750e+00,-1.190359115600585938e+01,-1.330346679687500000e+01,-1.461845207214355469e+01,-1.216082096099853516e+01,-9.953174591064453125e+00,-5.993115425109863281e+00,-7.616518497467041016e+00,-1.750336647033691406e+01,-2.784235191345214844e+01
1.026788520812988281e+01,-8.917952537536621094e+00,-1.332525920867919922e+01,-1.069591140747070312e+01,-2.303510189056396484e+00,3.197902917861938477e+00,1.937059164047241211e+00,-2.356853485107421875e+00,-1.115859508514404297e+00,5.731238722801208496e-01,1.321878194808959961e+00,1.984953641891479492e+00,3.666548013687133789e+00,4.378854274749755859e+00,5.498234748840332031e+00,5.930616378784179688e+00,1.091257667541503906e+01,8.901257514953613281e+00,7.538710594177246094e+00,3.494103908538818359e+00,3.388588905334472656e+00,1.107683777809143066e+00,1.758638143539428711e+00,-5.112796783447265625e+00,-9.568140983581542969e+00,-1.420635128021240234e+01,-1.051798248291015625e+01,-5.462241649627685547e+00,-9.738071560859680176e-01,-8.935600280761718750e+00,-2.044087219238281250e+01,-1.983987617492675781e+01
9.739384651184082031e+00,-1.719243764877319336e+00,1.206529378890991211e+00,5.311402678489685059e-01,-1.059356808662414551e+00,2.962805509567260742e+00,5.141248226165771484e+00,5.618236064910888672e+00,7.626483440399169922e+00,5.163418769836425781e+00,2.292343616485595703e+00,5.787953376770019531e+00,7.011783123016357422e+00,8.045246124267578125e+00,1.050534152984619141e+01,1.170563220977783203e+01,1.433498573303222656e+01,1.402652168273925781e+01,1.572939014434814453e+01,1.148206615447998047e+01,8.024653434753417969e+00,3.389245033264160156e+00,3.993160247802734375e+00,2.650893688201904297e+00,8.528630733489990234e-01,-4.018537998199462891e+00,-4.051273822784423828e+00,-2.689979076385498047e+00,-4.106030941009521484e+00,-5.037360191345214844e+00,-2.646819829940795898e+00,1.136840581893920898e+00
1.073448562622070312e+01,-2.639214515686035156e+00,1.470339417457580566e+00,1.773080468177795410e+00,-3.754970312118530273e+00,1.165885448455810547e+00,4.551826000213623047e+00,5.946808815002441406e+00,8.181409835815429688e+00,8.389826774597167969e+00,5.000839710235595703e+00,4.784613609313964844e+00,5.171225070953369141e+00,8.736976623535156250e+00,9.401203155517578125e+00,6.931540012359619141e+00,1.698603510856628418e+00,3.209107637405395508e+00,7.569640636444091797e+00,1.209021282196044922e+01,1.022760677337646484e+01,4.979651927947998047e+00,2.331208467483520508e+00,1.290611028671264648e+00,3.601580381393432617e+00,2.095108032226562500e+00,1.360873103141784668e+00,-1.103815436363220215e+00,-6.385548591613769531e+00,-2.427100896835327148e+00,4.313787460327148438e+00,6.519777774810791016e+00
2.954107761383056641e+00,-5.755443572998046875e+00,-4.640264987945556641e+00,-2.773109674453735352e+00,-2.504203557968139648e+00,-2.080595254898071289e+00,-1.558056592941284180e+00,1.588298939168453217e-02,2.512589454650878906e+00,3.591133356094360352e+00,6.057320833206176758e-01,-3.429275989532470703e+00,-6.272921562194824219e+00,-3.593867421150207520e-01,-3.141177415847778320e+00,-6.394000053405761719e+00,-1.343150424957275391e+01,-1.188764667510986328e+01,-7.780768394470214844e+00,2.342308998107910156e+00,2.740762829780578613e-01,-6.607040405273437500e+00,-6.200082302093505859e+00,-6.238707304000854492e-01,3.959774255752563477e+00,2.279439449310302734e+00,-1.676987171173095703e+00,-5.869509220123291016e+00,-8.195113182067871094e+00,-3.559697866439819336e+00,2.864372432231903076e-01,-4.952924728393554688e+00
-9.730007171630859375e+00,-3.624638080596923828e+00,-3.064038038253784180e+00,-5.184725761413574219e+00,-7.544203281402587891e+00,-8.526433944702148438e+00,-9.333332061767578125e+00,-6.164893150329589844e+00,-4.430170059204101562e+00,-4.770782947540283203e+00,-8.449037551879882812e+00,-1.126896858215332031e+01,-1.460760593414306641e+01,-9.988275527954101562e+00,-8.721506118774414062e+00,-1.084333133697509766e+01,-1.337192535400390625e+01,-1.383734893798828125e+01,-6.968058586120605469e+00,-3.023807764053344727e+00,-7.972070217132568359e+00,-1.700977516174316406e+01,-1.419261074066162109e+01,-5.692370891571044922e+00,6.015810966491699219e-01,1.027290463447570801e+00,-5.339086532592773438e+00,-1.106596755981445312e+01,-1.023585700988769531e+01,-2.011219263076782227e+00,2.805374145507812500e+00,-1.257296562194824219e+01
-8.524021148681640625e+00,-6.810210943222045898e-01,-2.037656605243682861e-01,-2.172036647796630859e+00,-4.026489734649658203e+00,-4.479938030242919922e+00,-5.122587203979492188e+00,-2.468370437622070312e+00,-2.812230110168457031e+00,-3.073016643524169922e+00,-5.092759132385253906e+00,-6.051335334777832031e+00,-7.711854457855224609e+00,-7.001618862152099609e+00,-2.680134773254394531e+00,-3.917486190795898438e+00,-3.734429359436035156e+00,-5.647276878356933594e+00,2.278508901596069336e+00,1.658437728881835938e+00,-1.001709342002868652e+00,-7.111526966094970703e+00,-6.940115451812744141e+00,-5.575196266174316406e+00,-1.413716673851013184e+00,3.865566968917846680e+00,2.489069700241088867e+00,-2.672584056854248047e+00,-2.948722839355468750e+00,8.793958425521850586e-01,3.122691631317138672e+00,-2.966826915740966797e+00
8.543740510940551758e-01,7.648124098777770996e-01,-1.702594041824340820e+00,-1.316419720649719238e+00,3.472356796264648438e+00,2.938377857208251953e+00,3.294783115386962891e+00,1.714032888412475586e+00,-8.618310689926147461e-01,-6.737996637821197510e-02,3.339869260787963867e+00,3.686242580413818359e+00,1.352041125297546387e+00,-1.772055327892303467e-01,6.700792908668518066e-02,2.421963930130004883e+00,2.081529617309570312e+00,1.680607795715332031e+00,3.538257837295532227e+00,4.121638774871826172e+00,4.648167610168457031e+00,4.977409362792968750e+00,5.014311790466308594e+00,1.799020171165466309e+00,4.819166064262390137e-01,3.218594074249267578e+00,6.861917972564697266e+00,4.641585350036621094e+00,3.471176147460937500e+00,-2.353261411190032959e-01,8.383321017026901245e-02,6.648213386535644531e+00
-2.857409954071044922e+00,1.829045891761779785e+00,-3.365298986434936523e+00,-5.087709903717041016e+00,-1.286220431327819824e+00,-1.338364005088806152e+00,-3.976704776287078857e-01,-2.806911706924438477e+00,-5.833846092224121094e+00,-6.874196052551269531e+00,-1.929205536842346191e+00,-6.938164830207824707e-01,-3.333438158035278320e+00,-5.478390693664550781e+00,-6.249393939971923828e+00,-1.836105465888977051e+00,-4.764727652072906494e-01,7.574992775917053223e-01,-1.944365739822387695e+00,-7.453708052635192871e-01,1.287845611572265625e+00,3.548962116241455078e+00,3.690957307815551758e+00,1.311916947364807129e+00,-9.565690755844116211e-01,-2.262457609176635742e+00,-9.040579795837402344e-01,-6.432378888130187988e-01,-1.379292607307434082e-01,-1.111456394195556641e+00,-1.380026787519454956e-01,-1.262248754501342773e+00
-1.738440513610839844e+01,-6.993736028671264648e-01,-1.992890954017639160e+00,-3.704687595367431641e+00,-3.594048500061035156e+00,-7.429594516754150391e+00,-8.913646697998046875e+00,-5.911933422088623047e+00,-5.767313480377197266e+00,-9.385312080383300781e+00,-1.254284858703613281e+01,-1.568875503540039062e+01,-1.526243209838867188e+01,-1.343713951110839844e+01,-9.770620346069335938e+00,-1.008080959320068359e+01,-6.225109100341796875e+00,-4.039123535156250000e+00,-3.092238187789916992e+00,-1.711854696273803711e+00,1.660913825035095215e+00,-1.617635011672973633e+00,-5.294590473175048828e+00,-6.869298934936523438e+00,-4.794886112213134766e+00,-4.263667106628417969e+00,-5.513347148895263672e+00,-5.266320705413818359e+00,-4.323843955993652344e+00,-3.914955139160156250e+00,-7.080745220184326172e+00,-1.136220741271972656e+01
-2.058130455017089844e+01,-4.033471107482910156e+00,2.036098957061767578e+00,3.920676469802856445e+00,1.380739688873291016e+00,-6.873669147491455078e+00,-9.173892021179199219e+00,-3.597631216049194336e+00,-1.441988348960876465e+00,-3.034839153289794922e+00,-1.023608112335205078e+01,-1.620266342163085938e+01,-1.395441818237304688e+01,-6.973357677459716797e+00,-1.510641455650329590e+00,-5.005187034606933594e+00,-3.232934713363647461e+00,-2.751214802265167236e-01,6.623171806335449219e+00,6.733224391937255859e+00,7.698216438293457031e+00,-9.369542598724365234e-01,-6.103648185729980469e+00,-1.000005626678466797e+01,-6.585336208343505859e+00,-5.186873435974121094e+00,-3.572189092636108398e+00,-5.635784626007080078e+00,-4.526483535766601562e+00,-5.830581665039062500e+00,-7.861790180206298828e+00,-3.181338787078857422e+00
-7.647240638732910156e+00,2.451035976409912109e+00,4.934980869293212891e+00,6.526875019073486328e+00,3.201490163803100586e+00,-2.292990922927856445e+00,-3.556621789932250977e+00,-3.489080369472503662e-01,-1.076913595199584961e+00,-8.250570297241210938e-02,-1.329380273818969727e-01,-8.155108690261840820e-01,-8.817723989486694336e-01,2.590930700302124023e+00,6.486537456512451172e+00,7.275122642517089844e+00,7.941546440124511719e+00,9.186535835266113281e+00,1.480975055694580078e+01,1.080559444427490234e+01,9.704733848571777344e+00,4.536314487457275391e+00,1.528278589248657227e+00,-5.596801280975341797e+00,-4.063281059265136719e+00,-1.393602252006530762e+00,7.531063556671142578e-01,-1.964603185653686523e+00,-5.741290450096130371e-01,1.871818184852600098e+00,5.486220359802246094e+00,8.924958229064941406e+00
-3.397303819656372070e+00,-4.617700099945068359e+00,-8.796254158020019531e+00,-7.981033802032470703e+00,-6.828805923461914062e+00,-7.343963146209716797e+00,-8.169141769409179688e+00,-6.507028579711914062e+00,-7.530304431915283203e+00,-5.765554428100585938e+00,-3.347364425659179688e+00,-1.376216650009155273e+00,-7.277608513832092285e-01,-1.633632183074951172e+00,2.521759986877441406e+00,5.671774864196777344e+00,8.688055038452148438e+00,7.074963569641113281e+00,6.623150825500488281e+00,2.042151689529418945e+00,1.818790197372436523e+00,3.070774793624877930e+00,9.262685775756835938e-01,-4.691707134246826172e+00,-5.343268871307373047e+00,-2.592812538146972656e+00,-3.569854259490966797e+00,-1.724582195281982422e+00,-1.218996167182922363e+00,-1.928644895553588867e+00,-4.899337291717529297e+00,-9.833047866821289062e+00
-8.710401535034179688e+00,-1.124370002746582031e+01,-9.970254898071289062e+00,-9.880926132202148438e+00,-9.219824790954589844e+00,-1.110269832611083984e+01,-1.147191810607910156e+01,-1.146034431457519531e+01,-1.082290649414062500e+01,-8.926786422729492188e+00,-1.027880096435546875e+01,-1.234079265594482422e+01,-8.659949302673339844e+00,-4.973451614379882812e+00,3.714654743671417236e-01,-2.625542879104614258e+00,-2.308766603469848633e+00,-4.496157169342041016e+00,-4.211486816406250000e+00,-6.288364410400390625e+00,-8.730794906616210938e+00,-8.671584129333496094e+00,-8.899108886718750000e+00,-8.097904205322265625e+00,-8.816953659057617188e+00,-7.762265682220458984e+00,-1.154311084747314453e+01,-9.583855628967285156e+00,-7.553061962127685547e+00,-1.083173179626464844e+01,-1.583251476287841797e+01,-1.426556587219238281e+01
-4.642648220062255859e+00,-1.453228378295898438e+01,-1.015215587615966797e+01,-8.173128128051757812e+00,-7.331641197204589844e+00,-6.618204116821289062e+00,-3.678283452987670898e+00,-4.392679691314697266e+00,-5.189091682434082031e+00,-2.182654857635498047e+00,-5.156336784362792969e+00,-6.768300533294677734e+00,-3.126574754714965820e+00,4.129264831542968750e+00,8.115264892578125000e+00,2.164869308471679688e+00,-2.672264337539672852e+00,-5.778362274169921875e+00,-9.208332300186157227e-01,-2.823441982269287109e+00,-7.322839260101318359e+00,-1.185980129241943359e+01,-9.615466117858886719e+00,-9.666406631469726562e+00,-9.618272781372070312e+00,-1.046313667297363281e+01,-1.361276912689208984e+01,-1.490165042877197266e+01,-1.113510227203369141e+01,-9.916938781738281250e+00,-5.506549835205078125e+00,-3.626106977462768555e+00
3.515144109725952148e+00,-1.580012893676757812e+01,-1.823546028137207031e+01,-1.420563030242919922e+01,-7.733927249908447266e+00,-3.764300823211669922e+00,3.098804652690887451e-01,3.502671122550964355e-01,-2.145051717758178711e+00,7.579693198204040527e-01,5.085830092430114746e-01,3.086400747299194336e+00,4.351819515228271484e+00,6.728309154510498047e+00,8.203951835632324219e+00,8.129978179931640625e+00,4.830046653747558594e+00,8.524205088615417480e-01,3.264029264450073242e+00,3.189230203628540039e+00,2.432984828948974609e+00,4.861195981502532959e-01,2.167173147201538086e+00,-2.407294750213623047e+00,-3.367417812347412109e+00,-4.381767749786376953e+00,-5.246978282928466797e+00,-5.616457462310791016e+00,-4.133089542388916016e+00,-4.969427108764648438e+00,-1.522131204605102539e+00,-9.702908515930175781e+00
4.061124801635742188e+00,-1.132380008697509766e+01,-1.551219749450683594e+01,-1.368786430358886719e+01,-6.600932121276855469e+00,-4.769725322723388672e+00,-3.079091787338256836e+00,-5.033493518829345703e+00,-8.292947769165039062e+00,-5.715452194213867188e+00,-1.697237849235534668e+00,1.171452045440673828e+00,2.064324356615543365e-02,-8.546776175498962402e-01,-4.091569483280181885e-01,3.552104234695434570e+00,3.105768442153930664e+00,5.455490946769714355e-01,-1.768273472785949707e+00,1.759771347045898438e+00,5.167243003845214844e+00,8.673610687255859375e+00,9.650683403015136719e+00,7.095731735229492188e+00,3.146387338638305664e+00,1.328476786613464355e+00,2.423932552337646484e+00,2.785380601882934570e+00,1.218611121177673340e+00,-3.587255477905273438e+00,-5.972445964813232422e+00,-1.363170719146728516e+01
5.363483428955078125e+00,-6.274953365325927734e+00,-8.895273208618164062e+00,-8.733398437500000000e+00,-2.454196214675903320e+00,1.017607450485229492e+00,2.837171792984008789e+00,-2.860450267791748047e+00,-7.014109611511230469e+00,-3.794632434844970703e+00,1.873372912406921387e+00,3.421922922134399414e+00,1.244836449623107910e+00,2.371617034077644348e-02,8.950409479439258575e-03,3.936728477478027344e+00,4.109912395477294922e+00,1.514329195022583008e+00,-2.025487899780273438e+00,-1.739421129226684570e+00,1.447008967399597168e+00,5.974462985992431641e+00,7.357126712799072266e+00,5.380169868469238281e+00,1.201669812202453613e+00,1.440429091453552246e+00,3.969367027282714844e+00,6.127735614776611328e+00,5.062722206115722656e+00,1.741440176963806152e+00,-1.553216934204101562e+00,-4.670540809631347656e+00
1.519789886474609375e+01,4.874361515045166016e+00,7.187159061431884766e-01,-5.220157504081726074e-01,6.454422473907470703e+00,1.363461112976074219e+01,1.658830642700195312e+01,9.816453933715820312e+00,5.591822147369384766e+00,8.511536598205566406e+00,1.370064544677734375e+01,1.521221160888671875e+01,1.219040489196777344e+01,8.660263061523437500e+00,5.649622440338134766e+00,1.064104175567626953e+01,1.209554862976074219e+01,8.280116081237792969e+00,1.280571937561035156e+00,-5.586556911468505859e+00,-5.437428474426269531e+00,3.684095144271850586e-01,3.300651311874389648e+00,5.034627318382263184e-01,-4.304497718811035156e+00,2.104814164340496063e-02,4.858105182647705078e+00,1.355845642089843750e+01,1.480590343475341797e+01,1.241593647003173828e+01,5.022563934326171875e+00,5.973699569702148438e+00
1.977453613281250000e+01,2.119617700576782227e+00,-3.282718658447265625e-01,-1.074811697006225586e+00,2.872787475585937500e+00,7.443074703216552734e+00,1.082927417755126953e+01,7.955544948577880859e+00,4.058768272399902344e+00,6.100816726684570312e+00,1.244287872314453125e+01,1.641261291503906250e+01,1.207036018371582031e+01,6.194576740264892578e+00,1.681435108184814453e+00,8.576269149780273438e+00,1.077462100982666016e+01,7.793378829956054688e+00,-9.429219961166381836e-01,-6.514233112335205078e+00,-8.285880088806152344e+00,3.547256290912628174e-01,5.485576629638671875e+00,1.902107357978820801e+00,-8.512939453125000000e+00,-6.940867424011230469e+00,3.016939163208007812e-01,1.055384540557861328e+01,1.158334827423095703e+01,7.598833084106445312e+00,-2.101953744888305664e+00,-6.189189434051513672e+00
1.121858310699462891e+01,2.731878161430358887e-01,7.521103024482727051e-01,3.979667127132415771e-01,3.317380428314208984e+00,6.681007385253906250e+00,8.809424400329589844e+00,9.230795502662658691e-01,-3.272403001785278320e+00,-1.071364045143127441e+00,7.171341419219970703e+00,1.048419570922851562e+01,6.061599254608154297e+00,-4.089213609695434570e-01,-2.993809223175048828e+00,2.931984901428222656e+00,5.608160972595214844e+00,2.757988452911376953e+00,-4.540921688079833984e+00,-1.028385734558105469e+01,-1.066496372222900391e+01,-2.016279697418212891e+00,2.389156103134155273e+00,-3.158188104629516602e+00,-1.334389591217041016e+01,-1.185027122497558594e+01,-3.279142379760742188e+00,6.484935283660888672e+00,9.416135787963867188e+00,6.471261024475097656e+00,6.386702507734298706e-02,-1.897849321365356445e+00
2.623105049133300781e-01,1.896472573280334473e+00,5.107238888740539551e-01,4.497950151562690735e-02,3.751714706420898438e+00,6.794610023498535156e+00,6.804224491119384766e+00,7.262604236602783203e-01,-1.024294972419738770e+00,5.492380857467651367e-01,3.801843404769897461e+00,3.763798713684082031e+00,3.300696611404418945e+00,1.456856012344360352e+00,1.116395592689514160e+00,3.364792346954345703e+00,3.648542881011962891e+00,-4.428375065326690674e-01,-3.590599298477172852e+00,-7.675453186035156250e+00,-8.018119812011718750e+00,-6.385650157928466797e+00,-5.397574424743652344e+00,-8.898944854736328125e+00,-1.022557640075683594e+01,-5.715955257415771484e+00,-1.078399300575256348e+00,4.068871974945068359e+00,6.967102527618408203e+00,6.841190338134765625e+00,4.577519893646240234e+00,1.000977325439453125e+01
1.149284601211547852e+00,7.106345176696777344e+00,4.320278167724609375e+00,2.127204895019531250e+00,4.348164558410644531e+00,3.644233226776123047e+00,2.836601734161376953e+00,2.027003765106201172e+00,1.392098784446716309e+00,1.193837285041809082e+00,5.538612008094787598e-01,4.586470425128936768e-01,8.548346757888793945e-01,3.714717626571655273e+00,3.984003782272338867e+00,2.722722053527832031e+00,-1.089714646339416504e+00,-3.331731081008911133e+00,-2.147000551223754883e+00,-9.391338825225830078e-01,-3.865364313125610352e+00,-7.431909561157226562e+00,-5.742166519165039062e+00,-3.321979761123657227e+00,-2.112117767333984375e+00,1.712815284729003906e+00,3.828488588333129883e+00,6.050975322723388672e+00,8.384808540344238281e+00,8.428877830505371094e+00,5.297135353088378906e+00,1.171835803985595703e+01
7.127881050109863281e+00,1.120824527740478516e+01,1.004108238220214844e+01,7.769915103912353516e+00,7.888967037200927734e+00,6.644564628601074219e+00,4.553491592407226562e+00,2.840741872787475586e+00,8.693113327026367188e-01,-4.958032965660095215e-01,6.618375182151794434e-01,2.596124410629272461e+00,-1.720813810825347900e-01,9.541936516761779785e-01,1.568584918975830078e+00,5.714662671089172363e-01,-3.075168848037719727e+00,-1.796637535095214844e+00,1.122219040989875793e-01,1.843620419502258301e+00,-7.377829551696777344e-01,-2.835085868835449219e+00,-4.915345311164855957e-01,2.110028505325317383e+00,3.381376743316650391e+00,6.215250492095947266e+00,8.026432037353515625e+00,9.328928947448730469e+00,1.147125053405761719e+01,1.202558994293212891e+01,1.053002738952636719e+01,1.343531417846679688e+01
2.771262884140014648e+00,8.582885742187500000e+00,7.577654361724853516e+00,5.440231800079345703e+00,4.464600086212158203e+00,5.429390907287597656e+00,2.221066951751708984e+00,1.047272920608520508e+00,1.760555386543273926e+00,2.087208986282348633e+00,3.466320037841796875e-01,3.331163823604583740e-01,-9.462576508522033691e-01,3.714125752449035645e-01,2.099665880203247070e+00,1.054738044738769531e+00,-4.378428161144256592e-01,1.066181421279907227e+00,1.743173718452453613e+00,2.445764392614364624e-01,-8.955889344215393066e-01,-1.716414332389831543e+00,-1.612872838973999023e+00,2.278354883193969727e+00,7.590567588806152344e+00,9.180115699768066406e+00,5.126354217529296875e+00,3.327075242996215820e+00,4.697829723358154297e+00,7.384206295013427734e+00,8.940149307250976562e+00,1.170588111877441406e+01
-6.623235702514648438e+00,-1.451146841049194336e+00,-9.305564165115356445e-01,-3.793628692626953125e+00,-6.118682384490966797e+00,-7.099371433258056641e+00,-6.829617023468017578e+00,-4.465275764465332031e+00,-1.552461743354797363e+00,2.324972301721572876e-01,-5.422747611999511719e+00,-6.927812099456787109e+00,-5.941803932189941406e+00,-3.746235668659210205e-01,2.863166570663452148e+00,5.032863616943359375e-01,-2.010443925857543945e+00,-1.550677299499511719e+00,-5.968158245086669922e-01,-2.992523670196533203e+00,-5.239903926849365234e+00,-6.930245876312255859e+00,-7.189277648925781250e+00,1.023412942886352539e+00,6.697195053100585938e+00,5.176720142364501953e+00,-3.100666522979736328e+00,-8.444739341735839844e+00,-8.310835838317871094e+00,-5.060070514678955078e+00,-1.715956807136535645e+00,5.273104831576347351e-02
-7.352612495422363281e+00,-5.828812599182128906e+00,-4.084259986877441406e+00,-5.376579284667968750e+00,-8.299592018127441406e+00,-9.089255332946777344e+00,-6.392664909362792969e+00,-3.460240364074707031e+00,-3.494220733642578125e+00,-3.159339666366577148e+00,-5.480821609497070312e+00,-4.295278072357177734e+00,-5.923393726348876953e+00,-2.400973320007324219e+00,-3.981446325778961182e-01,-1.488404035568237305e+00,-4.907116889953613281e+00,-3.283141851425170898e+00,-1.587934970855712891e+00,-1.954316020011901855e+00,-3.785435676574707031e+00,-5.739451408386230469e+00,-6.126632213592529297e+00,-2.904273867607116699e-01,4.147336959838867188e+00,3.979892730712890625e+00,-6.507260203361511230e-01,-8.546173095703125000e+00,-1.180874919891357422e+01,-8.437702178955078125e+00,-5.944286584854125977e-01,-8.622537255287170410e-01
1.802494049072265625e+00,4.190666675567626953e+00,3.258343219757080078e+00,3.257047414779663086e+00,3.507672548294067383e-01,2.076229810714721680e+00,2.023706436157226562e+00,5.295174121856689453e+00,5.761197566986083984e+00,3.341434478759765625e+00,2.383385658264160156e+00,3.924500703811645508e+00,1.699816584587097168e+00,-2.055398225784301758e+00,-2.907063484191894531e+00,-1.834730386734008789e+00,-2.607732057571411133e+00,-5.957494378089904785e-01,1.219523921608924866e-01,3.665814876556396484e+00,4.510362148284912109e+00,3.916054248809814453e+00,1.645797133445739746e+00,3.946868419647216797e+00,1.048913955688476562e+01,1.296260833740234375e+01,1.108865928649902344e+01,2.519742250442504883e+00,-1.916504859924316406e+00,4.398770630359649658e-01,1.067947292327880859e+01,1.344091796875000000e+01
9.666307449340820312e+00,1.473282432556152344e+01,1.282736015319824219e+01,1.059537982940673828e+01,7.627761363983154297e+00,6.620141029357910156e+00,3.829891204833984375e+00,4.811615943908691406e+00,8.042794227600097656e+00,5.613972187042236328e+00,3.159090280532836914e+00,2.587320804595947266e+00,1.074783802032470703e+00,-3.287776231765747070e+00,-3.946292638778686523e+00,-1.847453117370605469e+00,-1.224834084510803223e+00,-1.333860039710998535e+00,-5.669521912932395935e-02,4.261090278625488281e+00,3.511636972427368164e+00,3.532775640487670898e+00,3.707134246826171875e+00,6.367812156677246094e+00,9.673209190368652344e+00,1.113425350189208984e+01,1.003927707672119141e+01,6.774900436401367188e+00,7.581263542175292969e+00,8.649315834045410156e+00,1.445547676086425781e+01,2.297850036621093750e+01
9.449056625366210938e+00,1.530868721008300781e+01,1.622068786621093750e+01,1.304948711395263672e+01,1.005626201629638672e+01,7.378991603851318359e+00,5.165510654449462891e+00,2.705041170120239258e+00,4.449442863464355469e+00,2.992176294326782227e+00,1.406850457191467285e+00,4.055214524269104004e-01,-3.549169063568115234e+00,-5.380065441131591797e+00,-4.851126194000244141e+00,-2.633719921112060547e+00,-1.970811724662780762e+00,-2.799416065216064453e+00,1.260617971420288086e-01,-1.439613223075866699e+00,-4.379341125488281250e+00,-4.274423122406005859e+00,-3.288225233554840088e-01,-1.842507481575012207e+00,-2.135926008224487305e+00,1.354571938514709473e+00,4.445422172546386719e+00,7.635969161987304688e+00,1.124390506744384766e+01,8.488420486450195312e+00,7.185606002807617188e+00,2.001183509826660156e+01
7.534858703613281250e+00,1.880543708801269531e+01,1.937224197387695312e+01,1.696516036987304688e+01,1.328025913238525391e+01,1.318501758575439453e+01,1.248815059661865234e+01,9.477855682373046875e+00,7.919339656829833984e+00,6.431840896606445312e+00,9.192661285400390625e+00,9.383923530578613281e+00,4.392993927001953125e+00,1.787931799888610840e+00,-2.912061661481857300e-02,1.236993908882141113e+00,2.439404249191284180e+00,2.553053617477416992e+00,2.860707521438598633e+00,4.461125135421752930e-01,-6.959453821182250977e-01,1.270558357238769531e+00,3.331577301025390625e+00,1.186681389808654785e+00,2.324738025665283203e+00,8.035390853881835938e+00,1.008924007415771484e+01,1.284853935241699219e+01,1.349738693237304688e+01,1.128588008880615234e+01,1.254799938201904297e+01,2.584653663635253906e+01
8.127927780151367188e+00,2.056938362121582031e+01,1.881589508056640625e+01,1.622397613525390625e+01,1.307345962524414062e+01,1.396994209289550781e+01,1.314175796508789062e+01,9.110432624816894531e+00,7.597802162170410156e+00,6.810878276824951172e+00,1.300559711456298828e+01,1.473000335693359375e+01,1.226072406768798828e+01,8.925613403320312500e+00,5.815219402313232422e+00,6.703125953674316406e+00,7.048763751983642578e+00,8.014278411865234375e+00,4.380950450897216797e+00,7.206034660339355469e+00,7.969447612762451172e+00,1.273102951049804688e+01,1.195405673980712891e+01,1.732553863525390625e+01,1.821269798278808594e+01,1.891795158386230469e+01,1.476119804382324219e+01,1.455270576477050781e+01,1.320772743225097656e+01,1.593247795104980469e+01,2.468391799926757812e+01,2.887916183471679688e+01
6.021491050720214844e+00,1.479025363922119141e+01,1.634357261657714844e+01,1.420195102691650391e+01,9.954521179199218750e+00,9.007951736450195312e+00,6.942034244537353516e+00,4.837475776672363281e+00,5.414546012878417969e+00,2.897147178649902344e+00,4.842987537384033203e+00,7.314478397369384766e+00,7.682479381561279297e+00,5.758134841918945312e+00,2.515905380249023438e+00,3.355719089508056641e+00,3.847590684890747070e+00,6.779547214508056641e+00,3.756688117980957031e+00,6.780000209808349609e+00,7.474655628204345703e+00,1.019566249847412109e+01,8.443964004516601562e+00,1.379634475708007812e+01,1.408137512207031250e+01,1.313892841339111328e+01,1.091435241699218750e+01,1.111790847778320312e+01,9.994205474853515625e+00,1.144850921630859375e+01,1.824993133544921875e+01,2.114457511901855469e+01
-2.306666851043701172e+00,9.268883705139160156e+00,1.442617511749267578e+01,1.353089714050292969e+01,7.383599758148193359e+00,5.451181411743164062e+00,3.677148818969726562e+00,3.729978561401367188e+00,1.666832685470581055e+00,-2.750277042388916016e+00,-2.743696451187133789e+00,-7.441090047359466553e-02,3.512251973152160645e-01,-2.590016424655914307e-01,-2.111658096313476562e+00,-3.419160127639770508e+00,-2.428286314010620117e+00,1.052904844284057617e+00,2.321560859680175781e+00,2.697353601455688477e+00,3.240215063095092773e+00,1.942365765571594238e+00,-7.639232277870178223e-01,-2.391044378280639648e+00,-1.681142926216125488e+00,1.088391423225402832e+00,3.317735910415649414e+00,5.390757083892822266e+00,5.593104839324951172e+00,3.661514282226562500e+00,3.832444667816162109e+00,1.708625793457031250e+01
-7.305988311767578125e+00,6.827158451080322266e+00,1.097938823699951172e+01,1.015952587127685547e+01,5.559204578399658203e+00,3.053388118743896484e+00,2.988039016723632812e+00,3.603546857833862305e+00,1.093974828720092773e+00,-8.494567871093750000e-01,-8.908053040504455566e-01,-2.835444450378417969e+00,-3.839360713958740234e+00,-4.292964935302734375e+00,-3.421292304992675781e+00,-5.727300643920898438e+00,-6.194356441497802734e+00,-6.736286640167236328e+00,-3.283920049667358398e+00,-1.086576104164123535e+00,-9.490038752555847168e-01,-3.223502159118652344e+00,-5.420845508575439453e+00,-6.685562610626220703e+00,-7.472923755645751953e+00,-5.402825832366943359e+00,-3.210703849792480469e+00,-1.836405158042907715e+00,-1.957700401544570923e-01,9.852217435836791992e-01,2.492653131484985352e+00,1.188783264160156250e+01
-3.716933727264404297e+00,5.030618190765380859e+00,5.225883960723876953e+00,4.537210941314697266e+00,4.073428630828857422e+00,2.605719804763793945e+00,1.075860977172851562e+00,6.272132396697998047e-01,1.804688334465026855e+00,2.387456178665161133e+00,5.982892513275146484e-01,-5.290351867675781250e+00,-7.343782424926757812e+00,-7.687154769897460938e+00,-7.350696563720703125e+00,-7.868163108825683594e+00,-9.168906211853027344e+00,-1.029876995086669922e+01,-8.475031852722167969e+00,-5.601254463195800781e+00,-6.063828945159912109e+00,-6.204719543457031250e+00,-6.657019615173339844e+00,-4.172971248626708984e+00,-6.050073623657226562e+00,-6.410322189331054688e+00,-5.601098060607910156e+00,-4.646491527557373047e+00,-1.447940945625305176e+00,1.337868809700012207e+00,4.678440570831298828e+00,4.112606048583984375e+00
1.217246294021606445e+00,5.660978317260742188e+00,-2.286686182022094727e+00,-2.498178482055664062e+00,3.076184511184692383e+00,4.768121242523193359e+00,-4.392790198326110840e-01,-5.297687053680419922e+00,-4.646535873413085938e+00,-3.411120891571044922e+00,5.750637054443359375e-01,1.714620828628540039e+00,3.612301126122474670e-02,-3.398696184158325195e+00,-6.925239086151123047e+00,-5.394473552703857422e+00,-4.146941184997558594e+00,-1.414091706275939941e+00,-3.397602319717407227e+00,-1.796672344207763672e+00,-2.977854907512664795e-01,2.361941099166870117e+00,8.043318390846252441e-01,2.635153055191040039e+00,5.128559112548828125e+00,4.972715854644775391e+00,1.656655430793762207e+00,4.633858203887939453e-01,4.379516601562500000e+00,6.948976039886474609e+00,7.661834716796875000e+00,4.120806217193603516e+00
2.525569915771484375e+00,6.897609710693359375e+00,-3.139224052429199219e+00,-3.829535961151123047e+00,2.650285959243774414e+00,4.702537536621093750e+00,1.716276407241821289e+00,-4.067909717559814453e+00,-5.139314651489257812e+00,-3.455650806427001953e+00,6.565825462341308594e+00,1.197461032867431641e+01,1.079786205291748047e+01,2.921619176864624023e+00,-5.218369364738464355e-01,4.498601913452148438e+00,8.693624496459960938e+00,9.705086708068847656e+00,5.650123596191406250e+00,7.636604785919189453e+00,1.108710575103759766e+01,1.668511199951171875e+01,1.563960456848144531e+01,1.389217948913574219e+01,1.380442905426025391e+01,1.161729621887207031e+01,9.698468208312988281e+00,7.010611057281494141e+00,6.057011604309082031e+00,8.196365356445312500e+00,1.311589717864990234e+01,8.690629005432128906e+00
-9.757044166326522827e-02,6.440230846405029297e+00,4.032957077026367188e+00,4.260790824890136719e+00,6.272896289825439453e+00,4.438689231872558594e+00,3.538410425186157227e+00,2.963035106658935547e+00,3.448198318481445312e+00,2.477396965026855469e+00,4.789044857025146484e+00,5.248729228973388672e+00,3.541462898254394531e+00,-1.787303090095520020e+00,-2.825489997863769531e+00,1.751460790634155273e+00,3.875938653945922852e+00,1.977477192878723145e+00,9.617651700973510742e-01,3.967048406600952148e+00,5.095154285430908203e+00,1.057149600982666016e+01,1.322828006744384766e+01,1.024833679199218750e+01,7.123672485351562500e+00,5.868425846099853516e+00,8.629033088684082031e+00,5.565726757049560547e+00,4.948704540729522705e-01,1.835775375366210938e+00,1.338226890563964844e+01,1.139852333068847656e+01
-8.722608566284179688e+00,8.099597930908203125e+00,1.329106426239013672e+01,1.342042922973632812e+01,7.651535034179687500e+00,2.123782873153686523e+00,-2.104511260986328125e-01,4.577136039733886719e+00,7.485899448394775391e+00,3.921096801757812500e+00,-3.701455831527709961e+00,-9.010700225830078125e+00,-1.229899692535400391e+01,-8.634200096130371094e+00,-7.413488864898681641e+00,-1.044900131225585938e+01,-1.356320476531982422e+01,-1.199501323699951172e+01,-9.364175796508789062e+00,-7.291396141052246094e+00,-7.708391666412353516e+00,-6.839671134948730469e+00,-4.975508689880371094e+00,-4.903819084167480469e+00,-3.501093626022338867e+00,-1.650027394294738770e+00,4.328371286392211914e-01,-1.847726345062255859e+00,-2.744088888168334961e+00,-5.213366746902465820e-01,9.021831512451171875e+00,1.302900695800781250e+01
-1.595209598541259766e+01,5.370085716247558594e+00,6.561257362365722656e+00,3.319051265716552734e+00,-1.450465798377990723e+00,-5.080684661865234375e+00,-7.548938274383544922e+00,-5.179660320281982422e+00,-3.476395606994628906e+00,-3.107625007629394531e+00,-5.716074466705322266e+00,-1.116033172607421875e+01,-1.382390594482421875e+01,-2.474992036819458008e+00,-4.983458518981933594e-01,-4.943878173828125000e+00,-1.275929927825927734e+01,-9.047715187072753906e+00,-3.633441686630249023e+00,-5.191940307617187500e+00,-7.440833091735839844e+00,-1.121876335144042969e+01,-1.195386123657226562e+01,-9.142915725708007812e+00,-8.910982131958007812e+00,-1.022391033172607422e+01,-1.014505100250244141e+01,-7.369469642639160156e+00,-3.587539672851562500e+00,-2.676576077938079834e-01,3.895274162292480469e+00,8.214963912963867188e+00
-1.197700023651123047e+01,-1.640112876892089844e+00,-5.727028369903564453e+00,-8.107419013977050781e+00,-6.879324436187744141e+00,-8.123932838439941406e+00,-1.176393127441406250e+01,-1.264987754821777344e+01,-1.336328411102294922e+01,-1.103964042663574219e+01,-6.591558456420898438e+00,-7.321708679199218750e+00,-6.006795883178710938e+00,4.904808521270751953e+00,7.514980316162109375e+00,6.403232097625732422e+00,-1.256083965301513672e+00,-1.241288185119628906e+00,6.943342208862304688e+00,2.250016182661056519e-01,-6.217956542968750000e+00,-1.056954097747802734e+01,-8.952417373657226562e+00,-9.112698554992675781e+00,-1.374514770507812500e+01,-1.636572647094726562e+01,-1.522011661529541016e+01,-1.030808162689208984e+01,-8.378311157226562500e+00,-6.878651618957519531e+00,-3.141829967498779297e+00,-7.490223050117492676e-01
-9.785179138183593750e+00,-2.106847286224365234e+00,8.610602617263793945e-01,3.802043199539184570e+00,1.726404070854187012e+00,-2.935472726821899414e+00,-7.418224811553955078e+00,-5.849933147430419922e+00,-6.079808712005615234e+00,-8.868255615234375000e+00,-7.861691951751708984e+00,-6.039333343505859375e+00,-3.373280763626098633e+00,-5.218175798654556274e-02,4.724968910217285156e+00,-2.660734653472900391e-01,-3.623405933380126953e+00,-5.445004940032958984e+00,2.034161537885665894e-01,-5.967761039733886719e+00,-1.276742839813232422e+01,-1.542243576049804688e+01,-1.319614982604980469e+01,-1.708742332458496094e+01,-1.681162834167480469e+01,-1.417398071289062500e+01,-1.197153091430664062e+01,-1.215938091278076172e+01,-9.455543518066406250e+00,-9.630392074584960938e+00,-6.125033378601074219e+00,-1.533082246780395508e+00
-1.245044136047363281e+01,1.446389853954315186e-01,6.585345268249511719e+00,9.180029869079589844e+00,5.037184238433837891e+00,5.029295086860656738e-01,-1.120736598968505859e+00,-2.813175916671752930e-01,-5.225149393081665039e-01,-3.883238315582275391e+00,-5.896618366241455078e+00,-6.294764518737792969e+00,-6.827632904052734375e+00,-9.851839065551757812e+00,-6.381726264953613281e+00,-1.129417133331298828e+01,-1.048298263549804688e+01,-1.298949813842773438e+01,-1.352709865570068359e+01,-1.363275051116943359e+01,-1.478315258026123047e+01,-1.558852005004882812e+01,-1.712193298339843750e+01,-1.941378593444824219e+01,-1.081146049499511719e+01,-6.268794059753417969e+00,-8.156558036804199219e+00,-1.434938144683837891e+01,-8.222620964050292969e+00,-4.102121353149414062e+00,-9.322277903556823730e-01,4.507472217082977295e-01
-7.927757263183593750e+00,-1.094758987426757812e+00,-8.775246739387512207e-01,-2.786253929138183594e+00,-2.829652309417724609e+00,-2.221419095993041992e+00,-1.047930240631103516e+00,-3.005452156066894531e+00,-5.255989551544189453e+00,-5.572504520416259766e+00,-5.135696887969970703e+00,-5.488031864166259766e+00,-5.978464126586914062e+00,-8.970696449279785156e+00,-1.042605209350585938e+01,-1.111010837554931641e+01,-9.087153434753417969e+00,-1.226567745208740234e+01,-1.565859222412109375e+01,-1.366897106170654297e+01,-1.082100582122802734e+01,-7.731668949127197266e+00,-9.425162315368652344e+00,-9.079631805419921875e+00,-4.571465015411376953e+00,-4.087469100952148438e+00,-7.803834915161132812e+00,-1.134095764160156250e+01,-7.867249011993408203e+00,-4.632530689239501953e+00,-2.383028268814086914e+00,-1.111827731132507324e+00
2.496239393949508667e-01,6.904849410057067871e-01,-6.023004055023193359e-01,-1.119301676750183105e+00,-1.020086884498596191e+00,-1.440937995910644531e+00,-2.185029983520507812e+00,4.495082795619964600e-01,-9.466011524200439453e-01,-1.647716045379638672e+00,-2.669817209243774414e-01,1.863630294799804688e+00,3.462568283081054688e+00,-5.743992924690246582e-01,-4.593250751495361328e+00,-6.275496482849121094e+00,-3.954324245452880859e+00,-4.001372814178466797e+00,-6.693397045135498047e+00,-6.760310173034667969e+00,-5.199250698089599609e+00,7.463742494583129883e-01,1.409545183181762695e+00,1.354780912399291992e+00,-1.269087195396423340e+00,-2.863316059112548828e+00,-2.734776973724365234e+00,-1.719407796859741211e+00,-2.339429616928100586e+00,-3.959823608398437500e+00,-2.947190761566162109e+00,-6.673749089241027832e-01
3.664036512374877930e+00,8.518293380737304688e+00,8.871440887451171875e+00,9.664995193481445312e+00,9.754977226257324219e+00,6.269950866699218750e+00,3.894403457641601562e+00,7.338668346405029297e+00,8.494603157043457031e+00,7.096690654754638672e+00,7.947843551635742188e+00,8.595915794372558594e+00,9.446866035461425781e+00,4.556405544281005859e+00,1.694372057914733887e+00,1.592603564262390137e+00,4.864423751831054688e+00,6.492448329925537109e+00,3.131701469421386719e+00,1.562868356704711914e+00,2.405228614807128906e+00,7.357834339141845703e+00,7.719692707061767578e+00,5.006835937500000000e+00,2.734720408916473389e-01,4.420482516288757324e-01,5.031499862670898438e+00,7.291376113891601562e+00,8.102588653564453125e+00,7.354827880859375000e+00,6.919634819030761719e+00,3.861834764480590820e+00
1.552673697471618652e+00,4.793686866760253906e+00,2.942783117294311523e+00,1.696722626686096191e+00,6.234327316284179688e+00,5.035713195800781250e+00,3.753559827804565430e+00,1.771311044692993164e+00,3.530105590820312500e+00,2.753144979476928711e+00,2.345073223114013672e+00,7.485108971595764160e-01,1.202604413032531738e+00,8.679513931274414062e-01,7.786154001951217651e-02,2.872391223907470703e+00,4.394474506378173828e+00,4.446997642517089844e+00,3.006148576736450195e+00,2.476895570755004883e+00,2.090591192245483398e+00,3.142721176147460938e+00,3.189843416213989258e+00,7.031967639923095703e-01,-3.009592533111572266e+00,-5.239019393920898438e-01,2.540371894836425781e+00,4.360323905944824219e+00,5.091508865356445312e+00,6.212152481079101562e+00,3.401609897613525391e+00,6.592710018157958984e-01
-9.795136451721191406e+00,-1.412135601043701172e+01,-1.257661819458007812e+01,-1.107872486114501953e+01,-8.507495880126953125e+00,-9.719160079956054688e+00,-9.578492164611816406e+00,-8.605321884155273438e+00,-7.913604259490966797e+00,-8.659799575805664062e+00,-1.190321731567382812e+01,-1.401455497741699219e+01,-1.127711868286132812e+01,-6.595861434936523438e+00,-6.347002506256103516e+00,-7.865532398223876953e+00,-9.465987205505371094e+00,-8.080313682556152344e+00,-6.097796916961669922e+00,-5.602666378021240234e+00,-7.591469287872314453e+00,-8.562343597412109375e+00,-9.224067687988281250e+00,-6.381806850433349609e+00,-7.172435760498046875e+00,-7.302065849304199219e+00,-1.025037670135498047e+01,-1.086220836639404297e+01,-1.300415992736816406e+01,-1.242887210845947266e+01,-1.283421611785888672e+01,-1.583754825592041016e+01
-2.264275169372558594e+01,-2.609513092041015625e+01,-1.842276191711425781e+01,-1.356974506378173828e+01,-1.740099906921386719e+01,-2.063682746887207031e+01,-1.921981048583984375e+01,-1.168002510070800781e+01,-1.029644107818603516e+01,-9.305982589721679688e+00,-1.558345031738281250e+01,-2.066727256774902344e+01,-1.704978370666503906e+01,-1.187145614624023438e+01,-8.499268531799316406e+00,-1.319702339172363281e+01,-1.344670391082763672e+01,-1.111964225769042969e+01,-8.606732368469238281e+00,-1.046655750274658203e+01,-1.025874042510986328e+01,-1.185759067535400391e+01,-1.479450035095214844e+01,-1.052248382568359375e+01,-9.348691940307617188e+00,-1.401557350158691406e+01,-1.766324615478515625e+01,-2.031342506408691406e+01,-2.334792327880859375e+01,-2.283914947509765625e+01,-1.810022926330566406e+01,-2.790015029907226562e+01
-2.031339454650878906e+01,-2.188273048400878906e+01,-1.781248664855957031e+01,-1.419697380065917969e+01,-1.658880424499511719e+01,-1.801779174804687500e+01,-1.641291618347167969e+01,-1.058772277832031250e+01,-7.461403369903564453e+00,-5.621579647064208984e+00,-1.296890926361083984e+01,-1.990497589111328125e+01,-1.636910629272460938e+01,-1.046156597137451172e+01,-5.080043792724609375e+00,-7.516343116760253906e+00,-6.102400779724121094e+00,-5.546864032745361328e+00,-1.612219095230102539e+00,-4.503373146057128906e+00,-4.591407299041748047e+00,-9.666688919067382812e+00,-1.188328838348388672e+01,-1.155642986297607422e+01,-9.647902488708496094e+00,-1.145272445678710938e+01,-1.126700115203857422e+01,-1.607699584960937500e+01,-1.851563072204589844e+01,-1.835590553283691406e+01,-1.354705142974853516e+01,-1.823359870910644531e+01
-1.047262382507324219e+01,-9.705520629882812500e+00,-8.858074188232421875e+00,-6.671538829803466797e+00,-6.582655906677246094e+00,-7.049155712127685547e+00,-6.181379318237304688e+00,-3.391397953033447266e+00,-3.327636957168579102e+00,-2.698635339736938477e+00,-5.991476058959960938e+00,-8.094870567321777344e+00,-5.688649654388427734e+00,4.185787737369537354e-01,2.274597167968750000e+00,-9.549376964569091797e-01,-3.550731658935546875e+00,-2.588833570480346680e+00,3.115716695785522461e+00,4.028690814971923828e+00,6.385614275932312012e-01,-7.917887687683105469e+00,-9.506011962890625000e+00,-8.118845939636230469e+00,-4.161204338073730469e+00,-2.670281648635864258e+00,-3.091845989227294922e+00,-8.400296211242675781e+00,-8.238145828247070312e+00,-8.315647125244140625e+00,-6.107244491577148438e+00,2.176342487335205078e+00
-7.526924133300781250e+00,-3.858184337615966797e+00,-1.598334550857543945e+00,2.546256780624389648e-01,-1.235609889030456543e+00,-2.066312074661254883e+00,-1.281972408294677734e+00,1.382272481918334961e+00,-9.641593098640441895e-01,3.441118597984313965e-01,-3.633880019187927246e-01,6.061096787452697754e-01,1.475334525108337402e+00,5.228185176849365234e+00,4.852449893951416016e+00,-6.582719683647155762e-01,-5.334074020385742188e+00,-2.254024028778076172e+00,6.357215642929077148e-01,4.277959823608398438e+00,3.843434333801269531e+00,-2.079549789428710938e+00,-7.569552421569824219e+00,-3.443966627120971680e+00,2.196362018585205078e+00,-1.342719316482543945e+00,-4.636229515075683594e+00,-6.444269180297851562e+00,-3.097808122634887695e+00,-3.044883012771606445e+00,-1.408325672149658203e+00,1.928616285324096680e+00
-2.870195150375366211e+00,2.564461231231689453e+00,9.017695784568786621e-01,-4.868856668472290039e-01,-8.555527925491333008e-01,1.739613533020019531e+00,3.149837970733642578e+00,4.166639328002929688e+00,3.909877300262451172e+00,3.197852134704589844e+00,-2.115302383899688721e-01,-1.083971977233886719e+00,2.653452754020690918e-01,1.582045197486877441e+00,2.096386432647705078e+00,-1.738762736320495605e+00,-2.783106088638305664e+00,-1.299432277679443359e+00,-1.392042279243469238e+00,2.803470492362976074e-01,2.707839488983154297e+00,2.572372257709503174e-01,-4.477120876312255859e+00,3.423835337162017822e-01,4.033598423004150391e+00,-9.963800907135009766e-01,-3.580604314804077148e+00,-4.475633800029754639e-01,2.738432645797729492e+00,-1.899115145206451416e-01,-3.469057321548461914e+00,-5.195271015167236328e+00
2.332861185073852539e+00,6.084622859954833984e+00,1.369851112365722656e+00,-4.133607149124145508e-01,7.303751111030578613e-01,4.897511005401611328e+00,5.257600307464599609e+00,5.510914325714111328e+00,6.117423057556152344e+00,2.939631938934326172e+00,-1.320931017398834229e-01,9.575834870338439941e-01,3.146540880203247070e+00,8.455927968025207520e-01,-9.949244260787963867e-01,-1.246854782104492188e+00,2.518779635429382324e-01,-1.060471296310424805e+00,-6.002933382987976074e-01,3.182272672653198242e+00,4.681791305541992188e+00,6.043671965599060059e-01,-5.131100863218307495e-02,5.091832637786865234e+00,8.192632675170898438e+00,7.321677207946777344e+00,4.977144241333007812e+00,7.148213863372802734e+00,7.743143081665039062e+00,4.751640319824218750e+00,-6.588172316551208496e-01,9.733222723007202148e-01
2.745895624160766602e+00,4.743067741394042969e+00,4.536735057830810547e+00,4.698715209960937500e+00,4.230559349060058594e+00,4.598647117614746094e+00,3.894570589065551758e+00,4.840542793273925781e+00,6.721065998077392578e+00,5.659459114074707031e+00,3.420746326446533203e+00,5.415968418121337891e+00,8.340033531188964844e+00,6.809672355651855469e+00,6.103604316711425781e+00,6.096710205078125000e+00,5.602372646331787109e+00,2.157203674316406250e+00,3.300902843475341797e+00,9.261991500854492188e+00,1.151067543029785156e+01,5.601208209991455078e+00,4.586545944213867188e+00,8.485548973083496094e+00,1.324452209472656250e+01,1.348873043060302734e+01,9.891473770141601562e+00,6.244075298309326172e+00,5.534660339355468750e+00,8.281117439270019531e+00,1.006313991546630859e+01,6.847340583801269531e+00
7.553054690361022949e-01,8.502683043479919434e-01,5.404614448547363281e+00,6.164860248565673828e+00,2.941884994506835938e+00,4.890202581882476807e-01,8.600458502769470215e-01,4.688435554504394531e+00,8.814490318298339844e+00,7.392918109893798828e+00,4.849564135074615479e-01,-2.927241086959838867e+00,3.158034563064575195e+00,9.916351318359375000e+00,1.567159080505371094e+01,1.019138622283935547e+01,8.373536109924316406e+00,5.989958763122558594e+00,8.978571891784667969e+00,8.440148353576660156e+00,9.288139343261718750e+00,2.471586942672729492e+00,9.754093289375305176e-01,3.817631959915161133e+00,8.836423873901367188e+00,8.079220771789550781e+00,4.144174575805664062e+00,2.306165844202041626e-01,-5.564457178115844727e-01,1.733038425445556641e+00,5.143365383148193359e+00,4.501446247100830078e+00
-4.416599750518798828e+00,-3.534099102020263672e+00,3.605406045913696289e+00,5.128397941589355469e+00,2.524519860744476318e-01,-3.374991655349731445e+00,-2.728576421737670898e+00,3.372719764709472656e+00,7.983955383300781250e+00,3.716047048568725586e+00,-5.257078170776367188e+00,-9.832115173339843750e+00,-2.093018531799316406e+00,6.297201633453369141e+00,1.124539375305175781e+01,3.565464258193969727e+00,4.384252548217773438e+00,7.188697338104248047e+00,1.224013805389404297e+01,7.845295429229736328e+00,4.391330718994140625e+00,-3.714630365371704102e+00,-3.124593019485473633e+00,2.238487720489501953e+00,6.929910659790039062e+00,4.785046577453613281e+00,-1.607836931943893433e-01,-5.840048789978027344e-01,-2.710986137390136719e+00,-6.179216384887695312e+00,-6.933280467987060547e+00,5.748250484466552734e+00
-3.017456769943237305e+00,-3.301286697387695312e+00,2.292117834091186523e+00,2.696958780288696289e+00,-1.338151812553405762e+00,-3.124287366867065430e+00,-2.499860763549804688e+00,2.440979003906250000e+00,4.753612518310546875e+00,2.699758529663085938e+00,-2.292385578155517578e+00,-2.019716262817382812e+00,1.677722930908203125e+00,2.067925691604614258e+00,3.493435859680175781e+00,3.171514987945556641e+00,6.828274726867675781e+00,1.108245658874511719e+01,1.244927501678466797e+01,1.202302742004394531e+01,1.198544216156005859e+01,8.403936386108398438e+00,7.756807804107666016e+00,1.016239261627197266e+01,1.229296493530273438e+01,8.267540931701660156e+00,4.358256816864013672e+00,3.832570314407348633e+00,1.594002246856689453e-01,-3.300677537918090820e+00,-1.962662696838378906e+00,9.193850517272949219e+00
3.987102985382080078e+00,-8.352512359619140625e+00,-6.805104732513427734e+00,-6.013913631439208984e+00,-8.255882263183593750e+00,-6.917353153228759766e+00,-4.438451766967773438e+00,-1.883687376976013184e+00,-2.143909931182861328e+00,-8.612115383148193359e-01,-1.774685144424438477e+00,-5.472531318664550781e-01,1.390526890754699707e+00,-9.741536378860473633e-01,1.502371430397033691e+00,6.258604049682617188e+00,1.296141624450683594e+01,1.515290927886962891e+01,9.995907783508300781e+00,9.352885246276855469e+00,1.572255706787109375e+01,1.905309677124023438e+01,1.651775169372558594e+01,9.391322135925292969e+00,5.348829746246337891e+00,3.228591918945312500e+00,4.437251091003417969e+00,2.332002401351928711e+00,-2.842154264450073242e+00,-3.423770666122436523e+00,-5.870138406753540039e-01,-5.307656526565551758e-01
