Fp1,Fp2,F7,F3,Fz,F4,F8,FT7,FC3,FCz,FC4,FT8,T3,C3,Cz,C4,T4,TP7,CP3,CPz,CP4,TP8,T5,P3,Pz,P4,T6,O1,Oz,O2,A1,A2
-1.255486011505126953e+00,1.002705574035644531e+00,6.690350055694580078e+00,3.755136728286743164e+00,-3.247630834579467773e+00,-4.244203090667724609e+00,8.994304537773132324e-01,3.202346086502075195e+00,4.780905723571777344e+00,4.632145881652832031e+00,3.821924924850463867e+00,3.866247534751892090e-01,9.586781263351440430e-01,3.072893381118774414e+00,5.130004882812500000e+00,3.263962984085083008e+00,1.206767678260803223e+00,-6.861203312873840332e-01,9.319116473197937012e-01,3.212251067161560059e-01,2.502467870712280273e+00,8.219140768051147461e-01,-1.577437520027160645e+00,-9.040941596031188965e-01,6.084304451942443848e-01,9.173109531402587891e-01,-1.762580394744873047e+00,6.836521625518798828e-01,1.365135669708251953e+00,-4.893203079700469971e-01,-1.505668520927429199e+00,3.292583703994750977e+00
4.126480221748352051e-01,-4.426224231719970703e+00,-9.055543899536132812e+00,-8.842174530029296875e+00,-3.749857664108276367e+00,-2.806508779525756836e+00,-1.485075712203979492e+00,-1.555174350738525391e+00,4.498207867145538330e-01,-7.295214384794235229e-02,-1.215802907943725586e+00,-4.596377849578857422e+00,-1.690194010734558105e+00,2.995805025100708008e+00,2.464709997177124023e+00,8.906235098838806152e-01,-7.593227624893188477e-01,1.849753975868225098e+00,5.386368751525878906e+00,6.561131000518798828e+00,5.460972785949707031e+00,4.065338671207427979e-01,-1.838323116302490234e+00,-3.391672849655151367e+00,-4.881932735443115234e+00,-5.940365791320800781e+00,-3.574181556701660156e+00,1.752241998910903931e-01,4.151821136474609375e+00,2.656431496143341064e-01,-4.786080360412597656e+00,-1.131787490844726562e+01
1.089902669191360474e-01,-1.005082607269287109e+01,-2.135213470458984375e+01,-1.979399681091308594e+01,-3.514679431915283203e+00,8.097806572914123535e-01,-6.746757984161376953e+00,-1.157143783569335938e+01,-8.923447608947753906e+00,-4.827803134918212891e+00,-2.759376525878906250e+00,-5.545524120330810547e+00,-3.705462694168090820e+00,-2.350191116333007812e+00,-2.657653570175170898e+00,-1.121599078178405762e+00,-9.983335137367248535e-01,4.607907235622406006e-01,1.790243148803710938e+00,2.503814697265625000e+00,4.399802386760711670e-01,-9.465459585189819336e-01,-2.015368461608886719e+00,-2.931879758834838867e+00,-6.811002254486083984e+00,-1.046993637084960938e+01,-8.441626548767089844e+00,-5.610803127288818359e+00,6.084879636764526367e-01,-5.996259689331054688e+00,-1.306901931762695312e+01,-1.590015602111816406e+01
8.920180052518844604e-02,-6.394626617431640625e+00,-9.072959899902343750e+00,-8.883365631103515625e+00,2.939355134963989258e+00,2.995598316192626953e+00,-1.866522312164306641e+00,-3.759309768676757812e+00,-6.520366191864013672e+00,-5.622155666351318359e+00,-2.737391948699951172e+00,3.675054013729095459e-01,-6.072170138359069824e-01,-4.464671313762664795e-01,-9.984683394432067871e-01,2.719478368759155273e+00,1.450688004493713379e+00,-3.418459594249725342e-01,-1.612974405288696289e+00,-1.568244099617004395e+00,-2.853544712066650391e+00,-1.852833032608032227e+00,-3.521231412887573242e+00,-1.619749307632446289e+00,-4.791221618652343750e+00,-7.049898147583007812e+00,-5.135481357574462891e+00,-4.774654388427734375e+00,-3.139974117279052734e+00,-8.360809326171875000e+00,-9.804996490478515625e+00,-1.107008647918701172e+01
1.779810309410095215e+00,-2.415265560150146484e+00,-2.555757522583007812e+00,-1.511494040489196777e+00,5.182988643646240234e+00,2.277992963790893555e+00,3.767958402633666992e+00,6.772788047790527344e+00,-1.854898631572723389e-01,-5.043723106384277344e+00,-4.422902107238769531e+00,2.078758716583251953e+00,3.680214881896972656e-01,1.710893273353576660e+00,-1.348391413688659668e+00,1.090914130210876465e+00,-6.513743996620178223e-01,1.411769628524780273e+00,3.237434387207031250e+00,2.927099466323852539e+00,-7.741779685020446777e-01,-2.605339050292968750e+00,-1.992001533508300781e+00,1.062087178230285645e+00,3.077736794948577881e-01,-3.633375763893127441e-01,2.611122369766235352e+00,2.412852287292480469e+00,2.997863590717315674e-01,-8.256470561027526855e-01,2.011941194534301758e+00,-1.554459810256958008e+00
5.869349002838134766e+00,4.403390407562255859e+00,-2.022333070635795593e-02,8.915648460388183594e-01,4.330355644226074219e+00,7.208695888519287109e+00,5.639397621154785156e+00,3.175364255905151367e+00,-7.154469490051269531e-01,1.185961127281188965e+00,5.029628753662109375e+00,7.739177227020263672e+00,7.013102054595947266e+00,4.387450218200683594e+00,-1.519842505455017090e+00,1.813136458396911621e+00,3.929137706756591797e+00,5.467996120452880859e+00,6.437731742858886719e+00,5.086730957031250000e+00,2.581040859222412109e+00,4.176632881164550781e+00,8.183629989624023438e+00,6.794528484344482422e+00,4.813673973083496094e+00,5.458419799804687500e+00,8.848402976989746094e+00,7.824692249298095703e+00,5.653520584106445312e+00,5.292112827301025391e+00,5.887732505798339844e+00,4.188762187957763672e+00
6.887098312377929688e+00,5.234694957733154297e+00,-1.923450708389282227e+00,-1.362553834915161133e+00,4.621451199054718018e-01,5.256138801574707031e+00,2.895740985870361328e+00,-4.954905033111572266e+00,-6.145113110542297363e-01,4.742739200592041016e+00,1.122531700134277344e+01,1.021057319641113281e+01,1.082066249847412109e+01,5.152591705322265625e+00,1.627156138420104980e+00,6.988783836364746094e+00,9.113224983215332031e+00,3.795378208160400391e+00,-1.882959961891174316e+00,-3.210305213928222656e+00,-7.880856096744537354e-02,6.598644733428955078e+00,6.733782768249511719e+00,1.702141165733337402e+00,-1.522644758224487305e+00,1.615025997161865234e+00,7.504944801330566406e+00,4.347176551818847656e+00,1.783760309219360352e+00,1.192176818847656250e+00,4.239964485168457031e+00,1.211116194725036621e+00
-1.988779544830322266e+00,-1.138743042945861816e+00,1.636392474174499512e+00,5.524324178695678711e-01,-6.784108161926269531e+00,-8.081504821777343750e+00,-4.639548301696777344e+00,-5.374948024749755859e+00,4.749854087829589844e+00,1.561345815658569336e+00,1.421142816543579102e+00,-3.381744146347045898e+00,-3.288368225097656250e+00,-5.005435466766357422e+00,-4.918475151062011719e+00,-1.640432715415954590e+00,-2.793467998504638672e+00,-4.773024559020996094e+00,-8.466442108154296875e+00,-8.783346176147460938e+00,-6.954042911529541016e+00,-4.185690879821777344e+00,-7.110938072204589844e+00,-7.450655937194824219e+00,-5.742690086364746094e+00,-3.375105381011962891e+00,-7.389627099037170410e-01,-4.493758201599121094e+00,-5.996982097625732422e+00,-2.549289226531982422e+00,5.978762149810791016e+00,4.961145401000976562e+00
-4.908886432647705078e+00,1.196206092834472656e+00,1.189103412628173828e+01,1.151580619812011719e+01,-4.080501079559326172e+00,-8.397651672363281250e+00,-4.172796726226806641e+00,5.722393989562988281e-01,6.010963439941406250e+00,1.946512013673782349e-01,-8.006946563720703125e+00,-9.780904769897460938e+00,-1.225541782379150391e+01,-1.352234077453613281e+01,-1.406326198577880859e+01,-1.046421718597412109e+01,-1.131518173217773438e+01,-9.490823745727539062e+00,-7.155194282531738281e+00,-6.242033958435058594e+00,-7.716473102569580078e+00,-7.346182346343994141e+00,-5.407041549682617188e+00,-1.862142324447631836e+00,2.109720706939697266e+00,2.305085182189941406e+00,-2.543747663497924805e+00,-3.356188297271728516e+00,-4.183533191680908203e+00,2.366933584213256836e+00,9.686880111694335938e+00,1.777908134460449219e+01
2.469090700149536133e+00,8.072436332702636719e+00,8.309636116027832031e+00,1.115662574768066406e+01,2.933573246002197266e+00,3.670658826828002930e+00,6.583191394805908203e+00,4.903028011322021484e+00,-1.300191640853881836e+00,-4.646968364715576172e+00,-4.656039237976074219e+00,4.316740632057189941e-01,-3.138633728027343750e+00,-6.203350543975830078e+00,-7.401097774505615234e+00,-1.093779563903808594e+00,-1.488442420959472656e+00,-4.922684192657470703e+00,-5.510097026824951172e+00,-5.246688842773437500e+00,-3.619036674499511719e+00,2.143364906311035156e+00,7.202285289764404297e+00,6.672400951385498047e+00,6.405734062194824219e+00,7.341305732727050781e+00,5.960945129394531250e+00,6.178591251373291016e+00,2.742127418518066406e+00,6.801040649414062500e+00,1.093291664123535156e+01,1.497504615783691406e+01
4.683509349822998047e+00,5.572143554687500000e+00,-1.219905972480773926e+00,2.068865537643432617e+00,4.771069526672363281e+00,6.973155021667480469e+00,1.071038722991943359e+01,8.037184715270996094e+00,-1.614462256431579590e+00,-6.154954910278320312e+00,-3.065434098243713379e-01,4.274265766143798828e+00,4.970468521118164062e+00,3.708437919616699219e+00,3.539623260498046875e+00,5.484559535980224609e+00,5.201723098754882812e+00,6.763212084770202637e-01,-2.609700441360473633e+00,-3.657982110977172852e+00,-3.903358578681945801e-01,3.426733732223510742e+00,5.240036487579345703e+00,3.341094732284545898e+00,3.091324806213378906e+00,4.933223247528076172e+00,9.060214996337890625e+00,7.222986221313476562e+00,3.375579833984375000e+00,5.516953945159912109e+00,9.228563308715820312e+00,7.604203701019287109e+00
-2.383975267410278320e+00,3.987380027770996094e+00,8.135033607482910156e+00,1.127080249786376953e+01,6.098952293395996094e+00,1.697234272956848145e+00,1.862482309341430664e+00,6.898823261260986328e+00,9.359093666076660156e+00,7.423584938049316406e+00,2.244985342025756836e+00,-2.498830080032348633e+00,-7.516948133707046509e-02,1.153016448020935059e+00,6.115956902503967285e-01,-2.293606996536254883e+00,5.310653895139694214e-02,3.078875243663787842e-01,3.068194627761840820e+00,1.879720449447631836e+00,1.533874630928039551e+00,-2.169836521148681641e+00,-1.606956005096435547e+00,1.217247247695922852e+00,7.153310298919677734e+00,8.469622611999511719e+00,5.630530357360839844e+00,1.628458797931671143e-01,7.781671285629272461e-01,6.294839382171630859e+00,9.184080123901367188e+00,1.394466304779052734e+01
-7.120020866394042969e+00,9.034621238708496094e+00,2.038085556030273438e+01,1.957887649536132812e+01,4.453854084014892578e+00,-2.180231094360351562e+00,-6.597362995147705078e+00,-6.048985719680786133e-01,9.167269706726074219e+00,9.287339210510253906e+00,2.663157224655151367e+00,-6.410369396209716797e+00,-5.615128040313720703e+00,-5.342586040496826172e+00,-4.315364360809326172e+00,-4.552054405212402344e+00,-1.981027126312255859e+00,-1.765833258628845215e+00,1.155672073364257812e+00,5.684264302253723145e-01,1.107714772224426270e+00,-8.607560396194458008e-01,5.622145533561706543e-01,4.469316959381103516e+00,1.274098682403564453e+01,1.349281311035156250e+01,6.574160575866699219e+00,-3.662417888641357422e+00,-2.095078468322753906e+00,8.703002929687500000e+00,1.522661685943603516e+01,1.747767257690429688e+01
-3.286346435546875000e+00,1.023070049285888672e+01,9.623760223388671875e+00,5.593115806579589844e+00,4.368460178375244141e-02,2.069622427225112915e-01,-1.479142546653747559e+00,-2.717305660247802734e+00,-5.532530307769775391e+00,-1.689709067344665527e+00,6.671662926673889160e-01,4.552485346794128418e-01,1.150542378425598145e+00,-6.712994575500488281e-01,8.100045323371887207e-01,1.241807460784912109e+00,2.266373395919799805e+00,2.824538946151733398e+00,1.835148453712463379e+00,-8.584988713264465332e-01,6.708489060401916504e-01,3.008049964904785156e+00,4.507558345794677734e+00,5.449663162231445312e+00,1.171722602844238281e+01,1.260137748718261719e+01,1.105622768402099609e+01,-5.573937296867370605e-01,-1.893859505653381348e+00,7.777626991271972656e+00,1.497946643829345703e+01,8.258404731750488281e+00
-1.645634531974792480e+00,6.680935382843017578e+00,2.613333225250244141e+00,4.963590204715728760e-01,-4.740547239780426025e-01,2.608790636062622070e+00,5.716558933258056641e+00,2.240478038787841797e+00,-9.984850883483886719e+00,-1.136582088470458984e+01,-2.864475727081298828e+00,5.732884407043457031e+00,7.112267494201660156e+00,6.884971618652343750e+00,5.138178825378417969e+00,1.705270767211914062e+00,1.933311343193054199e+00,5.066918849945068359e+00,6.955153942108154297e+00,2.874556064605712891e+00,-1.866436898708343506e-01,-2.274180054664611816e-01,2.063879728317260742e+00,2.358832836151123047e+00,7.061804294586181641e+00,7.668862819671630859e+00,6.921980381011962891e+00,3.057150244712829590e-01,-2.154026269912719727e+00,9.343189001083374023e-01,1.741922855377197266e+00,1.047535300254821777e+00
-1.086957454681396484e+01,-6.279145181179046631e-02,9.062337875366210938e+00,5.754196166992187500e+00,-7.288247585296630859e+00,-7.466077804565429688e+00,-2.426303148269653320e+00,-2.794647932052612305e+00,-4.716545581817626953e+00,-5.410746574401855469e+00,-4.284946441650390625e+00,-2.482951164245605469e+00,-2.432281494140625000e+00,-1.080865621566772461e+00,-3.254206180572509766e+00,-6.402145385742187500e+00,-7.208026885986328125e+00,-4.626966953277587891e+00,-1.718482613563537598e+00,-2.476875305175781250e+00,-4.440966606140136719e+00,-6.347815513610839844e+00,-4.685908317565917969e+00,-5.346547126770019531e+00,-1.864357352256774902e+00,-1.622092485427856445e+00,-3.221986532211303711e+00,-4.951896190643310547e+00,-7.881174564361572266e+00,-5.746138572692871094e+00,-7.747957706451416016e+00,-2.318164348602294922e+00
-1.192741298675537109e+01,-2.159351110458374023e+00,4.716101169586181641e+00,9.024206399917602539e-01,-1.242379570007324219e+01,-1.186956501007080078e+01,-1.054679203033447266e+01,-1.308536815643310547e+01,-6.554966449737548828e+00,-1.432150959968566895e+00,-1.238465666770935059e+00,-7.240719795227050781e+00,-8.828300476074218750e+00,-1.049002647399902344e+01,-1.104878807067871094e+01,-1.052789688110351562e+01,-9.386749267578125000e+00,-6.121079921722412109e+00,-7.945802211761474609e+00,-4.893810749053955078e+00,-1.409487962722778320e+00,-1.440254807472229004e+00,-4.708390712738037109e+00,-6.828870296478271484e+00,-2.934916019439697266e+00,-2.951317548751831055e+00,-3.051369667053222656e+00,-4.095010280609130859e+00,-7.492988109588623047e+00,-2.209702014923095703e+00,-2.721570730209350586e+00,-3.468988180160522461e+00
1.967643022537231445e+00,6.853936195373535156e+00,-6.431105136871337891e-01,-4.499439597129821777e-01,2.428465932607650757e-01,2.410608768463134766e+00,-1.468537330627441406e+00,-8.110857963562011719e+00,-1.013715171813964844e+01,-6.547475337982177734e+00,1.617767333984375000e+00,2.826404094696044922e+00,2.692465543746948242e+00,-1.745971202850341797e+00,-3.189532995223999023e+00,-1.830776453018188477e+00,3.000102758407592773e+00,6.879661560058593750e+00,4.165739536285400391e+00,7.830249786376953125e+00,8.850321769714355469e+00,9.126446723937988281e+00,5.396261692047119141e+00,4.075702190399169922e+00,7.013147830963134766e+00,6.359273910522460938e+00,6.095570087432861328e+00,5.372704029083251953e+00,2.287184715270996094e+00,6.029333591461181641e+00,4.325046062469482422e+00,3.022478342056274414e+00
1.853732764720916748e-02,5.837142467498779297e+00,6.053886413574218750e-01,1.660812377929687500e+00,4.913120269775390625e+00,5.122669696807861328e+00,3.280549049377441406e+00,1.724554300308227539e+00,-3.276374816894531250e+00,-3.859654903411865234e+00,-1.095596313476562500e+00,4.604337692260742188e+00,4.833048820495605469e+00,4.412348747253417969e+00,3.156919002532958984e+00,2.964723348617553711e+00,4.915349006652832031e+00,7.164422035217285156e+00,6.315394878387451172e+00,5.881804943084716797e+00,5.004060268402099609e+00,2.979618549346923828e+00,3.686709403991699219e+00,5.288867473602294922e+00,9.196685791015625000e+00,8.625636100769042969e+00,4.954030513763427734e+00,2.354298353195190430e+00,1.431707292795181274e-01,2.962256908416748047e+00,5.058222293853759766e+00,8.586245536804199219e+00
-1.672962188720703125e+01,-9.293598175048828125e+00,-7.119876861572265625e+00,-6.160834789276123047e+00,-8.115092277526855469e+00,-9.268905639648437500e+00,-7.736454963684082031e+00,-2.629593610763549805e+00,1.943861603736877441e+00,5.956101417541503906e-01,-6.558170318603515625e+00,-8.262254714965820312e+00,-9.181772232055664062e+00,-5.429718971252441406e+00,-5.533832550048828125e+00,-6.032788753509521484e+00,-8.076198577880859375e+00,-6.729973316192626953e+00,-7.860020637512207031e+00,-1.206914234161376953e+01,-1.243604946136474609e+01,-1.252123641967773438e+01,-1.047709465026855469e+01,-8.913518905639648438e+00,-4.035096168518066406e+00,-4.581031799316406250e+00,-8.032589912414550781e+00,-1.064026737213134766e+01,-1.226751232147216797e+01,-8.684484481811523438e+00,-3.876869916915893555e+00,-1.383866548538208008e+00
-1.338824367523193359e+01,-1.006509399414062500e+01,-9.788754463195800781e+00,-8.761388778686523438e+00,-9.046590805053710938e+00,-1.067738628387451172e+01,-1.016651248931884766e+01,-9.447216987609863281e+00,-3.982580423355102539e+00,-4.032568931579589844e+00,-5.995603561401367188e+00,-6.995410442352294922e+00,-8.098017692565917969e+00,-4.115533351898193359e+00,-4.659754753112792969e+00,-4.670800209045410156e+00,-6.452480792999267578e+00,-5.496459484100341797e+00,-6.716382503509521484e+00,-1.185292339324951172e+01,-1.264090251922607422e+01,-1.049861907958984375e+01,-8.830440521240234375e+00,-1.030582427978515625e+01,-1.267929458618164062e+01,-1.230164432525634766e+01,-1.149344444274902344e+01,-9.174677848815917969e+00,-9.273695945739746094e+00,-1.103421497344970703e+01,-1.466160297393798828e+01,-1.254029941558837891e+01
5.135439038276672363e-01,-5.383520603179931641e+00,-5.185072422027587891e+00,-5.121759414672851562e+00,-9.101127982139587402e-01,-9.162097573280334473e-01,-6.696016788482666016e-01,-5.737765312194824219e+00,-7.126134872436523438e+00,-5.167404651641845703e+00,1.262049555778503418e+00,9.542236328125000000e+00,8.401708602905273438e+00,1.424306583404541016e+01,1.768854904174804688e+01,1.528730964660644531e+01,1.133266258239746094e+01,1.092603588104248047e+01,9.316877365112304688e+00,3.429405689239501953e+00,4.778182983398437500e+00,4.080567359924316406e+00,5.990014553070068359e+00,6.075826287269592285e-02,-9.753850936889648438e+00,-1.074592590332031250e+01,-6.414192199707031250e+00,-8.587716817855834961e-01,4.660869836807250977e-01,-6.524977684020996094e+00,-1.599662113189697266e+01,-1.672487449645996094e+01
3.876389026641845703e+00,-1.093326759338378906e+01,-8.482872009277343750e+00,-7.673833847045898438e+00,-1.798214197158813477e+00,-5.441639423370361328e-01,3.370619773864746094e+00,-1.699985384941101074e+00,-2.998926877975463867e+00,2.158809900283813477e+00,7.359473705291748047e+00,1.314644813537597656e+01,1.329655361175537109e+01,1.798155593872070312e+01,2.262150001525878906e+01,1.937449455261230469e+01,1.691787147521972656e+01,1.648213577270507812e+01,1.591210937500000000e+01,1.445021057128906250e+01,1.258736419677734375e+01,9.865860939025878906e+00,9.056733131408691406e+00,1.502505779266357422e+00,-6.261063098907470703e+00,-1.119820117950439453e+01,-6.033816814422607422e+00,-1.050196409225463867e+00,-1.351212263107299805e+00,-6.298830032348632812e+00,-7.626651763916015625e+00,-1.375311183929443359e+01
7.811017990112304688e+00,-3.170033216476440430e+00,-3.598932981491088867e+00,-2.828282833099365234e+00,3.276899337768554688e+00,3.075378417968750000e+00,4.190599918365478516e+00,9.822839498519897461e-01,4.345031261444091797e+00,8.711018562316894531e+00,7.371212482452392578e+00,6.046613216400146484e+00,6.320420742034912109e+00,5.603767871856689453e+00,8.183767318725585938e+00,6.342338562011718750e+00,5.694469451904296875e+00,5.707384586334228516e+00,6.041903495788574219e+00,7.087782859802246094e+00,9.725754737854003906e+00,9.801606178283691406e+00,6.847978591918945312e+00,5.155541896820068359e+00,3.920911550521850586e+00,1.161237835884094238e+00,8.969308733940124512e-01,5.262549877166748047e+00,3.328014135360717773e+00,-7.132302522659301758e-01,7.322878837585449219e-01,-8.014339208602905273e-01
9.289432525634765625e+00,7.398397922515869141e+00,6.632137775421142578e+00,6.442109584808349609e+00,8.186779022216796875e+00,7.025507450103759766e+00,4.134920120239257812e+00,3.925361394882202148e+00,7.025140762329101562e+00,7.082699775695800781e+00,4.952239513397216797e+00,3.365217208862304688e+00,3.783766269683837891e+00,-2.318536043167114258e+00,-6.262577056884765625e+00,-5.964377403259277344e+00,-2.540191173553466797e+00,-3.623793363571166992e+00,-4.662971019744873047e+00,3.702346563339233398e+00,7.105113506317138672e+00,9.612193107604980469e+00,7.956580638885498047e+00,9.883012771606445312e+00,3.996642351150512695e+00,4.898719310760498047e+00,5.277532577514648438e+00,1.207289600372314453e+01,1.003908920288085938e+01,1.536738753318786621e+00,-2.270785808563232422e+00,2.586578369140625000e+00
1.816640496253967285e+00,-4.031007289886474609e+00,-2.538803577423095703e+00,-7.429859787225723267e-02,2.592509984970092773e+00,1.418505907058715820e+00,-8.389437943696975708e-02,2.620025634765625000e+00,6.392735958099365234e+00,4.751207828521728516e+00,1.870491385459899902e+00,-6.215574145317077637e-01,7.840844988822937012e-01,-8.227106332778930664e-01,9.787845015525817871e-01,-7.836408615112304688e-01,-5.906768441200256348e-01,-6.893766522407531738e-01,6.653259992599487305e-01,4.026102066040039062e+00,4.181539058685302734e+00,3.820337772369384766e+00,7.922940254211425781e-01,-1.757102608680725098e-01,-1.055375957489013672e+01,-1.054589271545410156e+01,-7.047520637512207031e+00,1.210364103317260742e+00,3.412149429321289062e+00,-5.223884582519531250e+00,-1.077848529815673828e+01,-1.049962043762207031e+01
3.006505727767944336e+00,-1.111306571960449219e+01,-1.367049503326416016e+01,-8.457152366638183594e+00,3.852626800537109375e+00,3.040053129196166992e+00,2.887958765029907227e+00,3.573362827301025391e+00,5.035308361053466797e+00,4.147803783416748047e+00,-1.507579922676086426e+00,-2.177060365676879883e+00,-1.792049527168273926e+00,-4.542302131652832031e+00,-1.806876063346862793e+00,1.501329421997070312e+00,4.036633968353271484e+00,3.788728713989257812e+00,5.264106273651123047e+00,5.921989440917968750e+00,3.152767896652221680e+00,-5.645470619201660156e-01,-4.464833259582519531e+00,-5.130595207214355469e+00,-1.029725170135498047e+01,-1.110174465179443359e+01,-1.196949863433837891e+01,-6.509392261505126953e+00,-3.144085407257080078e-02,-3.043514251708984375e+00,-8.804985046386718750e+00,-1.446648502349853516e+01
1.049760437011718750e+01,1.419030666351318359e+00,-4.667876720428466797e+00,-1.841477632522583008e+00,1.033449935913085938e+01,1.220450782775878906e+01,1.175536251068115234e+01,9.805735588073730469e+00,1.655018568038940430e+00,-8.889846205711364746e-01,-3.054831504821777344e+00,3.024688720703125000e+00,1.619920134544372559e+00,-3.738408088684082031e+00,-5.751018524169921875e+00,-2.633303880691528320e+00,9.977336525917053223e-01,3.983588814735412598e-01,8.230612874031066895e-01,3.882777690887451172e+00,9.130537509918212891e-01,2.621692717075347900e-01,1.276619315147399902e+00,3.232786655426025391e+00,-2.118337631225585938e+00,-7.370985578745603561e-03,-1.641776040196418762e-02,4.249225616455078125e+00,6.472912788391113281e+00,7.385210514068603516e+00,5.619544506072998047e+00,-1.318705797195434570e+00
7.490583419799804688e+00,6.915837764739990234e+00,5.636887550354003906e+00,5.430348396301269531e+00,7.277240276336669922e+00,7.331207275390625000e+00,6.216315269470214844e+00,1.012000846862792969e+01,8.514225959777832031e+00,3.583557844161987305e+00,1.064579606056213379e+00,3.906805038452148438e+00,4.936228275299072266e+00,2.022669076919555664e+00,-2.156713008880615234e+00,-6.505249023437500000e+00,-4.606222629547119141e+00,-5.832480430603027344e+00,-6.661619186401367188e+00,-3.772029876708984375e+00,-3.211182355880737305e+00,-2.123970746994018555e+00,1.169749021530151367e+00,6.119313240051269531e-01,-6.720550060272216797e+00,-2.586403131484985352e+00,3.105532407760620117e+00,9.935246467590332031e+00,8.826600074768066406e+00,8.044767379760742188e+00,4.647651672363281250e+00,1.366814255714416504e+00
2.668373346328735352e+00,-2.199053287506103516e+00,-1.755186676979064941e+00,-2.227605342864990234e+00,1.470624446868896484e+00,-1.532728552818298340e+00,-3.262088060379028320e+00,3.008893430233001709e-01,9.738676071166992188e+00,9.872282981872558594e+00,5.223100662231445312e+00,5.678275823593139648e-01,4.157007336616516113e-01,-1.390444278717041016e+00,-3.808390140533447266e+00,-4.946258544921875000e+00,-4.199988365173339844e+00,-5.794610023498535156e+00,-6.387151718139648438e+00,-5.128096103668212891e+00,-4.607278823852539062e+00,-6.332629203796386719e+00,-5.002271175384521484e+00,-5.552738666534423828e+00,-1.020737075805664062e+01,-1.002024650573730469e+01,-6.897717475891113281e+00,1.369696617126464844e+00,4.272593975067138672e+00,-1.163575649261474609e+00,-1.057649803161621094e+01,-8.488865852355957031e+00
4.065187931060791016e+00,-6.736668586730957031e+00,-1.207048988342285156e+01,-1.294911956787109375e+01,1.464731059968471527e-02,7.089243531227111816e-01,1.049398422241210938e+00,-2.500668525695800781e+00,-2.970823287963867188e+00,3.986711800098419189e-01,7.348027825355529785e-01,5.872772932052612305e-01,-2.853326082229614258e+00,-5.260340213775634766e+00,-5.527595520019531250e+00,-2.645373106002807617e+00,-2.265394926071166992e+00,-6.032127141952514648e-01,1.826034337282180786e-01,1.272969722747802734e+00,-1.941287755966186523e+00,-3.258289813995361328e+00,-1.880161285400390625e+00,2.991753339767456055e+00,-4.888489544391632080e-01,-6.007813453674316406e+00,-7.791098117828369141e+00,-1.069180011749267578e+00,2.182976484298706055e+00,-5.369672775268554688e+00,-1.140611743927001953e+01,-9.447167396545410156e+00
2.708455085754394531e+00,-3.536719560623168945e+00,-1.020744132995605469e+01,-1.113370037078857422e+01,-2.022840738296508789e+00,9.967071413993835449e-01,3.095630884170532227e+00,3.457956314086914062e+00,-5.034986019134521484e+00,-6.583452701568603516e+00,-5.253200531005859375e+00,-3.021371960639953613e-01,2.488351166248321533e-01,6.806917190551757812e-01,1.969448208808898926e+00,-3.708572387695312500e-01,5.370597839355468750e-01,2.626971006393432617e+00,2.784418106079101562e+00,2.232307910919189453e+00,4.167928695678710938e-01,3.411792814731597900e-01,1.800433158874511719e+00,5.089029312133789062e+00,3.373476266860961914e+00,-1.235190272331237793e+00,-2.362053632736206055e+00,1.056163907051086426e+00,1.039493203163146973e+00,-3.967894077301025391e+00,-4.288923740386962891e+00,-3.115899562835693359e+00
-3.070665597915649414e+00,2.107413709163665771e-01,-5.899248123168945312e-01,-1.318550705909729004e+00,-3.979257822036743164e+00,-3.866995573043823242e+00,-4.711601257324218750e+00,-2.957322299480438232e-01,6.342686414718627930e-01,-8.834558725357055664e-01,-3.302771806716918945e+00,-4.313220500946044922e+00,-6.349304318428039551e-01,1.770845532417297363e+00,4.447268486022949219e+00,9.272043108940124512e-01,1.513913393020629883e+00,-9.902907013893127441e-01,-2.382340192794799805e+00,-3.386413574218750000e+00,-1.075245261192321777e+00,-2.459334850311279297e+00,-4.881798744201660156e+00,-6.269207954406738281e+00,-5.398882389068603516e+00,-4.906750202178955078e+00,-5.234961509704589844e+00,-3.726547718048095703e+00,-4.037085533142089844e+00,-6.579000473022460938e+00,-7.792304992675781250e+00,-4.635709285736083984e+00
-4.738805770874023438e+00,-9.765880107879638672e-01,-1.250674128532409668e+00,-1.289190530776977539e+00,-6.805733442306518555e-01,-6.773886084556579590e-01,-2.196759462356567383e+00,-3.981081485748291016e+00,4.549742937088012695e-01,1.785483002662658691e+00,1.567626833915710449e+00,-3.493745326995849609e+00,-3.407216548919677734e+00,-2.748085021972656250e+00,-9.166684150695800781e-01,-7.515769451856613159e-02,-9.752060770988464355e-01,-3.626879453659057617e+00,-5.282808780670166016e+00,-4.115058422088623047e+00,-3.409802198410034180e+00,-4.216660976409912109e+00,-8.454411506652832031e+00,-5.758728027343750000e+00,-4.280191421508789062e+00,-3.331449031829833984e+00,-5.542791366577148438e+00,-3.902735948562622070e+00,-3.487800836563110352e+00,-6.190989017486572266e+00,-7.141443729400634766e+00,-7.158331394195556641e+00
-2.455334186553955078e+00,-1.827808260917663574e+00,-4.609913825988769531e+00,-4.707027912139892578e+00,2.753641605377197266e+00,4.103968620300292969e+00,6.574302673339843750e+00,4.434012889862060547e+00,3.465642929077148438e+00,2.541880369186401367e+00,4.203623294830322266e+00,-6.710833907127380371e-01,-1.076046586036682129e+00,-1.763645112514495850e-01,1.920031942427158356e-02,-5.300850868225097656e-01,-2.248188734054565430e+00,-1.575890421867370605e+00,-5.348030328750610352e-01,2.501212358474731445e+00,1.004423975944519043e+00,5.571686625480651855e-01,-1.900111913681030273e+00,7.359696030616760254e-01,2.479217290878295898e+00,2.445389032363891602e+00,5.944302678108215332e-01,2.298031330108642578e+00,3.241149425506591797e+00,2.472214221954345703e+00,4.360836505889892578e+00,4.536302089691162109e-01
2.255462646484375000e+00,8.403809070587158203e-01,9.688100814819335938e-01,1.406274884939193726e-01,2.395181894302368164e+00,1.007302761077880859e+00,3.212355613708496094e+00,6.590454101562500000e+00,7.939371109008789062e+00,6.865645885467529297e+00,4.980717182159423828e+00,-2.195748090744018555e+00,-1.205190062522888184e+00,2.548877000808715820e+00,2.857938766479492188e+00,4.331645667552947998e-01,-2.259002685546875000e+00,-6.214716434478759766e-01,2.060401678085327148e+00,3.994599342346191406e+00,3.691353082656860352e+00,3.380133867263793945e+00,2.848166942596435547e+00,-1.844905018806457520e+00,-2.677977979183197021e-01,2.503991842269897461e+00,3.182359218597412109e+00,2.546357870101928711e+00,4.731173515319824219e+00,7.984274387359619141e+00,1.073983097076416016e+01,4.170797824859619141e+00
4.611159801483154297e+00,2.046498537063598633e+00,2.147508144378662109e+00,7.680751681327819824e-01,2.162943601608276367e+00,3.105213046073913574e-01,-1.004885435104370117e+00,6.037738174200057983e-02,2.592088699340820312e+00,4.239978790283203125e+00,1.336808204650878906e+00,-5.020441532135009766e+00,-7.130110740661621094e+00,-5.315299034118652344e+00,-3.334457635879516602e+00,-3.742129087448120117e+00,-4.666783809661865234e+00,-5.152321815490722656e+00,-2.060678005218505859e+00,-1.619947791099548340e+00,4.236871004104614258e-02,2.435464560985565186e-01,1.283861041069030762e+00,-1.022642731666564941e+00,1.018190309405326843e-01,2.039787054061889648e+00,1.779993653297424316e+00,7.822309136390686035e-01,2.186276674270629883e+00,2.144199371337890625e+00,3.273773431777954102e+00,-1.154368162155151367e+00
8.839260101318359375e+00,7.001665592193603516e+00,1.833363175392150879e+00,-2.632680833339691162e-01,6.489634037017822266e+00,7.968228340148925781e+00,6.872143745422363281e+00,3.650544643402099609e+00,-2.174726009368896484e+00,-2.529554605484008789e+00,-8.148919939994812012e-01,-1.313885450363159180e+00,-4.849131107330322266e+00,-6.422480106353759766e+00,-4.486603736877441406e+00,-3.514724969863891602e+00,-2.207404613494873047e+00,-6.796808719635009766e+00,-5.155916690826416016e+00,-3.068098306655883789e+00,-4.331459701061248779e-01,7.583031654357910156e-01,2.713531255722045898e+00,7.785532474517822266e+00,8.956162452697753906e+00,8.051692962646484375e+00,4.954978942871093750e+00,6.906948566436767578e+00,6.457040786743164062e+00,2.405112266540527344e+00,3.304834604263305664e+00,5.277905941009521484e+00
1.345552253723144531e+01,1.314753818511962891e+01,8.177855491638183594e+00,6.981211662292480469e+00,1.169345951080322266e+01,1.156744003295898438e+01,1.179427814483642578e+01,1.039624881744384766e+01,3.889218866825103760e-01,-3.936402320861816406e+00,2.269222259521484375e+00,4.989605426788330078e+00,4.011529445648193359e+00,1.056633234024047852e+00,-3.911647200584411621e-01,2.263654232025146484e+00,1.572901844978332520e+00,-3.045941591262817383e+00,-3.688123226165771484e+00,6.759457588195800781e-01,1.337805628776550293e+00,4.391653537750244141e+00,4.860180377960205078e+00,9.695218086242675781e+00,1.256981468200683594e+01,1.473117542266845703e+01,1.044150733947753906e+01,1.018825340270996094e+01,1.164281177520751953e+01,1.182161617279052734e+01,1.426316452026367188e+01,1.803791999816894531e+01
7.812738418579101562e+00,5.175799846649169922e+00,8.059853315353393555e-01,1.470803022384643555e+00,6.046412467956542969e+00,5.443050384521484375e+00,5.687115669250488281e+00,4.900799274444580078e+00,-1.272894024848937988e+00,-3.473842620849609375e+00,4.328733444213867188e+00,6.952928066253662109e+00,7.332332134246826172e+00,3.619406223297119141e+00,-2.811285972595214844e+00,5.821037888526916504e-01,-1.522330045700073242e+00,-2.591320037841796875e+00,-4.490488529205322266e+00,-1.403519153594970703e+00,-2.825504064559936523e+00,1.234285950660705566e+00,-2.873862162232398987e-02,2.055074930191040039e+00,6.575529575347900391e+00,1.079050159454345703e+01,7.354389190673828125e+00,4.223487377166748047e+00,5.452799320220947266e+00,8.332878112792968750e+00,1.310840606689453125e+01,8.739723205566406250e+00
-1.567422986030578613e+00,-3.326582431793212891e+00,-9.921624183654785156e+00,-9.653973579406738281e+00,-1.278222352266311646e-01,9.702081680297851562e-01,5.157243013381958008e-01,-7.762063741683959961e-01,-4.069963455200195312e+00,-3.500308752059936523e+00,2.816758871078491211e+00,5.640954494476318359e+00,7.298408031463623047e+00,3.935441255569458008e+00,-3.351930618286132812e+00,-1.290486216545104980e+00,-4.485760033130645752e-01,-4.623475074768066406e+00,-7.046743869781494141e+00,-7.937973022460937500e+00,-7.265663146972656250e+00,-5.119991302490234375e+00,-3.529144525527954102e+00,-2.230388641357421875e+00,7.591076493263244629e-01,1.595339179039001465e+00,4.267280399799346924e-01,-3.674666285514831543e-01,-7.879987359046936035e-01,-8.647484779357910156e-01,1.934410214424133301e+00,-5.680298805236816406e+00
-6.160686016082763672e+00,-5.452780246734619141e+00,-7.524252891540527344e+00,-1.022557926177978516e+01,-3.743476867675781250e+00,-5.222618103027343750e+00,-5.120905876159667969e+00,-4.968445777893066406e+00,-7.135096549987792969e+00,-4.903759002685546875e+00,-1.320643663406372070e+00,-2.212049484252929688e+00,-3.253355622291564941e-01,-9.427146613597869873e-02,-1.785562157630920410e+00,1.408944837749004364e-02,3.381049633026123047e+00,-2.260120630264282227e+00,-3.556326627731323242e+00,-7.628346920013427734e+00,-4.399634361267089844e+00,-3.274759531021118164e+00,-1.177369594573974609e+00,-3.997409343719482422e+00,-2.460065126419067383e+00,-2.882259607315063477e+00,-3.239053249359130859e+00,-3.930639982223510742e+00,-4.137700557708740234e+00,-4.815192699432373047e+00,-3.923226356506347656e+00,-7.691354274749755859e+00
-7.812823295593261719e+00,-8.860115051269531250e+00,-8.672091484069824219e+00,-1.148703002929687500e+01,-9.123164176940917969e+00,-1.089018726348876953e+01,-1.025784683227539062e+01,-1.000004291534423828e+01,-1.040807723999023438e+01,-7.208411216735839844e+00,-4.675850868225097656e+00,-7.905266284942626953e+00,-9.517728805541992188e+00,-7.866056919097900391e+00,-5.319503307342529297e+00,-3.019623994827270508e+00,-9.245548248291015625e-01,1.461726784706115723e+00,8.647746443748474121e-01,-2.683713197708129883e+00,-3.190376996994018555e+00,-1.886624813079833984e+00,-2.618135929107666016e+00,-6.191779613494873047e+00,-3.809605836868286133e+00,-4.390183925628662109e+00,-5.533318996429443359e+00,-8.021437644958496094e+00,-8.181094169616699219e+00,-7.222310066223144531e+00,-3.630848169326782227e+00,-1.148004722595214844e+01
-6.677053928375244141e+00,-9.078845024108886719e+00,-1.286479473114013672e+01,-1.072957515716552734e+01,-4.737269401550292969e+00,-5.480128765106201172e+00,-6.326336383819580078e+00,-4.833108425140380859e+00,-5.066452026367187500e+00,-4.410131931304931641e+00,-4.419144153594970703e+00,-2.754944801330566406e+00,-3.694523334503173828e+00,-2.096572875976562500e+00,-7.163988947868347168e-01,2.037224292755126953e+00,1.036908626556396484e+00,3.921452999114990234e+00,5.401031017303466797e+00,2.849343776702880859e+00,5.685879588127136230e-01,-1.548093914985656738e+00,-2.430271625518798828e+00,-4.905951976776123047e+00,-1.719749212265014648e+00,-3.845466852188110352e+00,-4.980761051177978516e+00,-8.502375602722167969e+00,-8.666684150695800781e+00,-8.994194984436035156e+00,-5.348818778991699219e+00,-1.239996910095214844e+01
1.708177626132965088e-01,-2.110044717788696289e+00,-6.844393730163574219e+00,-4.343196868896484375e+00,1.943296074867248535e+00,2.515428543090820312e+00,8.766011595726013184e-01,2.969500124454498291e-01,7.048217207193374634e-02,1.095777273178100586e+00,-5.287464857101440430e-01,5.046455383300781250e+00,6.093230724334716797e+00,8.022478103637695312e+00,8.724045753479003906e+00,8.708986282348632812e+00,5.250706195831298828e+00,1.843927860260009766e+00,4.376568317413330078e+00,3.586860179901123047e+00,4.858257770538330078e+00,7.453953623771667480e-01,2.489429950714111328e+00,5.747173428535461426e-01,4.202901840209960938e+00,1.267799258232116699e+00,1.416032433509826660e+00,-2.376569986343383789e+00,-2.171338796615600586e+00,-6.724818706512451172e+00,-4.961937427520751953e+00,-2.973531484603881836e+00
3.191557168960571289e+00,3.986492633819580078e+00,4.751273632049560547e+00,4.868081569671630859e+00,3.275130748748779297e+00,2.205891132354736328e+00,1.950679898262023926e+00,2.528038263320922852e+00,4.625098705291748047e+00,6.365676403045654297e+00,4.055799484252929688e+00,2.540963411331176758e+00,1.760546445846557617e+00,7.126944065093994141e+00,1.160726070404052734e+01,4.077527046203613281e+00,-6.342641115188598633e-01,-4.101805388927459717e-02,2.751694917678833008e+00,5.168066501617431641e+00,5.544039726257324219e+00,2.864223480224609375e+00,2.295136451721191406e+00,4.678615570068359375e+00,1.183783817291259766e+01,1.052092933654785156e+01,7.362125873565673828e+00,1.407194614410400391e+00,1.265048980712890625e+00,2.057348251342773438e+00,1.097332859039306641e+01,4.155653953552246094e+00
4.617312252521514893e-01,4.694479465484619141e+00,1.034043693542480469e+01,1.123190498352050781e+01,5.012735843658447266e+00,2.152810335159301758e+00,1.310774445533752441e+00,5.059511661529541016e+00,7.608553409576416016e+00,7.210325241088867188e+00,4.507257461547851562e+00,-2.537896156311035156e+00,-2.834752321243286133e+00,7.740475177764892578e+00,1.638111686706542969e+01,7.108819007873535156e+00,1.242054820060729980e+00,5.895507812500000000e+00,1.136042308807373047e+01,1.398226261138916016e+01,1.059177112579345703e+01,5.578559398651123047e+00,4.424769878387451172e-01,2.509859561920166016e+00,1.133606433868408203e+01,1.317623424530029297e+01,6.491885662078857422e+00,-1.597622871398925781e+00,-2.364275217056274414e+00,6.885787010192871094e+00,1.935250282287597656e+01,6.072017192840576172e+00
-1.329336881637573242e+00,-1.032724261283874512e+00,4.418072223663330078e+00,5.515216827392578125e+00,2.163334608078002930e+00,1.929149866104125977e+00,2.115144252777099609e+00,2.452203512191772461e+00,3.651456594467163086e+00,3.169579505920410156e+00,6.203965544700622559e-01,-9.440104365348815918e-01,1.064905524253845215e+00,7.565909385681152344e+00,1.180318069458007812e+01,8.157979965209960938e+00,3.637885093688964844e+00,2.120797872543334961e+00,7.124472141265869141e+00,8.028388977050781250e+00,7.040143966674804688e+00,9.190816283226013184e-01,-1.608988881111145020e+00,-2.596230030059814453e+00,4.043305397033691406e+00,6.563258647918701172e+00,1.501618146896362305e+00,-5.805323600769042969e+00,-5.811323165893554688e+00,7.109146118164062500e-01,7.165410041809082031e+00,4.866165161132812500e+00
-5.730820178985595703e+00,-8.723743438720703125e+00,-6.723527431488037109e+00,-4.960539340972900391e+00,-6.076311111450195312e+00,-5.695649147033691406e+00,-3.586663961410522461e+00,-3.165419340133666992e+00,-1.236543536186218262e+00,-2.043034791946411133e+00,-5.570119857788085938e+00,-2.943090438842773438e+00,-2.677677869796752930e+00,-8.877061605453491211e-01,-1.662535429000854492e+00,-3.223898410797119141e+00,-6.167106628417968750e+00,-5.500771999359130859e+00,-2.156445741653442383e+00,-1.755393147468566895e+00,-1.326232790946960449e+00,-5.881637096405029297e+00,-6.331960201263427734e+00,-5.818844318389892578e+00,7.428947687149047852e-01,9.263182282447814941e-01,-2.698385238647460938e+00,-7.260004997253417969e+00,-5.868949890136718750e+00,-4.042029380798339844e+00,-9.408813714981079102e-02,-4.389915943145751953e+00
-1.042901897430419922e+01,-8.437520027160644531e+00,-8.035062789916992188e+00,-5.455439090728759766e+00,-1.022275161743164062e+01,-1.144047355651855469e+01,-1.203464412689208984e+01,-8.212823867797851562e+00,-4.737386226654052734e+00,-5.660480022430419922e+00,-1.026141738891601562e+01,-1.169879722595214844e+01,-1.333144950866699219e+01,-5.512434482574462891e+00,-2.686051726341247559e-01,-5.253057003021240234e+00,-1.011391067504882812e+01,-3.583557605743408203e+00,6.951239109039306641e-01,-8.102279901504516602e-01,-4.558792591094970703e+00,-1.094146442413330078e+01,-1.058585643768310547e+01,-9.460950851440429688e+00,-3.340596199035644531e+00,-3.221340417861938477e+00,-4.359465599060058594e+00,-5.458661556243896484e+00,-4.233992099761962891e+00,-4.498747348785400391e+00,-3.643024206161499023e+00,-1.134102058410644531e+01
-1.229894447326660156e+01,-8.362188339233398438e+00,-6.368621826171875000e+00,-5.671198368072509766e+00,-1.073464202880859375e+01,-1.028053951263427734e+01,-1.095750904083251953e+01,-9.179987907409667969e+00,-5.641509056091308594e+00,-5.939730644226074219e+00,-8.382227897644042969e+00,-1.294695568084716797e+01,-1.350279426574707031e+01,-6.068818092346191406e+00,4.046856403350830078e+00,-1.929088592529296875e+00,-7.494886875152587891e+00,-4.969535350799560547e+00,-2.426535040140151978e-01,-3.351309299468994141e+00,-7.957065105438232422e+00,-1.362732505798339844e+01,-1.026447963714599609e+01,-1.106941413879394531e+01,-8.340573310852050781e+00,-7.558477401733398438e+00,-3.979318380355834961e+00,-5.780103683471679688e+00,-7.266020298004150391e+00,-7.913339614868164062e+00,-9.794859886169433594e+00,-1.095466804504394531e+01
-1.267122650146484375e+01,-1.343835926055908203e+01,-1.111521816253662109e+01,-1.118321895599365234e+01,-1.121919441223144531e+01,-1.007066631317138672e+01,-8.885312080383300781e+00,-9.762079238891601562e+00,-6.313291072845458984e+00,-7.515008926391601562e+00,-7.476079463958740234e+00,-8.100064277648925781e+00,-7.928691864013671875e+00,-7.974531173706054688e+00,-4.362075328826904297e+00,-7.577235221862792969e+00,-9.800415039062500000e+00,-9.042055130004882812e+00,-8.097177505493164062e+00,-8.200406074523925781e+00,-8.338509559631347656e+00,-9.465277671813964844e+00,-8.170535087585449219e+00,-8.828192710876464844e+00,-6.704936027526855469e+00,-7.517241001129150391e+00,-4.529929637908935547e+00,-7.831602096557617188e+00,-1.066402721405029297e+01,-9.262701988220214844e+00,-7.717896461486816406e+00,-9.739896774291992188e+00
-8.633557319641113281e+00,-8.036670684814453125e+00,-5.985579967498779297e+00,-6.357030391693115234e+00,-7.075476646423339844e+00,-6.313586711883544922e+00,-6.826000213623046875e+00,-7.965979576110839844e+00,-7.687695980072021484e+00,-1.061729717254638672e+01,-9.047845840454101562e+00,-5.541445732116699219e+00,-5.186987876892089844e+00,-5.676210403442382812e+00,-6.788861274719238281e+00,-8.470854759216308594e+00,-8.577058792114257812e+00,-6.879301071166992188e+00,-7.197771072387695312e+00,-7.078069686889648438e+00,-7.106805324554443359e+00,-6.362505435943603516e+00,-5.166650772094726562e+00,-4.904254436492919922e+00,-2.545019149780273438e+00,-2.472565650939941406e+00,-3.063724517822265625e+00,-5.137770175933837891e+00,-6.080676078796386719e+00,-2.150345802307128906e+00,1.847778677940368652e+00,-2.690132856369018555e+00
1.689044237136840820e+00,3.486630678176879883e+00,6.613029003143310547e+00,4.689402103424072266e+00,-3.673156797885894775e-01,2.196445226669311523e+00,1.887956380844116211e+00,-3.493160307407379150e-01,-3.134023904800415039e+00,-3.714396476745605469e+00,-6.206057071685791016e-01,2.805629491806030273e+00,2.422134876251220703e+00,2.412466049194335938e+00,1.977434515953063965e+00,1.791446328163146973e+00,2.900873422622680664e+00,2.824874877929687500e+00,3.218719959259033203e+00,1.599825978279113770e+00,2.270237505435943604e-01,6.313096284866333008e-01,2.330722093582153320e+00,2.426387548446655273e+00,4.019861698150634766e+00,5.192105770111083984e+00,3.234729528427124023e+00,2.742643356323242188e+00,2.859993696212768555e+00,4.752112388610839844e+00,6.348292350769042969e+00,8.211023330688476562e+00
-4.832348227500915527e-01,-5.162085294723510742e-01,1.189536929130554199e+00,-1.773159801959991455e-01,-3.262445211410522461e+00,-5.061621665954589844e-01,8.250429034233093262e-01,-8.060308098793029785e-01,-1.640293359756469727e+00,1.373734951019287109e+00,3.420291185379028320e+00,3.799875736236572266e+00,4.247966766357421875e+00,4.034468650817871094e+00,4.753190040588378906e+00,3.747639894485473633e+00,5.547034263610839844e+00,6.453190326690673828e+00,6.441851139068603516e+00,7.141507625579833984e+00,7.283334732055664062e+00,7.117023944854736328e+00,4.123695373535156250e+00,2.306292057037353516e+00,5.322907924652099609e+00,5.624982833862304688e+00,3.673239469528198242e+00,1.325211286544799805e+00,-6.179831922054290771e-02,2.068808525800704956e-01,1.918533682823181152e+00,4.452037334442138672e+00
-8.897106170654296875e+00,-8.006229400634765625e+00,-1.047080516815185547e+01,-1.021873760223388672e+01,-8.095592498779296875e+00,-6.268580913543701172e+00,-6.596895217895507812e+00,-8.196709632873535156e+00,-8.900081634521484375e+00,-6.580322265625000000e+00,-4.208348751068115234e+00,-2.689003944396972656e+00,-1.388390421867370605e+00,-1.031818628311157227e+00,6.867581605911254883e-01,-8.653771281242370605e-01,-9.849166870117187500e-02,1.859138131141662598e+00,2.144764661788940430e+00,2.669562816619873047e+00,2.605440378189086914e+00,1.161789178848266602e+00,-1.482379794120788574e+00,-5.022304534912109375e+00,-3.602211952209472656e+00,-3.455111026763916016e+00,-2.469324827194213867e+00,-2.713100671768188477e+00,-4.764014720916748047e+00,-2.630293846130371094e+00,-2.333235025405883789e+00,-4.444576263427734375e+00
-3.558811187744140625e+00,1.824378728866577148e+00,-9.143112897872924805e-01,-2.761074304580688477e+00,-4.340307712554931641e+00,-7.302629947662353516e-01,-1.233709335327148438e+00,-4.971523284912109375e+00,-7.781167984008789062e+00,-1.008629894256591797e+01,-5.458072662353515625e+00,1.704241752624511719e+00,1.608285427093505859e+00,-3.515564501285552979e-01,1.056015938520431519e-01,-8.119327425956726074e-01,-3.974753022193908691e-01,-2.177860736846923828e-01,-4.703778922557830811e-01,-2.747005224227905273e+00,-2.930532455444335938e+00,-2.098156929016113281e+00,5.263324975967407227e-01,-6.333650946617126465e-01,-1.049547672271728516e+00,-6.186808273196220398e-02,1.916259288787841797e+00,4.760620117187500000e+00,4.699280261993408203e+00,5.945046424865722656e+00,3.899131298065185547e+00,6.174694061279296875e+00
1.371327304840087891e+01,1.529676914215087891e+01,1.284934520721435547e+01,1.097978878021240234e+01,8.337094306945800781e+00,1.182905673980712891e+01,1.258384704589843750e+01,8.873819351196289062e+00,6.407722949981689453e+00,7.675247192382812500e-01,6.402376651763916016e+00,1.282187938690185547e+01,1.152065372467041016e+01,6.926830291748046875e+00,6.294597148895263672e+00,5.668220520019531250e+00,8.009778022766113281e+00,7.845763206481933594e+00,5.343242168426513672e+00,4.570598602294921875e+00,5.803034782409667969e+00,1.035986137390136719e+01,1.261405563354492188e+01,1.393922805786132812e+01,1.682228851318359375e+01,1.907555961608886719e+01,1.746967887878417969e+01,1.608699226379394531e+01,1.439640522003173828e+01,1.703479194641113281e+01,2.127448463439941406e+01,2.512757301330566406e+01
1.632735252380371094e+01,1.302885437011718750e+01,1.229924201965332031e+01,1.278918933868408203e+01,1.271080875396728516e+01,1.391613292694091797e+01,1.385915088653564453e+01,1.002754974365234375e+01,8.978743553161621094e+00,5.608227252960205078e+00,1.082421302795410156e+01,1.234233283996582031e+01,1.342468643188476562e+01,1.132040882110595703e+01,1.343987464904785156e+01,1.372556400299072266e+01,1.559576034545898438e+01,1.439288139343261719e+01,1.092942810058593750e+01,1.157485771179199219e+01,1.166443729400634766e+01,1.434346675872802734e+01,1.446092319488525391e+01,1.329985713958740234e+01,1.468142509460449219e+01,1.808175086975097656e+01,1.742979812622070312e+01,1.492584896087646484e+01,1.002331447601318359e+01,1.625726318359375000e+01,2.456252479553222656e+01,2.076224899291992188e+01
5.926850318908691406e+00,9.576635360717773438e+00,6.864444732666015625e+00,2.910107612609863281e+00,3.966973163187503815e-03,4.772485256195068359e+00,4.911638259887695312e+00,-1.751935958862304688e+00,-1.813855171203613281e+00,-1.225952148437500000e+00,4.514716148376464844e+00,3.870941638946533203e+00,3.876902341842651367e+00,7.147018313407897949e-01,2.817561626434326172e+00,5.055412769317626953e+00,5.193350791931152344e+00,2.182072639465332031e+00,-2.077041387557983398e+00,-1.270909667015075684e+00,-5.026078820228576660e-01,2.804260015487670898e+00,5.124249458312988281e+00,1.531132936477661133e+00,-3.912852287292480469e+00,5.066173672676086426e-01,5.917923450469970703e+00,8.182292938232421875e+00,3.770862817764282227e+00,5.822969913482666016e+00,8.274454116821289062e+00,8.162419319152832031e+00
6.121869087219238281e+00,1.098104763031005859e+01,3.910947084426879883e+00,-6.040895581245422363e-01,-1.050462007522583008e+00,5.123578071594238281e+00,5.367728710174560547e+00,-7.745068669319152832e-01,-3.677565097808837891e+00,-2.977433204650878906e+00,3.646763324737548828e+00,5.582527637481689453e+00,1.172309756278991699e+00,-7.850898742675781250e+00,-1.027220726013183594e+01,-4.019442081451416016e+00,-1.194287896156311035e+00,-7.376664876937866211e-01,-6.715478420257568359e+00,-5.468468189239501953e+00,-3.716469526290893555e+00,2.297455549240112305e+00,5.578022003173828125e+00,3.969949960708618164e+00,-1.553372383117675781e+00,8.321458697319030762e-01,5.786897659301757812e+00,8.996349334716796875e+00,7.325202941894531250e+00,5.451088905334472656e+00,4.733438014984130859e+00,1.104499244689941406e+01
1.014043903350830078e+01,7.902090549468994141e+00,1.093871498107910156e+01,1.448901557922363281e+01,1.446105766296386719e+01,1.013087749481201172e+01,9.128173828125000000e+00,1.347964477539062500e+01,8.866024017333984375e+00,3.921470165252685547e+00,3.138489484786987305e+00,8.687711715698242188e+00,6.991734504699707031e+00,2.250211954116821289e+00,7.021468132734298706e-02,3.123596668243408203e+00,6.403469085693359375e+00,9.378716468811035156e+00,5.398227214813232422e+00,7.042915344238281250e+00,6.365276813507080078e+00,7.390226840972900391e+00,8.285017013549804688e+00,9.449236869812011719e+00,1.173818397521972656e+01,1.100080776214599609e+01,8.870739936828613281e+00,7.373119831085205078e+00,8.710667610168457031e+00,1.088985443115234375e+01,1.390478801727294922e+01,1.539795780181884766e+01
6.757975578308105469e+00,9.244854927062988281e+00,2.227905654907226562e+01,2.456166076660156250e+01,1.571035766601562500e+01,7.696651935577392578e+00,8.292563438415527344e+00,1.698468589782714844e+01,1.398947620391845703e+01,5.937174797058105469e+00,2.830610871315002441e-01,5.559300422668457031e+00,6.292794227600097656e+00,5.503313541412353516e+00,5.320891857147216797e+00,3.000102519989013672e+00,3.524138689041137695e+00,3.112472772598266602e+00,2.718091964721679688e+00,3.248953342437744141e+00,2.651408195495605469e+00,2.424220323562622070e+00,3.152668476104736328e+00,3.797563791275024414e+00,5.441802024841308594e+00,6.755807876586914062e+00,4.515760898590087891e+00,1.978569269180297852e+00,3.010721206665039062e+00,6.662658691406250000e+00,1.003905868530273438e+01,9.482587814331054688e+00
-4.260800361633300781e+00,2.396906137466430664e+00,1.049558544158935547e+01,9.945119857788085938e+00,9.401016235351562500e-01,-2.751818895339965820e+00,-1.267639040946960449e+00,4.759205341339111328e+00,4.050988674163818359e+00,1.070597648620605469e+00,-2.312020301818847656e+00,1.203265905380249023e+00,-1.243562817573547363e+00,-7.203287601470947266e+00,-1.160793876647949219e+01,-1.146917438507080078e+01,-8.189167976379394531e+00,-6.323183536529541016e+00,-8.566425323486328125e+00,-9.264278411865234375e+00,-9.466034889221191406e+00,-4.186860561370849609e+00,-1.873590111732482910e+00,-3.073408842086791992e+00,-1.026248073577880859e+01,-8.571125984191894531e+00,-5.157396793365478516e+00,-2.420873403549194336e+00,-4.521866321563720703e+00,-7.354738235473632812e+00,-8.869404792785644531e+00,-3.177468299865722656e+00
-3.978395462036132812e-01,-2.902672767639160156e+00,-6.191210746765136719e+00,-4.688463687896728516e+00,-1.135675072669982910e+00,-1.080151200294494629e+00,-2.496594905853271484e+00,-9.177553653717041016e-01,-6.440684795379638672e-01,-7.350737452507019043e-01,-2.234262943267822266e+00,-6.498335599899291992e-01,-4.651669979095458984e+00,-1.184253787994384766e+01,-1.574154186248779297e+01,-1.245945072174072266e+01,-6.824259757995605469e+00,-2.803631305694580078e+00,-7.656975269317626953e+00,-1.053967285156250000e+01,-1.100195980072021484e+01,-3.935233592987060547e+00,4.790657758712768555e-01,-1.013579130172729492e+00,-8.523036956787109375e+00,-8.541897773742675781e+00,-3.621472597122192383e+00,6.266362667083740234e-01,-1.126444935798645020e+00,-4.418030261993408203e+00,-8.210318565368652344e+00,-3.518287897109985352e+00
7.753377437591552734e+00,5.767850875854492188e+00,6.478152275085449219e-01,1.988082289695739746e+00,8.816269874572753906e+00,7.788320064544677734e+00,6.299327850341796875e+00,5.232032299041748047e+00,2.819487333297729492e+00,1.833108365535736084e-01,6.901739835739135742e-01,3.389724195003509521e-01,-2.416250467300415039e+00,-6.080168247222900391e+00,-2.896659135818481445e+00,-3.237031698226928711e+00,-3.227047324180603027e-01,-1.245574831962585449e+00,-3.974634170532226562e+00,-6.678595542907714844e+00,-6.908165454864501953e+00,-2.914556503295898438e+00,2.040920972824096680e+00,1.361252784729003906e+00,-3.130679845809936523e+00,-1.865057468414306641e+00,2.385052442550659180e+00,3.261492013931274414e+00,3.939575195312500000e+00,7.051198959350585938e+00,6.858113288879394531e+00,4.222782135009765625e+00
1.811861693859100342e-01,3.899505853652954102e+00,6.581529617309570312e+00,6.096776962280273438e+00,4.831586360931396484e+00,2.574640512466430664e+00,3.377618551254272461e+00,4.644393444061279297e+00,1.523539185523986816e+00,-8.795481324195861816e-01,-9.846465587615966797e-01,1.989390850067138672e-01,-1.278548717498779297e+00,-3.981399059295654297e+00,-2.442133665084838867e+00,-4.893997192382812500e+00,-2.333164930343627930e+00,-4.143957138061523438e+00,-3.125171899795532227e+00,-3.849105596542358398e+00,-4.919590950012207031e+00,-4.013890743255615234e+00,-1.032934904098510742e+00,-1.764564752578735352e+00,-6.543449878692626953e+00,-6.151189327239990234e+00,-2.709966659545898438e+00,-2.369113445281982422e+00,-3.507235527038574219e+00,-2.101843833923339844e+00,2.163993358612060547e+00,-3.274767994880676270e-01
-3.607272148132324219e+00,-5.458006381988525391e+00,-5.066944599151611328e+00,-5.237749576568603516e+00,-4.446886539459228516e+00,-4.769133567810058594e+00,-4.583717823028564453e+00,-3.354211330413818359e+00,-3.711095809936523438e+00,-2.567895650863647461e+00,-5.247558593750000000e+00,-4.169240951538085938e+00,-1.595649361610412598e+00,-2.867750883102416992e+00,-7.714809417724609375e+00,-9.608859062194824219e+00,-4.242069721221923828e+00,-2.990888595581054688e+00,-3.161782264709472656e+00,-3.578448295593261719e+00,-5.595563888549804688e+00,-5.404642105102539062e+00,-4.538545608520507812e+00,-4.567820549011230469e+00,-8.322833061218261719e+00,-9.545697212219238281e+00,-7.329957485198974609e+00,-6.772058963775634766e+00,-1.022270202636718750e+01,-1.308011722564697266e+01,-8.735398292541503906e+00,-1.150497627258300781e+01
-2.972179889678955078e+00,-6.291628837585449219e+00,-9.880182266235351562e+00,-1.022577381134033203e+01,-4.181519985198974609e+00,-4.655536651611328125e+00,-4.852459430694580078e+00,-3.976250648498535156e+00,-8.341200351715087891e-01,-8.328374028205871582e-01,-5.264190196990966797e+00,-8.276257514953613281e+00,-6.163092613220214844e+00,-6.794063091278076172e+00,-8.960361480712890625e+00,-8.629538536071777344e+00,-6.586737632751464844e+00,-5.938373565673828125e+00,-8.286568641662597656e+00,-8.066487312316894531e+00,-9.063960075378417969e+00,-7.527376651763916016e+00,-5.972522258758544922e+00,-7.749272346496582031e+00,-1.029697418212890625e+01,-1.025363731384277344e+01,-7.039494037628173828e+00,-4.342290401458740234e+00,-6.168427944183349609e+00,-8.310111045837402344e+00,-9.114646911621093750e+00,-1.414040756225585938e+01
-5.562298297882080078e-01,-4.508557319641113281e+00,-5.138948917388916016e+00,-4.079888343811035156e+00,3.362538576126098633e+00,-2.718345634639263153e-02,-1.418249726295471191e+00,-1.202310085296630859e+00,2.079177618026733398e+00,7.033185958862304688e-01,-2.282929182052612305e+00,-4.757681369781494141e+00,-8.575497627258300781e+00,-1.303640842437744141e+01,-1.255014228820800781e+01,-8.229873657226562500e+00,-8.774851799011230469e+00,-8.775970458984375000e+00,-1.044195652008056641e+01,-9.267503738403320312e+00,-9.511684417724609375e+00,-6.892927646636962891e+00,-2.459850549697875977e+00,-6.215489387512207031e+00,-8.449086189270019531e+00,-7.988337993621826172e+00,-4.798707008361816406e+00,2.228946834802627563e-01,2.484121799468994141e+00,1.629854321479797363e+00,-3.515593767166137695e+00,-4.323717594146728516e+00
6.013875484466552734e+00,8.645102381706237793e-02,-3.589189350605010986e-01,3.590374708175659180e+00,7.463244915008544922e+00,4.917786121368408203e+00,2.612574100494384766e+00,1.341524481773376465e+00,6.555479485541582108e-03,-3.082515954971313477e+00,-2.766207218170166016e+00,1.610569596290588379e+00,-1.944939255714416504e+00,-6.671404361724853516e+00,-7.976227283477783203e+00,-4.276927471160888672e+00,-2.468371868133544922e+00,-1.665240049362182617e+00,-3.645582914352416992e+00,-6.793670177459716797e+00,-6.511260986328125000e+00,-1.180259227752685547e+00,3.084165811538696289e+00,1.601983904838562012e+00,-6.936948001384735107e-02,4.550299048423767090e-01,1.809638619422912598e+00,2.104166746139526367e+00,4.789012908935546875e+00,4.684466838836669922e+00,3.997228384017944336e+00,5.878102302551269531e+00
7.204890727996826172e+00,9.834784507751464844e+00,9.143555641174316406e+00,9.754492759704589844e+00,4.888854503631591797e+00,5.741576671600341797e+00,6.583149909973144531e+00,6.293389320373535156e+00,2.863004922866821289e+00,-2.040636062622070312e+00,-9.645649790763854980e-01,5.702981472015380859e+00,6.600097179412841797e+00,6.286889553070068359e+00,5.947665214538574219e+00,6.118233203887939453e+00,6.512465476989746094e+00,5.896138191223144531e+00,4.330697059631347656e+00,5.503559708595275879e-01,1.136848449707031250e+00,4.789311408996582031e+00,5.001449108123779297e+00,5.350696086883544922e+00,6.052372455596923828e+00,7.113266468048095703e+00,6.731921672821044922e+00,1.680665493011474609e+00,7.480328679084777832e-01,3.178874015808105469e+00,1.018964576721191406e+01,8.786290168762207031e+00
-1.920504868030548096e-01,6.678020000457763672e+00,9.376896858215332031e+00,6.781942367553710938e+00,-5.520817637443542480e-01,4.353917837142944336e-01,2.607412099838256836e+00,3.168872594833374023e+00,5.511006355285644531e+00,5.593423366546630859e+00,2.786740064620971680e+00,3.287158012390136719e+00,3.309913635253906250e+00,2.041654586791992188e+00,2.263433456420898438e+00,2.271605014801025391e+00,1.352230906486511230e+00,-5.254632234573364258e-01,-1.045555710792541504e+00,1.688228249549865723e+00,2.462214946746826172e+00,1.928323268890380859e+00,1.266898632049560547e+00,2.646062076091766357e-01,-4.408885240554809570e-01,1.297823429107666016e+00,3.276158571243286133e+00,1.249840617179870605e+00,-1.385830163955688477e+00,2.214724540710449219e+00,7.559770107269287109e+00,6.878887176513671875e+00
-6.067357063293457031e+00,-5.545710086822509766e+00,-2.246544361114501953e+00,-2.580769300460815430e+00,-5.495208740234375000e+00,-4.919744491577148438e+00,-5.271724700927734375e+00,-5.610899925231933594e+00,3.865169048309326172e+00,8.884136199951171875e+00,5.578544735908508301e-01,-4.273771762847900391e+00,-4.950181007385253906e+00,-7.013848781585693359e+00,-6.727008342742919922e+00,-6.385979652404785156e+00,-5.358789443969726562e+00,-5.271821022033691406e+00,-4.526972770690917969e+00,-2.125231504440307617e+00,-2.761777400970458984e+00,-4.242638587951660156e+00,-4.522954940795898438e+00,-3.730509042739868164e+00,-4.534159660339355469e+00,-3.858091831207275391e+00,-3.351497650146484375e+00,-2.206154584884643555e+00,-2.044519662857055664e+00,-1.241538286209106445e+00,-3.941376447677612305e+00,-1.039500236511230469e+00
-5.300209999084472656e+00,-6.124235630035400391e+00,-6.159274101257324219e+00,-4.301004409790039062e+00,-3.740774393081665039e+00,-2.230984449386596680e+00,-2.073354721069335938e+00,-4.992599487304687500e-01,3.289000511169433594e+00,5.311774730682373047e+00,-1.150540262460708618e-01,-1.032846689224243164e+00,5.936079025268554688e-01,3.882935047149658203e+00,5.058248996734619141e+00,2.861711025238037109e+00,3.314734458923339844e+00,4.976065158843994141e+00,5.106294155120849609e+00,2.500210762023925781e+00,9.478753805160522461e-01,-1.133939385414123535e+00,-3.191490650177001953e+00,7.769998311996459961e-01,3.786340236663818359e+00,1.516564369201660156e+00,-3.537396669387817383e+00,-5.306660175323486328e+00,-2.887856721878051758e+00,-5.451144695281982422e+00,-1.182662487030029297e+01,-1.044417667388916016e+01
-1.185190081596374512e+00,-1.812237501144409180e+00,-5.368855953216552734e+00,-2.932728052139282227e+00,-7.190563678741455078e-01,1.482274174690246582e+00,1.867988348007202148e+00,5.121581554412841797e+00,5.993802547454833984e-01,5.873721837997436523e-02,8.785892724990844727e-01,5.120978355407714844e+00,6.310575008392333984e+00,1.051188087463378906e+01,1.192831420898437500e+01,9.273632049560546875e+00,7.872456550598144531e+00,8.052959442138671875e+00,8.183591842651367188e+00,8.742682456970214844e+00,1.043534374237060547e+01,7.691048145294189453e+00,4.940043926239013672e+00,6.124351501464843750e+00,7.640198230743408203e+00,5.500576972961425781e+00,2.574497699737548828e+00,3.148231267929077148e+00,2.296984195709228516e+00,-1.583681851625442505e-01,-5.203284740447998047e+00,-3.054477930068969727e+00
-4.766210556030273438e+00,-2.479661226272583008e+00,-4.717882633209228516e+00,-4.518701076507568359e+00,-4.137854576110839844e+00,-3.613891601562500000e+00,-6.078524589538574219e+00,-3.235646963119506836e+00,-3.782397508621215820e+00,-2.043595790863037109e+00,-4.104193210601806641e+00,-4.094494342803955078e+00,-3.316813468933105469e+00,1.807561218738555908e-01,1.678560614585876465e+00,-1.579271912574768066e+00,-3.937633037567138672e+00,-3.217546224594116211e+00,4.655500054359436035e-01,2.911242723464965820e+00,4.980690956115722656e+00,2.251310825347900391e+00,1.304434418678283691e+00,1.125976324081420898e+00,2.746415138244628906e+00,1.755683660507202148e+00,5.120308995246887207e-01,5.938370704650878906e+00,4.149405956268310547e+00,6.092189788818359375e+00,5.436686515808105469e+00,6.490125656127929688e+00
-3.924210071563720703e+00,2.711911678314208984e+00,5.334149360656738281e+00,2.833250999450683594e+00,-1.451246976852416992e+00,-2.828587532043457031e+00,-3.661805391311645508e+00,-3.100032567977905273e+00,3.854607045650482178e-01,2.522182941436767578e+00,-1.263656377792358398e+00,-4.753991127014160156e+00,-2.785416603088378906e+00,-1.095597267150878906e+00,-1.628202438354492188e+00,-4.597558975219726562e+00,-5.618613243103027344e+00,-3.347594738006591797e+00,-2.112746477127075195e+00,-3.849336624145507812e+00,-4.652872085571289062e+00,-2.760345935821533203e+00,-2.770633697509765625e+00,-6.993237137794494629e-01,2.727399826049804688e+00,2.001160860061645508e+00,-2.318637847900390625e+00,1.267659068107604980e-01,1.232788801193237305e+00,5.346695423126220703e+00,6.991894721984863281e+00,2.889518976211547852e+00
5.224642753601074219e+00,5.770520210266113281e+00,1.176568889617919922e+01,1.012249660491943359e+01,4.798906326293945312e+00,2.258752822875976562e+00,5.037094116210937500e+00,4.317493438720703125e+00,6.259997844696044922e+00,8.916007995605468750e+00,1.037526512145996094e+01,9.505975723266601562e+00,8.256240844726562500e+00,6.845471382141113281e+00,3.681504964828491211e+00,5.785580635070800781e+00,8.005866050720214844e+00,9.293944358825683594e+00,6.265347957611083984e+00,3.131017208099365234e+00,1.194532036781311035e+00,3.841952323913574219e+00,4.840221881866455078e+00,4.268313407897949219e+00,3.819531440734863281e+00,3.601279258728027344e+00,4.060554504394531250e+00,2.475522279739379883e+00,3.063763141632080078e+00,2.043075561523437500e+00,1.098265171051025391e+00,-3.158418536186218262e-01
3.769485473632812500e+00,1.778620243072509766e+00,4.332316875457763672e+00,2.234864473342895508e+00,1.214664280414581299e-01,-5.856376886367797852e-01,4.452909827232360840e-01,3.491796553134918213e-01,1.915783762931823730e+00,4.430757522583007812e+00,6.560127258300781250e+00,6.200396060943603516e+00,2.650712728500366211e+00,2.807867288589477539e+00,1.204512238502502441e+00,5.863414764404296875e+00,6.664279460906982422e+00,5.924286842346191406e+00,5.518989562988281250e+00,6.009749412536621094e+00,5.729222774505615234e+00,4.516024589538574219e+00,6.109847068786621094e+00,1.681862235069274902e+00,-1.917473435401916504e+00,-9.885703772306442261e-02,6.322790145874023438e+00,5.675380706787109375e+00,2.022571563720703125e+00,-2.484091758728027344e+00,-2.596275568008422852e+00,4.292566776275634766e+00
2.717861831188201904e-01,4.481473922729492188e+00,1.587311506271362305e+00,-9.858653545379638672e-01,-4.309960827231407166e-02,1.853381037712097168e+00,-9.475540518760681152e-01,-2.080772638320922852e+00,-3.084911584854125977e+00,-5.020695209503173828e+00,-4.333969116210937500e+00,-4.945264339447021484e+00,-3.070265769958496094e+00,-2.412822961807250977e+00,-1.402436733245849609e+00,-7.453139424324035645e-01,-2.064476966857910156e+00,-4.828228950500488281e+00,-4.299885272979736328e+00,-1.482641339302062988e+00,1.710397362709045410e+00,2.342659235000610352e+00,1.894098877906799316e+00,-4.124469161033630371e-01,-7.901284098625183105e-01,1.542242884635925293e+00,1.885721683502197266e+00,1.683508634567260742e+00,-5.508027672767639160e-01,-8.253323435783386230e-01,1.908768057823181152e+00,6.831124782562255859e+00
1.017828655242919922e+01,6.305215835571289062e+00,6.444963455200195312e+00,9.391809463500976562e+00,1.078221035003662109e+01,1.032914638519287109e+01,8.549067497253417969e+00,7.925487518310546875e+00,8.555566519498825073e-02,-3.384088754653930664e+00,1.194235682487487793e+00,3.260322809219360352e+00,6.435546398162841797e+00,4.600613117218017578e+00,7.534845829010009766e+00,4.689623832702636719e+00,4.206332683563232422e+00,6.029339432716369629e-01,1.501134157180786133e+00,2.548430681228637695e+00,4.316945552825927734e+00,5.580489158630371094e+00,3.408168792724609375e+00,4.968585968017578125e+00,8.487894058227539062e+00,8.475303649902343750e+00,2.629647970199584961e+00,1.466019511222839355e+00,6.441729068756103516e+00,9.573944091796875000e+00,1.077035140991210938e+01,6.807569980621337891e+00
1.656953430175781250e+01,7.038704395294189453e+00,1.173222541809082031e+01,1.568757057189941406e+01,1.169494819641113281e+01,9.935600280761718750e+00,1.442695808410644531e+01,1.393857669830322266e+01,5.203119277954101562e+00,5.192293643951416016e+00,1.055117988586425781e+01,1.308668518066406250e+01,9.028853416442871094e+00,8.296879768371582031e+00,1.188302612304687500e+01,1.182610797882080078e+01,1.231673908233642578e+01,1.168117809295654297e+01,1.235477256774902344e+01,1.156812953948974609e+01,9.853714942932128906e+00,7.054574966430664062e+00,5.151975154876708984e+00,7.753175258636474609e+00,1.203693485260009766e+01,1.183663368225097656e+01,8.837787628173828125e+00,7.697648525238037109e+00,1.225320053100585938e+01,1.321719551086425781e+01,1.572067546844482422e+01,1.496461868286132812e+01
7.080184459686279297e+00,1.386735916137695312e+01,1.556087684631347656e+01,1.420703125000000000e+01,5.357203483581542969e+00,5.647355079650878906e+00,9.881132125854492188e+00,8.272302627563476562e+00,6.303805828094482422e+00,6.749154090881347656e+00,8.993052482604980469e+00,8.332316398620605469e+00,4.075978279113769531e+00,6.455776691436767578e+00,8.786209106445312500e+00,8.681591033935546875e+00,6.388149261474609375e+00,1.002142524719238281e+01,9.651369094848632812e+00,1.058253860473632812e+01,9.066482543945312500e+00,5.930428981781005859e+00,3.942661046981811523e+00,7.405073642730712891e+00,1.079318809509277344e+01,1.310512542724609375e+01,1.189969253540039062e+01,8.564140319824218750e+00,5.209469318389892578e+00,6.114709854125976562e+00,1.470577144622802734e+01,1.971016693115234375e+01
4.302008152008056641e+00,1.162540721893310547e+01,9.124275207519531250e+00,8.875761032104492188e+00,6.215597152709960938e+00,6.528767585754394531e+00,3.093423604965209961e+00,1.267076730728149414e+00,2.246215820312500000e+00,3.235341310501098633e+00,3.965900659561157227e+00,1.854588270187377930e+00,4.540842533111572266e+00,5.639437675476074219e+00,6.647439956665039062e+00,3.841457605361938477e+00,1.321881532669067383e+00,3.603537559509277344e+00,4.462705135345458984e+00,7.028483867645263672e+00,8.235301017761230469e+00,6.814542293548583984e+00,4.714854717254638672e+00,6.680839061737060547e+00,8.414341926574707031e+00,1.122014331817626953e+01,9.244358062744140625e+00,6.928546428680419922e+00,3.338094472885131836e+00,6.245571136474609375e+00,1.200475597381591797e+01,1.191988086700439453e+01
7.848967075347900391e+00,2.443217515945434570e+00,-1.053507208824157715e+00,1.550378441810607910e+00,5.964468479156494141e+00,5.742379188537597656e+00,1.889672517776489258e+00,6.106924414634704590e-01,-4.117966890335083008e-01,2.539531707763671875e+00,2.588372468948364258e+00,2.600387334823608398e+00,4.941343307495117188e+00,3.410058975219726562e+00,3.547484397888183594e+00,3.974972963333129883e+00,3.745877027511596680e+00,2.431302785873413086e+00,2.537156581878662109e+00,2.341711997985839844e+00,3.718270063400268555e+00,3.634818315505981445e+00,3.603932142257690430e+00,1.520877599716186523e+00,1.373059034347534180e+00,3.585358381271362305e+00,5.218427658081054688e+00,7.579789161682128906e+00,9.316862106323242188e+00,9.570388793945312500e+00,7.571436405181884766e+00,2.836256980895996094e+00
3.843515634536743164e+00,7.352708339691162109e+00,6.555358886718750000e+00,4.574155330657958984e+00,4.809988498687744141e+00,4.451769828796386719e+00,5.834113597869873047e+00,4.410499095916748047e+00,1.446502208709716797e+00,1.638435840606689453e+00,3.562266111373901367e+00,5.136022567749023438e+00,4.198199272155761719e+00,3.693857908248901367e+00,3.535903930664062500e+00,4.544359207153320312e+00,3.051438808441162109e+00,3.073897600173950195e+00,1.815690398216247559e+00,-2.706550955772399902e-01,-1.170086026191711426e+00,-4.663901925086975098e-01,8.551346063613891602e-01,-1.120399475097656250e+00,-8.626271486282348633e-01,1.387602448463439941e+00,5.664246082305908203e+00,8.793012619018554688e+00,9.451551437377929688e+00,4.792953014373779297e+00,1.439522504806518555e+00,6.859806537628173828e+00
-1.142773985862731934e+00,1.283207988739013672e+01,1.565586280822753906e+01,1.133977413177490234e+01,5.108803272247314453e+00,3.355292797088623047e+00,4.574029922485351562e+00,4.037222862243652344e+00,-1.631985425949096680e+00,-4.113346576690673828e+00,-1.322923064231872559e+00,1.034160971641540527e+00,3.408136129379272461e+00,4.711026668548583984e+00,4.600946903228759766e+00,1.207746624946594238e+00,2.753065228462219238e-01,1.769431233406066895e+00,1.997704505920410156e+00,2.601187705993652344e+00,2.374930381774902344e+00,1.875728726387023926e+00,8.382208347320556641e-01,9.443714022636413574e-01,4.150061607360839844e+00,6.098674774169921875e+00,5.275559902191162109e+00,6.357286453247070312e+00,4.533322334289550781e+00,1.417361855506896973e+00,3.940680027008056641e-01,1.364982700347900391e+01
-1.746083617210388184e+00,2.605890035629272461e+00,5.482759475708007812e+00,3.579211950302124023e+00,1.337333798408508301e+00,-2.948521971702575684e-01,-5.492959618568420410e-01,3.419226035475730896e-02,-6.584075450897216797e+00,-6.316594600677490234e+00,-5.576694011688232422e+00,-5.233744621276855469e+00,-2.662304639816284180e+00,-1.460636496543884277e+00,-1.003670930862426758e+00,-3.412723302841186523e+00,-1.844518542289733887e+00,-2.160423994064331055e+00,-1.304348707199096680e+00,7.593241333961486816e-01,1.117708921432495117e+00,1.805708289146423340e+00,-7.296385616064071655e-02,-5.262610316276550293e-01,3.364340782165527344e+00,4.198554039001464844e+00,-1.209037899971008301e+00,1.504759956151247025e-02,3.003357946872711182e-01,3.151862144470214844e+00,5.026057243347167969e+00,7.887469291687011719e+00
-4.430795669555664062e+00,-9.713063240051269531e-01,-1.015588164329528809e+00,-5.655073165893554688e+00,-3.407086849212646484e+00,-3.148478031158447266e+00,-2.702830314636230469e+00,-2.784866094589233398e+00,-5.041106700897216797e+00,-1.208067178726196289e+00,-1.238407969474792480e+00,-4.507646083831787109e+00,-7.437609195709228516e+00,-9.253293037414550781e+00,-9.220808029174804688e+00,-5.740199089050292969e+00,-3.511456251144409180e+00,-4.623943805694580078e+00,-5.254498958587646484e+00,-5.866157054901123047e+00,-7.389901161193847656e+00,-5.314845085144042969e+00,-2.843924045562744141e+00,-2.202555179595947266e+00,1.417901635169982910e+00,1.842998981475830078e+00,-3.253412008285522461e+00,-1.399601340293884277e+00,-5.408079177141189575e-02,2.989039421081542969e+00,3.897656679153442383e+00,2.138662099838256836e+00
-8.591564893722534180e-01,6.051286220550537109e+00,-1.395893454551696777e+00,-6.592122554779052734e+00,-3.337129354476928711e+00,-9.489889144897460938e-01,-2.876737356185913086e+00,-7.445964336395263672e+00,-4.852581024169921875e+00,1.597713708877563477e+00,4.993466854095458984e+00,3.002801418304443359e+00,1.214640617370605469e+00,-1.303103446960449219e+00,-4.350148677825927734e+00,-1.092307925224304199e+00,7.370285391807556152e-01,-7.301256060600280762e-01,-2.220397442579269409e-01,-1.179046750068664551e+00,-1.832471013069152832e+00,-2.309545755386352539e+00,5.068634748458862305e-01,3.612238407135009766e+00,9.237548828125000000e+00,1.097483921051025391e+01,6.058455467224121094e+00,7.518762111663818359e+00,7.566288471221923828e+00,7.945305347442626953e+00,7.126270294189453125e+00,7.443939208984375000e+00
8.458938598632812500e+00,7.195216178894042969e+00,-5.767542362213134766e+00,-7.016874790191650391e+00,2.190037250518798828e+00,4.574247360229492188e+00,3.611272573471069336e-01,-8.296385765075683594e+00,-9.584506034851074219e+00,-3.542470693588256836e+00,3.867610454559326172e+00,5.988930702209472656e+00,8.957975387573242188e+00,9.410784721374511719e+00,6.307479858398437500e+00,4.519160747528076172e+00,7.027413845062255859e+00,5.371646881103515625e+00,6.992331981658935547e+00,8.300919532775878906e+00,1.085491180419921875e+01,1.125561141967773438e+01,8.687128067016601562e+00,7.972811698913574219e+00,1.343430137634277344e+01,1.679840087890625000e+01,1.306993865966796875e+01,1.376310062408447266e+01,1.390960597991943359e+01,1.524253845214843750e+01,1.583142471313476562e+01,1.267352390289306641e+01
1.061707973480224609e+01,1.084961700439453125e+01,-1.208509922027587891e+00,-2.192683696746826172e+00,6.682039260864257812e+00,1.160625267028808594e+01,1.070869159698486328e+01,-6.269152760505676270e-01,-6.895269870758056641e+00,-6.116595268249511719e+00,4.432229995727539062e+00,7.714943885803222656e+00,9.162560462951660156e+00,1.065591621398925781e+01,1.155793857574462891e+01,1.084998512268066406e+01,1.102811527252197266e+01,1.115437889099121094e+01,1.075260543823242188e+01,1.198919773101806641e+01,1.392724132537841797e+01,1.358600330352783203e+01,1.147979831695556641e+01,9.052679061889648438e+00,1.222987365722656250e+01,1.580563449859619141e+01,1.568380641937255859e+01,1.575072574615478516e+01,1.425312423706054688e+01,1.593393230438232422e+01,1.947972679138183594e+01,8.235517501831054688e+00
-5.699725151062011719e+00,9.901531219482421875e+00,9.030709266662597656e+00,7.345084667205810547e+00,1.029232516884803772e-01,2.938302993774414062e+00,3.711573362350463867e+00,2.042892575263977051e-01,1.266132593154907227e+00,-2.205044746398925781e+00,-5.575700663030147552e-03,-5.445317029953002930e-01,-1.735205650329589844e+00,-1.988457202911376953e+00,-2.192888498306274414e+00,3.559700250625610352e-01,-4.903981387615203857e-01,6.499993801116943359e-01,3.601599037647247314e-01,-9.456887096166610718e-02,-2.666195392608642578e+00,-3.426183700561523438e+00,-3.839976310729980469e+00,-2.289613485336303711e+00,1.815881729125976562e+00,3.711379051208496094e+00,1.698874711990356445e+00,2.816663503646850586e+00,2.819452047348022461e+00,2.602748870849609375e+00,5.002576828002929688e+00,-4.224493026733398438e+00
-2.117168426513671875e+01,-3.436852931976318359e+00,6.507995605468750000e+00,5.007992744445800781e+00,-1.220987606048583984e+01,-1.427271366119384766e+01,-1.510113811492919922e+01,-7.856828212738037109e+00,-1.416589856147766113e+00,-4.280091762542724609e+00,-1.151880550384521484e+01,-1.596191501617431641e+01,-1.458401775360107422e+01,-1.531862258911132812e+01,-1.865605163574218750e+01,-1.634330558776855469e+01,-1.502530384063720703e+01,-1.460070228576660156e+01,-1.416567420959472656e+01,-1.462025833129882812e+01,-1.732202911376953125e+01,-1.838610267639160156e+01,-1.648157310485839844e+01,-1.554818058013916016e+01,-9.444095611572265625e+00,-1.016408729553222656e+01,-1.431975936889648438e+01,-1.281728839874267578e+01,-1.037773704528808594e+01,-1.057856082916259766e+01,-1.118396663665771484e+01,-1.102119159698486328e+01
-1.228665828704833984e+01,-6.004393577575683594e+00,1.222771406173706055e+00,1.849274754524230957e+00,-6.617936611175537109e+00,-9.116342544555664062e+00,-1.037876510620117188e+01,-4.750239849090576172e+00,-4.879932880401611328e+00,-7.715130329132080078e+00,-8.743616104125976562e+00,-1.131002140045166016e+01,-9.779870033264160156e+00,-8.806134223937988281e+00,-1.035533046722412109e+01,-1.000794410705566406e+01,-8.922536849975585938e+00,-9.337138175964355469e+00,-8.589620590209960938e+00,-8.557648658752441406e+00,-1.025493049621582031e+01,-1.154300117492675781e+01,-1.028473854064941406e+01,-8.843724250793457031e+00,-3.726678609848022461e+00,-5.245942592620849609e+00,-7.045227050781250000e+00,-5.894402980804443359e+00,-5.722961425781250000e+00,-5.583999633789062500e+00,-4.733873844146728516e+00,-5.098978877067565918e-01
9.884130954742431641e-01,3.117840886116027832e-01,5.801205039024353027e-01,7.082283496856689453e+00,7.891165256500244141e+00,3.137642145156860352e+00,1.514650225639343262e+00,3.219274520874023438e+00,5.036165237426757812e+00,1.791687607765197754e+00,5.489416718482971191e-01,-5.977402925491333008e-01,-6.704160571098327637e-01,9.886155128479003906e-01,1.946176528930664062e+00,2.849542617797851562e+00,1.063197970390319824e+00,2.300576686859130859e+00,2.877886295318603516e+00,3.529670238494873047e+00,2.964514493942260742e+00,1.454962015151977539e+00,1.060320496559143066e+00,9.961123466491699219e-01,2.665093898773193359e+00,5.019069671630859375e+00,4.821055412292480469e+00,6.288522243499755859e+00,3.685674190521240234e+00,3.837217330932617188e+00,5.786161899566650391e+00,6.462849617004394531e+00
-8.199192047119140625e+00,-4.546771526336669922e+00,-2.666862487792968750e+00,3.936169624328613281e+00,4.134199321269989014e-01,-6.280622959136962891e+00,-7.118425846099853516e+00,-2.572904348373413086e+00,8.475079536437988281e+00,5.076006889343261719e+00,-4.833418846130371094e+00,-8.922697067260742188e+00,-6.717715740203857422e+00,-5.913696765899658203e+00,-5.964803695678710938e+00,-6.589438915252685547e+00,-5.855788707733154297e+00,-7.012149333953857422e+00,-6.227567195892333984e+00,-5.931314468383789062e+00,-7.706667900085449219e+00,-9.549189567565917969e+00,-8.530129432678222656e+00,-9.453732490539550781e+00,-6.975452899932861328e+00,-2.991669654846191406e+00,-4.303827762603759766e+00,-3.540576219558715820e+00,-1.511072516441345215e+00,-8.261071443557739258e-01,-3.706679046154022217e-01,-4.229763507843017578e+00
-1.575395965576171875e+01,-5.507361412048339844e+00,2.885619401931762695e+00,2.886861562728881836e-01,-1.089695835113525391e+01,-1.350463199615478516e+01,-1.157558155059814453e+01,-7.378323078155517578e+00,-3.849538803100585938e+00,-7.604648113250732422e+00,-1.308961009979248047e+01,-1.252173328399658203e+01,-1.395635795593261719e+01,-1.610540390014648438e+01,-1.893674087524414062e+01,-1.946804046630859375e+01,-1.686399650573730469e+01,-1.503106117248535156e+01,-1.578821277618408203e+01,-1.675809860229492188e+01,-1.810068321228027344e+01,-1.516359043121337891e+01,-1.099332332611083984e+01,-1.023040008544921875e+01,-9.482745170593261719e+00,-1.038516235351562500e+01,-1.095534038543701172e+01,-7.156803607940673828e+00,-7.766811847686767578e+00,-8.552865982055664062e+00,-1.126691436767578125e+01,-8.969393372535705566e-01
8.453603982925415039e-01,7.227611541748046875e+00,1.235018157958984375e+01,9.020931243896484375e+00,-1.339279413223266602e+00,-1.113286852836608887e+00,3.217433929443359375e+00,3.140893459320068359e+00,-3.427782058715820312e+00,-3.546998262405395508e+00,-3.703228950500488281e+00,2.456974029541015625e+00,-1.414157867431640625e+00,-8.094589233398437500e+00,-1.369729423522949219e+01,-1.005305862426757812e+01,-6.698927402496337891e+00,-4.154156684875488281e+00,-6.232540607452392578e+00,-7.284931182861328125e+00,-6.326853752136230469e+00,1.307545602321624756e-01,4.189787864685058594e+00,5.850572586059570312e+00,8.717658042907714844e+00,7.457612514495849609e+00,4.478647708892822266e+00,9.395639419555664062e+00,7.085311889648437500e+00,2.552806615829467773e+00,-5.820315361022949219e+00,1.200925731658935547e+01
1.173186683654785156e+01,1.098283100128173828e+01,1.197598838806152344e+01,1.512993049621582031e+01,1.112680053710937500e+01,1.106635570526123047e+01,9.357325553894042969e+00,6.479113101959228516e+00,1.007144260406494141e+01,1.008657264709472656e+01,8.946431159973144531e+00,7.467063426971435547e+00,4.737801074981689453e+00,-2.740394830703735352e+00,-5.870411396026611328e+00,-1.091865658760070801e+00,2.675952434539794922e+00,1.563580513000488281e+00,1.255136251449584961e+00,3.654493808746337891e+00,4.047332763671875000e+00,5.803988456726074219e+00,2.759661197662353516e+00,6.018618106842041016e+00,8.131957054138183594e+00,1.306633090972900391e+01,9.024875640869140625e+00,1.353832817077636719e+01,1.308758735656738281e+01,1.375066280364990234e+01,2.133096694946289062e+00,1.409000492095947266e+01
-5.035132169723510742e-02,1.044289991259574890e-01,-2.558552324771881104e-01,2.561223268508911133e+00,2.972470760345458984e+00,3.099420070648193359e+00,-2.675632536411285400e-01,-1.582425951957702637e+00,5.562775135040283203e+00,5.174513339996337891e+00,3.849166870117187500e+00,-4.695813655853271484e+00,-6.859602451324462891e+00,-8.093003273010253906e+00,-5.337225437164306641e+00,-8.111314773559570312e+00,-7.400674819946289062e+00,-9.488592147827148438e+00,-9.697419166564941406e+00,-5.732951164245605469e+00,-7.445559024810791016e+00,-7.929002285003662109e+00,-1.201668167114257812e+01,-8.999040603637695312e+00,-1.073200893402099609e+01,-4.207829475402832031e+00,-6.259768009185791016e+00,-8.272022604942321777e-01,-9.221283718943595886e-03,2.740994930267333984e+00,-4.264714717864990234e+00,3.895263671875000000e+00
-9.155396461486816406e+00,-5.744694709777832031e+00,-1.010836887359619141e+01,-1.034805965423583984e+01,-7.233010768890380859e+00,-5.998764514923095703e+00,-2.829931974411010742e+00,-4.047883510589599609e+00,-6.941913127899169922e+00,-1.068402576446533203e+01,-1.178448486328125000e+01,-1.210854721069335938e+01,-1.196238613128662109e+01,-4.631205558776855469e+00,9.593526124954223633e-01,-3.954997777938842773e+00,-1.250665473937988281e+01,-9.426900863647460938e+00,-8.960720062255859375e+00,-1.160682582855224609e+01,-1.440973854064941406e+01,-1.166554069519042969e+01,-1.214801120758056641e+01,-1.373627376556396484e+01,-1.655161666870117188e+01,-1.502931976318359375e+01,-1.318604278564453125e+01,-5.817819595336914062e+00,-5.240701198577880859e+00,-5.421504974365234375e+00,-1.357253837585449219e+01,-1.056363677978515625e+01
-1.212955188751220703e+01,-8.091527938842773438e+00,-9.009988784790039062e+00,-1.005504512786865234e+01,-1.036197662353515625e+01,-9.053584098815917969e+00,-6.896298408508300781e+00,-1.071095657348632812e+01,-8.181289672851562500e+00,-7.629694461822509766e+00,-8.133212089538574219e+00,-9.444069862365722656e+00,-1.013990879058837891e+01,2.574453651905059814e-01,7.398696899414062500e+00,7.684020042419433594e+00,-6.310697078704833984e+00,-5.912402153015136719e+00,-3.196208953857421875e+00,-6.861494541168212891e+00,-9.541182518005371094e+00,-1.064977645874023438e+01,-8.294164657592773438e+00,-7.667764186859130859e+00,-7.613801956176757812e+00,-1.032254314422607422e+01,-9.186296463012695312e+00,-7.360387802124023438e+00,-8.262785911560058594e+00,-1.054740238189697266e+01,-1.167120552062988281e+01,-1.381624317169189453e+01
-1.047235584259033203e+01,-6.502744674682617188e+00,-3.233897209167480469e+00,-5.101376056671142578e+00,-1.107574939727783203e+01,-8.859190940856933594e+00,-8.825749397277832031e+00,-1.280601406097412109e+01,-3.444291830062866211e+00,9.266245961189270020e-01,-1.926049470901489258e+00,-7.264703750610351562e+00,-7.527614116668701172e+00,-2.800290584564208984e-01,6.663457393646240234e+00,5.570564746856689453e+00,-1.157226800918579102e+00,-3.769792079925537109e+00,-1.540069103240966797e+00,-2.985036373138427734e+00,-2.946126461029052734e+00,-7.070428371429443359e+00,-5.470094203948974609e+00,-6.803805828094482422e+00,-6.029143333435058594e+00,-1.014289760589599609e+01,-7.858645915985107422e+00,-1.503922557830810547e+01,-1.529404926300048828e+01,-1.542066860198974609e+01,1.729166388511657715e+00,-6.376577854156494141e+00
-2.518021583557128906e+00,-4.738556861877441406e+00,-4.074293613433837891e+00,-2.897444725036621094e+00,-3.081935405731201172e+00,-1.798182368278503418e+00,-1.277206540107727051e+00,-1.083444476127624512e+00,-2.031498193740844727e+00,-4.328888893127441406e+00,-5.368628978729248047e+00,-2.127823352813720703e+00,-9.405278563499450684e-01,-2.595605373382568359e+00,-2.141730546951293945e+00,-4.024551868438720703e+00,7.988038063049316406e-01,5.916358232498168945e-01,-9.429799318313598633e-01,1.109487295150756836e+00,2.583381652832031250e+00,1.014280676841735840e+00,1.665000081062316895e+00,-8.155999183654785156e-01,4.595707356929779053e-02,-2.755063772201538086e+00,-1.045694947242736816e+00,7.595489621162414551e-01,2.193373441696166992e-01,-7.311436533927917480e-01,5.019487857818603516e+00,-1.518883347511291504e+00
-3.325415849685668945e+00,-1.067540454864501953e+01,-1.115252971649169922e+01,-5.239268779754638672e+00,5.356113910675048828e-01,-9.306140542030334473e-01,-2.140827417373657227e+00,-6.189700365066528320e-01,-2.790976524353027344e+00,-2.904354572296142578e+00,-4.261884689331054688e+00,6.164336800575256348e-01,1.972571015357971191e-01,-4.931971073150634766e+00,-9.368887901306152344e+00,-6.839242458343505859e+00,-1.617007851600646973e+00,-3.155878543853759766e+00,-6.574414253234863281e+00,-6.096343994140625000e+00,-5.531035900115966797e+00,-4.218505382537841797e+00,-1.567084670066833496e+00,-1.122061610221862793e+00,-7.840825915336608887e-01,2.348418980836868286e-01,2.299311399459838867e+00,1.827154755592346191e+00,1.288657307624816895e+00,6.838822364807128906e-01,-2.358341693878173828e+00,-9.479625701904296875e+00
-8.745747566223144531e+00,-8.922801017761230469e+00,-8.514904975891113281e+00,-5.780094146728515625e+00,-4.656219005584716797e+00,-5.796083450317382812e+00,-7.993905067443847656e+00,-7.367301464080810547e+00,2.984971523284912109e+00,8.664361000061035156e+00,3.840595483779907227e+00,-1.072249531745910645e+00,-2.063060045242309570e+00,-3.060165643692016602e+00,-4.994692802429199219e+00,-4.254353523254394531e+00,-4.879621505737304688e+00,-8.080072402954101562e+00,-7.687666893005371094e+00,-8.849535942077636719e+00,-1.013360595703125000e+01,-1.054360294342041016e+01,-9.222636222839355469e+00,-8.209698677062988281e+00,-8.915712356567382812e+00,-6.591145992279052734e+00,-4.855162143707275391e+00,-1.499143791198730469e+01,-1.384440231323242188e+01,-8.978327751159667969e+00,-3.158317089080810547e+00,-1.027926540374755859e+01
-3.933835983276367188e+00,2.036092042922973633e+00,2.554648160934448242e+00,-2.571989536285400391e+00,-6.838638305664062500e+00,-4.923849105834960938e+00,-2.999945640563964844e+00,-3.056814908981323242e+00,6.061280250549316406e+00,8.613459587097167969e+00,4.191930770874023438e+00,1.257599472999572754e+00,3.396064043045043945e+00,4.223314285278320312e+00,3.326460361480712891e+00,-2.218894511461257935e-01,3.436368703842163086e-01,5.808244943618774414e-01,3.153735637664794922e+00,3.310749292373657227e+00,1.686013221740722656e+00,3.715741336345672607e-01,-1.327284812927246094e+00,-7.875685691833496094e-01,2.230556160211563110e-01,-1.022753477096557617e+00,-4.097391128540039062e+00,-1.553861427307128906e+01,-1.399227046966552734e+01,-8.554961204528808594e+00,8.413676917552947998e-02,-2.248626470565795898e+00
4.734069824218750000e+00,7.749022006988525391e+00,5.624594688415527344e+00,1.267073273658752441e+00,6.358605027198791504e-01,2.998742580413818359e+00,4.944487571716308594e+00,4.300658226013183594e+00,3.914752721786499023e+00,1.477285027503967285e+00,-1.073754578828811646e-01,3.935958385467529297e+00,4.114013195037841797e+00,3.147231340408325195e+00,1.508179306983947754e+00,1.033130526542663574e+00,4.691939353942871094e+00,6.393856525421142578e+00,4.839366912841796875e+00,5.467996120452880859e+00,6.293006420135498047e+00,7.692812919616699219e+00,7.217593669891357422e+00,9.637476921081542969e+00,1.209312820434570312e+01,9.163796424865722656e+00,4.817778110504150391e+00,1.387700200080871582e+00,8.503765612840652466e-02,2.144144773483276367e+00,1.589758396148681641e+00,1.050253808498382568e-01
5.860799312591552734e+00,5.722793579101562500e+00,1.777873992919921875e+00,4.299093246459960938e+00,7.753234863281250000e+00,8.159941673278808594e+00,6.769972801208496094e+00,6.553076744079589844e+00,8.203486442565917969e+00,5.344717502593994141e+00,1.433929443359375000e+00,1.240951538085937500e+00,-9.249354600906372070e-01,7.894290089607238770e-01,2.343879342079162598e-01,1.468416452407836914e+00,9.551340937614440918e-01,2.064157724380493164e+00,6.974791288375854492e-01,4.523076117038726807e-03,6.392070651054382324e-01,1.633576631546020508e+00,4.479726791381835938e+00,6.136902332305908203e+00,8.831956863403320312e+00,9.001767158508300781e+00,8.423466682434082031e+00,5.131513595581054688e+00,5.274870395660400391e+00,8.881757736206054688e+00,7.295886516571044922e+00,5.537320613861083984e+00
-3.507484674453735352e+00,1.547264903783798218e-01,1.353011846542358398e+00,3.574718952178955078e+00,3.188898324966430664e+00,1.643690109252929688e+00,6.287831068038940430e-01,1.471041440963745117e+00,8.938023567199707031e+00,7.105211257934570312e+00,-1.298210024833679199e+00,-5.765445232391357422e+00,-4.067771434783935547e+00,2.030691385269165039e+00,3.587450981140136719e+00,1.400918126106262207e+00,-2.822455883026123047e+00,-1.507767438888549805e+00,2.801676750183105469e+00,3.888963937759399414e+00,1.165717601776123047e+00,-2.626483201980590820e+00,-2.038124561309814453e+00,-3.360895395278930664e+00,-2.027862146496772766e-02,1.538187980651855469e+00,4.276468276977539062e+00,-3.988312721252441406e+00,-3.835700511932373047e+00,1.608575701713562012e+00,6.961089134216308594e+00,8.502924919128417969e+00
-1.275813007354736328e+01,-4.404812812805175781e+00,1.618175506591796875e+00,-1.643584728240966797e+00,-6.384364604949951172e+00,-9.048032760620117188e+00,-9.179277420043945312e+00,-9.517688751220703125e+00,-2.002834558486938477e+00,2.121035307645797729e-01,-6.439160346984863281e+00,-7.199031829833984375e+00,-3.234062671661376953e+00,-2.562985181808471680e+00,-4.503753185272216797e+00,-5.962059974670410156e+00,-5.600946903228759766e+00,-4.525944709777832031e+00,-2.436410665512084961e+00,-8.662890791893005371e-01,-2.071107387542724609e+00,-4.481745719909667969e+00,-6.536150455474853516e+00,-6.752545833587646484e+00,-4.751624107360839844e+00,-6.391986370086669922e+00,-4.167475700378417969e+00,-3.891178131103515625e+00,-5.004603862762451172e+00,-4.000001907348632812e+00,-5.600130081176757812e+00,-3.197279214859008789e+00
-6.966780185699462891e+00,-2.881780147552490234e+00,-4.379788398742675781e+00,-6.356341838836669922e+00,-5.517428398132324219e+00,-5.648335456848144531e+00,-7.288068771362304688e+00,-8.774790763854980469e+00,-2.315994977951049805e+00,1.462850213050842285e+00,-1.459300160408020020e+00,-1.783295392990112305e+00,-1.202575445175170898e+00,-8.005378723144531250e+00,-1.419921112060546875e+01,-1.000128459930419922e+01,-4.074345588684082031e+00,-2.993330240249633789e+00,-7.254327297210693359e+00,-8.619820594787597656e+00,-6.465803623199462891e+00,-2.877843618392944336e+00,-3.123158931732177734e+00,-1.833994030952453613e+00,-2.830103635787963867e+00,-3.771331787109375000e+00,-3.767709732055664062e+00,2.500152826309204102e+00,9.304651021957397461e-01,4.192978739738464355e-01,-8.558799743652343750e+00,-7.110466003417968750e+00
2.776294469833374023e+00,-3.894064903259277344e+00,-1.170224285125732422e+01,-7.489195346832275391e+00,2.376960039138793945e+00,1.686723232269287109e+00,4.477842450141906738e-01,3.097357749938964844e+00,8.895866394042968750e+00,3.512028694152832031e+00,-1.197586178779602051e+00,-2.029533147811889648e+00,-3.401574134826660156e+00,-6.480995655059814453e+00,-6.421471595764160156e+00,-2.088742256164550781e+00,1.351051568984985352e+00,1.664934992790222168e+00,1.547894835472106934e+00,6.926748752593994141e-01,1.012796044349670410e+00,1.530459403991699219e+00,9.437562227249145508e-01,2.812109887599945068e-01,-5.031076431274414062e+00,-2.832278728485107422e+00,-3.957157373428344727e+00,1.333885669708251953e+00,1.474282383918762207e+00,-1.125372529029846191e+00,-4.462907314300537109e+00,-4.665324211120605469e+00
8.270295143127441406e+00,-3.399105310440063477e+00,-5.940663814544677734e+00,-1.975333333015441895e+00,5.662622451782226562e+00,4.359055042266845703e+00,5.981349945068359375e+00,7.702630519866943359e+00,5.919702053070068359e+00,-1.405652284622192383e+00,-2.956012725830078125e+00,5.242234230041503906e+00,3.482242584228515625e+00,2.520945787429809570e+00,5.194969177246093750e+00,8.735150337219238281e+00,8.994237899780273438e+00,5.681121349334716797e+00,6.633459091186523438e+00,7.282429218292236328e+00,8.673398017883300781e+00,7.996926784515380859e+00,7.719193935394287109e+00,2.404056072235107422e+00,-8.496012687683105469e+00,-9.013320922851562500e+00,-5.672412872314453125e+00,6.848536491394042969e+00,7.954563617706298828e+00,-2.630856990814208984e+00,-9.388412475585937500e+00,-8.059053421020507812e+00
1.217261219024658203e+01,-3.967121601104736328e+00,-1.607071995735168457e+00,-2.775362014770507812e+00,1.024654388427734375e+00,9.667214155197143555e-01,5.208232879638671875e+00,6.260141372680664062e+00,-4.633978605270385742e-01,1.521700143814086914e+00,5.243455410003662109e+00,1.333139419555664062e+01,1.358881664276123047e+01,1.187758541107177734e+01,8.025687217712402344e+00,9.581177711486816406e+00,1.017898178100585938e+01,7.674860000610351562e+00,4.275482654571533203e+00,4.138630390167236328e+00,7.660384178161621094e+00,9.645043373107910156e+00,9.825284957885742188e+00,4.509614944458007812e+00,-8.094685554504394531e+00,-1.187348937988281250e+01,-6.539779663085937500e+00,9.704444885253906250e+00,1.106536006927490234e+01,-4.191595554351806641e+00,-1.250515365600585938e+01,-1.374541950225830078e+01
4.853900432586669922e+00,-9.605791091918945312e+00,-9.290357589721679688e+00,-1.168357276916503906e+01,-5.883661270141601562e+00,-7.128852367401123047e+00,-4.989439487457275391e+00,1.474155783653259277e-01,4.480937004089355469e+00,9.038447380065917969e+00,5.721258163452148438e+00,1.357484459877014160e+00,3.370232343673706055e+00,4.938357353210449219e+00,8.870157003402709961e-01,-6.621300578117370605e-01,-1.176090598106384277e+00,1.564211368560791016e+00,1.300609350204467773e+00,1.822170376777648926e+00,1.002678632736206055e+00,-2.049481272697448730e-01,-2.528527975082397461e+00,-1.735950350761413574e+00,-6.067233085632324219e+00,-5.983495235443115234e+00,-7.790084362030029297e+00,-2.324942111968994141e+00,-1.776173233985900879e+00,-1.101681041717529297e+01,-4.962677955627441406e+00,-9.000607490539550781e+00
-7.853107452392578125e+00,-1.828916549682617188e+01,-1.826603507995605469e+01,-1.679640769958496094e+01,-7.658277034759521484e+00,-1.022050285339355469e+01,-1.330021762847900391e+01,-6.418952941894531250e+00,5.357016563415527344e+00,4.439639568328857422e+00,-7.682958602905273438e+00,-1.353348636627197266e+01,-1.220613574981689453e+01,-1.231065654754638672e+01,-9.556092262268066406e+00,-9.525710105895996094e+00,-1.079553604125976562e+01,-8.184942245483398438e+00,-5.737087249755859375e+00,-7.260549068450927734e+00,-9.032817840576171875e+00,-9.601907730102539062e+00,-8.816001892089843750e+00,-9.423869132995605469e+00,-9.796570777893066406e+00,-1.025679874420166016e+01,-1.145549392700195312e+01,-1.106565761566162109e+01,-9.859265327453613281e+00,-1.457909202575683594e+01,-1.486805343627929688e+01,-1.597590065002441406e+01
-1.564803481101989746e+00,-9.799320220947265625e+00,-9.369187355041503906e+00,-8.995728492736816406e+00,-2.717686653137207031e+00,-3.975242853164672852e+00,-7.207850456237792969e+00,-4.635178565979003906e+00,-3.159889698028564453e+00,-6.071836471557617188e+00,-8.075916290283203125e+00,-7.798784255981445312e+00,-6.885266304016113281e+00,-8.140213966369628906e+00,-5.722067832946777344e+00,-6.106615543365478516e+00,-5.626467704772949219e+00,-5.331456184387207031e+00,-5.575665473937988281e+00,-9.780066490173339844e+00,-7.660834312438964844e+00,-4.440858840942382812e+00,-2.303527295589447021e-01,-3.165460586547851562e+00,-4.161441802978515625e+00,-6.113121986389160156e+00,-4.514187335968017578e+00,-4.214923858642578125e+00,-4.115415096282958984e+00,-6.299264907836914062e+00,-1.094069862365722656e+01,-1.147772026062011719e+01
8.455917358398437500e+00,3.126297235488891602e+00,8.963418006896972656e-01,4.775547087192535400e-01,-5.817400217056274414e-01,2.188069224357604980e-01,3.641859591007232666e-01,-1.716815352439880371e+00,-4.439696311950683594e+00,-3.685995340347290039e+00,2.039757966995239258e+00,4.520310401916503906e+00,5.708734035491943359e+00,5.312156200408935547e+00,4.050909042358398438e+00,2.898188829421997070e+00,4.892859458923339844e+00,4.828937530517578125e+00,1.732704281806945801e+00,5.843344330787658691e-01,8.471881747245788574e-01,1.721474289894104004e+00,5.321953296661376953e-01,2.041830539703369141e+00,2.775845289230346680e+00,1.327724456787109375e+00,1.304381847381591797e+00,-1.332741081714630127e-01,5.574285387992858887e-01,6.836462020874023438e-01,-6.729039549827575684e-01,-1.472722291946411133e+00
-3.262460470199584961e+00,3.580043077468872070e+00,6.438781738281250000e+00,6.051006317138671875e+00,-5.331991672515869141e+00,-5.574631690979003906e+00,-3.942204713821411133e+00,-4.859652996063232422e+00,-4.509677886962890625e+00,-2.224109888076782227e+00,-2.954799413681030273e+00,-4.768927097320556641e+00,-3.107717990875244141e+00,-3.756281852722167969e+00,-4.807569980621337891e+00,-3.328644990921020508e+00,-3.485954523086547852e+00,-4.942543506622314453e+00,-6.176824092864990234e+00,-2.742456674575805664e+00,-5.530645370483398438e+00,-7.288874149322509766e+00,-1.017596817016601562e+01,-7.189737796783447266e+00,-3.177003860473632812e+00,-2.384066581726074219e+00,-2.119575262069702148e+00,-8.974426269531250000e+00,-5.237332820892333984e+00,8.628963828086853027e-01,2.368180513381958008e+00,2.310028791427612305e+00
-5.838443756103515625e+00,1.119365334510803223e+00,1.921468138694763184e+00,2.939485788345336914e+00,-1.458244919776916504e+00,-9.450097680091857910e-01,1.265872269868850708e-01,-1.495149135589599609e+00,-7.675736904144287109e+00,-9.327586174011230469e+00,-7.079195976257324219e+00,-6.871895790100097656e+00,-1.082736778259277344e+01,-1.167546176910400391e+01,-1.298125648498535156e+01,-1.231114482879638672e+01,-1.378089523315429688e+01,-1.282317829132080078e+01,-1.060643863677978516e+01,-9.477941513061523438e+00,-9.579948425292968750e+00,-9.602092742919921875e+00,-5.443695068359375000e+00,-5.369190692901611328e+00,-4.394614696502685547e-02,2.954113245010375977e+00,3.478202819824218750e+00,-6.167644023895263672e+00,-4.151882648468017578e+00,4.062430381774902344e+00,6.351173877716064453e+00,6.996254444122314453e+00
4.553763389587402344e+00,1.058308219909667969e+01,4.747466564178466797e+00,4.896010398864746094e+00,5.722347259521484375e+00,9.526331901550292969e+00,8.146121978759765625e+00,2.611805915832519531e+00,-4.756497859954833984e+00,-5.682188510894775391e+00,2.823432445526123047e+00,6.552288532257080078e+00,6.207184791564941406e-01,1.311388313770294189e-01,-5.521151423454284668e-01,-3.104597806930541992e+00,-4.089530467987060547e+00,-1.967970609664916992e+00,3.025856971740722656e+00,2.990940093994140625e+00,2.824661016464233398e+00,1.978988289833068848e+00,6.051541805267333984e+00,8.129790306091308594e+00,1.353405475616455078e+01,1.421030712127685547e+01,1.243484020233154297e+01,5.774500846862792969e+00,4.187497138977050781e+00,1.063890075683593750e+01,1.484559249877929688e+01,1.632306671142578125e+01
-2.880095481872558594e+00,7.831233978271484375e+00,6.620563507080078125e+00,4.721516132354736328e+00,-1.583020806312561035e+00,3.145649909973144531e+00,1.687899380922317505e-01,-8.827441215515136719e+00,-7.830484867095947266e+00,-2.752671241760253906e+00,3.685955047607421875e+00,2.657309055328369141e+00,3.878307819366455078e+00,3.621570587158203125e+00,2.591557025909423828e+00,1.817268729209899902e+00,1.918140649795532227e+00,8.836251497268676758e-01,3.021006345748901367e+00,3.659956932067871094e+00,2.361082285642623901e-01,-2.236430644989013672e+00,-3.382110834121704102e+00,2.417201757431030273e+00,8.500820159912109375e+00,7.119489669799804688e+00,4.287600040435791016e+00,2.941389083862304688e+00,3.431860446929931641e+00,4.058496475219726562e+00,5.571303844451904297e+00,9.327651023864746094e+00
-1.147872447967529297e+01,7.460335493087768555e-01,5.473313808441162109e+00,5.922804355621337891e+00,-9.446113109588623047e-01,-1.592675328254699707e+00,-2.809340476989746094e+00,-1.029809379577636719e+01,-8.592212677001953125e+00,-7.442984104156494141e+00,-3.172573804855346680e+00,-5.833942413330078125e+00,-5.208124637603759766e+00,-6.094125270843505859e+00,-3.808080196380615234e+00,-2.585795640945434570e+00,-1.764957904815673828e+00,-4.565874576568603516e+00,-5.087502479553222656e+00,-3.904794454574584961e+00,-4.983226776123046875e+00,-5.947724819183349609e+00,-8.360024452209472656e+00,-6.314943313598632812e+00,-1.388413548469543457e+00,-1.037881731986999512e+00,-1.895738244056701660e-01,-1.796964645385742188e+00,8.632457256317138672e-01,8.632564544677734375e-01,-1.316639065742492676e+00,-2.101644277572631836e+00
1.875229477882385254e+00,1.087297630310058594e+01,1.453816223144531250e+01,1.454569721221923828e+01,1.085249614715576172e+01,6.598086357116699219e+00,6.911439418792724609e+00,3.340409278869628906e+00,8.946422934532165527e-01,-5.066923141479492188e+00,1.402114748954772949e+00,2.052712678909301758e+00,1.343947172164916992e+00,7.712411880493164062e-01,4.100188732147216797e+00,3.308872222900390625e+00,3.585576295852661133e+00,4.561946868896484375e+00,4.315224170684814453e+00,3.968579769134521484e+00,5.198255538940429688e+00,5.207055091857910156e+00,3.421070337295532227e+00,2.596018791198730469e+00,7.138423919677734375e+00,1.060034465789794922e+01,1.044773578643798828e+01,5.888529300689697266e+00,6.584506034851074219e+00,1.198900127410888672e+01,1.655927848815917969e+01,1.539016819000244141e+01
1.262394428253173828e+01,1.000574207305908203e+01,1.016693973541259766e+01,9.899184226989746094e+00,9.475362777709960938e+00,9.081746101379394531e+00,8.922168731689453125e+00,5.245677471160888672e+00,4.087568283081054688e+00,3.173119544982910156e+00,1.023699855804443359e+01,1.056986713409423828e+01,1.084002876281738281e+01,1.155378437042236328e+01,1.270961666107177734e+01,1.117253017425537109e+01,1.060034370422363281e+01,1.013705253601074219e+01,1.001916313171386719e+01,1.024792003631591797e+01,1.091390991210937500e+01,1.105626583099365234e+01,1.044979953765869141e+01,1.033276653289794922e+01,1.019897174835205078e+01,1.036271381378173828e+01,8.584487915039062500e+00,1.086759471893310547e+01,9.372225761413574219e+00,8.892005920410156250e+00,1.016856098175048828e+01,1.267510795593261719e+01
8.007240295410156250e+00,3.359714269638061523e+00,1.078165531158447266e+00,1.579747438430786133e+00,4.936678409576416016e+00,5.165057659149169922e+00,4.981673717498779297e+00,4.893828630447387695e-01,-9.025568962097167969e-01,4.225332260131835938e+00,1.049277210235595703e+01,8.550109863281250000e+00,8.624995231628417969e+00,9.399621963500976562e+00,7.792996883392333984e+00,8.510129928588867188e+00,8.189396858215332031e+00,5.835366249084472656e+00,3.953744888305664062e+00,5.407132148742675781e+00,7.533848285675048828e+00,9.370924949645996094e+00,9.454304695129394531e+00,6.672713279724121094e+00,9.139114022254943848e-01,-1.449440121650695801e-01,2.863389551639556885e-01,5.947034835815429688e+00,4.256246566772460938e+00,2.648810625076293945e+00,4.293104708194732666e-01,1.288265705108642578e+00
8.832395076751708984e-01,-5.899602890014648438e+00,-6.219285011291503906e+00,-5.002541065216064453e+00,2.166311025619506836e+00,-2.639854431152343750e+00,-1.476623296737670898e+00,-1.246687293052673340e+00,-2.288763284683227539e+00,-2.375457286834716797e+00,6.508713364601135254e-01,-5.321148633956909180e-01,5.188909769058227539e-01,9.067898988723754883e-01,3.568429350852966309e-01,5.088313817977905273e-01,1.032045841217041016e+00,2.316105365753173828e+00,6.361064910888671875e-01,-3.353358507156372070e-01,7.627471089363098145e-01,1.890167117118835449e+00,2.047254800796508789e+00,-1.306167840957641602e+00,-6.783727645874023438e+00,-6.974623203277587891e+00,-5.447900772094726562e+00,-1.381460309028625488e+00,-2.973366975784301758e+00,-3.833129882812500000e+00,-5.739140510559082031e+00,-8.496206283569335938e+00
-3.084798753261566162e-01,2.877931356430053711e+00,8.159931182861328125e+00,6.200944423675537109e+00,-3.584271296858787537e-02,-3.797448277473449707e-01,1.119538307189941406e+00,-1.560601115226745605e+00,-6.870987415313720703e+00,-9.140067100524902344e+00,-4.001119613647460938e+00,-2.194633007049560547e+00,1.187016069889068604e-02,3.380331993103027344e+00,8.149867057800292969e+00,6.194849967956542969e+00,5.476538181304931641e+00,7.167570590972900391e+00,7.391638755798339844e+00,4.845495223999023438e+00,4.371198654174804688e+00,3.870575189590454102e+00,2.556408166885375977e+00,5.446433544158935547e+00,7.211913585662841797e+00,8.015416145324707031e+00,5.183732986450195312e+00,3.547712326049804688e+00,-1.075185179710388184e+00,-1.132808566093444824e+00,5.209648609161376953e+00,9.695424079895019531e+00
9.146559715270996094e+00,1.577796649932861328e+01,1.649179649353027344e+01,1.228456592559814453e+01,5.110381603240966797e+00,1.247566223144531250e+01,1.465991973876953125e+01,6.683707714080810547e+00,-5.404652595520019531e+00,-2.530700445175170898e+00,6.402740478515625000e+00,1.094765472412109375e+01,1.150694274902343750e+01,1.574707889556884766e+01,1.843472480773925781e+01,1.651419067382812500e+01,1.371551132202148438e+01,1.357628631591796875e+01,1.380624961853027344e+01,1.475623321533203125e+01,1.674592781066894531e+01,1.605871963500976562e+01,1.280478763580322266e+01,1.549837303161621094e+01,1.664687347412109375e+01,1.830298995971679688e+01,1.500128364562988281e+01,1.322621440887451172e+01,9.237689971923828125e+00,1.088718128204345703e+01,1.678215026855468750e+01,2.233080863952636719e+01
1.526186943054199219e+01,1.739483642578125000e+01,1.743113136291503906e+01,1.351093482971191406e+01,8.595191001892089844e+00,1.399290943145751953e+01,1.567172241210937500e+01,6.265611648559570312e+00,2.174221515655517578e+00,6.053129196166992188e+00,1.429191875457763672e+01,1.400645065307617188e+01,1.236386013031005859e+01,1.457067298889160156e+01,1.437282276153564453e+01,1.272113513946533203e+01,9.661988258361816406e+00,1.004852581024169922e+01,1.006208324432373047e+01,1.158382415771484375e+01,1.518672084808349609e+01,1.431633281707763672e+01,1.236753368377685547e+01,1.239667415618896484e+01,1.434415435791015625e+01,1.480214405059814453e+01,1.269661998748779297e+01,1.399125576019287109e+01,1.366016101837158203e+01,1.698472785949707031e+01,1.941997909545898438e+01,2.039693069458007812e+01
9.486097335815429688e+00,9.662395477294921875e+00,1.464085769653320312e+01,1.360113811492919922e+01,4.909069061279296875e+00,5.335117340087890625e+00,3.164023160934448242e+00,-2.981190681457519531e+00,3.557462692260742188e+00,3.994039297103881836e+00,7.300936222076416016e+00,1.485963702201843262e+00,9.470220208168029785e-01,-2.307676970958709717e-01,2.194907188415527344e+00,1.272065520286560059e+00,2.011910915374755859e+00,1.593030452728271484e+00,1.659684658050537109e+00,2.314358055591583252e-01,-2.282445132732391357e-01,3.263002932071685791e-01,1.757629513740539551e+00,4.258663177490234375e+00,4.779243946075439453e+00,4.497304439544677734e+00,4.564546108245849609e+00,6.508667945861816406e+00,7.188994884490966797e+00,7.227002620697021484e+00,9.942657470703125000e+00,1.145252799987792969e+01
1.160696506500244141e+01,9.459622383117675781e+00,6.056817531585693359e+00,6.621033668518066406e+00,7.703166007995605469e+00,8.791988372802734375e+00,6.402613639831542969e+00,3.635042190551757812e+00,2.755593955516815186e-01,1.563302576541900635e-01,3.765056848526000977e+00,4.126935005187988281e+00,5.079746246337890625e+00,1.373885571956634521e-01,8.209590911865234375e-01,2.344465494155883789e+00,5.402198314666748047e+00,2.372437715530395508e+00,3.062858819961547852e+00,5.046170711517333984e+00,1.934337496757507324e+00,3.159741640090942383e+00,3.116790771484375000e+00,4.597208976745605469e+00,-4.714264720678329468e-02,3.148711681365966797e+00,5.109287738800048828e+00,6.451292037963867188e+00,7.779446601867675781e+00,5.667622566223144531e+00,4.436436176300048828e+00,7.477084159851074219e+00
1.683327865600585938e+01,1.117316722869873047e+01,3.219150781631469727e+00,3.949911117553710938e+00,1.255623435974121094e+01,1.449408817291259766e+01,1.572432613372802734e+01,1.347194194793701172e+01,-1.067314445972442627e-01,-1.582060694694519043e+00,4.001727581024169922e+00,1.203696060180664062e+01,1.157847023010253906e+01,4.976660728454589844e+00,-1.202539801597595215e+00,4.064836978912353516e+00,6.831710815429687500e+00,4.967161655426025391e+00,2.317970752716064453e+00,6.344153881072998047e+00,7.198118686676025391e+00,8.421672821044921875e+00,6.437120437622070312e+00,5.595483779907226562e+00,3.080733776092529297e+00,5.695744037628173828e+00,7.223618030548095703e+00,6.794117927551269531e+00,9.457238197326660156e+00,8.175692558288574219e+00,6.299650192260742188e+00,4.069036483764648438e+00
6.909125804901123047e+00,5.236368179321289062e+00,5.827576637268066406e+00,5.507706642150878906e+00,6.188200473785400391e+00,4.188857555389404297e+00,6.105634212493896484e+00,6.627367019653320312e+00,4.005035877227783203e+00,5.138045549392700195e-01,-5.070411562919616699e-01,4.489912092685699463e-01,-7.506193965673446655e-02,-2.869652032852172852e+00,-7.790826797485351562e+00,-4.901999950408935547e+00,-3.803812026977539062e+00,-1.771844029426574707e+00,-4.590133666992187500e+00,-5.044840812683105469e+00,-2.645188093185424805e+00,-2.402534186840057373e-01,1.302955269813537598e+00,3.060256719589233398e+00,2.826186895370483398e+00,1.498150229454040527e+00,2.033237934112548828e+00,2.755285024642944336e+00,3.853480100631713867e+00,3.532665729522705078e+00,5.074100971221923828e+00,1.917785763740539551e+00
-2.072090148925781250e+00,3.318770170211791992e+00,8.165019035339355469e+00,6.401944160461425781e+00,5.505315065383911133e-01,-2.286671638488769531e+00,-2.867478847503662109e+00,6.567470431327819824e-01,8.439702033996582031e+00,9.092585563659667969e+00,2.041223049163818359e+00,-6.704118728637695312e+00,-6.007048606872558594e+00,-1.482704997062683105e+00,2.924668788909912109e+00,-9.998952150344848633e-01,-2.916882991790771484e+00,-2.019042015075683594e+00,9.961952567100524902e-01,-7.921143174171447754e-01,-2.409652948379516602e+00,-3.571607112884521484e+00,-3.196349143981933594e+00,2.461786508560180664e+00,2.068286180496215820e+00,1.499970555305480957e+00,-2.665473222732543945e-01,1.658606767654418945e+00,-4.524945616722106934e-01,3.648477494716644287e-01,4.384455204010009766e+00,9.005822181701660156e+00
2.118205070495605469e+00,5.198709487915039062e+00,9.292120933532714844e+00,9.574503898620605469e+00,5.390630245208740234e+00,3.418210029602050781e+00,2.798438310623168945e+00,7.275694847106933594e+00,1.082427501678466797e+01,1.226631641387939453e+01,5.626709461212158203e+00,1.908648848533630371e+00,1.571881294250488281e+00,5.438879013061523438e+00,1.025696945190429688e+01,8.422389984130859375e+00,6.021711826324462891e+00,4.319005489349365234e+00,5.684141635894775391e+00,4.370553493499755859e+00,3.119135379791259766e+00,-2.447866797447204590e-01,-1.496402740478515625e+00,2.467491626739501953e+00,-4.609859287738800049e-01,-1.181824922561645508e+00,-1.369284629821777344e+00,1.738591909408569336e+00,-2.061844348907470703e+00,-2.066475868225097656e+00,-5.679000020027160645e-01,5.087271213531494141e+00
-5.238122940063476562e+00,-5.516799449920654297e+00,-2.669865846633911133e+00,-1.200716868042945862e-01,-6.665442585945129395e-01,-5.870335578918457031e+00,-6.802283287048339844e+00,-8.476810455322265625e-01,2.150434255599975586e+00,9.085553884506225586e-01,-7.938258171081542969e+00,-1.009661006927490234e+01,-1.025703239440917969e+01,-6.245021343231201172e+00,-4.741904735565185547e+00,-5.006393909454345703e+00,-7.274704933166503906e+00,-7.264616012573242188e+00,-8.381541252136230469e+00,-9.129352569580078125e+00,-7.012812614440917969e+00,-7.387732505798339844e+00,-5.957011699676513672e+00,-4.728453159332275391e+00,-1.005005645751953125e+01,-1.263663482666015625e+01,-8.389743804931640625e+00,-5.354470252990722656e+00,-8.379155158996582031e+00,-1.087775611877441406e+01,-1.445727825164794922e+01,-1.170802688598632812e+01
-7.492653846740722656e+00,-7.554105758666992188e+00,-7.628724098205566406e+00,-4.757341384887695312e+00,-1.308056592941284180e+00,-7.676457881927490234e+00,-9.027789115905761719e+00,-3.203130483627319336e+00,2.121533632278442383e+00,6.362078785896301270e-01,-9.100255012512207031e+00,-1.486561775207519531e+01,-1.417824268341064453e+01,-1.067576217651367188e+01,-1.013065147399902344e+01,-1.421034336090087891e+01,-1.342941188812255859e+01,-1.255929279327392578e+01,-1.240843677520751953e+01,-1.186958789825439453e+01,-1.083158016204833984e+01,-8.546609878540039062e+00,-7.641309738159179688e+00,-5.928415298461914062e+00,-1.124321079254150391e+01,-1.205913639068603516e+01,-8.309879302978515625e+00,-5.703359127044677734e+00,-5.942013263702392578e+00,-9.781758308410644531e+00,-1.447052478790283203e+01,-1.163848114013671875e+01
3.420433759689331055e+00,5.394214630126953125e+00,2.330467224121093750e+00,4.663745403289794922e+00,8.110622406005859375e+00,5.270752906799316406e+00,6.484240531921386719e+00,1.009709548950195312e+01,9.968105316162109375e+00,7.830950736999511719e+00,3.286912918090820312e+00,-1.729524493217468262e+00,-7.566925287246704102e-01,-7.407418489456176758e-01,-1.998391389846801758e+00,-3.717005968093872070e+00,-1.420159339904785156e+00,-2.965945899486541748e-01,-1.308674067258834839e-01,2.368592917919158936e-01,-2.305961132049560547e+00,-1.932299137115478516e+00,-3.695996046066284180e+00,4.529091715812683105e-01,-5.716047286987304688e-01,9.015953540802001953e-01,-4.157274663448333740e-01,1.253669619560241699e+00,2.134733676910400391e+00,2.395407438278198242e+00,2.615709543228149414e+00,3.241046905517578125e+00
-2.513346195220947266e+00,-1.285970091819763184e+00,-8.276232481002807617e-01,1.832902312278747559e+00,2.507421970367431641e+00,-1.276468038558959961e+00,4.416746199131011963e-01,4.243019104003906250e+00,2.518973112106323242e+00,-6.219803094863891602e-01,-2.331147193908691406e+00,-1.402164936065673828e+00,-2.083221197128295898e+00,-6.280352115631103516e+00,-8.712807655334472656e+00,-6.520630359649658203e+00,-3.981823682785034180e+00,-4.387594699859619141e+00,-5.027615547180175781e+00,-6.930665493011474609e+00,-9.383757591247558594e+00,-1.013032150268554688e+01,-7.354640483856201172e+00,-1.977351665496826172e+00,-4.222669124603271484e+00,-7.514333248138427734e+00,-7.156429290771484375e+00,-6.733277797698974609e+00,-7.192629814147949219e+00,-5.776088714599609375e+00,-1.622287482023239136e-01,-6.246029853820800781e+00
-4.792634963989257812e+00,-6.759197235107421875e+00,-6.849685668945312500e+00,-5.285339355468750000e+00,-4.057225704193115234e+00,-5.843037605285644531e+00,-7.409104824066162109e+00,-6.421225070953369141e+00,-4.004693984985351562e+00,-2.383779525756835938e+00,-6.801470279693603516e+00,-1.112536430358886719e+01,-1.213541507720947266e+01,-1.261884403228759766e+01,-1.396936988830566406e+01,-1.257177257537841797e+01,-1.213282871246337891e+01,-1.062016582489013672e+01,-1.068808746337890625e+01,-9.128784179687500000e+00,-9.838599205017089844e+00,-9.303562164306640625e+00,-4.216518402099609375e+00,-2.231718540191650391e+00,-8.978456497192382812e+00,-1.350652503967285156e+01,-7.090708732604980469e+00,-7.690301418304443359e+00,-9.423841476440429688e+00,-1.052440357208251953e+01,-5.253893375396728516e+00,-1.352519798278808594e+01
8.608097076416015625e+00,9.163920402526855469e+00,9.628688812255859375e+00,6.946869850158691406e+00,4.208355903625488281e+00,7.449799537658691406e+00,6.835479259490966797e+00,3.670769929885864258e+00,4.764613628387451172e+00,7.650637626647949219e+00,5.528107643127441406e+00,-1.124835610389709473e+00,-5.247495323419570923e-02,1.078818514943122864e-01,-1.369407892227172852e+00,3.409314453601837158e-01,1.439352989196777344e+00,2.983294248580932617e+00,4.121459960937500000e+00,7.629557609558105469e+00,8.322496414184570312e+00,7.336827754974365234e+00,4.466378211975097656e+00,5.858560562133789062e+00,2.998296260833740234e+00,3.508186817169189453e+00,5.715286731719970703e+00,5.048774719238281250e+00,3.429259061813354492e+00,3.515884399414062500e+00,5.495911121368408203e+00,3.731912612915039062e+00
6.936292171478271484e+00,1.110360050201416016e+01,1.413648891448974609e+01,1.058470058441162109e+01,3.854738712310791016e+00,6.746485233306884766e+00,7.911263942718505859e+00,5.689109802246093750e+00,2.106359481811523438e+00,1.164477109909057617e+00,3.303622961044311523e+00,7.657204270362854004e-01,2.548183202743530273e+00,2.204555273056030273e+00,1.414973020553588867e+00,4.163564205169677734e+00,4.826656341552734375e+00,3.993613004684448242e+00,3.101480484008789062e+00,1.281679749488830566e+00,2.782732725143432617e+00,3.238949537277221680e+00,-3.217781186103820801e-01,4.963322162628173828e+00,3.446095943450927734e+00,4.974159717559814453e+00,3.016883850097656250e+00,6.913689136505126953e+00,5.093798637390136719e+00,4.094619750976562500e+00,2.597765922546386719e+00,1.199593544006347656e+01
-6.383301258087158203e+00,-7.024231910705566406e+00,-9.782509803771972656e+00,-1.170108318328857422e+01,-8.644237518310546875e+00,-7.274809837341308594e+00,-8.190865516662597656e+00,-7.653184413909912109e+00,-9.069267272949218750e+00,-8.988306045532226562e+00,-1.105021572113037109e+01,-1.255506420135498047e+01,-1.352838230133056641e+01,-1.241687202453613281e+01,-1.124771404266357422e+01,-1.077344226837158203e+01,-1.181042575836181641e+01,-1.204740619659423828e+01,-1.249802398681640625e+01,-1.607930374145507812e+01,-1.839473342895507812e+01,-1.673838996887207031e+01,-1.188985538482666016e+01,-8.223005294799804688e+00,-1.377321243286132812e+01,-1.422908496856689453e+01,-1.158892631530761719e+01,-5.416172027587890625e+00,-4.969459056854248047e+00,-9.309951782226562500e+00,-1.468505668640136719e+01,-7.035082340240478516e+00
