Fp1,Fp2,F7,F3,Fz,F4,F8,FT7,FC3,FCz,FC4,FT8,T3,C3,Cz,C4,T4,TP7,CP3,CPz,CP4,TP8,T5,P3,Pz,P4,T6,O1,Oz,O2,A1,A2
-9.377146512269973755e-02,4.918683171272277832e-01,8.071695566177368164e-01,-1.149708852171897888e-01,-2.515128813683986664e-02,-5.671620965003967285e-01,9.360937476158142090e-01,-3.062071502208709717e-01,-7.375356554985046387e-02,5.694856643676757812e-01,7.087553292512893677e-02,6.385141611099243164e-01,2.584965825080871582e-01,8.918110132217407227e-01,2.472579479217529297e-02,-3.184945881366729736e-01,1.540642976760864258e-01,4.009381532669067383e-01,-3.835761845111846924e-01,1.025683760643005371e+00,-4.785042703151702881e-01,-6.585625559091567993e-02,2.151703387498855591e-01,-1.974733918905258179e-02,-3.168643712997436523e-01,4.367087483406066895e-01,2.936269938945770264e-01,1.693936586380004883e-01,-2.090998142957687378e-01,-6.314339041709899902e-01,9.786114096641540527e-02,3.772172704339027405e-02
3.185994625091552734e-01,2.459867000579833984e-01,2.989885807037353516e-01,-2.517079114913940430e-01,-3.214078545570373535e-01,-7.318946719169616699e-01,3.905387222766876221e-01,-4.058828055858612061e-01,-1.752340942621231079e-01,3.651512265205383301e-01,1.234621927142143250e-01,3.951821625232696533e-01,3.403813242912292480e-01,9.146302342414855957e-01,-2.435125596821308136e-02,-3.599534034729003906e-01,-2.767688333988189697e-01,5.804265141487121582e-01,-7.816449403762817383e-01,8.360313177108764648e-01,-5.453351140022277832e-01,-2.456720769405364990e-01,4.293442368507385254e-01,-1.430275738239288330e-01,-3.311045169830322266e-01,2.011394947767257690e-01,1.800197064876556396e-01,3.107194900512695312e-01,-3.508006334304809570e-01,-5.759073495864868164e-01,3.180446922779083252e-01,5.004213452339172363e-01
1.810001581907272339e-02,1.548802703619003296e-01,1.748093217611312866e-01,-4.353796541690826416e-01,-4.625208377838134766e-01,-3.703470826148986816e-01,4.130133092403411865e-01,-2.191490679979324341e-02,9.062404744327068329e-03,-4.195192828774452209e-02,-5.985074862837791443e-02,2.020995318889617920e-01,3.299681246280670166e-01,6.449967622756958008e-01,3.035282157361507416e-02,-3.117502927780151367e-01,-4.788605868816375732e-01,3.481613099575042725e-01,-5.201982855796813965e-01,2.582529783248901367e-01,-3.225384652614593506e-01,-4.815962314605712891e-01,7.075474411249160767e-02,-1.023520976305007935e-01,-2.904111444950103760e-01,4.141986370086669922e-01,1.231822818517684937e-01,1.772266030311584473e-01,-3.812364339828491211e-01,-5.540932416915893555e-01,4.302170574665069580e-01,3.719784617424011230e-01
1.731991022825241089e-01,-2.765231430530548096e-01,7.507019490003585815e-02,-2.095957249402999878e-01,-7.795518040657043457e-01,4.792164638638496399e-02,1.194802001118659973e-01,2.898418307304382324e-01,2.786836922168731689e-01,-1.356833130121231079e-01,-1.490913927555084229e-01,2.262834012508392334e-01,2.289149463176727295e-01,4.564430713653564453e-01,-2.929572761058807373e-01,-2.871534228324890137e-02,-5.684193372726440430e-01,3.409550786018371582e-01,-2.633837163448333740e-01,3.825927153229713440e-02,-5.633580088615417480e-01,-2.990881800651550293e-01,9.619736671447753906e-02,-1.659223139286041260e-01,-8.409704267978668213e-02,3.484113514423370361e-01,3.076505288481712341e-02,1.954661011695861816e-01,2.115808576345443726e-01,-3.738256692886352539e-01,7.721568346023559570e-01,3.887984752655029297e-01
1.734142452478408813e-01,-2.536969780921936035e-01,-1.003190502524375916e-01,-5.039128065109252930e-01,-8.418403267860412598e-01,8.696250617504119873e-02,-5.826005712151527405e-03,3.838785588741302490e-01,-3.513579431455582380e-04,-2.065389454364776611e-01,-5.512671470642089844e-01,3.941363990306854248e-01,5.112635493278503418e-01,-3.382884338498115540e-02,-4.216454327106475830e-01,1.351718902587890625e-01,-6.004312038421630859e-01,2.302650809288024902e-01,-3.839679658412933350e-01,-1.988054215908050537e-01,-1.559849828481674194e-01,-1.917905360460281372e-01,-1.395690590143203735e-01,-1.854193210601806641e-02,1.317167729139328003e-01,9.828156977891921997e-02,-2.488210350275039673e-01,2.240212708711624146e-01,7.011278867721557617e-01,-3.719618320465087891e-01,9.616875648498535156e-01,3.230332136154174805e-01
4.484994709491729736e-01,-5.263016223907470703e-01,-2.235062867403030396e-01,-3.384147286415100098e-01,-4.545511603355407715e-01,3.634639382362365723e-01,2.908535301685333252e-02,1.969665437936782837e-01,-1.147248521447181702e-01,-2.725798487663269043e-01,-5.972324013710021973e-01,-1.367992348968982697e-02,2.283947020769119263e-01,-4.682813584804534912e-02,-4.723072350025177002e-01,2.760666608810424805e-01,-5.922717452049255371e-01,4.210725426673889160e-01,-1.217783465981483459e-01,-2.148861885070800781e-01,7.668533921241760254e-02,-3.657680749893188477e-01,2.752708643674850464e-02,9.742485731840133667e-02,4.018195271492004395e-01,8.167820423841476440e-02,3.114598691463470459e-01,-1.391056180000305176e-01,6.274073719978332520e-01,-2.547851204872131348e-01,7.166030406951904297e-01,1.384074836969375610e-01
5.454300045967102051e-01,-1.002455830574035645e+00,-3.513794839382171631e-01,-2.109162956476211548e-01,-2.879909873008728027e-01,2.784031629562377930e-01,-4.096852540969848633e-01,6.207778677344322205e-02,-2.292745709419250488e-01,-2.077914215624332428e-02,-6.590800881385803223e-01,-2.858785092830657959e-01,3.010734915733337402e-01,1.372383832931518555e-01,-1.902329623699188232e-01,1.178049370646476746e-01,-4.577305018901824951e-01,3.540277183055877686e-01,-1.268300861120223999e-01,-2.701892256736755371e-01,7.707089930772781372e-02,-2.827376425266265869e-01,-4.054751247167587280e-02,-1.954345107078552246e-01,4.545401930809020996e-01,9.342761337757110596e-02,1.766628585755825043e-02,6.661235541105270386e-02,1.000125408172607422e+00,6.112664937973022461e-02,4.826027452945709229e-01,-2.810450196266174316e-01
1.626093089580535889e-01,-5.509768724441528320e-01,2.146002203226089478e-01,1.087302789092063904e-01,-1.035169959068298340e-01,-4.274548962712287903e-03,-2.376446872949600220e-01,-5.168020725250244141e-01,-4.177290797233581543e-01,2.733484208583831787e-01,-3.058965206146240234e-01,-4.118338972330093384e-02,1.107932776212692261e-01,2.771039903163909912e-01,1.975753530859947205e-02,3.751097917556762695e-01,-4.105407595634460449e-01,1.894281059503555298e-02,-1.230637207627296448e-01,-3.170893490314483643e-01,3.844238817691802979e-01,6.929574161767959595e-02,-1.472040265798568726e-01,-1.146070752292871475e-02,4.203922152519226074e-01,-2.084392756223678589e-01,4.155997335910797119e-01,-1.261911541223526001e-01,9.265354871749877930e-01,2.731053391471505165e-03,1.780579388141632080e-01,-6.584559679031372070e-01
-2.178507149219512939e-01,-3.650226294994354248e-01,4.301971197128295898e-01,5.297321453690528870e-02,2.399306744337081909e-01,-2.566420659422874451e-02,-3.155185608193278313e-03,-5.631003379821777344e-01,-1.830248981714248657e-01,2.406838536262512207e-01,4.452772438526153564e-02,-7.808293402194976807e-02,-4.651676118373870850e-02,6.033145785331726074e-01,1.581407636404037476e-01,6.048244237899780273e-01,-1.968973875045776367e-01,1.184325367212295532e-01,-5.789072439074516296e-02,-2.033534348011016846e-01,7.248837947845458984e-01,2.141891270875930786e-01,3.953634575009346008e-02,4.232688844203948975e-01,8.947764337062835693e-02,-5.085839629173278809e-01,6.492980122566223145e-01,-3.714904785156250000e-01,4.805540740489959717e-01,-1.018968820571899414e-01,-1.169837489724159241e-01,-8.528773784637451172e-01
-5.595999360084533691e-01,-2.211697697639465332e-01,2.546818852424621582e-01,2.842842638492584229e-01,-2.877576947212219238e-01,7.370171695947647095e-02,9.829129278659820557e-02,-5.913015604019165039e-01,3.217853978276252747e-02,2.350889593362808228e-01,2.727707326412200928e-01,1.796284317970275879e-01,-1.410463154315948486e-01,4.488960802555084229e-01,2.744116485118865967e-01,7.866821289062500000e-01,3.870053915306925774e-03,1.521009057760238647e-01,-2.486023120582103729e-02,-1.445140093564987183e-01,1.002897143363952637e+00,3.680688142776489258e-01,4.497278109192848206e-02,4.585995972156524658e-01,-9.875667840242385864e-02,-1.466610003262758255e-02,8.993334174156188965e-01,-6.872649192810058594e-01,2.506628930568695068e-01,-2.258947491645812988e-01,-1.219545677304267883e-01,-7.810540795326232910e-01
-3.244626224040985107e-01,-4.243559241294860840e-01,5.212720632553100586e-01,6.856973469257354736e-02,-1.925839036703109741e-01,-2.838077843189239502e-01,2.433847486972808838e-01,-5.638425350189208984e-01,3.233565390110015869e-01,1.852318793535232544e-01,2.157652378082275391e-01,5.258561968803405762e-01,-3.374464809894561768e-01,3.559657931327819824e-01,-4.897749051451683044e-02,6.381259560585021973e-01,3.864083886146545410e-01,4.555173814296722412e-01,1.951696872711181641e-01,-1.016740873456001282e-01,8.590022921562194824e-01,6.408750414848327637e-01,3.678428232669830322e-01,3.835825920104980469e-01,-7.561350464820861816e-01,1.710736155509948730e-01,8.735960125923156738e-01,-6.510048508644104004e-01,1.543212085962295532e-01,-2.687346935272216797e-01,5.240772292017936707e-02,-7.078496813774108887e-01
-5.612655282020568848e-01,-4.050289094448089600e-01,3.640957176685333252e-01,-2.584385573863983154e-01,-4.835283756256103516e-01,-3.033648133277893066e-01,6.877342462539672852e-01,-8.211576342582702637e-01,3.117621541023254395e-01,3.684110343456268311e-01,-1.670434623956680298e-01,6.093501448631286621e-01,5.710652098059654236e-03,2.068125009536743164e-01,-7.031768560409545898e-02,4.789610803127288818e-01,6.919678449630737305e-01,8.092587590217590332e-01,-1.641520559787750244e-01,3.059645295143127441e-01,9.433177709579467773e-01,6.050400137901306152e-01,7.092180252075195312e-01,3.107735812664031982e-01,-9.147415757179260254e-01,4.912876784801483154e-01,6.710493564605712891e-01,-5.366212725639343262e-01,1.792538613080978394e-01,-4.139663577079772949e-01,1.850137412548065186e-01,-9.488782882690429688e-01
-3.242165148258209229e-01,-3.212345540523529053e-01,2.422734200954437256e-01,-7.341368198394775391e-01,-3.730089962482452393e-01,-4.568396210670471191e-01,4.527402520179748535e-01,-6.622581481933593750e-01,3.433260619640350342e-01,4.339830577373504639e-01,-2.027241140604019165e-01,4.329166710376739502e-01,2.892285883426666260e-01,5.481749773025512695e-01,-4.603557884693145752e-01,2.848290205001831055e-01,7.783355116844177246e-01,8.944151401519775391e-01,-5.779107809066772461e-01,7.252764105796813965e-01,7.589499950408935547e-01,1.925810575485229492e-01,7.778123021125793457e-01,5.776681378483772278e-02,-6.954744458198547363e-01,5.184272527694702148e-01,5.775869488716125488e-01,-6.687597185373306274e-02,-6.571176648139953613e-02,-4.204519093036651611e-01,7.032528985291719437e-03,-4.297631978988647461e-01
1.018819361925125122e-01,-4.407573640346527100e-01,4.630214273929595947e-01,-5.530852079391479492e-01,-5.528398752212524414e-01,-3.369162380695343018e-01,2.211309075355529785e-01,-8.136943578720092773e-01,7.393860816955566406e-01,1.439471244812011719e-01,-5.190582573413848877e-02,1.808867901563644409e-01,3.268680274486541748e-01,2.727169990539550781e-01,-5.242168903350830078e-01,-2.956422567367553711e-01,7.393574118614196777e-01,7.347075939178466797e-01,-7.429794073104858398e-01,6.727466583251953125e-01,2.754472792148590088e-01,-1.220782250165939331e-01,7.850583195686340332e-01,-3.060021102428436279e-01,-9.247410297393798828e-01,4.572160243988037109e-01,5.804334282875061035e-01,1.131059005856513977e-01,-1.697777658700942993e-01,-1.884847432374954224e-01,1.851269155740737915e-01,-3.254829645156860352e-01
9.143768250942230225e-02,-3.435998558998107910e-01,5.116325020790100098e-01,-9.006376862525939941e-01,-4.149700701236724854e-01,-5.334789156913757324e-01,3.499772399663925171e-02,-4.395917356014251709e-01,7.389482259750366211e-01,3.049556314945220947e-01,-2.577226161956787109e-01,6.123804301023483276e-02,4.761500358581542969e-01,3.078434765338897705e-01,-6.532500982284545898e-01,-3.523011207580566406e-01,6.511772274971008301e-01,4.814928472042083740e-01,-9.791544675827026367e-01,7.409041523933410645e-01,8.240336924791336060e-02,-4.552884101867675781e-01,7.381876707077026367e-01,-2.533861696720123291e-01,-1.101284980773925781e+00,2.085051089525222778e-01,4.609491825103759766e-01,4.980215430259704590e-01,-4.000494182109832764e-01,3.704389557242393494e-02,7.755288481712341309e-02,2.337395213544368744e-02
-1.441778838634490967e-01,-2.416879534721374512e-01,2.035583704710006714e-01,-7.975570559501647949e-01,-4.330538511276245117e-01,-1.115019544959068298e-01,3.075374104082584381e-02,-2.377037554979324341e-01,7.969365715980529785e-01,1.912728548049926758e-01,-2.534255087375640869e-01,2.506166100502014160e-01,4.545479714870452881e-01,-8.038710802793502808e-02,-7.098123431205749512e-01,-1.658540368080139160e-01,1.619933098554611206e-01,5.312020778656005859e-01,-6.677758693695068359e-01,4.680829942226409912e-01,-6.832715123891830444e-02,-4.808710515499114990e-01,2.399916648864746094e-01,-1.502227038145065308e-01,-8.115426898002624512e-01,-5.706067755818367004e-02,2.497595734894275665e-02,3.476349115371704102e-01,-2.215187698602676392e-01,9.482828527688980103e-02,2.589788436889648438e-01,8.315728604793548584e-02
-1.763649433851242065e-01,-3.569418489933013916e-01,-3.583482280373573303e-02,-7.434780001640319824e-01,-4.293220341205596924e-01,5.342721194028854370e-02,-9.720797836780548096e-02,-7.146184891462326050e-02,8.396690487861633301e-01,5.263625830411911011e-02,-1.988306790590286255e-01,1.533966213464736938e-01,2.097025215625762939e-01,-2.623263597488403320e-01,-9.568534493446350098e-01,-3.096846342086791992e-01,1.748926341533660889e-01,7.082929462194442749e-02,-3.802951574325561523e-01,2.935489714145660400e-01,8.854980766773223877e-02,-4.233674407005310059e-01,7.545648515224456787e-02,-6.529927253723144531e-02,-5.770096182823181152e-01,9.187597036361694336e-02,-1.936891302466392517e-02,4.114234820008277893e-02,-2.029979825019836426e-01,1.255984604358673096e-01,3.556449711322784424e-01,3.251892924308776855e-01
-2.490118704736232758e-02,-7.758626341819763184e-01,5.783681944012641907e-02,-5.938625931739807129e-01,-2.707347571849822998e-01,1.965947747230529785e-01,4.465086385607719421e-02,-7.185266911983489990e-02,4.392561316490173340e-01,-2.654083371162414551e-01,-4.117224514484405518e-01,-1.921604722738265991e-01,-3.766642138361930847e-02,-6.089953780174255371e-01,-9.206739068031311035e-01,-1.355549842119216919e-01,1.013493090867996216e-01,2.294044494628906250e-01,-2.743665575981140137e-01,2.830575108528137207e-01,3.317542746663093567e-02,-5.080531239509582520e-01,8.862685412168502808e-02,-8.053831011056900024e-02,-3.131902813911437988e-01,8.620733022689819336e-02,-3.006854653358459473e-01,-4.305611923336982727e-02,1.617275774478912354e-01,5.484031438827514648e-01,5.613564848899841309e-01,4.559838473796844482e-01
-2.027531266212463379e-01,-6.513125896453857422e-01,1.096096169203519821e-02,-5.536235570907592773e-01,-1.434287875890731812e-01,2.469686269760131836e-01,1.080870032310485840e-01,-2.936431467533111572e-01,8.230046927928924561e-02,5.557490512728691101e-03,-4.631843566894531250e-01,-1.773554682731628418e-01,3.658415749669075012e-02,-4.948810935020446777e-01,-6.426772475242614746e-01,-2.168631106615066528e-01,1.652341485023498535e-01,-8.220109343528747559e-02,2.480150163173675537e-01,-9.603548794984817505e-02,-1.832591295242309570e-01,-4.553579688072204590e-01,-3.288039863109588623e-01,-8.819495327770709991e-03,-1.431764364242553711e-01,-1.139094084501266479e-01,-7.737742066383361816e-01,2.332451343536376953e-01,5.951087474822998047e-01,6.625958085060119629e-01,3.515340685844421387e-01,-3.268963098526000977e-02
-1.569253057241439819e-01,-6.039489507675170898e-01,4.536904394626617432e-02,-3.180063962936401367e-01,2.136053591966629028e-01,-4.869564995169639587e-02,1.255710050463676453e-02,-4.610390365123748779e-01,-1.773331910371780396e-01,6.647230386734008789e-01,-8.126712590456008911e-02,-2.597942352294921875e-01,-2.557410299777984619e-01,-2.604338526725769043e-01,-7.789795994758605957e-01,9.324311278760433197e-03,-1.631650477647781372e-01,-2.235789149999618530e-01,3.027112782001495361e-01,2.382659614086151123e-01,-5.031595751643180847e-02,-3.126029670238494873e-01,-3.717474043369293213e-01,3.262885212898254395e-01,2.106403261423110962e-01,2.834298647940158844e-02,-6.021960973739624023e-01,2.000338733196258545e-01,9.307414293289184570e-01,8.002343773841857910e-01,4.786853492259979248e-02,-1.401922404766082764e-01
-5.208380818367004395e-01,-2.541400790214538574e-01,3.409186899662017822e-01,1.697099953889846802e-02,5.295135974884033203e-01,-1.865312010049819946e-01,-1.529179811477661133e-01,-6.225292682647705078e-01,-3.025737404823303223e-01,6.021393537521362305e-01,5.165295600891113281e-01,-1.938202083110809326e-01,-6.874172687530517578e-01,-8.670011907815933228e-02,-1.255760043859481812e-01,3.095015585422515869e-01,-1.353380978107452393e-01,-2.664991319179534912e-01,2.909507751464843750e-01,4.022365808486938477e-01,1.521564722061157227e-01,-5.741460919380187988e-01,-6.064513325691223145e-01,5.902124643325805664e-01,2.382732778787612915e-01,-1.592523157596588135e-01,-5.847418308258056641e-01,-4.246899485588073730e-02,4.749278426170349121e-01,8.539456129074096680e-01,-3.720988631248474121e-01,-5.342748165130615234e-01
-1.062019467353820801e+00,1.059286296367645264e-01,5.767679214477539062e-01,5.419964790344238281e-01,3.577556312084197998e-01,-3.560184836387634277e-01,8.509778231382369995e-02,-6.461446881294250488e-01,-2.960310578346252441e-01,6.816679239273071289e-01,7.631113529205322266e-01,1.160131320357322693e-01,-7.139993906021118164e-01,1.939385756850242615e-02,2.245067656040191650e-01,3.545589447021484375e-01,-2.683540582656860352e-01,-4.029347896575927734e-01,5.609949827194213867e-01,8.992718905210494995e-02,2.923720479011535645e-01,-4.078717231750488281e-01,-6.150464415550231934e-01,7.465634942054748535e-01,6.034370511770248413e-02,1.919491440057754517e-01,-1.507483124732971191e-01,-1.567413285374641418e-02,4.999201297760009766e-01,6.060883998870849609e-01,-4.310923814773559570e-01,-4.541513323783874512e-01
-7.571815252304077148e-01,5.131617188453674316e-01,7.386878728866577148e-01,6.928449273109436035e-01,3.204593658447265625e-01,-3.524020910263061523e-01,2.978151738643646240e-01,-5.840746760368347168e-01,-2.037723660469055176e-01,6.124980449676513672e-01,8.371850848197937012e-01,3.835375308990478516e-01,-1.006664514541625977e+00,2.187571227550506592e-01,4.185783565044403076e-01,1.029666304588317871e+00,1.925684511661529541e-01,-1.413457095623016357e-01,8.066411614418029785e-01,2.182346135377883911e-01,3.130037486553192139e-01,-1.066096648573875427e-01,-9.226475358009338379e-01,7.950303554534912109e-01,-3.947179019451141357e-02,3.612777888774871826e-01,7.434035092592239380e-02,-9.111580997705459595e-02,3.518308103084564209e-01,2.150102555751800537e-01,-2.405055910348892212e-01,-4.060904979705810547e-01
-9.343245625495910645e-01,3.283078074455261230e-01,3.613478541374206543e-01,4.790212512016296387e-01,4.461128264665603638e-02,-1.581541746854782104e-01,3.805289268493652344e-01,-5.759984850883483887e-01,-2.222967892885208130e-02,4.634105861186981201e-01,7.486180067062377930e-01,6.461414098739624023e-01,-1.120433926582336426e+00,2.404620498418807983e-01,9.248936176300048828e-02,8.293907642364501953e-01,5.854872465133666992e-01,8.146001398563385010e-02,5.601238608360290527e-01,3.012923002243041992e-01,5.302352905273437500e-01,1.318716257810592651e-01,-4.338023364543914795e-01,6.909205913543701172e-01,-3.696442842483520508e-01,7.039597034454345703e-01,2.445258796215057373e-01,-4.272502288222312927e-02,1.206926181912422180e-01,-1.065309718251228333e-01,-4.025930911302566528e-02,-2.689287960529327393e-01
-8.440605401992797852e-01,4.335253536701202393e-01,2.708717286586761475e-01,3.302175998687744141e-01,-5.470069050788879395e-01,1.001691911369562149e-02,6.142394542694091797e-01,-5.709745287895202637e-01,2.739106714725494385e-01,4.219434559345245361e-01,7.830786705017089844e-01,8.724400997161865234e-01,-6.462690234184265137e-01,3.982379436492919922e-01,5.527487024664878845e-02,8.046854138374328613e-01,5.772383213043212891e-01,4.097025692462921143e-01,4.797316193580627441e-01,2.243737876415252686e-01,2.328978627920150757e-01,-2.583259642124176025e-01,5.859670694917440414e-03,9.663958102464675903e-03,-3.921566605567932129e-01,9.448567032814025879e-01,-1.904485821723937988e-01,2.549864649772644043e-01,2.577167153358459473e-01,-8.271103352308273315e-02,1.648277044296264648e-01,-3.376993536949157715e-01
-1.717811822891235352e-01,2.656912505626678467e-01,2.928408980369567871e-01,2.614860236644744873e-01,-3.512597978115081787e-01,-1.182478517293930054e-01,3.703851997852325439e-01,-3.105164766311645508e-01,5.518696904182434082e-01,6.021187305450439453e-01,3.688558936119079590e-01,6.396685242652893066e-01,-3.129209280014038086e-01,4.833514392375946045e-01,1.923094987869262695e-01,4.524371922016143799e-01,7.248168587684631348e-01,5.550480484962463379e-01,1.560593694448471069e-01,5.391227006912231445e-01,-9.064037352800369263e-02,-5.082117915153503418e-01,1.453143060207366943e-01,-1.854745298624038696e-01,-1.709148585796356201e-01,9.785356521606445312e-01,1.025427132844924927e-02,6.342636942863464355e-01,1.971210390329360962e-01,-1.973767727613449097e-01,2.974932789802551270e-01,-4.211997389793395996e-01
-1.239973306655883789e-01,2.246216386556625366e-01,4.311202093958854675e-02,-1.394550204277038574e-01,-4.824053943157196045e-01,-1.217274367809295654e-01,7.425389252603054047e-03,1.635216772556304932e-01,2.464831918478012085e-01,2.084201872348785400e-01,2.205644547939300537e-01,5.495395064353942871e-01,-3.038742244243621826e-01,4.498659968376159668e-01,1.362959593534469604e-01,1.486176401376724243e-01,5.420638918876647949e-01,5.328370332717895508e-01,-1.917830407619476318e-01,4.553293287754058838e-01,-2.307595163583755493e-01,-6.736442446708679199e-01,5.975870415568351746e-02,-3.803877234458923340e-01,-1.765315234661102295e-01,5.595809221267700195e-01,-9.653840214014053345e-02,1.005530834197998047e+00,1.403090208768844604e-01,9.114936925470829010e-03,4.887527525424957275e-01,-2.719885706901550293e-01
1.434072852134704590e-01,1.382835358381271362e-01,-1.850106269121170044e-01,-2.811014093458652496e-02,-4.164894223213195801e-01,2.693879604339599609e-01,-4.828818440437316895e-01,1.002464741468429565e-01,7.706518769264221191e-01,-1.360422968864440918e-01,3.305557370185852051e-01,2.091206610202789307e-01,-6.468597799539566040e-02,5.078729391098022461e-01,1.184301264584064484e-02,-1.324942708015441895e-01,1.444347500801086426e-01,5.102563500404357910e-01,-3.321660161018371582e-01,2.902207970619201660e-01,-1.752918064594268799e-01,-9.353548288345336914e-01,-1.307415813207626343e-01,-4.311325550079345703e-01,-2.581714466214179993e-02,4.307305216789245605e-01,-1.123005896806716919e-01,7.713865637779235840e-01,5.212763324379920959e-02,-8.559631556272506714e-02,2.475146204233169556e-01,1.383922249078750610e-02
1.126782968640327454e-01,1.425699591636657715e-01,-2.972724139690399170e-01,1.152298450469970703e-01,-7.373055219650268555e-01,5.521482229232788086e-01,-7.623970508575439453e-01,5.600655078887939453e-01,6.605713963508605957e-01,-6.804568767547607422e-01,1.247119382023811340e-01,3.841125071048736572e-01,2.413287386298179626e-02,-3.177814418449997902e-03,-4.752981662750244141e-02,2.668710798025131226e-02,-1.043532937765121460e-01,3.887546062469482422e-01,-1.239046603441238403e-01,-1.499626785516738892e-01,-1.254341900348663330e-01,-9.249491095542907715e-01,-3.126653134822845459e-01,-6.160627603530883789e-01,-6.750906258821487427e-02,4.994966685771942139e-01,-1.706234514713287354e-01,6.359397172927856445e-01,-1.150794178247451782e-01,-6.671481579542160034e-02,7.132672667503356934e-01,8.132023364305496216e-02
3.860089480876922607e-01,-1.676326692104339600e-01,-7.657702565193176270e-01,1.011369004845619202e-01,-5.841937065124511719e-01,7.526925206184387207e-01,-6.796811819076538086e-01,6.600646376609802246e-01,6.017525792121887207e-01,-7.607097625732421875e-01,-3.029430806636810303e-01,1.658152192831039429e-01,1.054096035659313202e-02,-2.586995065212249756e-01,-2.173544615507125854e-01,-7.412519305944442749e-02,7.667054235935211182e-02,1.910110861063003540e-01,9.610600024461746216e-02,-4.707362949848175049e-01,-1.599350869655609131e-01,-5.402351617813110352e-01,-2.090596258640289307e-01,-5.919001698493957520e-01,-2.050684206187725067e-02,2.223548740148544312e-01,-3.981610536575317383e-01,4.904800355434417725e-01,2.454535961151123047e-01,4.365742579102516174e-02,5.173113346099853516e-01,8.973580598831176758e-02
4.859687089920043945e-01,-4.652864038944244385e-01,-7.129676938056945801e-01,-1.924890428781509399e-01,-5.005084276199340820e-01,1.097113251686096191e+00,-6.675651669502258301e-01,6.227204203605651855e-01,4.207508862018585205e-01,-7.320337891578674316e-01,-4.713131189346313477e-01,-2.741817533969879150e-01,9.525949507951736450e-02,-7.354526519775390625e-01,-3.937502205371856689e-01,6.966236978769302368e-02,-2.171716419979929924e-03,1.488009095191955566e-01,-1.310907900333404541e-01,-3.945939838886260986e-01,-1.516281366348266602e-01,-3.466567397117614746e-01,-4.248904585838317871e-01,-5.068882107734680176e-01,1.268076598644256592e-01,1.137260496616363525e-01,-3.576647341251373291e-01,4.115134179592132568e-01,6.084694266319274902e-01,2.615039050579071045e-01,3.775833249092102051e-01,1.543970853090286255e-01
4.189468920230865479e-01,-5.995165109634399414e-01,-9.747799634933471680e-01,-2.336781620979309082e-01,-1.141397431492805481e-01,9.820651412010192871e-01,-9.951652884483337402e-01,2.118361741304397583e-01,4.941036403179168701e-01,-6.205503940582275391e-01,-2.769904732704162598e-01,-5.968381166458129883e-01,1.788281649351119995e-01,-7.126421332359313965e-01,-3.733235299587249756e-01,-4.843707010149955750e-02,5.035452544689178467e-02,-9.354403614997863770e-02,-4.709928110241889954e-02,-5.635877847671508789e-01,9.565415792167186737e-03,-2.742371559143066406e-01,-2.702203989028930664e-01,-7.825706005096435547e-01,5.555242896080017090e-01,-2.113706171512603760e-01,-4.616378247737884521e-01,2.200914323329925537e-01,3.442843854427337646e-01,6.229667067527770996e-01,1.094062700867652893e-01,-2.003672420978546143e-01
4.341770708560943604e-01,-8.494457006454467773e-01,-6.262144446372985840e-01,-2.098734527826309204e-01,1.663663834333419800e-01,6.435048580169677734e-01,-7.214570045471191406e-01,2.874871529638767242e-02,-1.285555064678192139e-01,-3.491927385330200195e-01,-7.236064225435256958e-02,-5.173599123954772949e-01,1.715676188468933105e-01,-5.935331583023071289e-01,-4.599649831652641296e-02,-1.122885495424270630e-01,3.474099338054656982e-01,-4.710406661033630371e-01,1.083432659506797791e-01,-6.068264245986938477e-01,-7.845133543014526367e-02,-1.351277530193328857e-01,-4.177946448326110840e-01,-4.661490917205810547e-01,5.879366993904113770e-01,-4.128537476062774658e-01,-3.335578739643096924e-01,1.201538220047950745e-01,4.456085264682769775e-01,1.006577968597412109e+00,-2.343690693378448486e-01,-5.496378540992736816e-01
3.230137228965759277e-01,-3.341275155544281006e-01,-2.765717506408691406e-01,3.177800476551055908e-01,6.230350136756896973e-01,5.866184830665588379e-01,-7.770544290542602539e-01,-1.483181864023208618e-01,-2.003223598003387451e-01,1.312249600887298584e-01,1.791782528162002563e-01,-6.341466307640075684e-01,-7.386559993028640747e-02,-3.116703629493713379e-01,1.192170828580856323e-01,4.318309202790260315e-02,2.266298979520797729e-01,-4.548373818397521973e-01,2.671346366405487061e-01,-5.140365958213806152e-01,3.887413740158081055e-01,-7.737691048532724380e-03,-3.529886007308959961e-01,-2.310150563716888428e-01,4.533647596836090088e-01,-5.880475044250488281e-01,-2.275570631027221680e-01,-1.817896217107772827e-01,3.016599118709564209e-01,8.507457971572875977e-01,-6.985795497894287109e-01,-4.346444010734558105e-01
-3.076070249080657959e-01,6.957074254751205444e-02,-8.859366923570632935e-02,5.052287578582763672e-01,6.352210640907287598e-01,1.820041537284851074e-01,-5.349723100662231445e-01,-4.541934430599212646e-01,-7.353902608156204224e-02,1.351053710095584393e-03,6.582360863685607910e-01,-3.360134959220886230e-01,-6.707288026809692383e-01,-4.900119006633758545e-01,3.875930905342102051e-01,1.682555824518203735e-01,3.595440685749053955e-01,-5.403623580932617188e-01,2.290432602167129517e-01,-4.900820255279541016e-01,5.113403201103210449e-01,2.313967645168304443e-01,-6.036921739578247070e-01,9.668560326099395752e-02,-8.474124222993850708e-02,-4.292747974395751953e-01,2.038710564374923706e-01,-5.179111361503601074e-01,-3.509590402245521545e-02,5.054190754890441895e-01,-9.207679033279418945e-01,-3.986022472381591797e-01
-5.623822212219238281e-01,3.537571728229522705e-01,9.727536886930465698e-02,3.893701136112213135e-01,5.674273371696472168e-01,-3.579606115818023682e-02,-2.923658788204193115e-01,-3.892221152782440186e-01,2.214571684598922729e-01,-2.769549004733562469e-02,5.516125559806823730e-01,-3.889252841472625732e-01,-7.003077268600463867e-01,-5.350514054298400879e-01,2.914550602436065674e-01,1.380578428506851196e-01,5.699360966682434082e-01,-3.300608694553375244e-01,6.445679664611816406e-01,-4.135962128639221191e-01,5.653392076492309570e-01,4.695624113082885742e-01,-6.047246456146240234e-01,1.228002309799194336e-01,-2.768642604351043701e-01,-1.727001182734966278e-02,4.158191382884979248e-01,-5.558300614356994629e-01,-4.009730219841003418e-01,4.108106791973114014e-01,-8.580376505851745605e-01,-1.248195022344589233e-01
-5.678524971008300781e-01,4.743262529373168945e-01,1.903249174356460571e-01,3.149299621582031250e-01,2.327392101287841797e-01,1.584164500236511230e-01,2.947784960269927979e-01,-1.751478314399719238e-01,2.853964567184448242e-01,1.085558980703353882e-01,3.954569697380065918e-01,-2.093669958412647247e-02,-4.018914401531219482e-01,-2.629689574241638184e-01,2.081128358840942383e-01,2.328103594481945038e-02,9.023520946502685547e-01,-3.832871019840240479e-01,4.320715665817260742e-01,-6.565484404563903809e-02,3.038981258869171143e-01,5.156421065330505371e-01,-1.468202322721481323e-01,4.944475367665290833e-02,-4.520147740840911865e-01,4.274579696357250214e-03,2.598243057727813721e-01,-5.189973115921020508e-01,-4.535061120986938477e-01,3.185106515884399414e-01,-5.892978310585021973e-01,-2.194146662950515747e-01
-2.682020962238311768e-01,5.085903406143188477e-01,4.735735803842544556e-02,3.000932000577449799e-02,4.874456524848937988e-01,-1.064371243119239807e-01,5.344263315200805664e-01,-1.645534634590148926e-01,1.781581789255142212e-01,1.486113071441650391e-01,3.292378485202789307e-01,-8.777078241109848022e-02,-3.631433248519897461e-01,-2.276453077793121338e-01,1.795178800821304321e-01,-5.169349163770675659e-02,1.041338801383972168e+00,-1.446620523929595947e-01,1.188325732946395874e-01,1.031349226832389832e-01,5.419079097919166088e-04,3.901998102664947510e-01,-5.818927288055419922e-02,-4.473583400249481201e-02,-3.360425829887390137e-01,1.383936852216720581e-01,-1.742586642503738403e-01,-1.414052844047546387e-01,-6.810179352760314941e-01,2.065833508968353271e-01,-6.629087328910827637e-01,-1.802985519170761108e-01
-4.593999311327934265e-02,4.466375410556793213e-01,2.290189824998378754e-02,3.058023154735565186e-01,4.880965352058410645e-01,-1.641638576984405518e-02,1.340668052434921265e-01,-2.229627966880798340e-01,1.261679828166961670e-01,2.454981654882431030e-01,5.795887112617492676e-01,-1.494247317314147949e-01,1.320335362106561661e-02,3.311259672045707703e-02,-8.664990961551666260e-02,-6.647552847862243652e-01,8.541743755340576172e-01,-2.464380860328674316e-02,-1.074214801192283630e-01,4.843279421329498291e-01,-1.601143032312393188e-01,-2.054787576198577881e-01,1.401695013046264648e-01,-3.107614815235137939e-01,-2.058611065149307251e-01,3.367416262626647949e-01,1.314663980156183243e-02,1.333729773759841919e-01,-5.549780726432800293e-01,1.705352663993835449e-01,-7.984745502471923828e-01,1.678347438573837280e-01
2.621974349021911621e-01,6.794915795326232910e-01,2.143115997314453125e-01,-1.655692011117935181e-01,2.932065725326538086e-01,-2.945079207420349121e-01,1.691898852586746216e-01,-1.407423615455627441e-01,7.396709173917770386e-02,-1.424442827701568604e-01,5.695862770080566406e-01,-1.698331534862518311e-01,9.791365824639797211e-03,1.997491866350173950e-01,1.097279861569404602e-01,-8.976250290870666504e-01,5.622600913047790527e-01,-1.403172761201858521e-01,-2.657624781131744385e-01,4.040063023567199707e-01,-6.226263046264648438e-01,-4.044925868511199951e-01,2.181878499686717987e-02,-4.301308095455169678e-01,-3.161704838275909424e-01,-1.119331084191799164e-02,-3.164294362068176270e-01,3.856011033058166504e-01,-7.244107723236083984e-01,2.110924869775772095e-01,-5.871180295944213867e-01,3.371758162975311279e-01
1.319491863250732422e-01,7.271048426628112793e-01,1.557941455394029617e-02,1.125840321183204651e-01,1.312519013881683350e-01,-1.210957989096641541e-01,-9.876768290996551514e-02,3.681165575981140137e-01,1.299651712179183960e-01,-1.833675503730773926e-01,2.426434308290481567e-01,5.206033587455749512e-02,2.093809545040130615e-01,-3.552808985114097595e-02,8.549914509057998657e-02,-6.264437437057495117e-01,1.997678875923156738e-01,-1.166889220476150513e-01,-1.405489444732666016e-01,2.437723278999328613e-01,-8.355101346969604492e-01,-3.029111921787261963e-01,-3.610249757766723633e-01,-5.059600472450256348e-01,-2.430424839258193970e-01,4.646020382642745972e-02,-3.144907951354980469e-01,8.763892054557800293e-01,-7.566193938255310059e-01,2.685323357582092285e-01,-3.023532330989837646e-01,6.627513170242309570e-01
1.897309273481369019e-01,5.201302170753479004e-01,-1.702667772769927979e-01,-4.206045530736446381e-03,8.812279254198074341e-02,4.138660728931427002e-01,-1.917134970426559448e-01,4.491710066795349121e-01,3.190503418445587158e-01,-2.987756729125976562e-01,5.660795792937278748e-02,-7.819695398211479187e-03,1.440872102975845337e-01,-2.440628111362457275e-01,2.611820027232170105e-02,-6.797710061073303223e-01,-5.125144496560096741e-02,-4.361731708049774170e-01,-2.390023022890090942e-01,-1.262947320938110352e-01,-6.141175627708435059e-01,-4.273374676704406738e-01,-6.261650323867797852e-01,-1.156733632087707520e-01,-1.312354952096939087e-02,-1.781089007854461670e-01,-4.856134653091430664e-01,3.778157532215118408e-01,-7.182176113128662109e-01,1.125370338559150696e-01,-2.178038954734802246e-01,9.490231871604919434e-01
2.591199874877929688e-01,2.727376818656921387e-01,-4.777534604072570801e-01,1.391889005899429321e-01,-4.690093547105789185e-02,6.721140742301940918e-01,-1.625658422708511353e-01,6.182321906089782715e-01,1.776177883148193359e-01,-6.070015430450439453e-01,1.739395260810852051e-01,-1.760994791984558105e-01,6.795427948236465454e-02,-5.770987272262573242e-01,-2.309729009866714478e-01,-5.096707344055175781e-01,-2.725712060928344727e-01,-6.293603777885437012e-01,1.284882426261901855e-01,-2.444746494293212891e-01,-8.045960664749145508e-01,-4.319946765899658203e-01,-5.755669474601745605e-01,-1.869623661041259766e-01,9.618093818426132202e-02,1.096014585345983505e-02,-4.355551600456237793e-01,3.986641168594360352e-01,-2.812809646129608154e-01,1.753598749637603760e-01,1.279282476752996445e-02,1.058867216110229492e+00
3.665722608566284180e-01,8.541135489940643311e-02,-5.301843285560607910e-01,-1.103083640336990356e-01,1.720183491706848145e-01,6.403998732566833496e-01,-2.746272385120391846e-01,5.118926167488098145e-01,-1.249432712793350220e-01,-6.622147560119628906e-01,-9.294971078634262085e-02,-5.042575001716613770e-01,-1.672703921794891357e-01,-5.764687061309814453e-01,-3.155877292156219482e-01,-5.983384251594543457e-01,-2.905627191066741943e-01,-5.463220477104187012e-01,3.732719719409942627e-01,-4.401593804359436035e-01,-6.174181699752807617e-01,-2.571067214012145996e-01,-7.554567456245422363e-01,-3.902570903301239014e-01,5.724120140075683594e-01,-2.181281894445419312e-01,-7.920334339141845703e-01,3.544089198112487793e-01,2.817165292799472809e-02,6.456514596939086914e-01,2.588978596031665802e-02,7.064717411994934082e-01
5.121898651123046875e-01,-3.206710517406463623e-01,-7.831438183784484863e-01,1.500263363122940063e-01,4.691066741943359375e-01,7.704060673713684082e-01,-1.683338135480880737e-01,5.666342973709106445e-01,-8.356713652610778809e-01,-3.579028844833374023e-01,4.253729805350303650e-02,-4.583254754543304443e-01,1.464644260704517365e-02,-2.939754724502563477e-01,-1.236776728183031082e-02,-4.850312769412994385e-01,-5.180944204330444336e-01,-4.555853903293609619e-01,3.501271307468414307e-01,-4.300391972064971924e-01,-7.371623516082763672e-01,-3.057314455509185791e-01,-7.535237073898315430e-01,-3.757011294364929199e-01,1.074884533882141113e+00,-5.332695841789245605e-01,-1.044674992561340332e+00,2.205738723278045654e-01,4.572274982929229736e-01,5.726110339164733887e-01,-2.865174412727355957e-02,3.704894185066223145e-01
5.575934052467346191e-01,1.315874513238668442e-03,-3.448443412780761719e-01,4.778472781181335449e-01,7.849557995796203613e-01,4.859253168106079102e-01,-2.607958018779754639e-01,2.445242255926132202e-01,-8.715494275093078613e-01,-8.518793433904647827e-02,2.453221529722213745e-01,-7.954342365264892578e-01,-6.505332142114639282e-02,-1.541071683168411255e-01,3.527267575263977051e-01,-1.312978267669677734e-01,-6.608325242996215820e-01,-7.029365897178649902e-01,3.917788565158843994e-01,-4.473932683467864990e-01,-5.772677659988403320e-01,-1.874139159917831421e-01,-7.696107625961303711e-01,-2.143829911947250366e-01,9.305088520050048828e-01,-3.672426640987396240e-01,-5.885401964187622070e-01,1.224951352924108505e-02,4.514081776142120361e-01,4.790856838226318359e-01,-2.935228347778320312e-01,-2.316981181502342224e-02
2.070934921503067017e-01,2.880438864231109619e-01,-2.465493977069854736e-02,7.735958099365234375e-01,6.449434757232666016e-01,3.744189441204071045e-01,-1.349421292543411255e-01,1.026407554745674133e-01,-8.967977762222290039e-01,-2.473624646663665771e-01,4.719146192073822021e-01,-4.532905519008636475e-01,-4.197780489921569824e-01,2.605886161327362061e-01,7.963191270828247070e-01,-2.710022777318954468e-02,-6.781049966812133789e-01,-7.804315686225891113e-01,6.424285769462585449e-01,-5.286083817481994629e-01,-3.524033427238464355e-01,-1.330799516290426254e-02,-9.031144380569458008e-01,-2.095481306314468384e-01,7.135420441627502441e-01,-3.734431266784667969e-01,-4.058398306369781494e-02,-2.639839649200439453e-01,1.398664414882659912e-01,3.064053654670715332e-01,-5.785388350486755371e-01,1.544967144727706909e-01
5.911942571401596069e-02,6.899206042289733887e-01,1.140491291880607605e-01,8.345501422882080078e-01,4.346290826797485352e-01,2.025991976261138916e-01,2.523145172744989395e-03,-1.368320286273956299e-01,-5.816036462783813477e-01,-7.260667625814676285e-03,5.639550685882568359e-01,-1.079691499471664429e-01,-2.764058113098144531e-01,4.070389270782470703e-01,9.589194059371948242e-01,3.854175209999084473e-01,-3.703795969486236572e-01,-4.648129045963287354e-01,6.971787214279174805e-01,-7.067963480949401855e-01,-1.579529941082000732e-01,4.463066756725311279e-01,-9.662570953369140625e-01,5.252474918961524963e-02,6.266119480133056641e-01,-3.400154784321784973e-02,1.887296512722969055e-02,-2.399255037307739258e-01,4.017287865281105042e-02,7.031451165676116943e-02,-5.028413534164428711e-01,3.342759981751441956e-02
-1.523201912641525269e-01,7.185251712799072266e-01,2.697078585624694824e-01,8.088607192039489746e-01,2.328226864337921143e-01,3.159920275211334229e-01,1.688068509101867676e-01,9.783209860324859619e-02,-5.399586558341979980e-01,-2.842770703136920929e-02,5.336488485336303711e-01,1.637424826622009277e-01,-3.481706976890563965e-01,4.316655397415161133e-01,7.655159831047058105e-01,4.214248657226562500e-01,-2.744388580322265625e-01,-2.397120445966720581e-01,4.332967698574066162e-01,-5.740579962730407715e-01,3.152071833610534668e-01,4.399119913578033447e-01,-5.606544017791748047e-01,8.133971691131591797e-02,1.380737423896789551e-01,1.318266987800598145e-01,4.437535107135772705e-01,-3.886702954769134521e-01,1.342682819813489914e-02,-3.049955964088439941e-01,-2.908423542976379395e-01,-2.862847037613391876e-02
7.255852967500686646e-02,5.782607197761535645e-01,6.737846881151199341e-03,4.239068031311035156e-01,-2.162357792258262634e-02,2.904465794563293457e-01,3.148437440395355225e-01,2.244708836078643799e-01,-3.033890426158905029e-01,-2.329849153757095337e-01,2.528228163719177246e-01,2.050861716270446777e-01,-2.182413786649703979e-01,3.592672646045684814e-01,5.089201927185058594e-01,3.483244478702545166e-01,1.389016956090927124e-01,5.305833742022514343e-02,1.866332292556762695e-01,-3.387469947338104248e-01,3.000898659229278564e-01,6.668223142623901367e-01,-5.403210967779159546e-02,-7.315257936716079712e-02,1.609394252300262451e-01,3.080604076385498047e-01,5.153552889823913574e-01,-5.437304973602294922e-01,-1.348492205142974854e-01,-6.521879434585571289e-01,-3.405871689319610596e-01,-3.037281893193721771e-02
1.340445429086685181e-01,2.626242041587829590e-01,-1.039747223258018494e-01,2.927954494953155518e-01,-1.700579524040222168e-01,-2.121032215654850006e-02,6.213190555572509766e-01,4.201330617070198059e-02,-1.193543970584869385e-01,-1.978122740983963013e-01,9.073270112276077271e-02,2.784017622470855713e-01,-2.104321122169494629e-02,2.206307202577590942e-01,3.971977531909942627e-01,1.206039711833000183e-01,3.856826424598693848e-01,4.385570585727691650e-01,-3.754002153873443604e-01,-5.059349536895751953e-02,7.868000119924545288e-02,2.697861790657043457e-01,4.203400909900665283e-01,-7.480438351631164551e-01,-7.830642908811569214e-02,4.500498771667480469e-01,3.852767348289489746e-01,-2.889155745506286621e-01,-1.657740175724029541e-01,-6.266759634017944336e-01,-2.666592895984649658e-01,-1.439329385757446289e-01
6.299201846122741699e-01,2.520407140254974365e-01,-3.769738376140594482e-01,-3.218211978673934937e-02,-1.950161606073379517e-01,1.777118816971778870e-02,3.471307158470153809e-01,2.245920896530151367e-01,-1.233274266123771667e-01,-1.410455722361803055e-02,-2.262271046638488770e-01,5.039865523576736450e-02,5.484559535980224609e-01,7.070735096931457520e-01,3.203944563865661621e-01,-2.599102854728698730e-01,3.166028261184692383e-01,4.917859137058258057e-01,-7.178635597229003906e-01,6.263695191591978073e-03,-3.646174371242523193e-01,1.892278492450714111e-01,5.525019764900207520e-01,-7.069391012191772461e-01,1.662528663873672485e-01,-6.477580219507217407e-02,2.521381080150604248e-01,-3.889219835400581360e-02,-4.263961017131805420e-01,-5.198178887367248535e-01,-1.964716464281082153e-01,-3.161010146141052246e-01
7.039859890937805176e-01,6.881810724735260010e-03,-3.399730324745178223e-01,-1.604091227054595947e-01,-7.125867158174514771e-02,6.498143821954727173e-02,-3.222503466531634331e-03,1.871055811643600464e-01,2.021728605031967163e-01,-3.677665293216705322e-01,-3.889773190021514893e-01,-1.441592276096343994e-01,5.693871974945068359e-01,4.954888522624969482e-01,2.217757701873779297e-01,-5.274261832237243652e-01,1.096162497997283936e-01,4.105397462844848633e-01,-9.256059527397155762e-01,-1.661410778760910034e-01,-2.990047335624694824e-01,4.222501069307327271e-02,6.126885414123535156e-01,-6.266775727272033691e-01,-5.158717185258865356e-02,-1.312213093042373657e-01,3.450353741645812988e-01,1.504873037338256836e-01,-6.568818092346191406e-01,-5.666735172271728516e-01,-4.998736083507537842e-02,3.362524807453155518e-01
7.101281285285949707e-01,6.915180385112762451e-02,-1.832368671894073486e-01,-3.128278553485870361e-01,-2.600944936275482178e-01,3.796649575233459473e-01,-1.798723489046096802e-01,3.918323814868927002e-01,3.473598361015319824e-01,-7.832406759262084961e-01,-4.306085705757141113e-01,-2.860916852951049805e-01,7.413287162780761719e-01,3.235062956809997559e-01,2.305215969681739807e-02,-6.263816356658935547e-01,1.744600199162960052e-02,2.288896143436431885e-01,-8.861595988273620605e-01,-1.219255551695823669e-01,-4.254286587238311768e-01,6.033594161272048950e-02,5.178811550140380859e-01,-7.629337310791015625e-01,-2.027151137590408325e-01,-1.818165034055709839e-01,6.115221381187438965e-01,7.560759037733078003e-02,-4.564451277256011963e-01,-5.542959570884704590e-01,-2.069764956831932068e-02,3.378609120845794678e-01
7.714623808860778809e-01,-2.190367132425308228e-01,-4.426731467247009277e-01,-4.183679521083831787e-01,-4.661001563072204590e-01,3.077261149883270264e-01,-1.378376334905624390e-01,7.104221582412719727e-01,4.385209083557128906e-01,-9.292631745338439941e-01,-5.757284164428710938e-01,-4.431076943874359131e-01,7.791724205017089844e-01,-1.267141401767730713e-01,2.142571844160556793e-03,-5.829496383666992188e-01,-1.878216266632080078e-01,2.929678559303283691e-02,-7.738303542137145996e-01,-3.377583324909210205e-01,-3.394280672073364258e-01,2.156215608119964600e-01,2.902934849262237549e-01,-7.802665233612060547e-01,-2.394145280122756958e-01,-4.736842513084411621e-01,2.049545645713806152e-01,-2.870419025421142578e-01,-6.708368659019470215e-01,-3.602963089942932129e-01,1.344726532697677612e-01,5.128210186958312988e-01
6.820783615112304688e-01,-4.773243367671966553e-01,-4.064345657825469971e-01,-4.963348507881164551e-01,-3.054856657981872559e-01,6.817848086357116699e-01,-2.679789066314697266e-01,4.581928551197052002e-01,1.695675849914550781e-01,-7.573310732841491699e-01,-9.437196850776672363e-01,-4.113673567771911621e-01,9.304576516151428223e-01,-5.590416193008422852e-01,-3.660672605037689209e-01,-5.869864225387573242e-01,-5.081743001937866211e-02,-1.585589498281478882e-01,-5.714291930198669434e-01,-6.250568032264709473e-01,-3.425914943218231201e-01,4.714908599853515625e-01,6.371098011732101440e-02,-3.728133738040924072e-01,4.623067006468772888e-02,-6.399160623550415039e-01,5.469512939453125000e-02,-4.555682241916656494e-01,-3.104660212993621826e-01,-2.199112474918365479e-01,3.006959557533264160e-01,6.306957602500915527e-01
5.747448205947875977e-01,-6.252866983413696289e-01,-6.413883566856384277e-01,-8.982468247413635254e-01,2.774991691112518311e-01,5.447375774383544922e-01,-9.756279736757278442e-02,3.309346437454223633e-01,3.323160111904144287e-02,-6.483561992645263672e-01,-8.309765458106994629e-01,-8.284749388694763184e-01,8.511179089546203613e-01,-5.705356597900390625e-01,-7.344251871109008789e-01,-7.257391810417175293e-01,-1.767597198486328125e-01,-2.907125353813171387e-01,-5.433091521263122559e-01,-4.726289212703704834e-01,-2.292042225599288940e-01,3.939940631389617920e-01,7.329982519149780273e-02,-3.898774981498718262e-01,1.267444789409637451e-01,-8.611892461776733398e-01,4.171568527817726135e-02,-5.591523647308349609e-01,5.627685785293579102e-02,1.035720631480216980e-01,-1.979661174118518829e-02,6.473560333251953125e-01
5.620831847190856934e-01,-6.008523106575012207e-01,-3.902985453605651855e-01,-4.915776848793029785e-01,4.258986413478851318e-01,1.934905648231506348e-01,-2.053270861506462097e-02,-1.059829443693161011e-01,-4.403895437717437744e-01,-3.056670427322387695e-01,-5.521391630172729492e-01,-7.986550927162170410e-01,5.321898460388183594e-01,-4.325926005840301514e-01,-5.275397896766662598e-01,-7.883132696151733398e-01,-2.972134053707122803e-01,-3.676334321498870850e-01,-4.044599533081054688e-01,-4.088816344738006592e-01,-9.620236605405807495e-02,2.392630726099014282e-01,1.510196179151535034e-01,-3.958434760570526123e-01,2.015273123979568481e-01,-6.388675570487976074e-01,-1.823129504919052124e-01,-5.126654505729675293e-01,-2.866588346660137177e-02,5.850931406021118164e-01,-2.673900127410888672e-01,2.462178915739059448e-01
4.528130888938903809e-01,-3.648189306259155273e-01,8.406674861907958984e-02,-3.002615869045257568e-01,7.098683118820190430e-01,5.398011580109596252e-02,-1.489315833896398544e-02,-4.600939154624938965e-01,-6.335888504981994629e-01,2.971368134021759033e-01,-6.291868090629577637e-01,-9.461839199066162109e-01,5.406954884529113770e-01,-3.430258333683013916e-01,-2.019463777542114258e-01,-4.938386678695678711e-01,-1.801539659500122070e-01,-5.533952713012695312e-01,-2.977581024169921875e-01,-2.720887064933776855e-01,-1.022728234529495239e-01,5.056754350662231445e-01,-5.735035985708236694e-02,1.767482794821262360e-02,4.348187744617462158e-01,-9.101585149765014648e-01,-8.683213591575622559e-02,-5.554971098899841309e-01,-1.135815158486366272e-01,6.431117653846740723e-01,-4.887754917144775391e-01,-5.051245540380477905e-02
2.078588455915451050e-01,-5.098487809300422668e-02,4.090632796287536621e-01,-1.727912127971649170e-01,7.170639634132385254e-01,-2.270541936159133911e-01,2.188332676887512207e-01,-5.431631803512573242e-01,-5.630810260772705078e-01,3.787010312080383301e-01,-1.514087617397308350e-01,-7.045496702194213867e-01,1.162823662161827087e-01,1.499142497777938843e-01,-1.431244313716888428e-01,-2.053411453962326050e-01,-2.050342261791229248e-01,-7.007129788398742676e-01,8.296085149049758911e-02,-3.242099285125732422e-02,3.239497169852256775e-02,4.728922843933105469e-01,-2.331816107034683228e-01,3.972281515598297119e-01,1.695237010717391968e-01,-7.696875333786010742e-01,2.173702716827392578e-01,-6.527284979820251465e-01,-3.699151799082756042e-02,5.919129252433776855e-01,-6.616658568382263184e-01,-9.071420878171920776e-02
-4.033367335796356201e-01,7.334259897470474243e-02,7.161002159118652344e-01,1.761041283607482910e-01,5.694528818130493164e-01,-4.563654959201812744e-01,3.505204319953918457e-01,-6.949480772018432617e-01,-4.508152902126312256e-01,3.617232739925384521e-01,3.858864605426788330e-01,-2.780571281909942627e-01,-3.386434316635131836e-01,2.211910039186477661e-01,3.238817453384399414e-01,1.508093476295471191e-01,-8.251653611660003662e-02,-6.512032747268676758e-01,1.564584299921989441e-02,5.276992544531822205e-02,2.459347546100616455e-01,6.570370197296142578e-01,-3.036434352397918701e-01,8.045932650566101074e-01,-9.651911444962024689e-03,-3.344420492649078369e-01,5.700913667678833008e-01,-1.190060853958129883e+00,-2.830890715122222900e-01,-9.991443157196044922e-02,-6.869619488716125488e-01,1.602850258350372314e-01
-6.139749288558959961e-01,3.364397585391998291e-01,9.163545966148376465e-01,4.489609301090240479e-01,3.304266035556793213e-01,-6.033592820167541504e-01,7.440454959869384766e-01,-6.983266472816467285e-01,-1.173800528049468994e-01,5.010744333267211914e-01,3.300057053565979004e-01,2.426801249384880066e-03,-3.448128402233123779e-01,1.585482656955718994e-01,2.371979653835296631e-01,2.508881986141204834e-01,-4.534104373306035995e-03,-2.128613591194152832e-01,2.606452405452728271e-01,1.974328756332397461e-01,1.964077651500701904e-01,7.128680348396301270e-01,-3.834732994437217712e-02,6.280365586280822754e-01,-5.360666513442993164e-01,9.164691716432571411e-02,5.566818118095397949e-01,-9.227220416069030762e-01,-5.491023659706115723e-01,-1.039950177073478699e-01,-8.196922540664672852e-01,6.177241355180740356e-02
-5.716733336448669434e-01,4.513317048549652100e-01,8.335533738136291504e-01,1.350643765181303024e-02,2.291258722543716431e-01,-6.049665212631225586e-01,9.982205629348754883e-01,-5.328443050384521484e-01,-3.048485815525054932e-01,6.753970980644226074e-01,2.046459615230560303e-01,3.408638834953308105e-01,-1.563010513782501221e-01,4.672422707080841064e-01,4.507790878415107727e-02,1.514134854078292847e-01,4.048130810260772705e-01,4.034326970577239990e-02,4.524110257625579834e-02,4.539275467395782471e-01,1.087722480297088623e-01,6.385427117347717285e-01,-6.882552057504653931e-02,4.350077807903289795e-01,-3.777195513248443604e-01,3.615361452102661133e-01,4.061802029609680176e-01,-4.643752276897430420e-01,-3.036692440509796143e-01,-2.696525752544403076e-01,-2.780101597309112549e-01,-4.929653182625770569e-02
-3.785150349140167236e-01,2.916939854621887207e-01,6.572304964065551758e-01,-9.612759947776794434e-02,1.410578489303588867e-01,-5.428115129470825195e-01,1.060725092887878418e+00,-6.594850420951843262e-01,-3.438677787780761719e-01,7.371248602867126465e-01,1.082462742924690247e-01,4.659658372402191162e-01,1.437214761972427368e-01,5.941823124885559082e-01,-4.036144539713859558e-02,-2.438515191897749901e-03,2.693568766117095947e-01,3.637680709362030029e-01,-1.809341460466384888e-01,8.932954072952270508e-01,-1.373352706432342529e-01,3.577210605144500732e-01,1.290804147720336914e-01,1.540770083665847778e-01,-3.554315865039825439e-01,5.422939062118530273e-01,2.685115039348602295e-01,-6.504999101161956787e-02,-1.070525944232940674e-01,-6.070291996002197266e-01,3.565310314297676086e-02,-7.212786376476287842e-02
6.483865529298782349e-02,3.077695071697235107e-01,5.061506628990173340e-01,-2.006562501192092896e-01,-2.312115728855133057e-01,-8.587267398834228516e-01,8.315976262092590332e-01,-4.164287149906158447e-01,-1.218081638216972351e-01,7.133750319480895996e-01,1.353482156991958618e-01,4.325427412986755371e-01,2.858490943908691406e-01,8.110346794128417969e-01,1.286937743425369263e-01,-1.720398813486099243e-01,1.182939633727073669e-01,5.560841560363769531e-01,-5.019618272781372070e-01,9.356554150581359863e-01,-2.305941432714462280e-01,3.629770502448081970e-02,4.550711214542388916e-01,-6.624999642372131348e-02,-3.520245254039764404e-01,5.094956755638122559e-01,7.415213435888290405e-02,9.285782277584075928e-02,-1.933544725179672241e-01,-6.550541520118713379e-01,4.259089753031730652e-02,2.352071553468704224e-01
6.966236233711242676e-02,1.491927802562713623e-01,6.161482334136962891e-01,-3.179266750812530518e-01,-2.395307272672653198e-01,-5.856925249099731445e-01,7.050992250442504883e-01,-3.086537122726440430e-01,-1.538057625293731689e-01,4.998590350151062012e-01,6.737754493951797485e-02,4.621116518974304199e-01,3.510443270206451416e-01,7.290157675743103027e-01,-1.183982342481613159e-01,-6.072005033493041992e-01,-1.982751339673995972e-01,2.540736794471740723e-01,-4.522781074047088623e-01,7.679048776626586914e-01,-5.891417264938354492e-01,-2.923997044563293457e-01,2.989749014377593994e-01,-1.541693955659866333e-01,-1.492884308099746704e-01,2.194419801235198975e-01,1.899237185716629028e-01,3.423661589622497559e-01,-1.757339835166931152e-01,-5.664129853248596191e-01,4.577822685241699219e-01,3.552132546901702881e-01
1.898684501647949219e-01,6.737181544303894043e-02,3.721694648265838623e-01,-3.165943622589111328e-01,-2.805380225181579590e-01,-2.030682414770126343e-01,2.491075396537780762e-01,4.161886405199766159e-03,2.293371856212615967e-01,4.481448978185653687e-02,-9.141796827316284180e-02,4.123563468456268311e-01,4.082171916961669922e-01,9.453040957450866699e-01,-1.851903498172760010e-01,-3.822557032108306885e-01,-3.703070878982543945e-01,2.272975891828536987e-01,-5.295691490173339844e-01,2.973478734493255615e-01,-5.532066822052001953e-01,-4.673747122287750244e-01,1.134466007351875305e-01,2.248260751366615295e-02,-1.444990336894989014e-01,1.306440383195877075e-01,3.039171695709228516e-01,3.264177143573760986e-01,-8.484710752964019775e-02,-7.220391035079956055e-01,5.639309883117675781e-01,3.580265641212463379e-01
3.913432955741882324e-01,-1.953354626893997192e-01,4.903536662459373474e-02,-3.474448323249816895e-01,-5.999954342842102051e-01,2.552564740180969238e-01,4.144407212734222412e-01,4.315116405487060547e-01,2.998915314674377441e-01,-2.515511810779571533e-01,-3.436818718910217285e-01,4.742109775543212891e-01,2.455907762050628662e-01,4.192614853382110596e-01,-2.865616679191589355e-01,-1.474982053041458130e-01,-7.705548405647277832e-01,3.634654879570007324e-01,-3.987523317337036133e-01,7.960905134677886963e-02,-2.422966957092285156e-01,-4.808290600776672363e-01,-1.101855859160423279e-01,-1.404959559440612793e-01,-6.881562620401382446e-02,2.060023546218872070e-01,3.945211321115493774e-02,2.922187149524688721e-01,1.284463703632354736e-01,-6.464993357658386230e-01,7.207589745521545410e-01,6.284299492835998535e-01
2.954189479351043701e-01,-5.475754141807556152e-01,-3.690835088491439819e-02,-4.083085954189300537e-01,-8.556317090988159180e-01,3.211872279644012451e-01,1.413902193307876587e-01,2.054363340139389038e-01,1.232297271490097046e-01,-4.635986387729644775e-01,-4.351994395256042480e-01,4.516113549470901489e-02,2.015591561794281006e-01,1.168797910213470459e-01,-4.381590187549591064e-01,-9.563913196325302124e-02,-5.420807600021362305e-01,4.343546032905578613e-01,-3.027088344097137451e-01,-1.791199445724487305e-01,-2.157105356454849243e-01,-4.741571545600891113e-01,9.677562862634658813e-02,-3.055778741836547852e-01,4.263916611671447754e-02,1.857655346393585205e-01,-3.284591808915138245e-02,2.276005744934082031e-01,3.179084956645965576e-01,-2.350108772516250610e-01,8.512783646583557129e-01,4.415018260478973389e-01
5.310193896293640137e-01,-6.437207460403442383e-01,-3.091068565845489502e-01,-3.028641343116760254e-01,-5.766775608062744141e-01,3.266587555408477783e-01,3.519986569881439209e-02,3.290912508964538574e-01,-2.311657369136810303e-01,-3.538852035999298096e-01,-6.519091725349426270e-01,-5.276735872030258179e-02,5.271949172019958496e-01,1.489247083663940430e-01,-5.242615342140197754e-01,1.123081445693969727e-01,-7.318202257156372070e-01,4.544848799705505371e-01,-4.102060198783874512e-02,-2.669377326965332031e-01,-1.223332881927490234e-01,-4.241352975368499756e-01,-1.434453874826431274e-01,-6.725353747606277466e-02,2.159454971551895142e-01,1.361066102981567383e-01,-3.340635597705841064e-01,1.396643072366714478e-01,8.093898296356201172e-01,-2.470201998949050903e-01,6.851555109024047852e-01,-3.269428014755249023e-01
4.256787300109863281e-01,-6.111595034599304199e-01,-4.323293641209602356e-02,-4.264214336872100830e-01,-2.613710165023803711e-01,4.635783135890960693e-01,-6.195750087499618530e-02,4.305670782923698425e-02,-1.847732216119766235e-01,1.961663216352462769e-01,-6.465771794319152832e-01,-1.271419823169708252e-01,4.653987884521484375e-01,1.200824528932571411e-01,-4.618617296218872070e-01,3.106485903263092041e-01,-4.220460057258605957e-01,2.860029935836791992e-01,-3.000104427337646484e-01,-8.118731528520584106e-02,1.062726080417633057e-01,2.750606462359428406e-02,4.309058189392089844e-02,-6.297212839126586914e-02,3.768857717514038086e-01,-1.716940253973007202e-01,-1.433963179588317871e-01,-2.257851213216781616e-01,9.910692572593688965e-01,-2.870047930628061295e-03,6.113981604576110840e-01,-6.256963610649108887e-01
2.457392960786819458e-01,-5.909441709518432617e-01,1.869780272245407104e-01,-5.752130597829818726e-02,-4.142702557146549225e-03,2.529361248016357422e-01,-4.434446692466735840e-01,-4.470713436603546143e-01,-3.999262154102325439e-01,7.128757238388061523e-02,-2.479698210954666138e-01,-3.283301293849945068e-01,1.797765940427780151e-01,2.936936020851135254e-01,-3.710622712969779968e-02,4.429046213626861572e-01,-5.202084183692932129e-01,2.549430429935455322e-01,-3.272764086723327637e-01,-7.871589809656143188e-02,2.797399759292602539e-01,-5.208749696612358093e-02,2.198556251823902130e-02,3.219985365867614746e-01,3.046777844429016113e-01,-8.410061150789260864e-02,2.464770078659057617e-01,-1.864016056060791016e-01,8.356547951698303223e-01,9.022155404090881348e-02,2.598193585872650146e-01,-6.560191512107849121e-01
-7.828782498836517334e-02,-5.077180862426757812e-01,4.784210324287414551e-01,1.618157327175140381e-01,-1.175126209855079651e-01,-2.347661703824996948e-01,-2.835009396076202393e-01,-5.437135100364685059e-01,-3.439416587352752686e-01,2.830859422683715820e-01,1.152419820427894592e-01,-8.271577954292297363e-02,6.289925426244735718e-02,3.886793851852416992e-01,3.501674234867095947e-01,6.258155703544616699e-01,-2.960290014743804932e-01,-5.386441200971603394e-02,2.865635789930820465e-02,-2.740914523601531982e-01,6.619598865509033203e-01,9.466827660799026489e-02,-1.431716233491897583e-02,2.595052123069763184e-01,9.072504192590713501e-02,-1.598100364208221436e-01,4.459288418292999268e-01,-4.631839990615844727e-01,6.559923887252807617e-01,1.233109310269355774e-01,6.797474622726440430e-02,-8.261365890502929688e-01
-3.576494157314300537e-01,-2.613043189048767090e-01,5.721530318260192871e-01,2.897045314311981201e-01,1.215587630867958069e-01,3.533867420628666878e-03,-2.190220868214964867e-03,-5.153763890266418457e-01,6.845796108245849609e-02,3.804388344287872314e-01,-1.426981389522552490e-02,3.385324776172637939e-01,-2.721470594406127930e-01,3.712092339992523193e-01,2.654221355915069580e-01,8.251067399978637695e-01,1.420335024595260620e-01,1.355161815881729126e-01,1.810496859252452850e-02,-1.277990043163299561e-01,8.913289308547973633e-01,6.361867189407348633e-01,1.867277175188064575e-02,5.215578079223632812e-01,-3.573978543281555176e-01,2.692472040653228760e-01,7.947582602500915527e-01,-5.201888084411621094e-01,4.114431738853454590e-01,-2.548443973064422607e-01,-1.002034991979598999e-01,-8.041067123413085938e-01
-3.824789226055145264e-01,-2.409188896417617798e-01,4.507550895214080811e-01,-7.435197383165359497e-02,-4.527521133422851562e-01,-2.223620563745498657e-01,3.380204141139984131e-01,-5.360767841339111328e-01,3.546925485134124756e-01,4.650512933731079102e-01,1.962634474039077759e-01,3.850760161876678467e-01,-2.034986615180969238e-01,3.300620615482330322e-01,1.015356257557868958e-01,8.179933428764343262e-01,5.653674006462097168e-01,5.534471273422241211e-01,-6.805666536092758179e-02,1.209023520350456238e-01,1.012605786323547363e+00,6.816689968109130859e-01,1.957249492406845093e-01,4.370040595531463623e-01,-6.550964713096618652e-01,3.283525109291076660e-01,1.041255474090576172e+00,-6.623532772064208984e-01,3.419587016105651855e-01,-4.327493309974670410e-01,-8.802939206361770630e-02,-7.389178872108459473e-01
-4.156968295574188232e-01,-3.547303676605224609e-01,2.825438678264617920e-01,-2.997452616691589355e-01,-5.573235750198364258e-01,-1.554737240076065063e-01,2.786793112754821777e-01,-6.481863856315612793e-01,6.939749121665954590e-01,3.946925401687622070e-01,-2.633034624159336090e-02,3.779120147228240967e-01,-1.523881256580352783e-01,3.728150725364685059e-01,1.205209270119667053e-02,4.698850214481353760e-01,4.820710718631744385e-01,7.657136321067810059e-01,-2.472483366727828979e-01,3.904010951519012451e-01,9.749619960784912109e-01,5.855206251144409180e-01,7.274749279022216797e-01,1.540412753820419312e-01,-8.809314966201782227e-01,5.805400013923645020e-01,9.053885936737060547e-01,-3.951255083084106445e-01,1.328404843807220459e-01,-3.451142311096191406e-01,6.766556948423385620e-02,-6.490631699562072754e-01
-1.890142410993576050e-01,-2.349591553211212158e-01,1.441265344619750977e-01,-4.568583071231842041e-01,-4.888039231300354004e-01,-4.310136139392852783e-01,3.271810412406921387e-01,-6.992284655570983887e-01,6.736702322959899902e-01,4.163471162319183350e-01,-8.865135908126831055e-02,2.811518311500549316e-01,2.996449172496795654e-01,3.265570104122161865e-01,-3.789503276348114014e-01,-2.586167864501476288e-02,8.367264866828918457e-01,8.705522418022155762e-01,-5.095837712287902832e-01,5.289759635925292969e-01,5.753594040870666504e-01,2.104136943817138672e-01,8.732300996780395508e-01,-2.385349720716476440e-01,-8.307006359100341797e-01,6.472841501235961914e-01,5.846574902534484863e-01,-1.237194761633872986e-01,-1.851316541433334351e-02,-2.977257966995239258e-01,2.972437143325805664e-01,-6.738494038581848145e-01
-2.602406311780214310e-03,-1.490195244550704956e-01,3.015717267990112305e-01,-6.654770970344543457e-01,-5.673149824142456055e-01,-4.746072888374328613e-01,3.523216843605041504e-01,-6.980974674224853516e-01,6.929692625999450684e-01,3.859800100326538086e-01,-2.251211255788803101e-01,3.375793993473052979e-01,5.507513880729675293e-01,4.027889370918273926e-01,-4.491032958030700684e-01,-1.532430648803710938e-01,9.076027274131774902e-01,7.877697348594665527e-01,-8.254393935203552246e-01,6.919884085655212402e-01,2.756966650485992432e-01,-3.568156808614730835e-02,8.173824548721313477e-01,-4.290814325213432312e-02,-7.516526579856872559e-01,3.126410543918609619e-01,3.004103302955627441e-01,1.542616039514541626e-01,-1.157360821962356567e-01,-1.660348623991012573e-01,1.434565931558609009e-01,-4.474961757659912109e-01
-1.065959855914115906e-01,-1.823704838752746582e-01,2.819649279117584229e-01,-6.575936675071716309e-01,-4.080775380134582520e-01,-4.954054355621337891e-01,1.118143573403358459e-01,-4.169974029064178467e-01,6.932137012481689453e-01,-2.696837857365608215e-02,-2.260262519121170044e-01,2.340073138475418091e-01,2.739785611629486084e-01,4.445895850658416748e-01,-6.700386404991149902e-01,-2.424374669790267944e-01,4.069035947322845459e-01,5.848858952522277832e-01,-9.400668144226074219e-01,8.175753951072692871e-01,-4.828838258981704712e-02,-4.619343578815460205e-01,6.796597242355346680e-01,-1.128366217017173767e-01,-6.532100439071655273e-01,1.371590495109558105e-01,5.771380066871643066e-01,2.088110893964767456e-01,-2.965562939643859863e-01,-5.701913312077522278e-02,1.419198364019393921e-01,-8.229202777147293091e-02
-1.199911255389451981e-02,-3.085573017597198486e-01,1.653417348861694336e-01,-7.169395089149475098e-01,-6.863269209861755371e-01,-1.833960860967636108e-01,-6.637558341026306152e-02,-2.430904358625411987e-01,6.170279979705810547e-01,-1.801337450742721558e-01,-2.617970108985900879e-01,2.907132804393768311e-01,1.878155022859573364e-01,1.075364798307418823e-01,-6.946052908897399902e-01,-2.547747492790222168e-01,1.750464737415313721e-01,1.806483864784240723e-01,-4.714873433113098145e-01,5.685199499130249023e-01,7.969477772712707520e-02,-4.830963611602783203e-01,2.075966596603393555e-01,-3.644818812608718872e-02,-7.759212851524353027e-01,1.240089610219001770e-01,3.930695950984954834e-01,3.515362441539764404e-01,-1.653943359851837158e-01,2.373983338475227356e-02,8.826658129692077637e-02,1.972093433141708374e-01
-2.538192570209503174e-01,-3.880740702152252197e-01,4.417382925748825073e-02,-7.835907936096191406e-01,-4.260857403278350830e-01,9.950229525566101074e-02,-5.889360234141349792e-02,-1.141939163208007812e-01,6.986104846000671387e-01,-1.199494153261184692e-01,-3.769663870334625244e-01,3.349376097321510315e-02,2.264515459537506104e-01,-4.040860533714294434e-01,-8.153764009475708008e-01,-3.539468348026275635e-01,1.565309613943099976e-01,1.264389418065547943e-02,-2.586820721626281738e-01,2.764003574848175049e-01,-8.120788633823394775e-02,-5.652651786804199219e-01,5.850687995553016663e-02,1.843470484018325806e-01,-6.379873752593994141e-01,6.145915389060974121e-02,-2.325221747159957886e-01,1.382368355989456177e-01,-9.476608037948608398e-02,1.081503480672836304e-01,4.663750529289245605e-01,5.038804411888122559e-01
-1.235392987728118896e-01,-4.829297065734863281e-01,-1.588546335697174072e-01,-6.127271056175231934e-01,-2.370080798864364624e-01,2.352706044912338257e-01,-1.535085290670394897e-01,-1.936526298522949219e-01,5.914108753204345703e-01,5.300280824303627014e-02,-2.614251971244812012e-01,-8.464056998491287231e-02,3.172762989997863770e-01,-5.625136494636535645e-01,-1.153837203979492188e+00,9.779571741819381714e-02,1.925680637359619141e-01,5.407069623470306396e-02,2.555302344262599945e-02,3.264965116977691650e-01,4.640699550509452820e-02,-4.207523167133331299e-01,-1.810188144445419312e-01,2.818756997585296631e-01,-5.045593380928039551e-01,-4.989765584468841553e-02,-3.616977930068969727e-01,1.902307122945785522e-01,5.146605968475341797e-01,4.306755363941192627e-01,4.581833779811859131e-01,1.352299898862838745e-01
-1.606561988592147827e-01,-7.292620539665222168e-01,-1.662896275520324707e-01,-5.248535871505737305e-01,-8.500050008296966553e-02,9.761586040258407593e-02,-2.175321727991104126e-01,-1.209856644272804260e-01,1.245731860399246216e-01,5.619226768612861633e-02,-7.816090434789657593e-02,-3.490703105926513672e-01,1.341732144355773926e-01,-4.739714562892913818e-01,-9.338773488998413086e-01,-2.382209897041320801e-02,2.185561209917068481e-01,-1.163123175501823425e-01,6.233570724725723267e-02,1.882891654968261719e-01,-5.238035693764686584e-03,-4.698109626770019531e-01,-1.844954490661621094e-01,2.394793033599853516e-01,7.268714159727096558e-02,-8.759279549121856689e-02,-4.433731138706207275e-01,1.353017091751098633e-01,5.781099796295166016e-01,6.749407649040222168e-01,1.199910715222358704e-01,3.217838406562805176e-01
-5.763702392578125000e-01,-5.885128378868103027e-01,-4.674727970268577337e-04,-4.000490307807922363e-01,1.350720673799514771e-01,-2.328479886054992676e-01,5.680812150239944458e-02,-4.063689112663269043e-01,-1.163204610347747803e-01,4.533295333385467529e-01,-6.713056564331054688e-02,-4.104260802268981934e-01,-1.534275710582733154e-01,-2.628004252910614014e-01,-7.112887501716613770e-01,3.283138386905193329e-03,5.606192350387573242e-02,-3.731550276279449463e-01,2.557907700538635254e-01,3.227123022079467773e-01,-1.047112271189689636e-01,-3.802837431430816650e-01,-2.988545894622802734e-01,1.982237398624420166e-01,1.464184969663619995e-01,-7.199416309595108032e-02,-3.364171683788299561e-01,1.847289204597473145e-01,6.551885008811950684e-01,1.040366888046264648e+00,8.861572295427322388e-02,-3.153807818889617920e-01
-5.411969423294067383e-01,-1.622684001922607422e-01,5.696264505386352539e-01,-1.131127029657363892e-02,4.444513618946075439e-01,-1.300833821296691895e-01,-1.376375854015350342e-01,-7.012713551521301270e-01,-4.592143297195434570e-01,7.025962471961975098e-01,2.592991590499877930e-01,5.675149150192737579e-03,-4.495397508144378662e-01,1.425104867666959763e-02,-2.816876173019409180e-01,2.341843694448471069e-01,-4.726377502083778381e-02,-3.545171618461608887e-01,2.849792540073394775e-01,2.244557738304138184e-01,-1.078841462731361389e-02,-3.582771718502044678e-01,-6.172915101051330566e-01,3.769113719463348389e-01,3.156752884387969971e-01,-3.003813028335571289e-01,-5.562479496002197266e-01,1.807843893766403198e-01,4.480044841766357422e-01,6.743235588073730469e-01,-1.979163587093353271e-01,-4.549286365509033203e-01
-5.270686149597167969e-01,9.787392616271972656e-02,5.610041022300720215e-01,3.451107144355773926e-01,6.752196550369262695e-01,-3.801315724849700928e-01,3.779687359929084778e-02,-5.188346505165100098e-01,-5.906909108161926270e-01,7.108908295631408691e-01,8.106071352958679199e-01,9.237591177225112915e-03,-8.309909105300903320e-01,2.013197541236877441e-01,1.853410750627517700e-01,2.896402180194854736e-01,-6.180420890450477600e-02,-2.301952838897705078e-01,5.142702460289001465e-01,1.403450816869735718e-01,3.466649949550628662e-01,-4.329329431056976318e-01,-7.604970335960388184e-01,9.192304611206054688e-01,9.982881695032119751e-02,-8.212882280349731445e-02,-1.372309476137161255e-01,-1.081793755292892456e-02,2.870016694068908691e-01,5.600229501724243164e-01,-2.988993823528289795e-01,-4.033202528953552246e-01
-9.481589198112487793e-01,4.197320938110351562e-01,6.651151776313781738e-01,7.856238484382629395e-01,6.869035214185714722e-02,-4.194279909133911133e-01,6.569047691300511360e-04,-7.351495623588562012e-01,-2.886693477630615234e-01,6.005073785781860352e-01,9.581966400146484375e-01,3.712940514087677002e-01,-1.023689031600952148e+00,1.321353465318679810e-01,3.357237279415130615e-01,7.741041779518127441e-01,-1.888309419155120850e-02,-1.615623384714126587e-01,7.833192348480224609e-01,9.918481856584548950e-02,4.376066923141479492e-01,-5.386234074831008911e-02,-6.491762399673461914e-01,8.550643324851989746e-01,-3.828177750110626221e-01,4.565980434417724609e-01,7.358191162347793579e-02,3.206603601574897766e-02,3.222428262233734131e-01,2.356182187795639038e-01,-4.791908860206604004e-01,-1.649312376976013184e-01
-8.718820810317993164e-01,3.835846781730651855e-01,7.921828627586364746e-01,6.307401657104492188e-01,-6.757961958646774292e-02,-3.501164615154266357e-01,4.386776685714721680e-01,-5.284222960472106934e-01,2.376105040311813354e-01,5.900188684463500977e-01,6.795727014541625977e-01,7.631956338882446289e-01,-7.951253652572631836e-01,1.437135636806488037e-01,1.637317091226577759e-01,7.246013283729553223e-01,6.303238868713378906e-01,1.389567553997039795e-01,9.183700084686279297e-01,5.772506073117256165e-02,3.508502840995788574e-01,-1.643610149621963501e-01,-2.624719142913818359e-01,5.134328603744506836e-01,-2.709789872169494629e-01,9.146730303764343262e-01,5.412505567073822021e-02,8.812522143125534058e-02,1.483984291553497314e-01,2.862020954489707947e-02,-7.894067093729972839e-03,-3.428979516029357910e-01
-4.991211295127868652e-01,4.428262412548065186e-01,3.822422027587890625e-01,2.646934986114501953e-01,-3.315839171409606934e-01,-1.196765527129173279e-01,4.390892684459686279e-01,-1.084170788526535034e-01,9.280340373516082764e-02,4.851101040840148926e-01,8.581964373588562012e-01,7.762169837951660156e-01,-6.542461514472961426e-01,3.653438389301300049e-01,2.206265181303024292e-01,7.690776586532592773e-01,6.388664245605468750e-01,4.336810708045959473e-01,4.385633468627929688e-01,3.467090129852294922e-01,3.360831141471862793e-01,-2.414440512657165527e-01,-1.070184558629989624e-01,4.120581150054931641e-01,-1.747513115406036377e-01,9.634305238723754883e-01,8.057475090026855469e-02,4.074813425540924072e-01,2.787866890430450439e-01,-3.234711587429046631e-01,3.943696320056915283e-01,-3.638147711753845215e-01
-2.595458030700683594e-01,4.850621819496154785e-01,1.624206453561782837e-01,2.287300527095794678e-01,-3.904774785041809082e-01,7.146687805652618408e-02,3.364667892456054688e-01,-2.827243506908416748e-01,1.105200201272964478e-01,3.906368613243103027e-01,5.808163285255432129e-01,7.793260812759399414e-01,-5.592693090438842773e-01,5.041871666908264160e-01,9.929412603378295898e-02,3.509792685508728027e-01,5.426156520843505859e-01,6.827265024185180664e-01,-7.419858872890472412e-02,4.605643451213836670e-01,7.343807816505432129e-02,-6.442533731460571289e-01,1.328114122152328491e-01,-3.346176445484161377e-01,4.095450043678283691e-03,1.165782809257507324e+00,3.014845773577690125e-02,5.888044238090515137e-01,1.617245078086853027e-01,-2.801528275012969971e-01,-2.454001642763614655e-02,-2.134304940700531006e-01
7.626663148403167725e-02,3.636333644390106201e-01,1.697439551353454590e-01,3.013565540313720703e-01,-7.544549703598022461e-01,-1.376697123050689697e-01,4.163008183240890503e-02,-4.112660884857177734e-02,3.635327219963073730e-01,1.421912312507629395e-01,5.379968881607055664e-01,5.583643913269042969e-01,-2.999481260776519775e-01,4.325810670852661133e-01,6.469631940126419067e-02,1.556130647659301758e-01,3.663135766983032227e-01,6.938173174858093262e-01,-1.852333843708038330e-01,5.611042380332946777e-01,-2.566371560096740723e-01,-7.611008286476135254e-01,1.021068394184112549e-01,-4.494184553623199463e-01,-1.097883284091949463e-01,9.759398102760314941e-01,6.784033030271530151e-02,9.876449108123779297e-01,1.611066311597824097e-01,-1.132051739841699600e-02,2.919898331165313721e-01,-3.608463108539581299e-01
2.199541032314300537e-01,2.731854915618896484e-01,1.243254914879798889e-01,1.997740864753723145e-01,-5.248254537582397461e-01,3.811441734433174133e-02,-4.834538698196411133e-01,2.096706926822662354e-01,5.936879515647888184e-01,-2.629865705966949463e-01,3.317439854145050049e-01,4.509770572185516357e-01,-9.075973182916641235e-03,1.601771712303161621e-01,5.789306759834289551e-02,-1.130794882774353027e-01,4.153775274753570557e-01,4.378655254840850830e-01,-1.939634531736373901e-01,1.307111382484436035e-01,-5.279675722122192383e-01,-7.148747444152832031e-01,1.205041632056236267e-02,-6.996041536331176758e-01,-1.869177669286727905e-01,4.177844226360321045e-01,-1.229237020015716553e-01,9.111818671226501465e-01,-2.997838705778121948e-02,-5.824660137295722961e-02,3.763017356395721436e-01,-9.183233231306076050e-02
1.986568123102188110e-01,-4.947168380022048950e-02,-2.410200685262680054e-01,4.148851707577705383e-02,-5.008643865585327148e-01,6.186717748641967773e-01,-5.939679741859436035e-01,5.802710652351379395e-01,6.931208372116088867e-01,-3.540595173835754395e-01,3.499449044466018677e-02,4.683025479316711426e-01,-7.091785967350006104e-02,6.576201319694519043e-02,-1.470703184604644775e-01,1.557211484760046005e-02,1.703598201274871826e-01,3.622082769870758057e-01,-1.670514494180679321e-01,-1.419033259153366089e-01,-2.339853942394256592e-01,-5.914680957794189453e-01,-1.080841198563575745e-01,-4.776193797588348389e-01,-1.118227243423461914e-01,1.931657791137695312e-01,-3.176205158233642578e-01,7.578594684600830078e-01,2.215417325496673584e-01,2.126959338784217834e-02,4.848628044128417969e-01,3.325408697128295898e-01
4.377622306346893311e-01,-2.955131232738494873e-01,-8.669585585594177246e-01,-2.801263928413391113e-01,-8.128821253776550293e-01,7.599698305130004883e-01,-7.320711016654968262e-01,6.301844120025634766e-01,8.594097495079040527e-01,-6.551621556282043457e-01,-6.061396002769470215e-02,1.585591137409210205e-01,1.672107726335525513e-02,-3.062418699264526367e-01,-1.827985495328903198e-01,1.571589522063732147e-02,-8.774936199188232422e-02,2.532218396663665771e-01,-1.494682859629392624e-02,-4.209687113761901855e-01,-1.124854609370231628e-01,-4.818942248821258545e-01,-3.210079669952392578e-01,-5.109711885452270508e-01,2.302666008472442627e-02,1.435860544443130493e-01,-1.316944360733032227e-01,2.565068006515502930e-01,2.595423758029937744e-01,6.790034472942352295e-03,4.293909370899200439e-01,1.362504959106445312e-01
3.159903883934020996e-01,-4.420910775661468506e-01,-9.999535679817199707e-01,-2.122818231582641602e-01,-4.142885208129882812e-01,8.986272215843200684e-01,-8.417615890502929688e-01,7.327497601509094238e-01,8.232032060623168945e-01,-9.984874725341796875e-01,-2.240787893533706665e-01,-5.794667452573776245e-02,1.620766371488571167e-01,-4.710421264171600342e-01,-3.415426313877105713e-01,1.788906566798686981e-02,1.633389592170715332e-01,1.920223385095596313e-01,9.111162275075912476e-02,-5.768115520477294922e-01,-8.396594226360321045e-02,-4.878523647785186768e-01,-2.651783823966979980e-01,-5.817151665687561035e-01,2.400240898132324219e-01,2.003093361854553223e-01,-3.582255840301513672e-01,3.339349627494812012e-01,3.776129484176635742e-01,3.649798631668090820e-01,4.878904819488525391e-01,1.269853413105010986e-01
4.885748922824859619e-01,-5.460923314094543457e-01,-7.477872371673583984e-01,-1.530437767505645752e-01,1.279574483633041382e-01,9.807680249214172363e-01,-7.635687589645385742e-01,4.672244489192962646e-01,3.135369122028350830e-01,-5.318534970283508301e-01,-3.640514314174652100e-01,-6.499892473220825195e-01,1.900224238634109497e-01,-8.075705170631408691e-01,-4.251289963722229004e-01,5.535962060093879700e-02,2.926726937294006348e-01,-7.478737086057662964e-02,-4.083621129393577576e-02,-6.581842899322509766e-01,-1.673944443464279175e-01,-3.215623497962951660e-01,-3.774383068084716797e-01,-7.608842253684997559e-01,5.027279853820800781e-01,-1.019393503665924072e-01,-4.852386116981506348e-01,1.624619066715240479e-01,6.395127773284912109e-01,6.784634590148925781e-01,3.312883675098419189e-01,-3.324310779571533203e-01
3.978543579578399658e-01,-5.556499361991882324e-01,-8.791591525077819824e-01,-1.694449037313461304e-01,3.711338937282562256e-01,9.449171423912048340e-01,-7.090427279472351074e-01,1.313326321542263031e-02,-1.547130793333053589e-01,-3.064690232276916504e-01,4.537526145577430725e-02,-7.387566566467285156e-01,7.265569269657135010e-02,-5.930947065353393555e-01,-3.196126818656921387e-01,-1.772041991353034973e-02,3.932459950447082520e-01,-1.160050109028816223e-01,-1.831565201282501221e-01,-6.178997755050659180e-01,6.618613004684448242e-02,-5.166401620954275131e-03,-2.508389353752136230e-01,-2.969605326652526855e-01,4.631654024124145508e-01,-3.622818887233734131e-01,-3.159020543098449707e-01,-2.115638181567192078e-02,6.731259822845458984e-01,8.027034997940063477e-01,-2.090993076562881470e-01,-4.379706382751464844e-01
-1.136599481105804443e-02,-1.790693253278732300e-01,-4.273184835910797119e-01,4.230442941188812256e-01,5.922960042953491211e-01,5.447792410850524902e-01,-6.226909756660461426e-01,-2.404761910438537598e-01,-1.619803756475448608e-01,-7.946945726871490479e-02,3.693195283412933350e-01,-7.941240072250366211e-01,-7.819008082151412964e-02,-6.102079749107360840e-01,4.226896464824676514e-01,1.070429608225822449e-01,2.317909300327301025e-01,-4.461302459239959717e-01,2.716461420059204102e-01,-4.704571068286895752e-01,2.199149280786514282e-01,7.249837368726730347e-02,-6.140784025192260742e-01,-2.054606080055236816e-01,3.429622352123260498e-01,-4.827047586441040039e-01,2.671980485320091248e-02,-3.205372989177703857e-01,1.735784560441970825e-01,8.124822974205017090e-01,-7.172535061836242676e-01,-3.976396620273590088e-01
-3.238650858402252197e-01,8.720047771930694580e-02,4.556135088205337524e-02,4.771593809127807617e-01,6.279430389404296875e-01,4.601283669471740723e-01,-5.591645836830139160e-01,-1.844938844442367554e-01,8.673457801342010498e-02,2.133691310882568359e-01,3.441416621208190918e-01,-4.844816327095031738e-01,-4.955297708511352539e-01,-3.659982085227966309e-01,3.569734990596771240e-01,1.656574308872222900e-01,2.666078507900238037e-01,-6.536455154418945312e-01,5.328466892242431641e-01,-4.982172846794128418e-01,4.094762802124023438e-01,3.903266787528991699e-01,-3.922309279441833496e-01,1.803314127027988434e-02,1.364835649728775024e-01,-4.160925149917602539e-01,1.213954854756593704e-02,-4.305116534233093262e-01,-7.286982238292694092e-02,7.099504470825195312e-01,-5.514038205146789551e-01,-5.080819129943847656e-01
-4.252735376358032227e-01,3.766945004463195801e-01,3.985808491706848145e-01,4.483119845390319824e-01,6.214680075645446777e-01,1.278243064880371094e-01,-1.507890075445175171e-01,-2.008944749832153320e-01,5.541841313242912292e-02,1.287043839693069458e-01,6.321597695350646973e-01,-1.467305421829223633e-01,-7.172070741653442383e-01,-4.513020217418670654e-01,3.733739554882049561e-01,1.273433864116668701e-01,5.711870789527893066e-01,-6.367811560630798340e-01,3.323590457439422607e-01,-4.847656190395355225e-01,4.650724232196807861e-01,5.057882070541381836e-01,-5.276727080345153809e-01,3.176794350147247314e-01,-1.913401782512664795e-01,-1.731830686330795288e-01,3.937750458717346191e-01,-3.917140960693359375e-01,-2.203040868043899536e-01,2.794635891914367676e-01,-7.132809162139892578e-01,-2.042653262615203857e-01
-5.791293382644653320e-01,4.952605664730072021e-01,3.016582429409027100e-01,4.763976335525512695e-01,4.427159428596496582e-01,1.473638862371444702e-01,1.529340445995330811e-01,-2.068114280700683594e-01,1.709325611591339111e-01,-5.432014167308807373e-02,4.631503224372863770e-01,-4.264804720878601074e-02,-3.862529695034027100e-01,-4.651561975479125977e-01,1.693121902644634247e-02,2.351074516773223877e-01,8.520495295524597168e-01,-3.195336163043975830e-01,1.806751936674118042e-01,2.512876875698566437e-02,6.089534759521484375e-01,4.767274558544158936e-01,-4.555504322052001953e-01,2.677657902240753174e-01,-4.075660407543182373e-01,1.395373344421386719e-01,2.598658800125122070e-01,-5.381743907928466797e-01,-5.453206300735473633e-01,3.100028038024902344e-01,-8.798931241035461426e-01,-1.038604881614446640e-02
-3.028329908847808838e-01,4.067185521125793457e-01,2.947790548205375671e-03,8.969744294881820679e-02,1.045695915818214417e-01,-3.156028985977172852e-01,4.778885543346405029e-01,-3.410280048847198486e-01,2.769708037376403809e-01,-8.568137884140014648e-02,3.493951261043548584e-01,-6.946309469640254974e-03,-2.247176468372344971e-01,-2.900438308715820312e-01,3.153341263532638550e-02,-3.748774528503417969e-01,1.121241092681884766e+00,-2.301171608269214630e-02,2.340420186519622803e-01,2.183770239353179932e-01,1.477245390415191650e-01,3.833294212818145752e-01,1.641314476728439331e-01,-2.197232991456985474e-01,-5.479921102523803711e-01,2.292848229408264160e-01,2.431556880474090576e-01,-3.399640619754791260e-01,-5.115947723388671875e-01,1.173453330993652344e-01,-6.172956824302673340e-01,7.463593780994415283e-02
-8.260809630155563354e-02,5.136950612068176270e-01,-1.609862782061100006e-02,-3.028826601803302765e-02,3.853336274623870850e-01,-2.231878787279129028e-01,3.453376889228820801e-01,-8.432786166667938232e-02,1.052820831537246704e-01,3.174510896205902100e-01,4.028307199478149414e-01,-6.301353126764297485e-02,1.587135344743728638e-01,1.449896860867738724e-02,9.023717604577541351e-03,-7.715552449226379395e-01,1.030384898185729980e+00,7.166265696287155151e-02,-2.375225871801376343e-01,5.924030542373657227e-01,-2.395279258489608765e-01,8.368626981973648071e-02,4.004705846309661865e-01,-5.095982551574707031e-01,-4.450446665287017822e-01,1.817574501037597656e-01,-1.151583865284919739e-01,1.967368870973587036e-01,-5.491555929183959961e-01,2.518100440502166748e-01,-2.967219054698944092e-01,9.948029369115829468e-02
2.574528753757476807e-02,4.735568463802337646e-01,2.004740983247756958e-01,-2.522223293781280518e-01,4.070802330970764160e-01,-1.921254992485046387e-01,4.336108639836311340e-02,-2.071187347173690796e-01,7.713991403579711914e-02,1.550543159246444702e-01,3.362058103084564209e-01,-1.374074220657348633e-01,1.367427408695220947e-01,-3.874164819717407227e-02,1.128706894814968109e-02,-7.935177087783813477e-01,6.373380422592163086e-01,1.343103647232055664e-01,-3.285992145538330078e-01,4.623059034347534180e-01,-5.329062938690185547e-01,-2.957391440868377686e-01,4.011668637394905090e-02,-5.680896043777465820e-01,-2.788899838924407959e-01,-1.317294389009475708e-01,-9.372381865978240967e-02,4.813557267189025879e-01,-6.170790195465087891e-01,4.012331739068031311e-02,-4.441348314285278320e-01,3.223714530467987061e-01
1.430240124464035034e-01,4.677863717079162598e-01,1.336985230445861816e-01,9.589927643537521362e-02,1.965712606906890869e-01,9.749858081340789795e-02,-2.308825552463531494e-01,3.122011721134185791e-01,2.362947762012481689e-01,-1.826199293136596680e-01,4.116363227367401123e-01,-1.500978618860244751e-01,2.556374371051788330e-01,-2.529703378677368164e-01,-5.509005486965179443e-02,-9.231030344963073730e-01,1.547259837388992310e-01,-2.571833729743957520e-01,-3.250928223133087158e-01,1.133200600743293762e-01,-7.656758427619934082e-01,-5.311577916145324707e-01,-3.823499977588653564e-01,-5.236241221427917480e-01,-1.535773277282714844e-01,-3.449807316064834595e-02,-1.244197972118854523e-02,3.872993290424346924e-01,-7.516237497329711914e-01,1.993260532617568970e-01,-3.677449822425842285e-01,8.077848553657531738e-01
1.079710796475410461e-01,4.617997705936431885e-01,-2.650930285453796387e-01,3.754839897155761719e-01,-2.185734733939170837e-02,2.111264020204544067e-01,-1.603695005178451538e-01,3.852979838848114014e-01,1.432059556245803833e-01,-4.257003366947174072e-01,2.037410996854305267e-02,-2.066603749990463257e-01,-2.685245499014854431e-02,-1.449640244245529175e-01,1.101382970809936523e-01,-7.202692031860351562e-01,-1.091016083955764771e-02,-5.468686223030090332e-01,-3.837973773479461670e-01,-3.946273773908615112e-02,-8.632903099060058594e-01,-4.661619663238525391e-01,-4.415571093559265137e-01,-4.176812171936035156e-01,-1.724724285304546356e-02,-1.046820878982543945e-01,-4.362125992774963379e-01,4.471294283866882324e-01,-5.321075320243835449e-01,2.428173571825027466e-01,-1.909000724554061890e-01,9.845634102821350098e-01
3.510069847106933594e-01,5.908829569816589355e-01,-3.846007287502288818e-01,-1.781909465789794922e-01,1.529835760593414307e-01,6.139699816703796387e-01,-2.404266893863677979e-01,6.675021648406982422e-01,9.708897024393081665e-02,-5.138159394264221191e-01,6.978707015514373779e-02,-7.910264283418655396e-02,4.136915877461433411e-02,-4.505811333656311035e-01,-9.101052582263946533e-02,-5.100216269493103027e-01,-1.436736136674880981e-01,-7.087195515632629395e-01,1.326785981655120850e-01,-4.218619167804718018e-01,-7.098173499107360840e-01,-4.889379739761352539e-01,-7.237570285797119141e-01,-4.165439903736114502e-01,1.250842213630676270e-01,-6.661035120487213135e-02,-6.981935501098632812e-01,1.224159598350524902e-01,-2.797510027885437012e-01,2.560946047306060791e-01,2.338545173406600952e-01,1.077527165412902832e+00
4.459771811962127686e-01,-5.266540218144655228e-03,-6.469284892082214355e-01,-2.685162127017974854e-01,1.497913450002670288e-01,7.066603899002075195e-01,-1.172228753566741943e-01,7.499676346778869629e-01,-2.491579353809356689e-01,-5.410042405128479004e-01,8.218213170766830444e-02,-2.283892780542373657e-01,9.098485857248306274e-02,-6.107383966445922852e-01,-2.035078853368759155e-01,-3.533972501754760742e-01,-4.481571316719055176e-01,-3.986209332942962646e-01,1.812891364097595215e-01,-4.790298640727996826e-01,-7.529801130294799805e-01,-5.124556422233581543e-01,-6.958622336387634277e-01,-2.065750360488891602e-01,6.229667067527770996e-01,-1.167354583740234375e-01,-7.130060195922851562e-01,7.869293540716171265e-02,1.017939895391464233e-01,2.187033891677856445e-01,4.675659537315368652e-02,9.198867082595825195e-01
3.877090215682983398e-01,-1.547245830297470093e-01,-4.913808703422546387e-01,2.454858124256134033e-01,3.453175425529479980e-01,7.692735791206359863e-01,-2.895668148994445801e-01,3.570997118949890137e-01,-5.118432044982910156e-01,-3.269921541213989258e-01,1.031970009207725525e-01,-4.556021690368652344e-01,8.229872584342956543e-02,-4.675031006336212158e-01,-2.493379870429635048e-03,-4.149937629699707031e-01,-4.191247820854187012e-01,-6.470186114311218262e-01,2.259473651647567749e-01,-4.513621032238006592e-01,-7.264724969863891602e-01,-2.678542137145996094e-01,-8.050960898399353027e-01,-2.973616719245910645e-01,8.893071413040161133e-01,-3.564091622829437256e-01,-1.044890522956848145e+00,1.809835731983184814e-01,3.677309751510620117e-01,6.106409430503845215e-01,-2.222118824720382690e-01,3.836304545402526855e-01
6.804066896438598633e-01,1.133446544408798218e-01,-7.612836360931396484e-02,3.776080012321472168e-01,5.525395274162292480e-01,4.713006317615509033e-01,-9.488564729690551758e-02,1.029603406786918640e-01,-6.783106327056884766e-01,-1.335501223802566528e-01,1.595435589551925659e-01,-6.461139321327209473e-01,-4.228867217898368835e-02,-2.662877142429351807e-01,3.546857833862304688e-01,-3.202706873416900635e-01,-4.972490072250366211e-01,-6.150559186935424805e-01,4.579080343246459961e-01,-7.640698552131652832e-01,-7.144982218742370605e-01,-3.255131840705871582e-01,-8.415267467498779297e-01,-2.306893467903137207e-01,1.060352206230163574e+00,-4.926299154758453369e-01,-7.775233983993530273e-01,-3.510318323969841003e-02,3.133394420146942139e-01,5.166721343994140625e-01,-4.021699428558349609e-01,1.895391345024108887e-01
2.995172739028930664e-01,5.896158218383789062e-01,-1.120525598526000977e-01,6.714047193527221680e-01,7.851729393005371094e-01,3.940997123718261719e-01,-1.206398755311965942e-01,1.587003916501998901e-01,-9.075434803962707520e-01,4.231021925806999207e-02,3.539450168609619141e-01,-4.973210096359252930e-01,-3.442267775535583496e-01,1.984610594809055328e-02,8.653332591056823730e-01,1.458426658064126968e-02,-4.471755623817443848e-01,-7.614409923553466797e-01,3.584595322608947754e-01,-4.669768512248992920e-01,-2.361713796854019165e-01,1.580013707280158997e-02,-1.110698342323303223e+00,-2.983578247949481010e-03,1.021287560462951660e+00,-3.302967250347137451e-01,-2.338849753141403198e-01,-3.688338771462440491e-02,1.540947407484054565e-01,2.037970125675201416e-01,-6.500768065452575684e-01,-4.831152409315109253e-02
2.922661229968070984e-02,6.863595247268676758e-01,-7.050728052854537964e-02,1.010066986083984375e+00,4.856605827808380127e-01,2.850327193737030029e-01,-1.213696971535682678e-01,7.341174781322479248e-02,-6.882640123367309570e-01,-9.946978837251663208e-02,6.516336202621459961e-01,-1.950828284025192261e-01,-5.305110216140747070e-01,4.021893143653869629e-01,7.954159975051879883e-01,3.331971764564514160e-01,-3.637580871582031250e-01,-4.390162527561187744e-01,5.200426578521728516e-01,-6.607543826103210449e-01,-1.529214829206466675e-01,2.394468188285827637e-01,-1.026250958442687988e+00,1.119098365306854248e-01,6.588760614395141602e-01,-1.416749954223632812e-01,2.142546474933624268e-01,-4.672174751758575439e-01,7.259599864482879639e-02,-2.089398503303527832e-01,-6.566675305366516113e-01,8.555805683135986328e-02
-2.774177193641662598e-01,5.384377837181091309e-01,1.686183810234069824e-01,8.342521190643310547e-01,-2.587348408997058868e-02,1.574207693338394165e-01,1.745425462722778320e-01,1.328696459531784058e-01,-4.338434040546417236e-01,-3.239694237709045410e-01,5.915638208389282227e-01,1.965127438306808472e-01,-4.560045003890991211e-01,2.735587656497955322e-01,9.262889623641967773e-01,4.200939834117889404e-01,-7.113579660654067993e-02,-8.958721160888671875e-02,3.889442980289459229e-01,-5.699783563613891602e-01,2.800629138946533203e-01,3.768208026885986328e-01,-2.867516875267028809e-01,-3.795582428574562073e-02,3.048739433288574219e-01,2.343506366014480591e-01,2.589518427848815918e-01,-6.078451871871948242e-01,-3.403295576572418213e-01,-4.844261407852172852e-01,-4.913517832756042480e-01,6.541274022310972214e-03
-4.494893550872802734e-02,5.257934331893920898e-01,2.031391710042953491e-01,5.240940451622009277e-01,7.607781141996383667e-02,2.419102638959884644e-01,2.832954227924346924e-01,3.648587465286254883e-01,-2.111072093248367310e-01,-8.853164315223693848e-02,2.905648052692413330e-01,1.577868014574050903e-01,-1.588032841682434082e-01,4.148118197917938232e-01,5.989901423454284668e-01,4.126185774803161621e-01,2.128546386957168579e-01,2.241618931293487549e-01,1.830809563398361206e-01,-4.951445758342742920e-01,2.777733802795410156e-01,6.333342790603637695e-01,-1.894613802433013916e-01,-3.311534523963928223e-01,2.583125233650207520e-02,2.760946750640869141e-01,5.641466975212097168e-01,-3.587164580821990967e-01,-1.844500154256820679e-01,-5.109161734580993652e-01,-2.922799885272979736e-01,-5.558059364557266235e-02
4.145830869674682617e-01,4.505306184291839600e-01,-2.169877439737319946e-01,-9.968760423362255096e-03,-2.142864167690277100e-01,1.547096669673919678e-01,3.495607674121856689e-01,2.243532426655292511e-02,-2.629095613956451416e-01,-1.063692495226860046e-01,3.767254948616027832e-02,1.550724208354949951e-01,3.107004165649414062e-01,4.378265738487243652e-01,5.038263201713562012e-01,-8.700982481241226196e-02,3.828270733356475830e-01,4.790550172328948975e-01,-3.773743212223052979e-01,-5.474247410893440247e-02,6.942269206047058105e-02,5.212027430534362793e-01,2.378125339746475220e-01,-6.166648864746093750e-01,1.012168154120445251e-01,1.221665143966674805e-01,5.108481645584106445e-01,-1.683403402566909790e-01,-2.373478561639785767e-01,-6.794488430023193359e-01,-2.364563196897506714e-01,-2.004505693912506104e-01
5.068498253822326660e-01,1.663822084665298462e-01,-1.385987401008605957e-01,1.260384023189544678e-01,-2.881374657154083252e-01,6.341093778610229492e-02,6.752616912126541138e-02,1.541063487529754639e-01,-4.184693098068237305e-02,-3.206043839454650879e-01,3.102153912186622620e-02,-1.938658207654953003e-01,3.510070443153381348e-01,6.067506670951843262e-01,5.626092553138732910e-01,-2.468068003654479980e-01,3.274734020233154297e-01,5.150909423828125000e-01,-6.197038292884826660e-01,1.217283308506011963e-01,-3.412092477083206177e-02,1.983185559511184692e-01,5.355895757675170898e-01,-7.983742356300354004e-01,-2.871218882501125336e-02,2.586061060428619385e-01,5.393529534339904785e-01,6.704261153936386108e-02,-4.674873352050781250e-01,-5.797267556190490723e-01,8.098912984132766724e-02,-5.140326917171478271e-02
8.591240048408508301e-01,3.203048110008239746e-01,-1.921413093805313110e-01,-1.765576452016830444e-01,-2.052935361862182617e-01,7.748675346374511719e-02,-7.895093411207199097e-02,2.062429040670394897e-01,1.762220561504364014e-01,-4.335856437683105469e-01,-3.599070906639099121e-01,9.212464094161987305e-02,6.991496086120605469e-01,4.355396926403045654e-01,2.740105390548706055e-01,-5.966565012931823730e-01,1.171899139881134033e-01,4.924784898757934570e-01,-9.742769002914428711e-01,-1.422514021396636963e-01,-5.855464339256286621e-01,2.000665813684463501e-01,5.060800909996032715e-01,-9.657187461853027344e-01,-1.936657428741455078e-01,-1.025266349315643311e-01,3.322612047195434570e-01,1.602979153394699097e-01,-3.559907674789428711e-01,-4.684307575225830078e-01,-2.274553775787353516e-01,1.161635071039199829e-01
7.350131869316101074e-01,1.492120772600173950e-01,-2.761552035808563232e-01,-4.470489323139190674e-01,-2.375726848840713501e-01,4.286407530307769775e-01,-2.844699621200561523e-01,3.213413357734680176e-01,1.837376207113265991e-01,-7.203288674354553223e-01,-7.961346507072448730e-01,-1.920450329780578613e-01,7.544800043106079102e-01,4.353695809841156006e-01,3.289698064327239990e-01,-4.311274588108062744e-01,1.316168904304504395e-01,2.490434050559997559e-01,-9.106294512748718262e-01,-2.417861670255661011e-01,-3.274114429950714111e-01,-2.810137532651424408e-02,2.607413232326507568e-01,-7.719645500183105469e-01,-1.881409734487533569e-01,-2.724836170673370361e-01,3.940634429454803467e-01,7.666859775781631470e-02,-4.206483066082000732e-01,-4.684526026248931885e-01,-1.668274961411952972e-02,3.431769907474517822e-01
5.877658724784851074e-01,-2.600755393505096436e-01,-4.384199380874633789e-01,-5.541391968727111816e-01,-3.639777600765228271e-01,5.425166487693786621e-01,-2.343754768371582031e-01,7.217431068420410156e-01,1.044894680380821228e-01,-8.166522979736328125e-01,-7.691606879234313965e-01,-1.715008020401000977e-01,8.259229660034179688e-01,-1.263882517814636230e-01,-9.867013245820999146e-02,-5.510526895523071289e-01,-3.086358606815338135e-01,1.235985457897186279e-01,-8.314656615257263184e-01,-2.454631328582763672e-01,-3.317529261112213135e-01,1.502913981676101685e-01,1.523613631725311279e-01,-6.530455350875854492e-01,2.931317687034606934e-02,-4.250605404376983643e-01,4.110865890979766846e-01,-1.046115979552268982e-01,-5.761494636535644531e-01,-5.187353491783142090e-01,1.030803620815277100e-01,7.422086000442504883e-01
4.769956469535827637e-01,-5.132004618644714355e-01,-5.820519924163818359e-01,-8.087076544761657715e-01,-2.929570972919464111e-01,6.124681830406188965e-01,-1.753375977277755737e-01,4.469903111457824707e-01,3.695958554744720459e-01,-1.037848949432373047e+00,-6.308072209358215332e-01,-6.033899188041687012e-01,6.317961812019348145e-01,-5.419044494628906250e-01,-5.392745733261108398e-01,-4.613622725009918213e-01,-3.893557488918304443e-01,-2.291305661201477051e-01,-4.724023044109344482e-01,-4.394130408763885498e-01,-1.112200990319252014e-01,7.778272777795791626e-02,1.829644888639450073e-01,-5.555819272994995117e-01,-3.171969577670097351e-02,-3.307862281799316406e-01,1.328022871166467667e-02,-5.385344028472900391e-01,-3.057247102260589600e-01,-9.831406176090240479e-02,1.125003620982170105e-01,6.583049297332763672e-01
8.492125272750854492e-01,-5.972750186920166016e-01,-6.415920853614807129e-01,-8.506344556808471680e-01,1.581681817770004272e-01,6.573573350906372070e-01,-4.202269017696380615e-01,2.110247313976287842e-01,1.162472888827323914e-01,-6.621325612068176270e-01,-7.512230873107910156e-01,-6.174240708351135254e-01,7.755442857742309570e-01,-6.562324166297912598e-01,-6.687580943107604980e-01,-6.364911794662475586e-01,-2.088627964258193970e-01,-3.921585381031036377e-01,-4.825409054756164551e-01,-4.875835180282592773e-01,-4.230866730213165283e-01,2.729213833808898926e-01,1.690508276224136353e-01,-4.877907037734985352e-01,8.006074279546737671e-02,-5.184192061424255371e-01,-1.680895835161209106e-01,-6.003343462944030762e-01,3.890138491988182068e-02,1.834909915924072266e-01,1.696657687425613403e-01,4.791766703128814697e-01
6.893669366836547852e-01,-5.656443238258361816e-01,-2.554800808429718018e-01,-6.788951754570007324e-01,3.850755095481872559e-01,3.200603425502777100e-01,-3.288944438099861145e-02,5.457515362650156021e-03,-5.253110527992248535e-01,-2.745200991630554199e-01,-6.333655714988708496e-01,-9.549483060836791992e-01,6.871142983436584473e-01,-3.430213034152984619e-01,-5.797385573387145996e-01,-5.191356539726257324e-01,-2.992776632308959961e-01,-2.776775658130645752e-01,-4.913726150989532471e-01,-2.142387032508850098e-01,-5.610568076372146606e-02,2.722843885421752930e-01,1.220335885882377625e-01,-2.732118368148803711e-01,7.484038174152374268e-02,-9.808015823364257812e-01,-8.560879528522491455e-02,-6.842537522315979004e-01,2.134575396776199341e-01,5.974521636962890625e-01,-1.817929595708847046e-01,1.894833743572235107e-01
3.770982027053833008e-01,-4.628323018550872803e-01,9.389359503984451294e-03,-3.615284562110900879e-01,7.976727485656738281e-01,8.224347233772277832e-02,1.936106383800506592e-01,-5.062683820724487305e-01,-6.279965043067932129e-01,9.919649362564086914e-02,-7.707452028989791870e-02,-8.983831405639648438e-01,4.648312330245971680e-01,-1.141568794846534729e-01,-2.601307332515716553e-01,-4.130313992500305176e-01,-4.139578640460968018e-01,-6.633688807487487793e-01,-1.196066215634346008e-01,-1.890679150819778442e-01,-1.228237971663475037e-01,4.982008337974548340e-01,-1.766779571771621704e-01,3.035298287868499756e-01,2.228095233440399170e-01,-9.520386457443237305e-01,4.450951516628265381e-02,-6.104162931442260742e-01,-5.737552419304847717e-02,5.677774548530578613e-01,-4.656738340854644775e-01,-1.560665387660264969e-02
-1.506343632936477661e-01,-1.721339970827102661e-01,4.458789825439453125e-01,1.241608411073684692e-01,7.610130310058593750e-01,-1.400054693222045898e-01,-5.687696486711502075e-02,-9.087468385696411133e-01,-8.182104825973510742e-01,3.562920093536376953e-01,1.258597970008850098e-01,-7.328321337699890137e-01,-6.613618135452270508e-02,-5.551953986287117004e-02,1.077579986304044724e-02,-2.649115622043609619e-01,-4.447621107101440430e-01,-8.548725843429565430e-01,-3.191822906956076622e-03,-4.611941799521446228e-02,-5.572244152426719666e-02,4.137612879276275635e-01,-2.281839549541473389e-01,4.630058705806732178e-01,-5.081309005618095398e-02,-6.774439811706542969e-01,2.775403559207916260e-01,-8.799984455108642578e-01,-1.571387946605682373e-01,4.276810586452484131e-01,-9.029716253280639648e-01,7.930288463830947876e-02
-5.860381722450256348e-01,3.314031362533569336e-01,8.893845081329345703e-01,2.659923136234283447e-01,7.557393312454223633e-01,-4.369637370109558105e-01,5.985238552093505859e-01,-6.710783839225769043e-01,-5.979954600334167480e-01,5.883526802062988281e-01,3.515867292881011963e-01,-2.778983414173126221e-01,1.318586710840463638e-02,2.582637071609497070e-01,4.233450591564178467e-01,3.814273700118064880e-02,-1.684095859527587891e-01,-7.395883798599243164e-01,1.415546238422393799e-01,-3.827317059040069580e-02,9.961290657520294189e-02,6.391614079475402832e-01,-2.808372080326080322e-01,6.003452539443969727e-01,-3.139450252056121826e-01,-4.017227590084075928e-01,4.369982481002807617e-01,-9.371179938316345215e-01,-3.295201957225799561e-01,-1.527789384126663208e-01,-6.209645271301269531e-01,-1.419348865747451782e-01
-6.445648074150085449e-01,5.476226210594177246e-01,8.557308316230773926e-01,1.072422191500663757e-01,4.183062314987182617e-01,-3.581945896148681641e-01,9.043142795562744141e-01,-3.778049945831298828e-01,-3.414860665798187256e-01,5.801229476928710938e-01,2.912508547306060791e-01,1.705881953239440918e-01,-7.161716371774673462e-02,3.505403995513916016e-01,1.725054085254669189e-01,3.158925175666809082e-01,1.579008996486663818e-01,-4.774342477321624756e-02,2.315935343503952026e-01,1.463210433721542358e-01,3.823632299900054932e-01,7.896936535835266113e-01,6.757289171218872070e-02,6.725648045539855957e-01,-3.852353990077972412e-01,-1.541978269815444946e-01,4.836824238300323486e-01,-8.791306614875793457e-01,-3.017961084842681885e-01,-4.918669760227203369e-01,-3.889699578285217285e-01,1.212325319647789001e-01
-6.404348611831665039e-01,4.130010902881622314e-01,8.711422681808471680e-01,6.871920078992843628e-02,1.797464638948440552e-01,-5.977770090103149414e-01,9.855509400367736816e-01,-6.829180121421813965e-01,-3.869639933109283447e-01,3.694463968276977539e-01,3.154872655868530273e-01,2.856161594390869141e-01,-2.264602035284042358e-01,5.668410062789916992e-01,8.417433500289916992e-02,2.207412868738174438e-01,2.822649478912353516e-01,1.168426405638456345e-02,8.730367757380008698e-03,4.939666986465454102e-01,3.619033992290496826e-01,5.020183324813842773e-01,2.021480947732925415e-01,4.652335047721862793e-01,-5.344186425209045410e-01,4.436887800693511963e-01,5.321071743965148926e-01,-7.545653581619262695e-01,-4.142777323722839355e-01,-5.358689427375793457e-01,-4.739557504653930664e-01,1.729789078235626221e-01
-4.264022409915924072e-01,3.061467111110687256e-01,8.251248002052307129e-01,-1.747169643640518188e-01,1.300048828125000000e-01,-7.749429345130920410e-01,1.194457292556762695e+00,-6.453217267990112305e-01,-4.429876506328582764e-01,7.866597175598144531e-01,3.360032141208648682e-01,2.626214325428009033e-01,5.426131561398506165e-02,6.012609004974365234e-01,9.959271550178527832e-02,-1.286884248256683350e-01,2.135850042104721069e-01,2.518465518951416016e-01,-3.362187147140502930e-01,6.580549478530883789e-01,-9.643673151731491089e-02,2.516044080257415771e-01,3.705987632274627686e-01,2.665819227695465088e-01,-3.401467204093933105e-01,5.540696978569030762e-01,2.893335223197937012e-01,-2.774987816810607910e-01,-4.318172335624694824e-01,-1.692477464675903320e-01,1.394494622945785522e-01,1.101711019873619080e-01
-3.851792216300964355e-02,2.252266705036163330e-01,8.009565472602844238e-01,-4.218585491180419922e-01,-1.380535513162612915e-01,-7.112995982170104980e-01,8.987534046173095703e-01,-3.381922841072082520e-01,-1.348564624786376953e-01,6.287165880203247070e-01,-1.495073735713958740e-01,4.174744188785552979e-01,3.911935985088348389e-01,9.188973903656005859e-01,-1.481319665908813477e-01,-2.211385816335678101e-01,7.057509571313858032e-02,5.442471504211425781e-01,-4.640096724033355713e-01,6.184178590774536133e-01,-6.516302824020385742e-01,-1.167834028601646423e-01,4.129517674446105957e-01,6.064292043447494507e-02,-3.550876975059509277e-01,2.967343926429748535e-01,3.226865231990814209e-01,1.604995280504226685e-01,-3.164900541305541992e-01,-3.784560263156890869e-01,2.558241188526153564e-01,1.271540671586990356e-01
1.322826836258172989e-02,2.452910840511322021e-01,7.021231055259704590e-01,-2.558626234531402588e-01,-2.499674558639526367e-01,-5.654272437095642090e-01,4.508829712867736816e-01,-2.317371070384979248e-01,-2.645931839942932129e-01,4.588331580162048340e-01,4.680182412266731262e-02,2.449990808963775635e-01,4.099726378917694092e-01,1.021858453750610352e+00,-1.195034310221672058e-01,-3.717795908451080322e-01,-2.309570461511611938e-01,3.875523507595062256e-01,-7.096991539001464844e-01,9.340592622756958008e-01,-4.185759127140045166e-01,-4.059014618396759033e-01,2.876180708408355713e-01,-8.912270516157150269e-02,-2.337795197963714600e-01,4.650259017944335938e-01,8.877825736999511719e-02,3.993055522441864014e-01,-1.140693947672843933e-01,-5.800510048866271973e-01,2.691900730133056641e-01,3.802483975887298584e-01
1.396716684103012085e-01,-5.451514571905136108e-02,1.596743315458297729e-01,-4.888215661048889160e-01,-6.123823523521423340e-01,-3.184586167335510254e-01,5.829945206642150879e-01,-1.383509207516908646e-02,2.781172096729278564e-02,1.108674481511116028e-01,-8.165013790130615234e-02,3.295825123786926270e-01,2.036977708339691162e-01,6.614173650741577148e-01,-3.875261917710304260e-02,-1.734459400177001953e-01,-6.192689538002014160e-01,1.268842518329620361e-01,-6.663827896118164062e-01,4.044165015220642090e-01,-6.296669840812683105e-01,-4.839499592781066895e-01,2.890486717224121094e-01,-1.167617291212081909e-01,-1.744332909584045410e-01,2.249124348163604736e-01,3.376092612743377686e-01,4.517623484134674072e-01,-1.321354508399963379e-01,-4.652122557163238525e-01,3.770769834518432617e-01,5.829839110374450684e-01
9.061594307422637939e-02,-6.075592339038848877e-02,2.559999227523803711e-01,-3.771656453609466553e-01,-8.296234607696533203e-01,-3.829985857009887695e-02,1.865641623735427856e-01,1.634474098682403564e-01,2.808551490306854248e-01,-2.625130712985992432e-01,-3.239619433879852295e-01,3.848563432693481445e-01,2.906742990016937256e-01,3.617284595966339111e-01,-3.574692904949188232e-01,-1.102153062820434570e-01,-6.198327541351318359e-01,4.654551446437835693e-01,-3.448490202426910400e-01,1.104747280478477478e-01,-3.351441323757171631e-01,-5.172740817070007324e-01,-1.105181425809860229e-01,-3.082763850688934326e-01,-2.076368927955627441e-01,3.719782531261444092e-01,1.476419270038604736e-01,2.117913961410522461e-01,6.495859473943710327e-02,-4.787287414073944092e-01,7.358284592628479004e-01,4.226471185684204102e-01
2.923991680145263672e-01,-3.278752565383911133e-01,-2.086474187672138214e-02,-6.057355403900146484e-01,-7.680234313011169434e-01,3.446554243564605713e-01,1.120934858918190002e-01,2.713845968246459961e-01,8.418818563222885132e-02,-3.752874433994293213e-01,-5.595020055770874023e-01,3.107706010341644287e-01,3.185487985610961914e-01,1.823222935199737549e-01,-4.357507526874542236e-01,2.157882899045944214e-01,-7.145330309867858887e-01,4.344470798969268799e-01,-6.654832512140274048e-02,-3.519901633262634277e-01,-1.261806786060333252e-01,-2.726094126701354980e-01,-9.482298046350479126e-02,7.965248823165893555e-02,1.804600059986114502e-01,8.246355503797531128e-02,1.010662168264389038e-01,-3.168610110878944397e-02,4.925781190395355225e-01,-2.909024655818939209e-01,6.891761422157287598e-01,3.485473394393920898e-01
4.270923733711242676e-01,-6.468449831008911133e-01,-2.899666726589202881e-01,-3.886536955833435059e-01,-5.093055963516235352e-01,4.438984394073486328e-01,1.709120534360408783e-02,1.439689248800277710e-01,-2.172856926918029785e-01,-1.861383318901062012e-01,-8.028370738029479980e-01,-4.885136708617210388e-02,3.114067018032073975e-01,4.324931651353836060e-02,-4.415318369865417480e-01,2.723307907581329346e-01,-6.296758055686950684e-01,3.977696299552917480e-01,-1.904027909040451050e-01,-2.429395318031311035e-01,6.068909913301467896e-02,-2.842183113098144531e-01,1.685989797115325928e-01,-8.729819953441619873e-02,2.768604159355163574e-01,2.513505518436431885e-01,-5.507919937372207642e-02,6.506478041410446167e-02,8.826371431350708008e-01,-1.900298595428466797e-01,6.821494698524475098e-01,-3.399916458874940872e-03
3.655750751495361328e-01,-7.101554274559020996e-01,-3.167719542980194092e-01,-2.781277894973754883e-01,-2.330043315887451172e-01,3.498454391956329346e-01,-5.114300921559333801e-02,-1.764014014042913914e-03,-2.453101724386215210e-01,6.271924823522567749e-02,-4.943031668663024902e-01,-1.381602138280868530e-01,2.917218804359436035e-01,1.352914273738861084e-01,-1.746647059917449951e-01,1.073391065001487732e-01,-4.528398513793945312e-01,1.187324225902557373e-01,-2.348822653293609619e-01,-2.595319449901580811e-01,3.046530671417713165e-02,-3.059394955635070801e-01,-1.241807714104652405e-01,-8.709667250514030457e-03,4.704186320304870605e-01,-3.247381150722503662e-01,-1.627527028322219849e-01,-1.829840242862701416e-01,9.536100029945373535e-01,1.570041626691818237e-01,4.850048124790191650e-01,-5.622064471244812012e-01
2.245107144117355347e-01,-5.971947908401489258e-01,1.283101141452789307e-01,-2.926712632179260254e-01,-5.641180276870727539e-02,1.334019452333450317e-01,6.399537622928619385e-02,-2.470919340848922729e-01,-5.358355045318603516e-01,3.127877116203308105e-01,-4.142222404479980469e-01,-8.306466788053512573e-02,1.252104938030242920e-01,3.381244540214538574e-01,5.476220324635505676e-02,3.677739799022674561e-01,-5.247784256935119629e-01,1.648005247116088867e-01,-5.296743288636207581e-02,-2.485463768243789673e-01,1.774035543203353882e-01,3.134740516543388367e-02,-1.009312346577644348e-01,-1.856884174048900604e-02,3.068101704120635986e-01,-9.474135935306549072e-02,2.470994740724563599e-01,-1.533649414777755737e-01,8.669884800910949707e-01,1.133045181632041931e-01,2.115827351808547974e-01,-7.741026878356933594e-01
-1.493696570396423340e-01,-2.688491046428680420e-01,3.804600536823272705e-01,1.295193880796432495e-01,6.564586888998746872e-03,-5.773728713393211365e-02,-1.291047781705856323e-02,-5.279628634452819824e-01,-4.740250110626220703e-01,4.711742997169494629e-01,-6.288173049688339233e-02,-1.804358209483325481e-03,-1.692433357238769531e-01,5.484760403633117676e-01,1.624773591756820679e-01,6.972055435180664062e-01,-1.310715526342391968e-01,4.890127107501029968e-02,-1.176642253994941711e-01,-1.102796718478202820e-01,7.227798700332641602e-01,2.685670852661132812e-01,-2.459053844213485718e-01,4.703434109687805176e-01,-1.417641644366085529e-03,2.888934314250946045e-02,5.616120696067810059e-01,-3.429322540760040283e-01,6.403270363807678223e-01,-2.307375147938728333e-02,-1.745924651622772217e-01,-6.030688285827636719e-01
-4.973112940788269043e-01,-3.173185884952545166e-01,3.329859375953674316e-01,1.938437223434448242e-01,-7.462958991527557373e-02,-2.649023234844207764e-01,1.112603303045034409e-02,-4.119675457477569580e-01,1.186392605304718018e-01,3.818922936916351318e-01,1.956490278244018555e-01,2.552512288093566895e-01,-3.734649717807769775e-01,3.527246713638305664e-01,2.218111455440521240e-01,6.449407935142517090e-01,-3.404652327299118042e-02,1.590206623077392578e-01,7.693023979663848877e-02,-1.606929153203964233e-01,1.160617828369140625e+00,3.389977216720581055e-01,-1.568606495857238770e-01,6.688173413276672363e-01,-4.078567028045654297e-01,2.473180145025253296e-01,9.103929400444030762e-01,-5.421366691589355469e-01,2.613636851310729980e-01,-2.432506531476974487e-01,-1.802337914705276489e-01,-8.665724396705627441e-01
-5.421974658966064453e-01,-2.061394453048706055e-01,5.358691215515136719e-01,-2.641564607620239258e-02,-4.349841773509979248e-01,-1.994481980800628662e-01,4.716944992542266846e-01,-7.100549340248107910e-01,3.416461348533630371e-01,3.807737231254577637e-01,8.293356001377105713e-02,3.342948853969573975e-01,-1.385931968688964844e-01,1.995193958282470703e-01,1.706443279981613159e-01,5.831378102302551270e-01,2.662305831909179688e-01,4.671446979045867920e-01,4.106864798814058304e-03,2.542078867554664612e-02,8.485875129699707031e-01,3.367789387702941895e-01,4.848190844058990479e-01,3.908574581146240234e-01,-6.887218952178955078e-01,3.285218775272369385e-01,9.103254079818725586e-01,-8.054240345954895020e-01,1.803994327783584595e-01,-4.009934365749359131e-01,4.220766481012105942e-03,-7.011687159538269043e-01
-4.015707969665527344e-01,-4.732717201113700867e-02,3.339203000068664551e-01,-3.610653877258300781e-01,-4.252229928970336914e-01,-3.323212563991546631e-01,5.757420063018798828e-01,-5.456245541572570801e-01,6.345407962799072266e-01,4.702939093112945557e-01,-1.106978133320808411e-01,6.669805049896240234e-01,5.650917068123817444e-02,3.477397561073303223e-01,-6.115119531750679016e-02,5.847758054733276367e-01,8.540070056915283203e-01,7.032681107521057129e-01,-3.438073992729187012e-01,3.805708587169647217e-01,7.430084347724914551e-01,5.606842041015625000e-01,4.233894050121307373e-01,2.757138609886169434e-01,-6.611166596412658691e-01,5.485693216323852539e-01,9.520476460456848145e-01,-3.604698181152343750e-01,4.144516885280609131e-01,-3.561801612377166748e-01,3.553586602210998535e-01,-6.585293412208557129e-01
-9.340010583400726318e-02,-2.846176326274871826e-01,1.822849065065383911e-01,-5.162988901138305664e-01,-2.076974511146545410e-01,-3.923417627811431885e-01,3.896856904029846191e-01,-7.569774389266967773e-01,5.802593231201171875e-01,2.727594077587127686e-01,-1.893375813961029053e-01,2.240967154502868652e-01,4.038988649845123291e-01,4.896610379219055176e-01,-5.254296064376831055e-01,1.378865689039230347e-01,7.336397171020507812e-01,1.049577355384826660e+00,-6.286425590515136719e-01,7.105261683464050293e-01,5.900885462760925293e-01,2.653749883174896240e-01,9.316212534904479980e-01,1.991304010152816772e-01,-8.264495134353637695e-01,3.888887465000152588e-01,7.014487385749816895e-01,-3.786396980285644531e-01,-7.385902851819992065e-02,-2.795603871345520020e-01,7.261199504137039185e-02,-6.470717191696166992e-01
6.191474571824073792e-02,-2.953254878520965576e-01,3.377972543239593506e-01,-5.535327792167663574e-01,-2.054572403430938721e-01,-6.205072402954101562e-01,3.480618894100189209e-01,-7.188617587089538574e-01,4.736669063568115234e-01,4.094319045543670654e-01,-4.273228049278259277e-01,9.054090827703475952e-02,1.907793879508972168e-01,4.672029614448547363e-01,-3.115847408771514893e-01,-2.785255312919616699e-01,5.927265286445617676e-01,8.004015088081359863e-01,-7.862493395805358887e-01,8.738099932670593262e-01,2.646689116954803467e-01,-1.723604947328567505e-01,6.974877715110778809e-01,-2.650114297866821289e-01,-9.396283626556396484e-01,4.009487628936767578e-01,5.471878051757812500e-01,4.178352653980255127e-02,-2.259052395820617676e-01,-7.438460737466812134e-02,2.098174989223480225e-01,-4.269382953643798828e-01
9.836176410317420959e-03,-1.512437760829925537e-01,2.786826789379119873e-01,-7.121878266334533691e-01,-3.348135948181152344e-01,-4.412141442298889160e-01,-6.748801469802856445e-02,-6.924860477447509766e-01,9.204373955726623535e-01,2.462924420833587646e-01,-1.669055521488189697e-01,2.801733613014221191e-01,3.678710162639617920e-01,3.658757209777832031e-01,-6.482862830162048340e-01,-2.659059762954711914e-01,5.111852288246154785e-01,5.373566150665283203e-01,-5.983090996742248535e-01,7.506394386291503906e-01,-1.118194758892059326e-01,-2.578420042991638184e-01,6.536052227020263672e-01,-1.587428897619247437e-01,-9.679748415946960449e-01,1.714847981929779053e-01,3.048318326473236084e-01,3.092673122882843018e-01,-4.371376931667327881e-01,-1.497103367000818253e-02,3.086645901203155518e-02,-3.253231644630432129e-01
-1.482768207788467407e-01,-3.068025708198547363e-01,1.823145300149917603e-01,-6.992439031600952148e-01,-3.898382782936096191e-01,-4.915703088045120239e-03,5.211678147315979004e-02,-3.586535453796386719e-01,7.340475916862487793e-01,-1.530647277832031250e-01,-3.084694147109985352e-01,3.939757347106933594e-01,4.037646651268005371e-01,2.473893761634826660e-01,-7.029295563697814941e-01,-9.163425117731094360e-02,9.784346073865890503e-02,1.798011809587478638e-01,-6.366337537765502930e-01,5.660005211830139160e-01,1.119452938437461853e-01,-3.172867000102996826e-01,2.676525115966796875e-01,-1.520348191261291504e-01,-9.200299978256225586e-01,8.396057039499282837e-02,1.439233869314193726e-01,1.446652263402938843e-01,-2.025269269943237305e-01,-1.570596545934677124e-01,3.392242789268493652e-01,3.176993727684020996e-01
-8.407235890626907349e-02,-4.362127780914306641e-01,8.007449656724929810e-02,-8.367060422897338867e-01,-3.406372368335723877e-01,6.848000921308994293e-03,-9.668965637683868408e-02,-8.790080249309539795e-02,7.176141142845153809e-01,-1.215753257274627686e-01,-2.669911980628967285e-01,1.044526025652885437e-01,2.427929341793060303e-01,-4.230814874172210693e-01,-9.168066978454589844e-01,-2.018091827630996704e-01,6.245457008481025696e-02,1.825250834226608276e-01,-2.776480913162231445e-01,3.692617416381835938e-01,1.572386920452117920e-01,-5.044518709182739258e-01,-3.889725357294082642e-02,1.843911707401275635e-01,-6.870757937431335449e-01,5.857111513614654541e-02,-1.466263681650161743e-01,1.262126415967941284e-01,-2.055134177207946777e-01,1.865435987710952759e-01,3.300315439701080322e-01,4.439410269260406494e-01
-1.545601785182952881e-01,-4.969765841960906982e-01,-3.552044928073883057e-02,-5.138744115829467773e-01,-6.090224385261535645e-01,1.601486816070973873e-03,-1.269179135560989380e-01,8.665639907121658325e-03,4.549046456813812256e-01,-1.186421215534210205e-01,-4.166865348815917969e-01,1.283466368913650513e-01,2.753450572490692139e-01,-4.746670126914978027e-01,-9.778848886489868164e-01,-1.191174313426017761e-01,2.332319915294647217e-01,-1.073957160115242004e-01,-7.833855599164962769e-02,-4.057824984192848206e-02,-7.216824591159820557e-02,-5.882098674774169922e-01,-5.781251005828380585e-03,2.368227392435073853e-01,-5.076053738594055176e-01,-7.338713854551315308e-02,-2.474282979965209961e-01,4.456270113587379456e-02,7.573627680540084839e-02,2.655621767044067383e-01,4.024608433246612549e-01,4.432152509689331055e-01
