Fp1,Fp2,F7,F3,Fz,F4,F8,FT7,FC3,FCz,FC4,FT8,T3,C3,Cz,C4,T4,TP7,CP3,CPz,CP4,TP8,T5,P3,Pz,P4,T6,O1,Oz,O2,A1,A2
-8.426748216152191162e-02,6.494455933570861816e-01,-5.957581996917724609e-01,2.555117905139923096e-01,-6.830921769142150879e-02,1.692640483379364014e-01,2.810840010643005371e-01,2.812399268150329590e-01,7.709903270006179810e-02,-8.560528606176376343e-02,1.899013072252273560e-01,3.120974302291870117e-01,-4.318920373916625977e-01,-3.067828416824340820e-01,3.630910813808441162e-01,6.406580805778503418e-01,5.201036110520362854e-02,-1.319837272167205811e-01,3.435900211334228516e-01,-5.787612199783325195e-01,5.384331345558166504e-01,4.150990247726440430e-01,-4.358590245246887207e-01,-1.922150850296020508e-01,1.010085344314575195e-01,1.087374016642570496e-01,2.956931591033935547e-01,3.179827034473419189e-01,-9.650161862373352051e-02,2.820496559143066406e-01,1.393674463033676147e-01,5.230988264083862305e-01
-9.546700119972229004e-02,3.347742557525634766e-02,-6.228875517845153809e-01,2.187110781669616699e-01,3.545663878321647644e-02,2.227215766906738281e-01,2.606381177902221680e-01,2.697712481021881104e-01,1.320929229259490967e-01,1.229160837829113007e-02,2.520048916339874268e-01,2.349040657281875610e-01,-2.012609094381332397e-01,2.287361919879913330e-01,6.091608405113220215e-01,7.656397819519042969e-01,3.056262060999870300e-02,-3.382040560245513916e-01,2.992475926876068115e-01,-6.004835367202758789e-01,5.202225446701049805e-01,5.092253684997558594e-01,-2.871022224426269531e-01,-2.774331271648406982e-01,1.558294147253036499e-01,2.807771861553192139e-01,4.449784755706787109e-01,7.401695251464843750e-01,-2.390846163034439087e-01,1.733286380767822266e-01,2.846623361110687256e-01,1.951111108064651489e-01
-2.826891243457794189e-01,-5.153448581695556641e-01,-2.985138893127441406e-01,-2.158263474702835083e-01,3.596466779708862305e-01,4.454556405544281006e-01,1.410871744155883789e-01,7.211971282958984375e-02,1.921511441469192505e-01,4.403111338615417480e-01,-1.137763559818267822e-01,7.496097683906555176e-02,-1.384510099887847900e-01,5.142941474914550781e-01,6.734969466924667358e-02,7.146111726760864258e-01,8.494097739458084106e-02,-2.007220387458801270e-01,2.677256464958190918e-01,-5.668894648551940918e-01,2.666101455688476562e-01,7.074043154716491699e-01,-1.715728342533111572e-01,-9.396991878747940063e-02,-1.200850829482078552e-01,1.433639079332351685e-01,4.079799056053161621e-01,9.554859399795532227e-01,1.480145007371902466e-01,3.540236949920654297e-01,1.186102330684661865e-01,-1.177211403846740723e-01
-4.968962073326110840e-01,-3.844743669033050537e-01,-6.993546150624752045e-03,-3.162523508071899414e-01,4.260688722133636475e-01,4.170938134193420410e-01,-1.522928625345230103e-01,-1.013326644897460938e-01,3.328984677791595459e-01,4.484174549579620361e-01,-2.848921343684196472e-02,1.373961269855499268e-01,2.995684146881103516e-01,7.566156983375549316e-01,5.475093796849250793e-02,6.685519218444824219e-01,-2.691371738910675049e-02,-2.150933742523193359e-01,6.232020910829305649e-03,-9.335520863533020020e-01,-1.868978288257494569e-04,6.098588705062866211e-01,1.702373325824737549e-01,3.564208149909973145e-01,-2.374987453222274780e-01,2.400684356689453125e-01,5.571721196174621582e-01,8.984358310699462891e-01,1.749037057161331177e-01,5.524405837059020996e-01,-4.421716332435607910e-01,-5.354830622673034668e-01
-7.374632954597473145e-01,-1.255423575639724731e-01,1.254561096429824829e-01,-4.170676171779632568e-01,3.316584825515747070e-01,1.733608096837997437e-01,-1.986532807350158691e-01,-3.381193876266479492e-01,1.908567696809768677e-01,2.542337179183959961e-01,-3.918375819921493530e-02,1.258046180009841919e-01,5.088350772857666016e-01,5.748269557952880859e-01,1.409284621477127075e-01,5.439528822898864746e-01,1.990940272808074951e-01,2.506734430789947510e-01,-8.462134003639221191e-02,-9.672011733055114746e-01,-1.161730960011482239e-01,6.206683516502380371e-01,1.183054298162460327e-01,1.745074987411499023e-01,-4.522356092929840088e-01,2.428733110427856445e-01,5.018129348754882812e-01,7.229365110397338867e-01,5.430670976638793945e-01,9.681271314620971680e-01,-6.341319084167480469e-01,-8.711086511611938477e-01
-6.310606002807617188e-01,-3.397618532180786133e-01,-9.256186336278915405e-02,-5.343150496482849121e-01,2.954126000404357910e-01,6.590916216373443604e-02,-1.860385388135910034e-01,-5.023046731948852539e-01,-8.898529410362243652e-02,1.252118945121765137e-01,-9.271185100078582764e-02,5.345227122306823730e-01,1.758417785167694092e-01,8.572593331336975098e-01,1.309433579444885254e-01,3.859245181083679199e-01,2.292054891586303711e-01,4.858861565589904785e-01,-1.967613995075225830e-01,-7.131856679916381836e-01,8.154717087745666504e-02,5.335568785667419434e-01,2.104023098945617676e-02,5.412782430648803711e-01,-2.837820351123809814e-01,5.140784978866577148e-01,1.288205236196517944e-01,3.859505951404571533e-01,6.208799481391906738e-01,6.008200645446777344e-01,-7.604767680168151855e-01,-5.862345099449157715e-01
-4.611983895301818848e-01,-2.893649935722351074e-01,-1.286837011575698853e-01,-5.806503295898437500e-01,4.336650371551513672e-01,-2.012277990579605103e-01,3.533239662647247314e-01,-2.837159931659698486e-01,-2.845931351184844971e-01,-1.027750298380851746e-01,-3.015195727348327637e-01,3.344926238059997559e-01,-1.133457422256469727e-01,6.585530638694763184e-01,-1.782255768775939941e-01,-1.356933563947677612e-01,-7.226144522428512573e-02,1.078319907188415527e+00,-5.611345171928405762e-01,-2.673707306385040283e-01,3.211789131164550781e-01,3.133387863636016846e-01,6.608164906501770020e-01,2.883514165878295898e-01,-7.592029124498367310e-02,5.568780303001403809e-01,-6.983900908380746841e-03,3.421744406223297119e-01,7.723519802093505859e-01,2.758914530277252197e-01,-6.297966837882995605e-01,-6.808356642723083496e-01
-6.370170414447784424e-02,-2.489858716726303101e-01,-2.436983138322830200e-01,-9.804959297180175781e-01,2.994099855422973633e-01,-1.366174668073654175e-01,5.137556195259094238e-01,-3.478064537048339844e-01,-1.423793882131576538e-01,1.003644168376922607e-01,-2.895199656486511230e-01,2.330525815486907959e-01,-2.732291221618652344e-01,7.070235013961791992e-01,-2.055145334452390671e-03,-2.319263964891433716e-01,-2.635843157768249512e-01,1.285066008567810059e+00,-7.525211572647094727e-01,4.304206371307373047e-02,4.379041492938995361e-01,8.069844543933868408e-02,9.603382945060729980e-01,1.778388172388076782e-01,2.230589687824249268e-01,6.581713557243347168e-01,-3.978260979056358337e-02,1.365180611610412598e-01,6.135683655738830566e-01,-1.552251130342483521e-01,-2.467919886112213135e-01,-5.664542913436889648e-01
7.831951603293418884e-03,-5.222967863082885742e-01,1.052519977092742920e-01,-1.027695775032043457e+00,3.468333277851343155e-03,-1.801914423704147339e-01,5.114359855651855469e-01,-3.707801699638366699e-01,8.777223527431488037e-02,1.845920085906982422e-01,-5.187363624572753906e-01,2.225000560283660889e-01,-7.114745378494262695e-01,6.810546517372131348e-01,1.049513295292854309e-01,2.578052319586277008e-02,-3.793793320655822754e-01,1.014101862907409668e+00,-5.200216770172119141e-01,9.392235428094863892e-02,4.967445731163024902e-01,-1.366538256406784058e-01,1.056008458137512207e+00,-7.590558379888534546e-02,3.751891851425170898e-01,5.066412687301635742e-01,-2.094227075576782227e-02,-1.167980879545211792e-01,5.526434183120727539e-01,-4.268009066581726074e-01,5.041677504777908325e-02,-4.551514983177185059e-01
-4.015618562698364258e-02,-3.183717429637908936e-01,-2.292200326919555664e-01,-6.929926872253417969e-01,-4.856415092945098877e-01,-6.928367614746093750e-01,2.846355140209197998e-01,-4.889741539955139160e-01,3.413402736186981201e-01,3.852056711912155151e-02,-5.005568265914916992e-01,5.217990875244140625e-01,-5.300179123878479004e-01,3.451076149940490723e-01,-5.069955438375473022e-02,-3.990983366966247559e-01,-3.876396715641021729e-01,5.663140416145324707e-01,-1.137964203953742981e-01,4.881719648838043213e-01,5.485404729843139648e-01,-5.665017366409301758e-01,7.472227215766906738e-01,-2.366245351731777191e-02,2.182930409908294678e-01,3.484647274017333984e-01,-2.458616793155670166e-01,-1.825598627328872681e-01,4.572789669036865234e-01,-4.782882034778594971e-01,7.144990563392639160e-02,-3.760904073715209961e-01
-2.978741526603698730e-01,-2.786008119583129883e-01,-2.004626095294952393e-01,-3.621509671211242676e-01,-3.474788665771484375e-01,-8.773366808891296387e-01,-2.086727647110819817e-03,-2.138633728027343750e-01,3.444584310054779053e-01,-2.995913475751876831e-02,-1.511481851339340210e-01,7.684687972068786621e-01,-5.458849072456359863e-01,1.281815320253372192e-01,2.456964254379272461e-01,-4.925187528133392334e-01,-5.755974724888801575e-02,4.299243390560150146e-01,-1.476428061723709106e-01,4.501203000545501709e-01,3.927136659622192383e-01,-5.570552945137023926e-01,7.977057695388793945e-01,-4.664819538593292236e-01,4.004379268735647202e-03,9.113547950983047485e-02,-3.293680846691131592e-01,-2.674325108528137207e-01,3.619362711906433105e-01,-3.306011855602264404e-01,1.676961332559585571e-01,-1.098860353231430054e-01
-1.125853434205055237e-01,-5.933818593621253967e-02,-3.337191045284271240e-01,-1.453916430473327637e-01,-2.970885336399078369e-01,-8.991469144821166992e-01,-1.104720309376716614e-01,-2.975550293922424316e-02,3.167371451854705811e-01,1.362383812665939331e-01,1.600291877985000610e-01,6.035286784172058105e-01,-8.660644292831420898e-01,1.731649339199066162e-01,2.944118678569793701e-01,-2.791656255722045898e-01,1.125152483582496643e-01,5.825600624084472656e-01,4.505598247051239014e-01,8.897323161363601685e-03,3.150545060634613037e-01,-3.414155542850494385e-01,4.717097580432891846e-01,-4.292979240417480469e-01,-1.248862221837043762e-01,-1.452734917402267456e-01,-2.969295978546142578e-01,-3.768141567707061768e-01,1.593294441699981689e-01,-2.704010307788848877e-01,-1.393820811063051224e-02,1.125178486108779907e-01
-2.045278996229171753e-01,1.573256999254226685e-01,-3.131836354732513428e-01,1.559248864650726318e-01,3.848718851804733276e-02,-7.835674285888671875e-01,-4.530920684337615967e-01,2.146293669939041138e-01,3.451493978500366211e-01,3.465459644794464111e-01,3.845569789409637451e-01,1.303661614656448364e-01,-8.411601185798645020e-01,1.775850504636764526e-01,7.767084836959838867e-01,-7.257793843746185303e-02,7.353196293115615845e-02,4.881679117679595947e-01,3.412650525569915771e-01,-9.792502969503402710e-02,4.367943406105041504e-01,1.032441109418869019e-01,-5.099171027541160583e-02,-3.877088055014610291e-02,-1.501697450876235962e-01,5.455363914370536804e-02,-2.978165447711944580e-01,-2.020678073167800903e-01,-1.647756844758987427e-01,-1.986825019121170044e-01,1.427211463451385498e-01,4.849055707454681396e-01
-4.556967318058013916e-01,-3.008524179458618164e-01,-3.252606689929962158e-01,-2.287017926573753357e-02,2.972145676612854004e-01,-4.768244922161102295e-01,-4.904321134090423584e-01,3.338453769683837891e-01,5.336613059043884277e-01,5.746634602546691895e-01,2.467895448207855225e-01,-1.931211054325103760e-01,-5.944175720214843750e-01,3.275430500507354736e-01,8.116667270660400391e-01,4.454044401645660400e-01,1.119680628180503845e-01,2.897002696990966797e-01,3.308477103710174561e-01,-1.291809603571891785e-02,4.769495427608489990e-01,3.121750056743621826e-01,1.324332356452941895e-01,3.519667685031890869e-02,-3.732729554176330566e-01,2.082711011171340942e-01,2.204553186893463135e-01,8.452295511960983276e-02,-2.815265059471130371e-01,-3.894696533679962158e-01,2.377079874277114868e-01,3.512561619281768799e-01
-2.741410136222839355e-01,-5.351253151893615723e-01,2.822354435920715332e-01,-6.668496876955032349e-02,3.352813124656677246e-01,-3.199609220027923584e-01,-5.167618989944458008e-01,2.388263195753097534e-01,8.465912938117980957e-01,8.863333463668823242e-01,2.427433729171752930e-01,-3.457278907299041748e-01,-6.299027204513549805e-01,7.852844595909118652e-01,5.099818706512451172e-01,6.066756844520568848e-01,-8.796889334917068481e-03,-6.675914861261844635e-03,2.651463150978088379e-01,-1.447954773902893066e-01,2.042292654514312744e-01,4.557537138462066650e-01,2.011247426271438599e-01,1.529094576835632324e-01,-7.026585340499877930e-01,1.155293956398963928e-01,4.874831140041351318e-01,5.751355290412902832e-01,-5.877017974853515625e-01,-3.355572223663330078e-01,3.030421733856201172e-01,5.326008796691894531e-01
-4.041523039340972900e-01,-7.025935053825378418e-01,5.288463830947875977e-01,-2.232156321406364441e-02,4.689226150512695312e-01,-8.143012225627899170e-02,-3.121573328971862793e-01,1.333793103694915771e-01,8.461971879005432129e-01,8.339862823486328125e-01,-1.833366155624389648e-01,-5.026415586471557617e-01,1.565908268094062805e-02,6.485449075698852539e-01,4.457148909568786621e-01,6.341191530227661133e-01,3.537929442245513201e-04,-3.075631856918334961e-01,3.134900629520416260e-01,-4.390746653079986572e-01,-4.110680520534515381e-01,3.491006791591644287e-01,1.562700569629669189e-01,8.735561370849609375e-02,-9.138454794883728027e-01,3.123883903026580811e-01,8.441582918167114258e-01,4.954923689365386963e-01,-4.554853737354278564e-01,-1.146795451641082764e-01,5.459254980087280273e-02,2.457251101732254028e-01
-5.633879899978637695e-01,-7.931438684463500977e-01,8.057774901390075684e-01,-5.153083428740501404e-02,4.547670781612396240e-01,-5.323885083198547363e-01,-2.706763446331024170e-01,-4.740455448627471924e-01,6.507528424263000488e-01,4.784939885139465332e-01,-3.533454537391662598e-01,-6.779537796974182129e-01,4.078419506549835205e-01,6.370909810066223145e-01,-1.164019852876663208e-01,4.898203015327453613e-01,-1.960841715335845947e-01,-1.192099973559379578e-01,2.346920967102050781e-01,-6.835371255874633789e-01,-7.212510704994201660e-01,3.757792115211486816e-01,5.700606852769851685e-02,1.053386852145195007e-01,-9.628911614418029785e-01,4.042712450027465820e-01,6.366076469421386719e-01,3.162421286106109619e-01,-1.308320760726928711e-01,-8.268449455499649048e-02,-2.446699142456054688e-01,1.822319626808166504e-01
-5.757248997688293457e-01,-4.951365888118743896e-01,7.905946373939514160e-01,-2.308688499033451080e-02,7.001025676727294922e-01,-2.697054445743560791e-01,-1.579001545906066895e-01,-7.366679310798645020e-01,3.892775475978851318e-01,3.010059297084808350e-01,-3.470042049884796143e-01,-3.619623482227325439e-01,6.263734698295593262e-01,5.799217820167541504e-01,-1.459572613239288330e-01,3.423802554607391357e-01,-2.608181834220886230e-01,2.204793542623519897e-01,1.407787203788757324e-01,-5.114266276359558105e-01,-6.657341718673706055e-01,4.074099659919738770e-01,-1.067817136645317078e-01,2.873813509941101074e-01,-9.922981262207031250e-01,6.349077224731445312e-01,3.811869323253631592e-01,3.678532540798187256e-01,1.936887800693511963e-01,-5.660561379045248032e-03,-6.259149312973022461e-02,1.409451961517333984e-01
-2.774876654148101807e-01,-2.032503485679626465e-01,6.783517003059387207e-01,-1.256210356950759888e-01,7.238096594810485840e-01,-4.442424476146697998e-01,-2.719983160495758057e-01,-7.635543942451477051e-01,-3.367776051163673401e-02,1.431350223720073700e-02,-2.781304717063903809e-01,-5.712192654609680176e-01,4.354876875877380371e-01,2.783325910568237305e-01,-4.196660220623016357e-01,2.726575434207916260e-01,-5.401976108551025391e-01,2.529214620590209961e-01,-8.402946591377258301e-02,-7.419655919075012207e-01,-5.143988728523254395e-01,5.400833487510681152e-01,1.551304310560226440e-01,2.443893402814865112e-01,-8.542863726615905762e-01,7.676426768302917480e-01,1.149879619479179382e-01,1.455288082361221313e-01,3.438791334629058838e-01,-1.285447925329208374e-01,-1.130569055676460266e-01,9.105070680379867554e-02
4.726738552562892437e-04,-9.549350291490554810e-02,3.551434874534606934e-01,-4.960325732827186584e-02,7.173001170158386230e-01,-3.777311444282531738e-01,2.738050222396850586e-01,-5.929043292999267578e-01,-2.063754796981811523e-01,-1.437935531139373779e-01,-1.276781409978866577e-01,-4.862399995326995850e-01,5.206909775733947754e-01,1.352480798959732056e-01,-4.759651422500610352e-01,5.055196285247802734e-01,-9.018182158470153809e-01,4.837732017040252686e-01,1.313560009002685547e-01,-4.568934738636016846e-01,-1.168226972222328186e-01,2.735054194927215576e-01,3.085251152515411377e-01,3.053112328052520752e-01,-4.564206600189208984e-01,7.377870082855224609e-01,9.711476415395736694e-02,1.483218669891357422e-01,3.975285291671752930e-01,-3.630203306674957275e-01,2.656590379774570465e-02,2.077299803495407104e-01
3.919249176979064941e-01,-3.674218058586120605e-02,5.243780612945556641e-01,-7.924909889698028564e-02,3.170751929283142090e-01,-4.157152771949768066e-01,5.966352820396423340e-01,-6.544001698493957520e-01,-6.247289776802062988e-01,-4.100210964679718018e-01,-5.476478934288024902e-01,-3.320144116878509521e-01,2.102046012878417969e-01,1.275508254766464233e-01,-7.724857926368713379e-01,2.100537717342376709e-01,-1.250165939331054688e+00,6.142331361770629883e-01,-7.087430357933044434e-02,-8.617755025625228882e-03,4.303086176514625549e-02,2.900581955909729004e-01,2.785898447036743164e-01,2.740575671195983887e-01,-1.045258864760398865e-01,8.423519134521484375e-01,-1.009904891252517700e-01,-2.478716894984245300e-02,5.168945193290710449e-01,-7.169141769409179688e-01,6.050562858581542969e-01,2.697852253913879395e-01
5.958499908447265625e-01,-1.326346844434738159e-01,3.392723500728607178e-01,-2.329734861850738525e-01,-1.041271984577178955e-01,-3.177549242973327637e-01,5.426044464111328125e-01,-7.520646452903747559e-01,-3.406048119068145752e-01,-5.186302065849304199e-01,-5.317355394363403320e-01,4.904625192284584045e-02,-3.780366107821464539e-02,-5.796946212649345398e-02,-8.490236401557922363e-01,-6.451328843832015991e-02,-1.116533279418945312e+00,2.322238832712173462e-01,1.751751601696014404e-01,2.182378061115741730e-02,2.234128117561340332e-01,2.085899859666824341e-01,4.501036703586578369e-01,-2.328322082757949829e-01,1.627967357635498047e-01,7.600980401039123535e-01,-3.451743125915527344e-01,1.219663098454475403e-01,4.896777570247650146e-01,-7.326206564903259277e-01,6.378857493400573730e-01,4.853179752826690674e-01
5.587882399559020996e-01,3.195450603961944580e-01,6.613073498010635376e-02,1.381275951862335205e-01,-4.495058953762054443e-01,-5.955409407615661621e-01,3.219585716724395752e-01,-6.011336445808410645e-01,-3.637716174125671387e-01,-6.064177155494689941e-01,-1.618534773588180542e-01,1.900915056467056274e-01,-7.078006863594055176e-02,-3.188884556293487549e-01,-8.153162598609924316e-01,-2.665773779153823853e-02,-6.892567276954650879e-01,3.022280149161815643e-02,6.957751512527465820e-01,-4.024636000394821167e-02,1.178793758153915405e-01,-2.027821093797683716e-01,2.214832752943038940e-01,-4.065604805946350098e-01,1.354585867375135422e-02,2.166865915060043335e-01,-6.379125118255615234e-01,-1.439171284437179565e-02,5.111671686172485352e-01,-5.972496867179870605e-01,8.425275683403015137e-01,2.982031106948852539e-01
7.117634415626525879e-01,6.072139143943786621e-01,-2.226436883211135864e-01,2.770247757434844971e-01,-7.974551916122436523e-01,-6.847439408302307129e-01,-6.211938709020614624e-02,-2.751379013061523438e-01,-9.416041523218154907e-02,-5.009185671806335449e-01,1.908876895904541016e-01,4.307712912559509277e-01,-1.928573288023471832e-02,-3.385794162750244141e-01,-5.340891480445861816e-01,-6.563862413167953491e-02,-4.915947616100311279e-01,-8.078464865684509277e-02,7.602562308311462402e-01,2.478683134540915489e-03,4.712080657482147217e-01,-2.185219377279281616e-01,-1.572964638471603394e-01,-3.558975458145141602e-01,1.355074346065521240e-01,-3.176293373107910156e-01,-8.500730991363525391e-01,-4.106570780277252197e-01,5.857513546943664551e-01,-3.098337054252624512e-01,9.171534776687622070e-01,4.437727034091949463e-01
4.449393451213836670e-01,5.037260055541992188e-01,-3.787195980548858643e-01,7.731460928916931152e-01,-5.833503603935241699e-01,-6.619056463241577148e-01,-3.700346946716308594e-01,-1.745022535324096680e-01,-2.224585786461830139e-02,-3.857193589210510254e-01,6.176810264587402344e-01,6.194927096366882324e-01,1.621676259674131870e-03,-4.103064239025115967e-01,-2.906815707683563232e-01,-1.103135272860527039e-01,-1.907638311386108398e-01,-1.650672405958175659e-01,8.997548222541809082e-01,9.626810997724533081e-02,4.841276407241821289e-01,1.801591366529464722e-02,-5.576909184455871582e-01,1.293356120586395264e-01,2.898951768875122070e-01,-2.768207490444183350e-01,-9.163635969161987305e-01,-3.639408349990844727e-01,1.195695474743843079e-01,-3.981727659702301025e-01,7.671044468879699707e-01,5.459872484207153320e-01
3.381842076778411865e-01,1.188349425792694092e-01,-4.206124544143676758e-01,5.707929134368896484e-01,-3.930748403072357178e-01,-1.876122504472732544e-01,-5.025683641433715820e-01,3.761583566665649414e-01,-9.967383742332458496e-02,-1.011857762932777405e-01,8.504398465156555176e-01,2.075455188751220703e-01,-3.333461284637451172e-01,-2.364427745342254639e-01,5.760736763477325439e-03,-3.595173731446266174e-02,-1.062604561448097229e-01,3.057331033051013947e-02,7.557106614112854004e-01,-3.151399269700050354e-02,3.682267367839813232e-01,5.211555361747741699e-01,-3.617863059043884277e-01,2.690427601337432861e-01,2.176488190889358521e-01,-5.452073812484741211e-01,-7.092382907867431641e-01,9.064786881208419800e-02,8.192617446184158325e-02,-8.346888422966003418e-02,5.952594280242919922e-01,5.215024948120117188e-01
2.974214851856231689e-01,1.966508179903030396e-01,-2.649211585521697998e-01,6.861320734024047852e-01,-3.724285662174224854e-01,2.562004327774047852e-01,-6.924695968627929688e-01,6.052584648132324219e-01,1.046544834971427917e-01,2.023558169603347778e-01,9.815921187400817871e-01,-1.309855133295059204e-01,-2.132349461317062378e-01,1.171644330024719238e-01,2.361563444137573242e-01,2.020383924245834351e-01,1.539585590362548828e-01,-2.828801274299621582e-01,5.160562992095947266e-01,-2.646274566650390625e-01,2.639341950416564941e-01,6.166396737098693848e-01,-4.061722755432128906e-01,6.055971980094909668e-01,1.367032080888748169e-01,-7.068493962287902832e-01,-4.368069469928741455e-01,4.746234714984893799e-01,-3.210005760192871094e-01,-1.585206538438796997e-01,6.784108877182006836e-01,3.987860977649688721e-01
1.817314773797988892e-01,-4.457086920738220215e-01,1.454112082719802856e-01,2.799656689167022705e-01,-4.346327483654022217e-01,5.226560235023498535e-01,-7.312987446784973145e-01,7.653016448020935059e-01,6.058462858200073242e-01,3.128876984119415283e-01,9.115601181983947754e-01,-5.395065546035766602e-01,3.866524249315261841e-02,4.670434892177581787e-01,-8.134759031236171722e-03,4.691142439842224121e-01,3.531559407711029053e-01,-4.064159095287322998e-01,4.209885597229003906e-01,1.533736288547515869e-01,-9.086961299180984497e-02,5.331870317459106445e-01,-3.858535587787628174e-01,8.640140295028686523e-01,-3.629812970757484436e-02,-2.970197796821594238e-01,-6.326088309288024902e-02,4.439851343631744385e-01,-4.918786287307739258e-01,1.480214744806289673e-01,3.610671460628509521e-01,5.402348637580871582e-01
-1.449590176343917847e-01,-6.157398819923400879e-01,1.429482400417327881e-01,-1.748435385525226593e-02,-2.524809241294860840e-01,6.101337671279907227e-01,-1.004104971885681152e+00,5.349326133728027344e-01,6.743141412734985352e-01,3.975297510623931885e-01,5.277120471000671387e-01,-3.659797310829162598e-01,1.798740178346633911e-01,5.075809359550476074e-01,-2.488924413919448853e-01,2.026869915425777435e-03,3.394086062908172607e-01,-5.040498375892639160e-01,2.711251080036163330e-01,5.852926522493362427e-02,-2.638392448425292969e-01,3.318062424659729004e-01,1.228354033082723618e-02,6.763810515403747559e-01,-3.185562193393707275e-01,-4.933073520660400391e-01,-1.752539165318012238e-02,3.117500841617584229e-01,-4.216355383396148682e-01,2.124474048614501953e-01,1.176192760467529297e-01,-1.030243858695030212e-01
-2.916843593120574951e-01,-5.553253293037414551e-01,6.243914365768432617e-01,-1.903222054243087769e-01,-1.710566878318786621e-01,4.028152227401733398e-01,-8.778852820396423340e-01,1.976059526205062866e-01,5.180273652076721191e-01,5.481218099594116211e-01,5.624788403511047363e-01,-4.211959242820739746e-01,4.603042006492614746e-01,7.249310612678527832e-01,-1.339254975318908691e-01,1.718126982450485229e-02,3.950755000114440918e-01,-1.938696354627609253e-01,2.100486457347869873e-01,-1.534922420978546143e-01,-6.414950489997863770e-01,2.138358801603317261e-01,9.179621934890747070e-02,6.389114856719970703e-01,-5.139862895011901855e-01,-4.781751036643981934e-01,3.068423271179199219e-01,4.698290675878524780e-02,-5.389274358749389648e-01,5.157127976417541504e-01,-3.041554987430572510e-01,-3.580943942070007324e-01
-2.985764741897583008e-01,-3.785888552665710449e-01,7.271362543106079102e-01,-2.358128279447555542e-01,-2.386618107557296753e-01,2.360489219427108765e-01,-8.783846497535705566e-01,1.890509277582168579e-01,3.945845365524291992e-01,1.869527101516723633e-01,5.108351707458496094e-01,-5.027167797088623047e-01,6.497620940208435059e-01,4.813076257705688477e-01,-3.591103255748748779e-01,-3.119598925113677979e-01,2.215815186500549316e-01,-3.409344330430030823e-02,-2.216788530349731445e-01,-1.325473338365554810e-01,-9.463102817535400391e-01,2.049887329339981079e-01,5.602587945759296417e-03,8.493388295173645020e-01,-2.623359560966491699e-01,-3.716554045677185059e-01,-1.761113107204437256e-01,-3.351356685161590576e-01,-3.774125874042510986e-01,5.739114284515380859e-01,-3.823210000991821289e-01,-3.639051914215087891e-01
-4.009646177291870117e-01,-5.954200625419616699e-01,5.910516977310180664e-01,-1.831702291965484619e-01,-4.041874036192893982e-02,-9.638792276382446289e-02,-7.063134908676147461e-01,-1.028394848108291626e-01,-8.121857792139053345e-02,-9.402867406606674194e-02,2.038767337799072266e-01,-4.652783572673797607e-01,4.350639581680297852e-01,4.757573306560516357e-01,-3.221366405487060547e-01,-3.536349833011627197e-01,-2.900279127061367035e-02,4.069998562335968018e-01,-4.255779087543487549e-01,2.110578119754791260e-01,-6.620231866836547852e-01,-8.139605820178985596e-02,2.702941000461578369e-01,8.368662595748901367e-01,-1.808868944644927979e-01,7.010463159531354904e-03,-1.588427722454071045e-01,-3.688230514526367188e-01,-2.992835342884063721e-01,1.637969762086868286e-01,-5.757040977478027344e-01,-1.024684160947799683e-01
5.392774008214473724e-03,-3.593023419380187988e-01,5.742459297180175781e-01,-1.380627155303955078e-01,-8.317192085087299347e-03,1.565655916929244995e-01,-3.482287824153900146e-01,2.006006389856338501e-01,-2.482683807611465454e-01,-2.587556242942810059e-01,1.231992170214653015e-01,-5.332267880439758301e-01,2.389710396528244019e-01,2.538031339645385742e-01,-6.129411458969116211e-01,-6.619398593902587891e-01,-1.211335435509681702e-01,4.359800815582275391e-01,-5.643822550773620605e-01,7.122440338134765625e-01,-4.628822505474090576e-01,-4.294607788324356079e-02,5.853642225265502930e-01,5.735630989074707031e-01,1.108737383037805557e-02,1.467421352863311768e-01,-1.098436862230300903e-01,-3.926014602184295654e-01,-1.731139272451400757e-01,-3.246609270572662354e-01,-3.836422264575958252e-01,-2.431226223707199097e-01
4.351422488689422607e-01,-2.053924351930618286e-01,5.667936801910400391e-01,-3.902465701103210449e-01,-2.233831025660037994e-02,-8.047436177730560303e-02,8.047725260257720947e-02,3.351580798625946045e-01,-2.287564575672149658e-01,-2.143189907073974609e-01,-2.269919216632843018e-01,-6.792394518852233887e-01,-2.876218967139720917e-02,2.532991468906402588e-01,-3.414636254310607910e-01,-6.499944329261779785e-01,-3.549723625183105469e-01,6.141396164894104004e-01,-5.925282835960388184e-01,8.208057284355163574e-01,-4.097058773040771484e-01,-6.849031448364257812e-01,4.770849943161010742e-01,7.305422425270080566e-02,1.379002630710601807e-01,4.321750402450561523e-01,7.712073624134063721e-02,-6.510604023933410645e-01,-2.681339979171752930e-01,-6.550340652465820312e-01,5.421010404825210571e-02,-1.151485089212656021e-02
4.898965060710906982e-01,1.352432519197463989e-01,5.448250770568847656e-01,-5.015282034873962402e-01,-6.289497017860412598e-01,-3.968894481658935547e-01,7.937446981668472290e-02,-2.143191695213317871e-01,-3.033022284507751465e-01,-2.515625953674316406e-01,-1.730167567729949951e-01,-3.900829851627349854e-01,8.242399245500564575e-02,-1.727281212806701660e-01,-3.573042154312133789e-01,-6.694130301475524902e-01,-3.059310317039489746e-01,1.259280741214752197e-01,-2.897191643714904785e-01,9.426813125610351562e-01,-3.776539564132690430e-01,-9.014605879783630371e-01,3.492661416530609131e-01,-3.644843399524688721e-01,2.312879860401153564e-01,1.995199732482433319e-02,-2.944303117692470551e-02,-8.331822752952575684e-01,-1.453793942928314209e-01,-6.777815222740173340e-01,-4.430028051137924194e-02,1.809051185846328735e-01
4.304775595664978027e-01,2.394008636474609375e-01,3.334951698780059814e-01,-5.987350642681121826e-02,-6.241381168365478516e-01,-6.250169277191162109e-01,-1.063393615186214447e-02,-2.471815496683120728e-01,-8.686143159866333008e-02,-3.586845397949218750e-01,-3.714338243007659912e-01,-7.049153000116348267e-02,6.969704478979110718e-02,-4.083461463451385498e-01,-5.166170001029968262e-01,-8.260859847068786621e-01,-3.912945687770843506e-01,1.716808527708053589e-01,1.970697492361068726e-01,7.753105759620666504e-01,-3.018502891063690186e-01,-8.513330817222595215e-01,-2.649086061865091324e-03,-5.416566133499145508e-01,1.484289616346359253e-01,1.244297623634338379e-01,-2.093872800469398499e-02,-9.296949505805969238e-01,-2.746332623064517975e-02,-7.788825035095214844e-01,2.919363975524902344e-01,9.697505831718444824e-02
3.259913921356201172e-01,6.199190020561218262e-01,7.220618426799774170e-02,6.880334615707397461e-01,-6.696354150772094727e-01,-7.759990692138671875e-01,-2.122340351343154907e-01,5.951936170458793640e-02,-2.471763044595718384e-01,-4.428803026676177979e-01,-9.317374974489212036e-02,1.823624819517135620e-01,1.030640676617622375e-01,-6.210274100303649902e-01,-3.106878101825714111e-01,-6.920540332794189453e-01,-2.594189643859863281e-01,4.385690670460462570e-03,8.416898548603057861e-02,6.501198410987854004e-01,-2.378603219985961914e-01,-7.083829045295715332e-01,-1.917583346366882324e-01,-6.871209740638732910e-01,1.045134812593460083e-01,-3.889467120170593262e-01,-2.191006988286972046e-01,-7.135756015777587891e-01,-4.598843455314636230e-01,-4.899313747882843018e-01,2.614736855030059814e-01,2.422329783439636230e-01
4.722393453121185303e-01,7.547377943992614746e-01,1.002620533108711243e-01,7.080475091934204102e-01,-6.171191930770874023e-01,-7.766529321670532227e-01,-3.939122259616851807e-01,3.214328885078430176e-01,-1.326465755701065063e-01,-3.049364984035491943e-01,1.361082494258880615e-01,-1.669598817825317383e-01,4.647687822580337524e-02,-6.092126965522766113e-01,1.523463279008865356e-01,-4.967384338378906250e-01,6.858781725168228149e-02,-2.670939266681671143e-01,5.677611231803894043e-01,4.493518769741058350e-01,-3.073613345623016357e-01,-4.127903878688812256e-01,-5.766116976737976074e-01,-3.752374947071075439e-01,1.799404472112655640e-01,-4.597587585449218750e-01,-1.580498069524765015e-01,-7.495160102844238281e-01,-4.919626116752624512e-01,-4.278175234794616699e-01,3.554011285305023193e-01,6.247990131378173828e-01
4.761437773704528809e-01,6.102368831634521484e-01,-1.169231981039047241e-01,9.863565564155578613e-01,-2.136984169483184814e-01,-2.219389528036117554e-01,-2.917029261589050293e-01,4.618000388145446777e-01,-1.360536813735961914e-01,-4.237255156040191650e-01,2.762506008148193359e-01,-2.806009352207183838e-01,-3.589838743209838867e-04,-8.506529927253723145e-01,1.637609153985977173e-01,-1.931957602500915527e-01,7.948818057775497437e-02,-6.772488951683044434e-01,6.170263290405273438e-01,2.723757028579711914e-01,-1.226406693458557129e-01,-5.847930908203125000e-02,-9.524853229522705078e-01,-1.198572888970375061e-01,-1.305675413459539413e-02,-2.118141055107116699e-01,-2.025329023599624634e-01,-5.490998625755310059e-01,-6.081888675689697266e-01,-4.456986784934997559e-01,3.355710804462432861e-01,9.370651841163635254e-01
4.729884564876556396e-01,3.434821069240570068e-01,-6.756760179996490479e-02,8.151727914810180664e-01,-2.224059104919433594e-01,2.224094867706298828e-01,-2.119718939065933228e-01,4.013737738132476807e-01,-2.193560600280761719e-01,1.597027666866779327e-02,2.697923183441162109e-01,-4.011400640010833740e-01,2.020692974328994751e-01,-3.396681845188140869e-01,4.717389587312936783e-03,2.063951641321182251e-01,2.052719518542289734e-02,-7.294570207595825195e-01,2.895457148551940918e-01,1.299615353345870972e-01,-2.581254541873931885e-01,2.728762924671173096e-01,-8.382743000984191895e-01,-8.949548751115798950e-02,-2.472064942121505737e-01,-2.420459687709808350e-01,1.317809820175170898e-01,-1.102691516280174255e-01,-6.841913461685180664e-01,-2.975598275661468506e-01,3.535584211349487305e-01,8.062679171562194824e-01
2.868049442768096924e-01,2.879456877708435059e-01,3.584315180778503418e-01,4.787895977497100830e-01,5.308482050895690918e-02,4.997364580631256104e-01,-3.304044306278228760e-01,5.719784498214721680e-01,1.770481653511524200e-02,1.056029126048088074e-01,1.759326159954071045e-01,-6.063624024391174316e-01,3.308423757553100586e-01,-1.341861337423324585e-01,-1.183990016579627991e-01,2.211474925279617310e-01,1.613113582134246826e-01,-9.230622649192810059e-01,9.936612844467163086e-02,-1.017892546951770782e-02,-6.019682884216308594e-01,1.448823511600494385e-01,-5.991490483283996582e-01,-9.650334715843200684e-02,-1.796039044857025146e-01,-2.483193427324295044e-01,7.060822844505310059e-01,2.196435630321502686e-01,-7.694391012191772461e-01,4.731193929910659790e-02,3.915515542030334473e-01,4.652306437492370605e-01
3.100270330905914307e-01,-2.705796062946319580e-02,5.855377316474914551e-01,3.400285542011260986e-01,-2.492480576038360596e-01,5.515004992485046387e-01,-2.290296405553817749e-01,3.878370821475982666e-01,-6.394973490387201309e-03,-2.036351524293422699e-02,3.754137456417083740e-02,-7.925394773483276367e-01,8.944530487060546875e-01,-1.200438961386680603e-01,-3.891642391681671143e-01,2.449358403682708740e-01,2.739705145359039307e-01,-1.035127878189086914e+00,2.867072522640228271e-01,-3.995089530944824219e-01,-8.083755373954772949e-01,3.241200000047683716e-02,-6.851249337196350098e-01,5.477561429142951965e-02,-1.233926415443420410e-01,-3.340857923030853271e-01,6.733319163322448730e-01,4.200874269008636475e-01,-2.277065366506576538e-01,2.877555191516876221e-01,2.035866491496562958e-02,2.333706319332122803e-01
5.021071434020996094e-02,2.087282091379165649e-01,4.353263080120086670e-01,3.802641332149505615e-01,-1.107666119933128357e-01,4.758495986461639404e-01,-3.850764930248260498e-01,2.714849412441253662e-01,-5.720669776201248169e-02,-2.266495972871780396e-01,2.583943866193294525e-02,-5.106730461120605469e-01,1.097344756126403809e+00,-9.522096067667007446e-02,-5.185930132865905762e-01,-3.729648888111114502e-02,3.441520407795906067e-02,-6.349536776542663574e-01,2.217847853899002075e-01,-3.358604907989501953e-01,-7.344946265220642090e-01,2.776840329170227051e-01,-7.845386266708374023e-01,9.959733486175537109e-02,-3.378464877605438232e-01,-1.562825441360473633e-01,4.514418542385101318e-01,2.213711440563201904e-01,-2.195416986942291260e-01,3.490432500839233398e-01,-1.035735681653022766e-01,-2.122466415166854858e-01
5.724808946251869202e-02,1.590324789285659790e-01,4.033934175968170166e-01,2.506289184093475342e-01,1.182323470711708069e-01,5.038836002349853516e-01,-2.282454669475555420e-01,2.164615318179130554e-02,-4.562018513679504395e-01,-6.034353375434875488e-01,9.223453700542449951e-02,-3.009007573127746582e-01,1.034983634948730469e+00,-6.932185590267181396e-02,-5.776866674423217773e-01,-3.329648673534393311e-01,1.614929735660552979e-01,-3.919677436351776123e-01,-2.853270173072814941e-01,-5.166071057319641113e-01,-6.638992428779602051e-01,3.086419999599456787e-01,-4.413606822490692139e-01,1.198753491044044495e-01,-1.638427078723907471e-01,-7.786431908607482910e-02,2.214405536651611328e-01,7.907280325889587402e-02,1.482343077659606934e-01,6.863310933113098145e-01,-3.262251019477844238e-01,-3.639438152313232422e-01
1.338291615247726440e-01,3.109008371829986572e-01,2.163154780864715576e-01,3.007274270057678223e-01,5.473162233829498291e-02,5.946876406669616699e-01,9.994366765022277832e-02,-1.498808860778808594e-01,-7.094953060150146484e-01,-7.337523102760314941e-01,8.789733052253723145e-02,-2.595062255859375000e-01,8.091992735862731934e-01,-2.068678289651870728e-01,-5.114068984985351562e-01,-1.812533661723136902e-02,2.388878315687179565e-01,-1.080435886979103088e-01,-3.706059753894805908e-01,-5.637018084526062012e-01,-3.462234735488891602e-01,1.666293293237686157e-01,-5.258382558822631836e-01,3.811264932155609131e-01,3.540917113423347473e-02,2.474907487630844116e-01,4.165303111076354980e-01,-2.569110393524169922e-01,2.942359745502471924e-01,4.222120642662048340e-01,-1.749058514833450317e-01,-3.654355704784393311e-01
6.725613474845886230e-01,5.452622771263122559e-01,1.499271020293235779e-02,-1.026539877057075500e-01,-1.969761401414871216e-01,5.434813499450683594e-01,4.943699240684509277e-01,2.852142089977860451e-03,-7.358791232109069824e-01,-9.337572455406188965e-01,-4.184137284755706787e-01,8.964495360851287842e-02,5.352213978767395020e-01,-1.780027598142623901e-01,-6.830503940582275391e-01,-8.304337412118911743e-02,-8.281629416160285473e-04,1.893720962107181549e-02,-2.935895919799804688e-01,-1.873895339667797089e-02,-9.722077101469039917e-02,1.163486018776893616e-02,-1.422130018472671509e-01,9.080673009157180786e-02,5.829175114631652832e-01,3.753111660480499268e-01,1.006846874952316284e-01,-1.647245287895202637e-01,4.430876076221466064e-01,-6.954654306173324585e-02,-3.060122132301330566e-01,-3.550376594066619873e-01
5.917738676071166992e-01,2.861328423023223877e-01,-6.557545810937881470e-02,-2.379906028509140015e-01,-5.316760540008544922e-01,4.094809591770172119e-01,4.409031569957733154e-01,2.890505455434322357e-02,-9.085741043090820312e-01,-6.699108481407165527e-01,-3.990608751773834229e-01,1.825872361660003662e-01,2.541374564170837402e-01,-2.639823555946350098e-01,-6.780934929847717285e-01,-3.766495585441589355e-01,-4.505944848060607910e-01,9.497012197971343994e-02,-3.820197880268096924e-01,3.989831805229187012e-01,4.058523103594779968e-02,-1.151312515139579773e-01,4.466368630528450012e-02,-1.862185075879096985e-02,7.740606665611267090e-01,2.614933550357818604e-01,-1.153687536716461182e-01,-1.048945114016532898e-01,2.872685194015502930e-01,8.055326528847217560e-03,1.372378319501876831e-01,-1.074383929371833801e-01
5.875855088233947754e-01,4.800094366073608398e-01,-2.069139033555984497e-01,-1.211330220103263855e-01,-9.886394143104553223e-01,4.151320159435272217e-01,3.817164003849029541e-01,-3.598090261220932007e-02,-7.288196086883544922e-01,-6.017915606498718262e-01,-1.582688093185424805e-01,3.878419697284698486e-01,2.121697217226028442e-01,-2.715809643268585205e-01,-5.385352373123168945e-01,-5.534800291061401367e-01,-2.823584377765655518e-01,1.700793355703353882e-01,-3.257409036159515381e-01,5.598233938217163086e-01,1.851831227540969849e-01,-5.476379990577697754e-01,1.921021789312362671e-01,-3.897143304347991943e-01,8.575502634048461914e-01,-2.097875252366065979e-02,-9.940773993730545044e-02,-2.009714096784591675e-01,1.311633437871932983e-01,-4.230579361319541931e-02,8.823713660240173340e-02,-6.699974536895751953e-01
5.155666470527648926e-01,6.014271974563598633e-01,-3.395413458347320557e-01,-1.205443497747182846e-02,-1.104194760322570801e+00,1.103923320770263672e-01,2.033614665269851685e-01,2.388526499271392822e-01,-6.019142866134643555e-01,-5.148876905441284180e-01,-2.157408595085144043e-01,5.935723781585693359e-01,2.031641453504562378e-01,-5.705819129943847656e-01,-4.719860553741455078e-01,-7.255510091781616211e-01,2.375534474849700928e-01,-1.753918826580047607e-01,-5.231159180402755737e-02,4.765108227729797363e-01,3.901784494519233704e-02,-7.794312238693237305e-01,1.283430773764848709e-02,-7.079468965530395508e-01,8.727313280105590820e-01,-4.202019572257995605e-01,-4.489330351352691650e-01,-4.277825653553009033e-01,3.415710031986236572e-01,1.275442987680435181e-01,-1.157849188894033432e-02,-2.612577378749847412e-01
2.864375114440917969e-01,4.930887520313262939e-01,-7.518259286880493164e-01,1.891337633132934570e-01,-1.108132600784301758e+00,-1.135703772306442261e-01,-2.062042057514190674e-01,3.865066170692443848e-01,-4.582774937152862549e-01,-6.051838397979736328e-01,1.193156763911247253e-01,7.247578501701354980e-01,-8.632215112447738647e-02,-3.841871917247772217e-01,4.097913578152656555e-02,-8.317251801490783691e-01,6.161409020423889160e-01,-4.637173935770988464e-02,7.609230279922485352e-02,2.525133490562438965e-01,2.725289463996887207e-01,-5.690217018127441406e-01,-1.856330037117004395e-01,-4.711312651634216309e-01,8.443999290466308594e-01,-5.412318110466003418e-01,-4.438320398330688477e-01,-7.247281074523925781e-01,2.462878376245498657e-01,2.328665852546691895e-01,-2.329055778682231903e-02,-1.177731379866600037e-01
2.752350866794586182e-01,6.494966149330139160e-01,-9.261450171470642090e-01,3.075581490993499756e-01,-4.862072467803955078e-01,7.735597435384988785e-03,-4.106039702892303467e-01,7.324136495590209961e-01,-2.733519673347473145e-01,-2.778045237064361572e-01,2.583945989608764648e-01,6.394990682601928711e-01,-3.748971223831176758e-01,-4.406662881374359131e-01,4.028026461601257324e-01,-5.230109095573425293e-01,6.499078869819641113e-01,8.313741534948348999e-02,-3.416425362229347229e-02,3.204150199890136719e-01,2.161168307065963745e-01,-3.288067877292633057e-01,-3.385413587093353271e-01,-1.304926425218582153e-01,5.701051950454711914e-01,-5.980699658393859863e-01,-3.433546125888824463e-01,-3.915387690067291260e-01,-4.980639368295669556e-02,3.112933635711669922e-01,-1.983831971883773804e-01,1.027406845241785049e-02
3.075246326625347137e-02,3.946368396282196045e-01,-7.017942070960998535e-01,5.910252034664154053e-02,-4.865217804908752441e-01,3.127313554286956787e-01,-3.399859666824340820e-01,1.030893683433532715e+00,6.156218424439430237e-02,-6.667185574769973755e-02,6.569147109985351562e-01,2.138556838035583496e-01,-6.521425247192382812e-01,-1.702404320240020752e-01,7.469329237937927246e-01,-1.592463254928588867e-01,7.935761809349060059e-01,-1.352337449789047241e-01,-2.499262392520904541e-01,1.413483917713165283e-01,2.125907093286514282e-01,-1.315726637840270996e-01,-2.735197842121124268e-01,-8.855663239955902100e-02,3.775380551815032959e-01,-6.256512999534606934e-01,3.159959912300109863e-01,-1.959483474493026733e-01,-3.836319148540496826e-01,5.960143208503723145e-01,-4.846977069973945618e-02,1.269776653498411179e-02
-6.224554404616355896e-02,-1.261476576328277588e-01,-6.485354304313659668e-01,1.368802487850189209e-01,-4.715629220008850098e-01,5.589471459388732910e-01,-1.413677036762237549e-01,1.048344612121582031e+00,1.507804393768310547e-01,4.098402261734008789e-01,3.147074580192565918e-01,3.819007053971290588e-02,-5.657685399055480957e-01,1.983638405799865723e-01,8.729267120361328125e-01,-9.391305595636367798e-02,6.962452530860900879e-01,-2.826147675514221191e-01,-2.981675863265991211e-01,1.157462671399116516e-01,5.740524083375930786e-02,-1.491194963455200195e-01,-4.243503212928771973e-01,-9.497388452291488647e-02,2.350687682628631592e-01,-4.731153845787048340e-01,5.104674100875854492e-01,1.065222099423408508e-01,-7.367876768112182617e-01,5.011749267578125000e-01,-2.223447263240814209e-01,1.261512339115142822e-01
-5.816625356674194336e-01,-3.757488727569580078e-01,-2.193041443824768066e-01,-9.072556346654891968e-02,-1.664623320102691650e-01,3.917131125926971436e-01,-5.227113366127014160e-01,6.986854076385498047e-01,5.040528774261474609e-01,4.402501583099365234e-01,1.288819164037704468e-01,-3.557093441486358643e-01,-2.886434495449066162e-01,5.256872177124023438e-01,5.697921514511108398e-01,1.098890900611877441e-01,7.958063483238220215e-01,-2.507743239402770996e-01,-5.515810251235961914e-01,3.472861368209123611e-03,-2.248714715242385864e-01,-8.535860106348991394e-03,-2.016941010951995850e-01,1.084091886878013611e-01,2.087238878011703491e-01,-2.359252125024795532e-01,4.905827343463897705e-01,1.402843445539474487e-01,-7.954661250114440918e-01,4.890822768211364746e-01,-3.339425325393676758e-01,-2.904391586780548096e-01
-5.877496600151062012e-01,-6.463886499404907227e-01,8.954885601997375488e-02,-4.147964417934417725e-01,1.369572877883911133e-01,3.517651259899139404e-01,-4.096130430698394775e-01,3.176519274711608887e-01,2.403164505958557129e-01,5.172111392021179199e-01,-2.432285994291305542e-01,-4.319370388984680176e-01,1.558106690645217896e-01,4.764511287212371826e-01,2.628686428070068359e-01,7.682395726442337036e-02,7.075655460357666016e-01,-6.569193676114082336e-03,-7.159345149993896484e-01,-1.259805709123611450e-01,-6.047940850257873535e-01,-1.078851893544197083e-01,-9.884565323591232300e-02,-1.193412542343139648e-01,-3.707874715328216553e-01,-7.855547219514846802e-02,1.146314978599548340e+00,3.393426835536956787e-01,-5.042676329612731934e-01,5.731139183044433594e-01,-5.442170500755310059e-01,-5.566798448562622070e-01
-9.288110733032226562e-01,-2.502973675727844238e-01,3.774756789207458496e-01,-5.012000799179077148e-01,3.198341131210327148e-01,2.071457058191299438e-01,-1.931418776512145996e-01,2.120330333709716797e-01,2.249373644590377808e-01,3.824437558650970459e-01,-5.224336981773376465e-01,-3.584514260292053223e-01,1.297784149646759033e-01,5.143321752548217773e-01,3.664435446262359619e-01,-3.842080011963844299e-02,8.956539630889892578e-01,1.486160159111022949e-01,-6.360749602317810059e-01,-5.631858110427856445e-02,-8.491150736808776855e-01,-2.870443761348724365e-01,-1.094968169927597046e-01,-8.609242737293243408e-02,-4.092555344104766846e-01,7.126847654581069946e-02,9.822288155555725098e-01,1.000211834907531738e-01,-2.621802091598510742e-01,8.806096315383911133e-01,-8.996202945709228516e-01,-7.221129536628723145e-01
-7.403487563133239746e-01,-5.506885237991809845e-03,3.094362318515777588e-01,-5.065162777900695801e-01,3.761537671089172363e-01,1.701756864786148071e-01,-1.991483941674232483e-02,-1.069981977343559265e-01,-8.679231256246566772e-02,1.821938753128051758e-01,-4.096605777740478516e-01,-5.436098575592041016e-02,4.389465153217315674e-01,1.384177803993225098e-01,1.587493866682052612e-01,-1.755729615688323975e-01,5.051224827766418457e-01,2.017781436443328857e-01,-5.346522331237792969e-01,-1.744552105665206909e-01,-5.757440924644470215e-01,-3.397179245948791504e-01,1.101513653993606567e-01,1.953569054603576660e-01,-5.175859928131103516e-01,4.888044893741607666e-01,9.244011044502258301e-01,-1.517021954059600830e-01,-1.005067583173513412e-02,6.064153909683227539e-01,-1.001682877540588379e+00,-6.385682225227355957e-01
-6.046966314315795898e-01,6.191616412252187729e-03,1.830442845821380615e-01,-2.889088094234466553e-01,5.748552680015563965e-01,2.843083627521991730e-02,1.981304138898849487e-01,-2.778935730457305908e-01,-5.003822445869445801e-01,-1.749945282936096191e-01,-8.702474832534790039e-01,-2.293448597192764282e-01,7.276294380426406860e-02,2.390390336513519287e-01,-1.894435845315456390e-02,-2.214807868003845215e-01,8.227463811635971069e-02,6.891885995864868164e-01,-7.541515231132507324e-01,-2.505269944667816162e-01,-3.627156615257263184e-01,-7.887137681245803833e-02,1.248294860124588013e-02,-1.094598546624183655e-01,-1.146646123379468918e-02,6.939222812652587891e-01,7.416421771049499512e-01,-4.724595695734024048e-03,5.590272322297096252e-02,2.356832772493362427e-01,-7.020181417465209961e-01,-4.754425585269927979e-01
-1.614238023757934570e-01,1.212432906031608582e-01,1.890798062086105347e-01,-6.639875173568725586e-01,5.384756922721862793e-01,-1.872729957103729248e-01,6.528388857841491699e-01,-1.852509975433349609e-01,-5.763531327247619629e-01,-1.812464296817779541e-01,-9.219405055046081543e-01,-3.896754235029220581e-02,-4.237099364399909973e-02,-3.414037404581904411e-03,-1.152135059237480164e-02,-3.043791651725769043e-01,-3.487251996994018555e-01,6.284841895103454590e-01,-7.839363813400268555e-01,3.971455991268157959e-02,-3.272612392902374268e-01,-4.686168134212493896e-01,3.966609835624694824e-01,-3.945932686328887939e-01,3.366622328758239746e-01,9.705791473388671875e-01,7.560508251190185547e-01,-8.808815479278564453e-02,1.968602091073989868e-01,-1.530150324106216431e-01,-4.874751269817352295e-01,-4.847974181175231934e-01
3.277469277381896973e-01,1.594255864620208740e-01,2.285495251417160034e-01,-6.702020168304443359e-01,4.949057474732398987e-02,-1.348542571067810059e-01,8.370199799537658691e-01,-2.560682892799377441e-01,-5.586927533149719238e-01,-3.903203308582305908e-01,-7.749832272529602051e-01,-5.399588495492935181e-02,-1.425682306289672852e-01,-6.224216148257255554e-02,-8.464978635311126709e-02,-2.759262919425964355e-01,-5.605648159980773926e-01,4.291743040084838867e-01,-5.793414115905761719e-01,1.278908103704452515e-01,2.752242144197225571e-03,-6.670045256614685059e-01,4.365125894546508789e-01,-8.053738474845886230e-01,3.298914432525634766e-01,8.197469115257263184e-01,5.274648070335388184e-01,-2.388740330934524536e-01,3.785795271396636963e-01,-2.867441475391387939e-01,-2.314925938844680786e-01,-3.075512647628784180e-01
1.801217794418334961e-01,4.335452616214752197e-01,7.182527333498001099e-02,-4.592700302600860596e-01,-7.873709499835968018e-02,-3.239670395851135254e-01,8.322033882141113281e-01,-7.078807353973388672e-01,-4.798500239849090576e-01,-4.581256806850433350e-01,-7.192579507827758789e-01,2.959254980087280273e-01,-1.724869310855865479e-01,-3.506901562213897705e-01,-2.785086035728454590e-01,-1.697272509336471558e-01,-6.222370266914367676e-01,2.055754810571670532e-01,-3.595823049545288086e-02,2.198562771081924438e-01,3.139588534832000732e-01,-6.169142127037048340e-01,3.132818341255187988e-01,-1.097953438758850098e+00,3.301472067832946777e-01,7.056362628936767578e-01,4.134248495101928711e-01,-9.896446019411087036e-02,3.549860119819641113e-01,-4.477020800113677979e-01,8.153789490461349487e-02,3.610838577151298523e-02
9.551821649074554443e-02,5.551075339317321777e-01,-2.797743380069732666e-01,-1.420903485268354416e-02,-1.658446192741394043e-01,-6.733062267303466797e-01,6.563880443572998047e-01,-6.318219900131225586e-01,-5.148115158081054688e-01,-5.303716659545898438e-01,-8.223419189453125000e-01,6.990685462951660156e-01,-2.832850217819213867e-01,-6.160309910774230957e-01,-1.528914570808410645e-01,-4.052389860153198242e-01,-3.923487067222595215e-01,1.693098098039627075e-01,2.950052022933959961e-01,1.218543201684951782e-01,2.053858637809753418e-01,-7.928320169448852539e-01,-1.254570670425891876e-02,-9.881493449211120605e-01,3.622808754444122314e-01,4.415292143821716309e-01,2.492584735155105591e-01,-1.544818729162216187e-01,5.922541618347167969e-01,-4.063532054424285889e-01,2.148665189743041992e-01,2.263443619012832642e-01
1.373055577278137207e-01,7.901195287704467773e-01,-5.101920962333679199e-01,2.306604683399200439e-01,-1.404689550399780273e-01,-5.421764850616455078e-01,4.429892599582672119e-01,-4.055766463279724121e-01,-4.114570617675781250e-01,-3.370580673217773438e-01,-4.628955721855163574e-01,5.272453427314758301e-01,-4.241890609264373779e-01,-7.600213289260864258e-01,2.829447686672210693e-01,-2.329635322093963623e-01,2.812172472476959229e-02,-4.287184029817581177e-02,4.877007007598876953e-01,-3.039738833904266357e-01,2.652635872364044189e-01,-1.803728491067886353e-01,-2.938076853752136230e-01,-1.046912193298339844e+00,9.117363393306732178e-02,2.357402257621288300e-02,-1.761902570724487305e-01,-7.941241562366485596e-02,5.650203227996826172e-01,-6.990398466587066650e-02,3.062441349029541016e-01,1.619490832090377808e-01
3.090047836303710938e-01,8.880661129951477051e-01,-7.387237548828125000e-01,4.393870234489440918e-01,-8.341898024082183838e-02,-2.839604020118713379e-01,4.092123210430145264e-01,-4.096533730626106262e-02,-4.048509597778320312e-01,-4.016619622707366943e-01,-2.112541534006595612e-02,5.046349763870239258e-01,-3.972580432891845703e-01,-6.615865230560302734e-01,2.723241150379180908e-01,-7.824142812751233578e-04,1.285159438848495483e-01,-1.430037915706634521e-01,4.055742621421813965e-01,-5.417726039886474609e-01,5.285707116127014160e-01,5.410041287541389465e-02,-3.332159221172332764e-01,-6.419267058372497559e-01,2.192179560661315918e-01,1.483215391635894775e-01,-1.492486596107482910e-01,9.978514909744262695e-02,5.596150159835815430e-01,2.447240203619003296e-01,3.940508067607879639e-01,4.561418592929840088e-01
3.482302278280258179e-02,5.887995362281799316e-01,-7.894988656044006348e-01,3.736968040466308594e-01,-2.394128963351249695e-02,-2.020192444324493408e-01,1.682951152324676514e-01,-1.254619956016540527e-01,-2.164355851709842682e-02,5.159891210496425629e-03,-4.158469662070274353e-02,5.240428447723388672e-01,-9.495480358600616455e-02,-1.452845335006713867e-01,3.640683591365814209e-01,4.474248886108398438e-01,-2.063298970460891724e-02,-3.044737279415130615e-01,3.907937705516815186e-01,-3.779874742031097412e-01,5.157032012939453125e-01,6.305516362190246582e-01,-5.724401473999023438e-01,-7.380113750696182251e-02,-6.458438932895660400e-02,2.208254933357238770e-01,-3.179121389985084534e-02,5.910281538963317871e-01,1.858828365802764893e-01,8.175621926784515381e-02,2.235604822635650635e-01,4.442306160926818848e-01
-1.484775692224502563e-01,2.109461650252342224e-02,-6.482284665107727051e-01,3.705081045627593994e-01,2.443291395902633667e-01,2.978998720645904541e-01,1.150515750050544739e-01,4.499647393822669983e-02,1.835308782756328583e-02,1.351377815008163452e-01,7.199644297361373901e-02,2.190693765878677368e-01,-1.399979293346405029e-01,3.062208555638790131e-02,5.640574097633361816e-01,8.085463047027587891e-01,-1.161987036466598511e-01,-1.815601736307144165e-01,1.636649668216705322e-01,-7.204091548919677734e-01,3.487538993358612061e-01,8.256683349609375000e-01,-4.303143024444580078e-01,-1.400002092123031616e-01,4.535022750496864319e-02,2.162960618734359741e-01,5.887366533279418945e-01,1.021926641464233398e+00,1.281622797250747681e-01,3.430158793926239014e-01,3.451697528362274170e-01,2.006683647632598877e-01
-2.163733839988708496e-01,-3.288621306419372559e-01,-1.487950533628463745e-01,-1.759701967239379883e-01,5.519304424524307251e-02,6.251968741416931152e-01,1.779219508171081543e-01,1.167829334735870361e-01,3.511361181735992432e-01,6.128152608871459961e-01,2.453795671463012695e-01,3.973336890339851379e-02,1.374375727027654648e-02,5.261129736900329590e-01,3.985189497470855713e-01,9.209626913070678711e-01,1.555867940187454224e-01,-1.968199610710144043e-01,3.119085431098937988e-01,-7.693622708320617676e-01,1.704310812056064606e-02,5.723691582679748535e-01,-1.707620173692703247e-01,1.005301550030708313e-01,3.965826239436864853e-03,-3.420259803533554077e-02,6.703870892524719238e-01,9.742131233215332031e-01,9.928560256958007812e-02,6.082934141159057617e-01,-2.652302756905555725e-02,-1.322986930608749390e-01
-4.650731980800628662e-01,-3.454490602016448975e-01,8.302070945501327515e-02,-1.914415806531906128e-01,3.216235339641571045e-01,3.593752086162567139e-01,-1.659840792417526245e-01,-5.645051226019859314e-02,2.977446913719177246e-01,2.889689803123474121e-01,-1.368720829486846924e-02,1.348849684000015259e-01,2.690417766571044922e-01,5.915127396583557129e-01,2.582811713218688965e-01,7.562986612319946289e-01,2.912966012954711914e-01,-1.314702779054641724e-01,2.652541995048522949e-01,-1.038936018943786621e+00,6.784451007843017578e-02,7.010674476623535156e-01,-1.239881590008735657e-01,1.973323225975036621e-01,-2.939912378787994385e-01,6.744035333395004272e-02,4.093852043151855469e-01,9.313991665840148926e-01,3.979669809341430664e-01,7.192918658256530762e-01,-2.842392623424530029e-01,-3.742472231388092041e-01
-8.135534524917602539e-01,-4.289416670799255371e-01,-1.751349121332168579e-01,-6.212116405367851257e-02,4.840669631958007812e-01,3.344014585018157959e-01,-2.501611411571502686e-01,-3.513533174991607666e-01,2.820795774459838867e-01,2.948639392852783203e-01,-2.467098981142044067e-01,1.658179908990859985e-01,2.826006412506103516e-01,4.500111043453216553e-01,1.025078371167182922e-01,3.368547856807708740e-01,2.869121432304382324e-01,3.139971056953072548e-03,-1.107037533074617386e-02,-9.962843656539916992e-01,5.939281359314918518e-02,4.829541146755218506e-01,2.245662063360214233e-01,2.555129826068878174e-01,-4.142496883869171143e-01,2.248217612504959106e-01,4.051509499549865723e-01,7.099339365959167480e-01,4.680052995681762695e-01,8.662758469581604004e-01,-5.036857128143310547e-01,-5.731669068336486816e-01
-7.359653711318969727e-01,-3.332741856575012207e-01,-4.124200344085693359e-02,-6.238863468170166016e-01,2.744567096233367920e-01,2.090547531843185425e-01,-3.298069536685943604e-02,-2.770083844661712646e-01,-5.392848700284957886e-02,3.177798911929130554e-02,-1.968297921121120453e-02,4.154243469238281250e-01,1.414740830659866333e-01,5.431380271911621094e-01,3.639559820294380188e-02,2.504563331604003906e-01,3.874065577983856201e-01,5.737044215202331543e-01,-3.023596405982971191e-01,-7.392147183418273926e-01,-2.548759430646896362e-02,5.453082323074340820e-01,2.554785609245300293e-01,3.908934593200683594e-01,-3.450119197368621826e-01,3.111593127250671387e-01,6.259326636791229248e-02,4.577398896217346191e-01,8.484190702438354492e-01,4.143529534339904785e-01,-6.499339342117309570e-01,-8.968043923377990723e-01
-6.054356098175048828e-01,-2.124138176441192627e-01,5.936538800597190857e-02,-6.968172192573547363e-01,2.143768817186355591e-01,8.284068107604980469e-02,2.509298920631408691e-01,-2.492410540580749512e-01,-1.459441781044006348e-01,1.019577234983444214e-01,-2.898011505603790283e-01,3.302408158779144287e-01,-1.597977876663208008e-01,4.789884686470031738e-01,-5.457802116870880127e-02,2.401751726865768433e-01,1.047109141945838928e-01,1.007321476936340332e+00,-5.213861465454101562e-01,-5.786887407302856445e-01,1.288388520479202271e-01,2.941647171974182129e-01,5.622944831848144531e-01,2.919474244117736816e-01,2.168079465627670288e-01,5.358453392982482910e-01,1.001940146088600159e-01,3.469029963016510010e-01,6.206579804420471191e-01,1.647363752126693726e-01,-4.977484941482543945e-01,-3.768709301948547363e-01
-1.652011573314666748e-01,-5.600720047950744629e-01,-3.390232026576995850e-01,-8.370381593704223633e-01,-8.494041115045547485e-02,-6.712090969085693359e-02,5.519963502883911133e-01,-1.902336031198501587e-01,-3.227381110191345215e-01,-6.918782740831375122e-02,-5.476360917091369629e-01,3.079268336296081543e-01,-3.905451297760009766e-01,5.617493987083435059e-01,4.034297168254852295e-02,1.543034240603446960e-02,-3.041371107101440430e-01,9.897297620773315430e-01,-6.750705838203430176e-01,-2.188276946544647217e-01,6.012629270553588867e-01,2.352190613746643066e-01,6.521279811859130859e-01,3.413401842117309570e-01,3.218509256839752197e-01,6.784586310386657715e-01,6.641659140586853027e-02,1.139494180679321289e-01,6.301769614219665527e-01,8.007836341857910156e-02,-2.966409921646118164e-01,-4.971857666969299316e-01
-2.129577100276947021e-01,-4.980107247829437256e-01,-3.171174600720405579e-02,-6.545703411102294922e-01,-9.268642403185367584e-03,-3.651658892631530762e-01,1.793823689222335815e-01,-2.232220172882080078e-01,9.179171174764633179e-02,2.499143034219741821e-01,-4.426390528678894043e-01,4.445689618587493896e-01,-5.188751220703125000e-01,7.203925848007202148e-01,-1.035076528787612915e-01,-2.787441611289978027e-01,-5.717446804046630859e-01,9.618785381317138672e-01,-3.863689601421356201e-01,2.129369974136352539e-01,5.655905604362487793e-01,-3.289931640028953552e-02,9.353844523429870605e-01,4.182074218988418579e-02,3.147428631782531738e-01,5.633279085159301758e-01,-9.074576944112777710e-02,1.755013614892959595e-01,5.204920768737792969e-01,-4.319590032100677490e-01,-9.415847063064575195e-02,-4.876889288425445557e-01
1.681468784809112549e-01,-3.709006309509277344e-01,-1.852563470602035522e-01,-8.290729522705078125e-01,-4.297033250331878662e-01,-6.489662528038024902e-01,2.646012604236602783e-01,-4.064300954341888428e-01,2.215851396322250366e-01,3.082298040390014648e-01,-5.139297246932983398e-01,5.847904086112976074e-01,-7.685833573341369629e-01,5.058302879333496094e-01,7.944251596927642822e-02,-3.075357675552368164e-01,-3.196790218353271484e-01,8.120955824851989746e-01,1.110748853534460068e-04,2.181762009859085083e-01,2.477038204669952393e-01,-4.569240510463714600e-01,9.004032015800476074e-01,-4.014924168586730957e-01,1.541691571474075317e-01,4.234235286712646484e-01,-1.301748305559158325e-01,-2.126078307628631592e-01,5.713598132133483887e-01,-3.539488315582275391e-01,1.350712627172470093e-01,-4.630220234394073486e-01
-8.286919444799423218e-02,7.330154627561569214e-02,-2.388857305049896240e-01,-4.774489998817443848e-01,-4.394719600677490234e-01,-8.678947687149047852e-01,1.924620717763900757e-01,-1.784958988428115845e-01,5.202620029449462891e-01,9.087855368852615356e-02,-9.261619299650192261e-02,4.729881286621093750e-01,-9.001851677894592285e-01,7.002145797014236450e-02,1.496969908475875854e-01,-6.386163234710693359e-01,-1.079644039273262024e-01,6.533837914466857910e-01,2.282510250806808472e-01,9.700705111026763916e-02,4.278326928615570068e-01,-4.346036016941070557e-01,4.742724001407623291e-01,-2.992272078990936279e-01,1.796569079160690308e-01,5.786772817373275757e-02,-2.959903478622436523e-01,-2.482482194900512695e-01,6.366319656372070312e-01,-1.459421664476394653e-01,-6.822029594331979752e-03,-1.798706799745559692e-01
-2.713778913021087646e-01,-2.678383700549602509e-02,-3.027243614196777344e-01,-6.417040526866912842e-02,-2.880447506904602051e-01,-9.858494997024536133e-01,-1.867956966161727905e-01,-8.678709715604782104e-02,2.789907455444335938e-01,2.151686251163482666e-01,-1.391841471195220947e-01,6.085231900215148926e-01,-7.922514081001281738e-01,-7.702738046646118164e-02,4.889246821403503418e-01,-4.151637852191925049e-01,8.826903253793716431e-02,5.458044409751892090e-01,3.271828591823577881e-01,2.103308141231536865e-01,4.536691009998321533e-01,-1.315148919820785522e-01,3.128535449504852295e-01,-2.434326708316802979e-01,-1.848839223384857178e-01,9.340316057205200195e-02,-2.904239594936370850e-01,-3.988087475299835205e-01,3.451004326343536377e-01,-3.251588940620422363e-01,2.042792551219463348e-02,2.344699800014495850e-01
-3.271329700946807861e-01,-1.553454697132110596e-01,-3.100546896457672119e-01,9.802941232919692993e-02,-9.069570899009704590e-02,-8.282506465911865234e-01,-5.010673999786376953e-01,3.941636085510253906e-01,3.937185108661651611e-01,4.948280453681945801e-01,3.371319174766540527e-01,4.604735374450683594e-01,-7.232265472412109375e-01,-1.734379120171070099e-02,7.688068747520446777e-01,-1.538059413433074951e-01,-4.302209243178367615e-02,4.283551275730133057e-01,2.003973424434661865e-01,-1.309820115566253662e-01,4.939467310905456543e-01,7.958267629146575928e-02,1.989296376705169678e-01,-1.260787434875965118e-02,-1.730500906705856323e-01,5.335438251495361328e-02,-3.195105493068695068e-01,-3.023790121078491211e-01,-1.459603756666183472e-01,-1.634303927421569824e-01,8.687137067317962646e-02,4.591194391250610352e-01
-3.642139136791229248e-01,-2.153956741094589233e-01,-1.307599842548370361e-01,1.241336017847061157e-01,2.560440897941589355e-01,-5.062108039855957031e-01,-2.897915616631507874e-02,2.825118303298950195e-01,5.853836536407470703e-01,5.876035094261169434e-01,4.778631329536437988e-01,-1.220073029398918152e-01,-9.355115890502929688e-01,2.823489308357238770e-01,8.805406093597412109e-01,4.968005120754241943e-01,1.470698416233062744e-01,3.609954416751861572e-01,2.179442793130874634e-01,-1.676466166973114014e-01,2.602530717849731445e-01,4.948492944240570068e-01,1.142280995845794678e-01,3.329225480556488037e-01,-4.059717655181884766e-01,9.317799657583236694e-02,1.413431614637374878e-01,-3.600702434778213501e-02,-2.577145099639892578e-01,-3.432032465934753418e-01,7.107669860124588013e-02,6.123296022415161133e-01
-3.479796648025512695e-01,-5.979719161987304688e-01,1.076646447181701660e-01,-2.991279773414134979e-02,4.912848174571990967e-01,-2.814396321773529053e-01,-2.944830060005187988e-01,2.394854724407196045e-01,7.248303890228271484e-01,7.141074538230895996e-01,1.472939699888229370e-01,-5.517847537994384766e-01,-5.498273968696594238e-01,4.196673929691314697e-01,7.099520564079284668e-01,4.693626165390014648e-01,-1.808392070233821869e-02,-1.527653336524963379e-01,1.708595156669616699e-01,-1.527118831872940063e-01,5.956628546118736267e-02,3.729823827743530273e-01,-8.581455796957015991e-02,4.160316288471221924e-01,-4.083741605281829834e-01,2.617265284061431885e-01,3.195004463195800781e-01,3.523441255092620850e-01,-6.100662350654602051e-01,-2.669741213321685791e-01,1.707940101623535156e-01,5.002978444099426270e-01
-4.812644422054290771e-01,-7.758259177207946777e-01,3.863382041454315186e-01,-5.650966614484786987e-02,5.050410032272338867e-01,-2.175384312868118286e-01,-5.864465236663818359e-01,-1.708977371454238892e-01,8.343734145164489746e-01,7.331472039222717285e-01,-1.325999051332473755e-01,-3.925458192825317383e-01,-1.165899485349655151e-01,6.745215654373168945e-01,3.446079492568969727e-01,5.906780362129211426e-01,-2.034013569355010986e-01,-3.123618848621845245e-02,2.070126682519912720e-01,-3.389979004859924316e-01,-4.157223999500274658e-01,6.138484477996826172e-01,4.718324542045593262e-02,1.477187126874923706e-01,-8.682780861854553223e-01,3.892935812473297119e-01,6.574892997741699219e-01,6.244140267372131348e-01,-4.478904902935028076e-01,-2.621268630027770996e-01,1.843924522399902344e-01,9.048054926097393036e-03
-7.581307291984558105e-01,-5.436846017837524414e-01,8.099272847175598145e-01,-1.686454862356185913e-01,4.716275930404663086e-01,-3.658817410469055176e-01,-2.728318870067596436e-01,-4.304727017879486084e-01,4.877697825431823730e-01,5.765732526779174805e-01,-2.170858383178710938e-01,-6.071272492408752441e-01,1.105468422174453735e-01,6.375728845596313477e-01,-1.009564250707626343e-01,5.024707317352294922e-01,2.779924310743808746e-02,-2.023084163665771484e-01,2.546503245830535889e-01,-6.311302781105041504e-01,-7.935975790023803711e-01,4.981262683868408203e-01,1.258804351091384888e-01,1.320009380578994751e-01,-1.006752133369445801e+00,3.056014180183410645e-01,5.982245802879333496e-01,5.886632800102233887e-01,-3.061272203922271729e-01,7.798133045434951782e-02,7.293318212032318115e-02,-1.727995723485946655e-01
-4.958285987377166748e-01,-2.926619648933410645e-01,8.697463870048522949e-01,-2.438273876905441284e-01,5.957763195037841797e-01,-3.176431953907012939e-01,-2.553839683532714844e-01,-4.959872663021087646e-01,3.875034749507904053e-01,2.134626060724258423e-01,-2.089430540800094604e-01,-4.409349262714385986e-01,6.749283671379089355e-01,3.320979773998260498e-01,-1.757788062095642090e-01,3.949941098690032959e-01,-3.709028065204620361e-01,6.470017135143280029e-02,2.982013225555419922e-01,-8.227013945579528809e-01,-6.748138666152954102e-01,1.889975666999816895e-01,-5.076507106423377991e-02,8.218839764595031738e-02,-9.853987693786621094e-01,4.783342182636260986e-01,4.849698841571807861e-01,2.834147214889526367e-01,1.257941275835037231e-01,-3.282369673252105713e-02,-4.422053992748260498e-01,-9.268378838896751404e-03
-1.293782740831375122e-01,-3.431409299373626709e-01,6.217339634895324707e-01,-9.840940684080123901e-02,7.512860298156738281e-01,-5.717257261276245117e-01,2.465393841266632080e-01,-6.775664687156677246e-01,-1.589740812778472900e-01,2.538225241005420685e-02,-3.983758985996246338e-01,-4.711995720863342285e-01,5.545318722724914551e-01,1.437945514917373657e-01,-4.093631505966186523e-01,3.407760858535766602e-01,-2.765410840511322021e-01,2.112255692481994629e-01,1.166150532662868500e-02,-7.250716090202331543e-01,-4.621016681194305420e-01,6.403763294219970703e-01,-1.368226408958435059e-01,4.062701761722564697e-01,-7.833942770957946777e-01,7.838776707649230957e-01,8.576578460633754730e-03,5.106134712696075439e-02,5.249605774879455566e-01,-3.295382559299468994e-01,1.462085917592048645e-02,1.384856849908828735e-01
-1.647936403751373291e-01,-2.447851747274398804e-01,5.040699243545532227e-01,-1.193874236196279526e-02,6.280875802040100098e-01,-3.577455580234527588e-01,3.833154141902923584e-01,-6.602146625518798828e-01,-4.770177006721496582e-01,-1.567813605070114136e-01,-2.440004944801330566e-01,-1.956361234188079834e-01,1.492057889699935913e-01,9.215483069419860840e-02,-4.413725733757019043e-01,2.145553678274154663e-01,-6.816251277923583984e-01,4.053869843482971191e-01,-5.663994699716567993e-03,-3.936010897159576416e-01,-9.479893743991851807e-02,5.938634276390075684e-01,3.722501695156097412e-01,2.913124263286590576e-01,-3.332753777503967285e-01,8.430042862892150879e-01,-1.949207973666489124e-03,1.241789683699607849e-01,4.341833591461181641e-01,-5.798881053924560547e-01,6.828635931015014648e-02,1.191653981804847717e-01
4.603531956672668457e-01,-1.445168554782867432e-01,5.145720839500427246e-01,-1.307197213172912598e-01,1.684960722923278809e-01,-2.502014935016632080e-01,7.846339344978332520e-01,-5.811551213264465332e-01,-3.545100390911102295e-01,-4.053263068199157715e-01,-2.603732943534851074e-01,-3.104520440101623535e-01,1.511410772800445557e-01,3.182286769151687622e-02,-5.443785190582275391e-01,4.537163674831390381e-01,-1.011620283126831055e+00,5.667287111282348633e-01,1.611054986715316772e-01,-2.893490903079509735e-02,4.306240379810333252e-02,2.641716599464416504e-01,5.933912992477416992e-01,-6.822040677070617676e-02,5.477303639054298401e-03,9.315135478973388672e-01,1.477867364883422852e-01,1.892062872648239136e-01,4.469994902610778809e-01,-7.586569190025329590e-01,3.984422981739044189e-01,1.450388878583908081e-01
6.174143552780151367e-01,-1.033153161406517029e-01,4.910097718238830566e-01,-2.364107780158519745e-02,9.051383472979068756e-03,-3.215489983558654785e-01,5.117705464363098145e-01,-6.701849102973937988e-01,-3.012742996215820312e-01,-3.917795419692993164e-01,-3.656591773033142090e-01,-5.204326286911964417e-02,1.705590933561325073e-01,3.321813046932220459e-02,-7.867620587348937988e-01,-8.552180975675582886e-02,-1.099139094352722168e+00,2.511078715324401855e-01,3.554894924163818359e-01,7.144825905561447144e-02,3.394069969654083252e-01,6.113098934292793274e-02,5.007986426353454590e-01,-5.785690248012542725e-02,9.252669662237167358e-02,5.456919074058532715e-01,-3.382133245468139648e-01,1.050480827689170837e-01,5.976855754852294922e-01,-8.755494952201843262e-01,6.025710105895996094e-01,3.282745778560638428e-01
7.464769482612609863e-01,3.205529153347015381e-01,1.712528318166732788e-01,3.078044652938842773e-01,-6.378530263900756836e-01,-5.851722955703735352e-01,4.524323642253875732e-01,-6.911303400993347168e-01,-1.894812583923339844e-01,-5.541749000549316406e-01,-2.381626963615417480e-01,1.991290599107742310e-01,1.248848885297775269e-01,-2.176893800497055054e-01,-7.403742671012878418e-01,-9.235203266143798828e-02,-9.267113804817199707e-01,-1.392840221524238586e-02,6.745553016662597656e-01,2.224068492650985718e-01,2.721287310123443604e-01,4.052440635859966278e-03,2.405088692903518677e-01,-2.941376864910125732e-01,1.191943585872650146e-01,3.845852017402648926e-01,-4.982556998729705811e-01,-1.100539863109588623e-01,6.267343163490295410e-01,-8.382095098495483398e-01,7.302235364913940430e-01,3.038730621337890625e-01
5.747359991073608398e-01,6.256896257400512695e-01,-8.211885392665863037e-02,3.539810180664062500e-01,-3.942268192768096924e-01,-5.843738913536071777e-01,-1.258167475461959839e-01,-5.310961604118347168e-01,-1.127799823880195618e-01,-3.232792615890502930e-01,1.052975729107856750e-01,6.740788221359252930e-01,-1.088065560907125473e-02,-3.203302919864654541e-01,-4.865008294582366943e-01,-2.515130937099456787e-01,-6.193519234657287598e-01,1.283383518457412720e-01,8.258167505264282227e-01,1.848520785570144653e-01,3.213879764080047607e-01,1.205673366785049438e-01,-8.644568920135498047e-02,-3.082599043846130371e-01,6.798990070819854736e-02,-1.557929664850234985e-01,-8.873466849327087402e-01,-1.049177497625350952e-01,4.199878275394439697e-01,-4.040597379207611084e-01,7.770268321037292480e-01,2.902928888797760010e-01
6.946046352386474609e-01,4.769819974899291992e-01,-3.306885957717895508e-01,6.148759722709655762e-01,-6.636950373649597168e-01,-4.593626856803894043e-01,-2.205733209848403931e-01,-7.677575945854187012e-02,4.309885203838348389e-03,-3.661214113235473633e-01,5.078040361404418945e-01,4.010571837425231934e-01,-1.199256554245948792e-01,-3.366719782352447510e-01,-1.877109557390213013e-01,-1.233073696494102478e-01,-2.002865970134735107e-01,-1.003395393490791321e-02,6.906889081001281738e-01,-2.545433677732944489e-02,2.665647566318511963e-01,9.378305077552795410e-02,-1.218323633074760437e-01,2.957234531641006470e-02,8.819746226072311401e-02,-2.754226028919219971e-01,-1.025008320808410645e+00,-1.075578853487968445e-01,1.331198662519454956e-01,-1.047935411334037781e-01,6.584629416465759277e-01,3.628643155097961426e-01
6.348611116409301758e-01,2.888528108596801758e-01,-4.823788404464721680e-01,6.987010240554809570e-01,-4.362575709819793701e-01,-2.899697721004486084e-01,-3.899856805801391602e-01,3.441301584243774414e-01,9.028675034642219543e-03,-3.064368367195129395e-01,7.441405653953552246e-01,1.069044023752212524e-01,-1.310153454542160034e-01,-1.928584724664688110e-01,2.105548977851867676e-02,7.493805885314941406e-02,4.223150759935379028e-02,-2.828765809535980225e-01,6.265719532966613770e-01,-1.763416826725006104e-01,3.329249024391174316e-01,5.949674248695373535e-01,-4.183679521083831787e-01,3.475570082664489746e-01,3.037299215793609619e-01,-4.301580190658569336e-01,-6.704727411270141602e-01,6.168625131249427795e-02,1.468971520662307739e-01,-1.250159889459609985e-01,6.130132675170898438e-01,6.233314275741577148e-01
1.569373905658721924e-01,-7.339105010032653809e-02,-3.212514817714691162e-01,5.154988169670104980e-01,-3.284345865249633789e-01,-2.688634209334850311e-02,-4.511668682098388672e-01,5.941970348358154297e-01,1.423317939043045044e-01,2.202616482973098755e-01,8.445276618003845215e-01,-4.027353972196578979e-02,-1.612556725740432739e-01,2.762610316276550293e-01,1.536022871732711792e-02,3.132231831550598145e-01,-4.101324453949928284e-02,-4.680910110473632812e-01,5.870761275291442871e-01,8.477824181318283081e-02,4.850950539112091064e-01,5.348097681999206543e-01,-4.970018565654754639e-01,6.377183198928833008e-01,1.513907462358474731e-01,-4.935455024242401123e-01,-3.948594033718109131e-01,3.445445373654365540e-02,-4.058546125888824463e-01,-1.844643205404281616e-01,8.063934445381164551e-01,6.986417770385742188e-01
1.912051439285278320e-01,-3.915001749992370605e-01,5.284976214170455933e-02,3.489134311676025391e-01,-4.238575398921966553e-01,3.636940419673919678e-01,-6.263546943664550781e-01,7.527390122413635254e-01,6.080124378204345703e-01,6.230387091636657715e-01,8.151242733001708984e-01,-3.234266936779022217e-01,-2.201004475355148315e-01,5.667196512222290039e-01,-1.038814038038253784e-01,3.773914873600006104e-01,2.916459441184997559e-01,-2.937703132629394531e-01,3.768844008445739746e-01,8.863575756549835205e-02,-1.183496229350566864e-02,3.804298639297485352e-01,-5.349954962730407715e-02,8.410495519638061523e-01,-1.763815879821777344e-01,-4.328585267066955566e-01,-1.275359988212585449e-01,3.661877810955047607e-01,-6.671815514564514160e-01,2.130806073546409607e-02,4.054204225540161133e-01,1.919042766094207764e-01
-5.210002884268760681e-03,-6.745627522468566895e-01,3.798856437206268311e-01,7.563468068838119507e-02,-2.507160007953643799e-01,3.795725703239440918e-01,-8.253993988037109375e-01,6.246950030326843262e-01,6.949205994606018066e-01,5.202036499977111816e-01,8.224921822547912598e-01,-5.840041041374206543e-01,2.799552083015441895e-01,6.320867538452148438e-01,6.609516590833663940e-02,3.568980991840362549e-01,3.147247433662414551e-01,-2.508887648582458496e-01,3.461917042732238770e-01,-1.691345721483230591e-01,-1.447589993476867676e-01,4.215972125530242920e-01,-1.134647354483604431e-01,6.372932791709899902e-01,-3.484008908271789551e-01,-6.120686531066894531e-01,2.192938029766082764e-01,2.131657749414443970e-01,-6.831246018409729004e-01,9.104771912097930908e-02,2.765730619430541992e-01,5.908295884728431702e-02
-2.256999462842941284e-01,-6.751335263252258301e-01,6.418538093566894531e-01,-1.861190646886825562e-01,-1.952812373638153076e-01,2.628026604652404785e-01,-7.834164500236511230e-01,4.403338730335235596e-01,6.137064695358276367e-01,3.859972357749938965e-01,5.593298077583312988e-01,-6.116979718208312988e-01,5.579270720481872559e-01,5.181024670600891113e-01,-4.102561771869659424e-01,-6.686101108789443970e-02,4.705957174301147461e-01,-1.994633823633193970e-01,2.590076625347137451e-01,-2.742752432823181152e-01,-7.456931471824645996e-01,3.938810825347900391e-01,4.508523643016815186e-02,8.484395146369934082e-01,-4.214452803134918213e-01,-2.807009220123291016e-01,-4.470468685030937195e-02,-8.468826115131378174e-02,-3.179708421230316162e-01,4.067421853542327881e-01,-1.974702030420303345e-01,-1.056974083185195923e-01
-4.480714797973632812e-01,-4.848314523696899414e-01,5.914572477340698242e-01,-1.566135436296463013e-01,-5.775871127843856812e-02,8.274227380752563477e-02,-8.937582373619079590e-01,4.165914282202720642e-02,2.944419682025909424e-01,1.193906441330909729e-01,5.355735421180725098e-01,-3.363265097141265869e-01,4.501363635063171387e-01,4.333340525627136230e-01,-4.797565340995788574e-01,-4.356856644153594971e-01,4.682047665119171143e-01,2.799693048000335693e-01,-2.309466451406478882e-01,-1.200256049633026123e-01,-6.976327896118164062e-01,1.542800515890121460e-01,2.215330898761749268e-01,7.078474760055541992e-01,-4.430021941661834717e-01,-1.595725566148757935e-01,-7.562417536973953247e-02,-1.751303374767303467e-01,-1.492293775081634521e-01,2.617808878421783447e-01,-6.033693552017211914e-01,-4.780072569847106934e-01
-2.469632178544998169e-01,-3.947349190711975098e-01,5.543788075447082520e-01,-2.972007393836975098e-01,8.121601492166519165e-02,1.501010358333587646e-01,-5.133884549140930176e-01,1.570371836423873901e-01,-1.552521884441375732e-01,1.656576395034790039e-01,3.888771831989288330e-01,-3.808331191539764404e-01,5.200348496437072754e-01,4.525317549705505371e-01,-2.931755483150482178e-01,-4.196773469448089600e-01,9.093778580427169800e-02,3.863724172115325928e-01,-3.621485829353332520e-01,8.421517163515090942e-02,-6.598397493362426758e-01,-2.453826516866683960e-01,1.575563848018646240e-01,5.688728094100952148e-01,-2.001450955867767334e-01,1.697784215211868286e-01,9.728474542498588562e-03,-4.992462396621704102e-01,-2.456021010875701904e-01,3.063320517539978027e-01,-6.087161302566528320e-01,-3.715873062610626221e-01
-4.401943460106849670e-02,-1.465454846620559692e-01,4.745190143585205078e-01,-4.839052259922027588e-01,-8.637084066867828369e-02,1.377198845148086548e-02,-1.672007292509078979e-01,7.614929229021072388e-02,-1.291047632694244385e-01,-1.766656935214996338e-01,-7.223324477672576904e-02,-7.373041510581970215e-01,2.073916047811508179e-01,1.734464317560195923e-01,-2.717458307743072510e-01,-3.857919871807098389e-01,-3.647611439228057861e-01,5.131120085716247559e-01,-4.581544697284698486e-01,4.888221919536590576e-01,-3.446476757526397705e-01,-3.639900684356689453e-01,3.407096862792968750e-01,5.162761211395263672e-01,1.708864793181419373e-02,2.087746113538742065e-01,-6.464298069477081299e-02,-6.423328518867492676e-01,-1.515710353851318359e-01,-3.674578368663787842e-01,-4.865587353706359863e-01,1.714149257168173790e-03
3.440483212471008301e-01,-2.105540782213211060e-01,3.922881186008453369e-01,-3.149575591087341309e-01,-4.355237483978271484e-01,-1.528017222881317139e-01,-3.821058571338653564e-02,1.670378893613815308e-01,-3.562165200710296631e-01,-2.803114056587219238e-01,-3.831356763839721680e-01,-5.714389681816101074e-01,1.212776452302932739e-01,-4.771010577678680420e-02,-3.085085749626159668e-01,-7.019043564796447754e-01,-4.587246477603912354e-01,4.558098614215850830e-01,-3.633146584033966064e-01,7.736673355102539062e-01,-3.714918494224548340e-01,-3.878501355648040771e-01,5.388643145561218262e-01,4.773347377777099609e-01,1.914142966270446777e-01,4.849691390991210938e-01,-1.412877738475799561e-01,-6.653164029121398926e-01,-3.897887766361236572e-01,-6.967774033546447754e-01,-5.300638824701309204e-02,1.469886600971221924e-01
3.936204612255096436e-01,-2.042693197727203369e-01,5.396401882171630859e-01,-3.609955310821533203e-01,-6.403566002845764160e-01,-3.389494717121124268e-01,-1.439157873392105103e-01,-7.390754669904708862e-02,-1.097970977425575256e-01,-2.057172954082489014e-01,-4.570037126541137695e-01,-3.628021776676177979e-01,-7.578870654106140137e-02,-2.784021496772766113e-01,-4.951839148998260498e-01,-8.682232499122619629e-01,-4.641653895378112793e-01,3.297165930271148682e-01,-1.635347455739974976e-01,7.322579026222229004e-01,-3.788586258888244629e-01,-7.472570538520812988e-01,5.596584081649780273e-01,-1.821085661649703979e-01,1.657114773988723755e-01,8.048834651708602905e-02,-1.040521543473005295e-02,-8.859839439392089844e-01,-2.204524576663970947e-01,-7.678841352462768555e-01,3.405151963233947754e-01,-2.215123921632766724e-02
5.545657277107238770e-01,1.979117244482040405e-01,4.033312797546386719e-01,-1.808257773518562317e-02,-7.236434221267700195e-01,-5.817388296127319336e-01,-5.105045437812805176e-02,1.101855337619781494e-01,-2.635258734226226807e-01,-3.337504863739013672e-01,-2.754879891872406006e-01,-2.768033742904663086e-01,-6.899495609104633331e-03,-2.092921882867813110e-01,-4.667360782623291016e-01,-7.447438240051269531e-01,-4.206346273422241211e-01,9.389954060316085815e-02,2.556833624839782715e-02,6.707171797752380371e-01,-5.558127164840698242e-01,-8.299161791801452637e-01,1.484884768724441528e-01,-5.094066262245178223e-01,7.206307351589202881e-02,-3.670683801174163818e-01,-1.114452257752418518e-01,-9.398298859596252441e-01,-2.355455905199050903e-01,-6.045531630516052246e-01,3.196165859699249268e-01,3.796922788023948669e-02
4.417309463024139404e-01,5.684764385223388672e-01,2.334524244070053101e-01,4.297168552875518799e-01,-7.319419384002685547e-01,-7.383382916450500488e-01,-2.959096133708953857e-01,1.863531023263931274e-01,4.547294601798057556e-02,-4.348555207252502441e-01,-1.344296038150787354e-01,-1.798466406762599945e-02,1.273977160453796387e-01,-8.463550806045532227e-01,-3.219207525253295898e-01,-7.945631146430969238e-01,3.084834478795528412e-02,-6.901214271783828735e-02,3.976224958896636963e-01,6.761648654937744141e-01,-2.092497348785400391e-01,-8.091696500778198242e-01,-2.083156704902648926e-01,-5.742495059967041016e-01,9.680107235908508301e-02,-1.446934193372726440e-01,-2.456746250391006470e-01,-9.265332818031311035e-01,-2.887275218963623047e-01,-3.781663775444030762e-01,1.475436985492706299e-01,6.132921576499938965e-01
3.993122875690460205e-01,5.063922405242919922e-01,-1.163130849599838257e-01,8.336738348007202148e-01,-4.482126533985137939e-01,-5.885741710662841797e-01,-5.144971609115600586e-01,2.659706771373748779e-01,-2.999151051044464111e-01,-3.727378547191619873e-01,2.538635134696960449e-01,1.489100754261016846e-01,-1.265753656625747681e-01,-8.564238548278808594e-01,-2.544103264808654785e-01,-7.200050354003906250e-01,-3.697634860873222351e-02,-1.310596317052841187e-01,4.761410951614379883e-01,6.688418388366699219e-01,-4.339814484119415283e-01,-5.340229272842407227e-01,-5.689452886581420898e-01,-4.056043922901153564e-01,-3.741750493645668030e-02,-2.638633549213409424e-01,-1.063347607851028442e-02,-8.937082290649414062e-01,-4.828895330429077148e-01,-6.127625703811645508e-01,4.871216714382171631e-01,7.613264918327331543e-01
4.422385394573211670e-01,4.479852318763732910e-01,-6.388007104396820068e-02,9.155791401863098145e-01,-2.763391137123107910e-01,7.743220776319503784e-03,-2.795389592647552490e-01,5.628537535667419434e-01,-1.220988184213638306e-01,-1.514575183391571045e-01,5.422688126564025879e-01,-3.218698799610137939e-01,3.857656195759773254e-02,-5.142776370048522949e-01,2.758577167987823486e-01,-2.222201228141784668e-01,1.912067532539367676e-01,-2.587977647781372070e-01,2.765300869941711426e-01,2.465077191591262817e-01,-2.773131728172302246e-01,-1.427762955427169800e-01,-7.178353071212768555e-01,-3.804764151573181152e-01,-6.645628064870834351e-02,-1.876627951860427856e-01,1.268298774957656860e-01,-2.713759243488311768e-01,-7.214823365211486816e-01,-3.518468141555786133e-01,3.330249488353729248e-01,8.530875444412231445e-01
5.219466090202331543e-01,3.000113368034362793e-01,9.157346934080123901e-02,9.050580859184265137e-01,-2.896775305271148682e-01,7.269361615180969238e-02,-2.954206466674804688e-01,6.686536073684692383e-01,-1.186050772666931152e-01,-1.265294700860977173e-01,3.170418441295623779e-01,-4.544718265533447266e-01,5.157656595110893250e-02,-5.670707821846008301e-01,2.612087130546569824e-01,1.736251860857009888e-01,6.260265409946441650e-02,-6.338471770286560059e-01,4.494927227497100830e-01,2.261015176773071289e-01,-1.238767653703689575e-01,1.239244341850280762e-01,-9.391610026359558105e-01,1.082214564085006714e-01,7.671347260475158691e-02,-2.153907865285873413e-01,1.689309328794479370e-01,-8.943289518356323242e-02,-8.957886099815368652e-01,-3.267527818679809570e-01,3.172142803668975830e-01,9.087886214256286621e-01
2.658475041389465332e-01,2.036842703819274902e-01,5.016458630561828613e-01,5.458147525787353516e-01,-2.424663901329040527e-01,3.814630210399627686e-01,-4.314697682857513428e-01,4.509501159191131592e-01,-7.063341140747070312e-02,1.491726096719503403e-02,6.277181953191757202e-02,-8.622714877128601074e-01,6.080804467201232910e-01,-1.581484675407409668e-01,-7.238911837339401245e-02,3.031146824359893799e-01,-6.223597377538681030e-02,-9.556474089622497559e-01,3.002859354019165039e-01,-1.103910729289054871e-01,-3.841210901737213135e-01,3.057920634746551514e-01,-7.875515222549438477e-01,6.921669840812683105e-02,-2.108570784330368042e-01,-1.633172035217285156e-01,7.480069994926452637e-01,2.421022653579711914e-01,-6.500106453895568848e-01,1.886392012238502502e-02,4.485459029674530029e-01,4.516663551330566406e-01
3.300657868385314941e-01,-3.397133946418762207e-02,3.349051475524902344e-01,3.924335539340972900e-01,-1.299081295728683472e-01,3.687833249568939209e-01,-3.513829708099365234e-01,1.824132800102233887e-01,4.107746854424476624e-02,1.224973499774932861e-01,2.514103949069976807e-01,-5.867254137992858887e-01,7.783823013305664062e-01,1.434323936700820923e-01,-2.769827842712402344e-01,3.236039876937866211e-01,2.984807789325714111e-01,-8.755160570144653320e-01,3.306780457496643066e-01,-2.958972752094268799e-01,-6.096182465553283691e-01,1.658463925123214722e-01,-4.431459903717041016e-01,3.886951133608818054e-02,-4.816244542598724365e-01,-7.280255109071731567e-02,6.085175275802612305e-01,2.253974825143814087e-01,-4.531844854354858398e-01,1.382256299257278442e-01,2.671699225902557373e-01,1.573383063077926636e-01
1.669858465902507305e-03,2.492000609636306763e-01,6.643648147583007812e-01,3.620057106018066406e-01,1.481186691671609879e-02,5.579262375831604004e-01,-3.123484849929809570e-01,5.042105168104171753e-02,-1.705886870622634888e-01,-6.910736858844757080e-02,1.264580786228179932e-01,-5.763606429100036621e-01,1.227327108383178711e+00,1.077264770865440369e-01,-4.560493528842926025e-01,1.282972544431686401e-01,2.351522743701934814e-01,-6.566981673240661621e-01,2.505333423614501953e-01,-7.379492521286010742e-01,-7.325550913810729980e-01,9.785117954015731812e-02,-5.876528620719909668e-01,5.192266404628753662e-02,-4.458054304122924805e-01,-2.126726359128952026e-01,5.531328320503234863e-01,2.987987697124481201e-01,-1.909778565168380737e-01,4.986807405948638916e-01,-1.015444844961166382e-01,-2.334843575954437256e-01
1.027873530983924866e-01,2.283715158700942993e-01,3.525393009185791016e-01,2.241482138633728027e-01,-1.158354803919792175e-01,4.580143392086029053e-01,-1.126464754343032837e-01,1.232887580990791321e-01,-5.122776627540588379e-01,-6.622244119644165039e-01,2.338584139943122864e-02,-2.886156737804412842e-01,1.190348744392395020e+00,-3.177254498004913330e-01,-5.761548280715942383e-01,5.665798112750053406e-02,3.355426490306854248e-01,-4.437687098979949951e-01,-7.244937121868133545e-02,-4.818080067634582520e-01,-7.323775291442871094e-01,1.878465116024017334e-01,-6.730585098266601562e-01,4.028849303722381592e-01,-4.894546046853065491e-02,-4.415301233530044556e-02,1.897570490837097168e-01,1.645500585436820984e-02,1.680101007223129272e-01,5.385904908180236816e-01,-4.304193854331970215e-01,-2.136955261230468750e-01
1.841457039117813110e-01,1.083489209413528442e-01,2.668441236019134521e-01,3.097595870494842529e-01,1.280279308557510376e-01,4.716605544090270996e-01,9.259734302759170532e-02,-2.172247022390365601e-01,-7.940885424613952637e-01,-7.298384904861450195e-01,1.230877935886383057e-01,-2.850548923015594482e-01,9.699938297271728516e-01,-2.837911248207092285e-01,-6.964325904846191406e-01,-2.481583505868911743e-01,-6.908924132585525513e-02,-1.804026514291763306e-01,-5.015947818756103516e-01,-3.461363911628723145e-01,-3.644033968448638916e-01,8.515665680170059204e-02,-3.902560472488403320e-01,3.085498213768005371e-01,2.290236055850982666e-01,2.505072355270385742e-01,9.523647278547286987e-02,1.843843981623649597e-02,1.300080418586730957e-01,3.545185327529907227e-01,-3.720623850822448730e-01,-2.171855270862579346e-01
3.094255626201629639e-01,3.456790745258331299e-01,-9.763716161251068115e-02,4.852018132805824280e-02,-2.418093085289001465e-01,5.547456145286560059e-01,2.397087514400482178e-01,1.869287807494401932e-03,-9.592446684837341309e-01,-7.095789909362792969e-01,8.878525346517562866e-03,-1.156844198703765869e-01,5.215120315551757812e-01,-2.414835244417190552e-01,-6.608999371528625488e-01,-8.347489684820175171e-02,-1.833701282739639282e-01,1.417871266603469849e-01,-5.836443901062011719e-01,1.045831888914108276e-01,-9.537472575902938843e-02,6.105271726846694946e-02,4.028522968292236328e-02,8.265957236289978027e-02,6.118653416633605957e-01,3.056384027004241943e-01,8.936876803636550903e-02,-4.844960942864418030e-02,2.872609198093414307e-01,1.188211888074874878e-01,-2.751207947731018066e-01,-2.640466988086700439e-01
7.688169479370117188e-01,6.049574613571166992e-01,1.225526165217161179e-02,-3.883789852261543274e-02,-4.283283054828643799e-01,4.579120576381683350e-01,4.929870963096618652e-01,1.404996365308761597e-01,-7.991801500320434570e-01,-6.000242233276367188e-01,-2.541013062000274658e-01,1.432464867830276489e-01,3.965199887752532959e-01,-2.473765015602111816e-01,-7.422053217887878418e-01,-1.639247685670852661e-01,-2.400456815958023071e-01,2.540518641471862793e-01,-3.992659151554107666e-01,2.545187473297119141e-01,7.312126457691192627e-02,-3.748599886894226074e-01,2.201785892248153687e-02,1.196305081248283386e-02,6.695267558097839355e-01,-1.356916278600692749e-01,7.743135839700698853e-02,-4.498556628823280334e-02,3.042608797550201416e-01,-8.263490349054336548e-02,-3.283760696649551392e-02,-3.084369897842407227e-01
7.481525540351867676e-01,5.106307864189147949e-01,-2.343726158142089844e-01,-2.157253175973892212e-01,-9.429279565811157227e-01,6.227375939488410950e-02,5.396845936775207520e-01,-2.209193306043744087e-03,-7.657593488693237305e-01,-5.912517905235290527e-01,-1.973546445369720459e-01,2.855429351329803467e-01,2.785550951957702637e-01,-2.346118986606597900e-01,-4.735125303268432617e-01,-6.822450757026672363e-01,-1.872042268514633179e-01,-7.732088677585124969e-03,-1.463011652231216431e-01,7.181487083435058594e-01,1.697152107954025269e-01,-5.978274345397949219e-01,2.518454790115356445e-01,-3.738816380500793457e-01,1.023987889289855957e+00,-1.723944023251533508e-02,-1.042703911662101746e-01,-2.483867108821868896e-01,3.695338666439056396e-01,-3.977807611227035522e-02,-2.126128971576690674e-02,-3.302372694015502930e-01
5.762881636619567871e-01,4.283142089843750000e-01,-6.073592305183410645e-01,-1.539728492498397827e-01,-1.039344906806945801e+00,1.113843023777008057e-01,1.748934835195541382e-01,1.047297045588493347e-01,-4.886887371540069580e-01,-7.759771943092346191e-01,-6.247211992740631104e-02,6.308019161224365234e-01,-1.757663190364837646e-01,-5.750557780265808105e-01,-4.739753901958465576e-01,-9.546347260475158691e-01,6.854911800473928452e-03,-4.272548176231794059e-05,-1.077375560998916626e-01,7.087276577949523926e-01,4.181088805198669434e-01,-6.773076653480529785e-01,-1.209780573844909668e-01,-6.622891426086425781e-01,6.976804733276367188e-01,-2.402845472097396851e-01,-3.700858950614929199e-01,-4.604226648807525635e-01,3.126479685306549072e-01,-3.247437253594398499e-02,5.691934376955032349e-02,-3.551737070083618164e-01
2.069276124238967896e-01,5.263676643371582031e-01,-6.092975139617919922e-01,1.955861747264862061e-01,-1.016422271728515625e+00,6.507169920951128006e-03,-2.159805744886398315e-01,2.010054439306259155e-01,-3.405134975910186768e-01,-6.006115078926086426e-01,2.559661567211151123e-01,9.220567345619201660e-01,-2.997987568378448486e-01,-4.303485751152038574e-01,5.796147882938385010e-02,-7.055316567420959473e-01,5.415632724761962891e-01,3.286768868565559387e-02,-1.377241965383291245e-02,1.114790737628936768e-01,1.801327913999557495e-01,-6.494683027267456055e-01,-2.459381967782974243e-01,-6.423268318176269531e-01,5.704620480537414551e-01,-6.446376442909240723e-01,-2.378734946250915527e-01,-5.380504131317138672e-01,4.846154898405075073e-02,3.690862357616424561e-01,1.859834641218185425e-01,-2.602613866329193115e-01
1.386786103248596191e-01,8.180476427078247070e-01,-7.121834158897399902e-01,2.683431506156921387e-01,-7.666147947311401367e-01,9.397041052579879761e-03,-2.203370481729507446e-01,8.285537362098693848e-01,-1.595813482999801636e-01,-2.777577638626098633e-01,5.792115926742553711e-01,5.754523873329162598e-01,-4.449275732040405273e-01,-5.025440454483032227e-01,4.897231161594390869e-01,-5.786522030830383301e-01,7.958188056945800781e-01,-8.709619939327239990e-02,-3.120834939181804657e-02,2.823877036571502686e-01,2.292767465114593506e-01,-2.788694798946380615e-01,-4.891624450683593750e-01,-2.687130272388458252e-01,5.216702818870544434e-01,-6.748343706130981445e-01,-3.514013290405273438e-01,-4.516588449478149414e-01,-9.228684753179550171e-02,4.226596057415008545e-01,-1.623458415269851685e-01,-1.056222990155220032e-01
4.316133633255958557e-02,3.129196166992187500e-01,-7.511348724365234375e-01,3.543084561824798584e-01,-4.826717972755432129e-01,8.699890971183776855e-02,-3.505078852176666260e-01,1.002847313880920410e+00,-5.728061869740486145e-02,-7.701532542705535889e-02,3.659659326076507568e-01,3.904337286949157715e-01,-5.154983997344970703e-01,-7.310145348310470581e-02,6.668251156806945801e-01,-3.187368810176849365e-01,8.270863890647888184e-01,-6.437887996435165405e-02,-2.114015072584152222e-01,1.850875914096832275e-01,1.649316698312759399e-01,-2.186541557312011719e-01,-3.501555919647216797e-01,5.104814469814300537e-02,4.634058177471160889e-01,-4.209227859973907471e-01,8.998549729585647583e-02,-3.190945982933044434e-01,-4.570031166076660156e-01,2.638437747955322266e-01,-3.070432245731353760e-01,5.719075724482536316e-02
-2.041314244270324707e-01,1.190861687064170837e-01,-5.838379263877868652e-01,1.581613868474960327e-01,-2.289485782384872437e-01,4.128486514091491699e-01,-4.574612677097320557e-01,9.404985308647155762e-01,2.606866061687469482e-01,9.811158478260040283e-02,3.315946459770202637e-01,-9.737766534090042114e-02,-4.685908555984497070e-01,3.506145477294921875e-01,7.850506901741027832e-01,-1.714471876621246338e-01,6.716576218605041504e-01,-1.228778883814811707e-01,-5.494250059127807617e-01,2.824183404445648193e-01,1.795114576816558838e-01,-9.817975759506225586e-02,-3.751051127910614014e-01,1.423002630472183228e-01,5.870150327682495117e-01,-2.083536535501480103e-01,3.975049555301666260e-01,1.733519583940505981e-01,-6.312754154205322266e-01,6.262494325637817383e-01,-6.832902878522872925e-02,-2.107829414308071136e-02
-4.304309487342834473e-01,-2.228066027164459229e-01,1.563999503850936890e-01,-3.053514659404754639e-01,-1.625541597604751587e-01,5.914403796195983887e-01,-2.696698307991027832e-01,7.558243274688720703e-01,4.783328473567962646e-01,4.104265570640563965e-01,3.092344403266906738e-01,-4.715058505535125732e-01,-1.522579044103622437e-01,4.198183715343475342e-01,5.567047595977783203e-01,6.620943546295166016e-02,6.752982735633850098e-01,-2.483426034450531006e-01,-4.074620306491851807e-01,-1.151041761040687561e-01,-1.447726935148239136e-01,-2.646175213158130646e-02,5.489384289830923080e-03,-1.226820275187492371e-01,8.725709468126296997e-02,-3.036213517189025879e-01,7.205584645271301270e-01,3.599563837051391602e-01,-7.606971263885498047e-01,7.105239629745483398e-01,-2.789821624755859375e-01,-2.558048665523529053e-01
-5.895602107048034668e-01,-4.478791356086730957e-01,4.072040915489196777e-01,-5.269922018051147461e-01,-8.932781219482421875e-02,5.110141038894653320e-01,-4.531383216381072998e-01,5.718717575073242188e-01,3.226050734519958496e-01,5.450233221054077148e-01,-1.694103628396987915e-01,-4.324889779090881348e-01,2.956142723560333252e-01,4.398383498191833496e-01,2.722428739070892334e-01,-3.364829346537590027e-02,7.828371524810791016e-01,-3.398796916007995605e-01,-4.677309691905975342e-01,-1.806954480707645416e-02,-8.273760676383972168e-01,-2.076395601034164429e-01,-1.018922403454780579e-01,-6.293132156133651733e-02,-3.903131186962127686e-01,-1.485937535762786865e-01,8.769745230674743652e-01,3.185469508171081543e-01,-5.388087034225463867e-01,8.889501690864562988e-01,-5.932338237762451172e-01,-5.848348736763000488e-01
-7.019842863082885742e-01,-2.522370815277099609e-01,3.311965465545654297e-01,-4.312129914760589600e-01,3.619551062583923340e-01,2.767515182495117188e-01,-3.154560923576354980e-01,-1.939816772937774658e-02,1.078621596097946167e-01,3.077040016651153564e-01,-4.407870471477508545e-01,-4.356398284435272217e-01,4.218486547470092773e-01,4.671908020973205566e-01,1.561389416456222534e-01,-1.672651469707489014e-01,6.761350631713867188e-01,-2.408967167139053345e-02,-4.919942617416381836e-01,-1.703464090824127197e-01,-5.567625164985656738e-01,-1.427928656339645386e-01,-1.368886139243841171e-02,-1.169106811285018921e-01,-5.763151049613952637e-01,7.205064594745635986e-02,8.430678248405456543e-01,1.371628940105438232e-01,-2.418648004531860352e-01,5.786095261573791504e-01,-9.759373664855957031e-01,-7.842047810554504395e-01
-7.849138379096984863e-01,-3.181151747703552246e-01,1.803435832262039185e-01,-6.932532787322998047e-01,4.949486553668975830e-01,1.931270211935043335e-01,-2.850477993488311768e-01,-1.849034130573272705e-01,-1.209358125925064087e-01,-1.221636086702346802e-01,-4.577137529850006104e-01,-2.731655538082122803e-01,4.059847593307495117e-01,3.670314848423004150e-01,1.476929485797882080e-01,-3.582055568695068359e-01,5.123003721237182617e-01,4.202581644058227539e-01,-6.640956401824951172e-01,-4.883868396282196045e-01,-6.173573136329650879e-01,-3.353194296360015869e-01,2.318681776523590088e-01,-1.026234496384859085e-02,-4.463668465614318848e-01,2.866485416889190674e-01,7.491902709007263184e-01,-1.471401005983352661e-01,-5.817823484539985657e-02,4.212272465229034424e-01,-9.905280470848083496e-01,-8.745768070220947266e-01
-3.693954646587371826e-01,-1.541133671998977661e-01,1.698593497276306152e-01,-5.426803231239318848e-01,5.721955299377441406e-01,-1.178724691271781921e-01,3.822391033172607422e-01,-1.525858491659164429e-01,-3.736731708049774170e-01,-7.986594736576080322e-02,-7.366695404052734375e-01,-2.068199962377548218e-01,4.969768598675727844e-02,-1.628547608852386475e-01,2.120737880468368530e-01,-1.668518781661987305e-01,3.076649606227874756e-01,6.745720505714416504e-01,-7.430732846260070801e-01,-2.687746584415435791e-01,-3.624664843082427979e-01,-2.766274809837341309e-01,2.777707576751708984e-01,-9.904907643795013428e-02,-1.651744693517684937e-01,7.213721871376037598e-01,7.273917794227600098e-01,-8.742298185825347900e-02,7.503004372119903564e-02,3.173902928829193115e-01,-1.015532732009887695e+00,-6.397395133972167969e-01
-1.221531257033348083e-01,-3.284688107669353485e-03,1.053956598043441772e-01,-6.006115078926086426e-01,4.438579082489013672e-01,-1.141888499259948730e-01,6.643651723861694336e-01,-1.571307778358459473e-01,-7.694596052169799805e-01,-3.754968047142028809e-01,-8.152523636817932129e-01,-1.633841246366500854e-01,-9.520163759589195251e-03,4.307962954044342041e-02,7.962391711771488190e-03,-2.917667627334594727e-01,-2.897747457027435303e-01,4.210329651832580566e-01,-8.375117778778076172e-01,6.561422348022460938e-02,-1.068662554025650024e-01,-2.701488137245178223e-01,4.830079674720764160e-01,-1.884154230356216431e-01,9.468396008014678955e-02,9.862909317016601562e-01,5.942818522453308105e-01,-1.621238291263580322e-01,2.384230494499206543e-01,-8.198764920234680176e-02,-4.060768485069274902e-01,-3.445439040660858154e-01
1.087302342057228088e-01,2.007859051227569580e-01,2.540060319006443024e-02,-4.231593608856201172e-01,1.899057775735855103e-01,-1.672204434871673584e-01,8.166146278381347656e-01,-4.254752099514007568e-01,-7.669681310653686523e-01,-4.808601438999176025e-01,-1.223057985305786133e+00,9.991899877786636353e-02,-1.297804862260818481e-01,6.877853721380233765e-02,-2.865544557571411133e-01,-2.673660814762115479e-01,-3.598993718624114990e-01,6.377269029617309570e-01,-6.959142088890075684e-01,3.264383375644683838e-01,1.390054672956466675e-01,-5.392963290214538574e-01,6.037493944168090820e-01,-6.862363219261169434e-01,4.500413537025451660e-01,7.332306504249572754e-01,5.868548750877380371e-01,1.905940473079681396e-02,2.058343887329101562e-01,-4.635182917118072510e-01,-1.237895563244819641e-01,-2.889817655086517334e-01
2.414089292287826538e-01,4.572076499462127686e-01,-7.626096159219741821e-02,-6.155244112014770508e-01,1.581093966960906982e-01,-5.026054978370666504e-01,8.042519688606262207e-01,-6.091983914375305176e-01,-3.941443860530853271e-01,-4.341850578784942627e-01,-8.604319691658020020e-01,3.456832766532897949e-01,-2.317754030227661133e-01,-2.445620596408843994e-01,-9.556640684604644775e-02,-2.193284332752227783e-01,-4.123525917530059814e-01,3.210388123989105225e-01,-1.956988424062728882e-01,1.602617949247360229e-01,1.381350010633468628e-01,-5.964944362640380859e-01,6.938878893852233887e-01,-8.882262706756591797e-01,1.747312098741531372e-01,5.319517254829406738e-01,5.023447275161743164e-01,-1.759058833122253418e-01,4.420695900917053223e-01,-6.571306586265563965e-01,-5.264078825712203979e-02,-2.486090660095214844e-01
2.113915979862213135e-01,6.141087412834167480e-01,-2.249074280261993408e-01,-1.348488479852676392e-01,-1.698030829429626465e-01,-4.502050280570983887e-01,4.893695414066314697e-01,-6.941090226173400879e-01,-2.097349315881729126e-01,-6.283044815063476562e-01,-9.048146009445190430e-01,3.872790932655334473e-01,-2.262168824672698975e-01,-4.731894731521606445e-01,-1.452637910842895508e-01,-1.587932407855987549e-01,-2.218126207590103149e-01,-7.047725468873977661e-02,2.657430469989776611e-01,2.661359496414661407e-02,7.891716063022613525e-02,-6.543357372283935547e-01,1.805770695209503174e-01,-1.192368745803833008e+00,3.551162183284759521e-01,4.599253237247467041e-01,1.272896975278854370e-01,-1.157391890883445740e-01,5.909475684165954590e-01,-3.826975226402282715e-01,2.777708768844604492e-01,-1.502677351236343384e-01
1.817233115434646606e-01,5.915281772613525391e-01,-7.137910723686218262e-01,4.384993612766265869e-01,-2.509948909282684326e-01,-4.662688076496124268e-01,3.093473911285400391e-01,-4.228581786155700684e-01,-6.126777529716491699e-01,-6.394157409667968750e-01,-3.579148352146148682e-01,6.201599240303039551e-01,-1.233055442571640015e-01,-5.563670396804809570e-01,9.517235308885574341e-02,-9.860488772392272949e-02,-1.543850898742675781e-01,-1.052528992295265198e-01,3.978619873523712158e-01,-2.297849357128143311e-01,3.702273070812225342e-01,-3.466280698776245117e-01,-2.944839894771575928e-01,-8.664246201515197754e-01,3.045709431171417236e-01,2.092303186655044556e-01,-1.923900842666625977e-01,-2.388137280941009521e-01,4.881937205791473389e-01,-1.296966671943664551e-01,1.207249239087104797e-01,1.769643090665340424e-02
2.106118500232696533e-01,5.369621515274047852e-01,-9.428812265396118164e-01,5.607947707176208496e-01,2.250538915395736694e-01,-2.938870787620544434e-01,3.728798627853393555e-01,-1.131909117102622986e-01,-3.613128662109375000e-01,-5.593670606613159180e-01,-1.580681055784225464e-01,4.719668328762054443e-01,-4.165352880954742432e-01,-4.810030162334442139e-01,3.594859540462493896e-01,2.158563584089279175e-01,-3.134155273437500000e-02,-2.234685719013214111e-01,5.101167559623718262e-01,-3.471783697605133057e-01,4.660381078720092773e-01,2.303733080625534058e-01,-4.515838623046875000e-01,-7.214037775993347168e-01,3.864978551864624023e-01,-9.883891046047210693e-02,-7.001650333404541016e-02,2.045704126358032227e-01,3.872174322605133057e-01,-9.653433412313461304e-02,2.676044106483459473e-01,3.272756934165954590e-01
2.473128885030746460e-01,3.869684636592864990e-01,-6.724740862846374512e-01,4.823160469532012939e-01,1.992580294609069824e-01,8.636323362588882446e-02,3.032345771789550781e-01,1.779741495847702026e-01,-1.493638902902603149e-01,-3.935959562659263611e-02,7.114576548337936401e-02,3.530081510543823242e-01,-3.094437122344970703e-01,-1.219879090785980225e-01,5.535342693328857422e-01,4.299803078174591064e-01,5.970689654350280762e-02,-2.787212133407592773e-01,3.140188157558441162e-01,-7.170071601867675781e-01,6.166495084762573242e-01,5.153846740722656250e-01,-3.042203485965728760e-01,-2.952066361904144287e-01,3.940899074077606201e-01,2.573181092739105225e-01,2.787031531333923340e-01,5.290953516960144043e-01,8.256513625383377075e-02,9.206158109009265900e-03,2.083860188722610474e-01,3.597968518733978271e-01
1.601368188858032227e-01,2.375709079205989838e-02,-3.478795886039733887e-01,2.048630863428115845e-01,2.055267617106437683e-02,2.674932777881622314e-01,4.195095896720886230e-01,4.129202663898468018e-01,1.672174781560897827e-01,2.813335359096527100e-01,1.526615619659423828e-01,2.001156806945800781e-01,-3.141277432441711426e-01,1.300075650215148926e-01,3.160768449306488037e-01,9.400864243507385254e-01,1.301347613334655762e-01,-1.305099874734878540e-01,2.185972929000854492e-01,-6.363897323608398438e-01,4.176012873649597168e-01,6.037274003028869629e-01,-3.919474482536315918e-01,-5.227424576878547668e-02,2.088196277618408203e-01,4.246488213539123535e-02,2.844229340553283691e-01,6.702786684036254883e-01,-6.692516803741455078e-02,2.310174256563186646e-01,1.166110932826995850e-01,2.965710759162902832e-01
-2.269782721996307373e-01,-2.113540619611740112e-01,-4.467000365257263184e-01,-2.042061388492584229e-01,2.839013040065765381e-01,4.273114502429962158e-01,-5.634688958525657654e-02,1.916252635419368744e-02,2.606559395790100098e-01,2.550022006034851074e-01,1.746329478919506073e-02,2.351779639720916748e-01,1.316564679145812988e-01,4.746028780937194824e-01,1.714129298925399780e-01,7.152357101440429688e-01,2.157653719186782837e-01,-3.979609906673431396e-01,1.092264354228973389e-01,-5.759007930755615234e-01,3.220981657505035400e-01,7.239000201225280762e-01,-1.859073042869567871e-01,-1.744736135005950928e-01,-7.088102400302886963e-02,6.600120663642883301e-02,3.914322853088378906e-01,9.044978618621826172e-01,1.588165163993835449e-01,6.819030642509460449e-02,1.526340991258621216e-01,-5.651060864329338074e-02
-6.299308538436889648e-01,-2.113693356513977051e-01,-5.486728996038436890e-02,-2.695679068565368652e-01,2.668285965919494629e-01,2.835486829280853271e-01,-2.885749854613095522e-04,-3.762506246566772461e-01,3.902519643306732178e-01,4.439057111740112305e-01,-3.260521963238716125e-02,1.458690911531448364e-01,2.340553551912307739e-01,6.006534695625305176e-01,9.186546504497528076e-02,5.995951890945434570e-01,2.667528092861175537e-01,-8.013842999935150146e-02,1.062309220433235168e-01,-7.410094738006591797e-01,-1.159041225910186768e-01,7.263634204864501953e-01,8.560459315776824951e-02,2.170912921428680420e-01,-3.095046877861022949e-01,1.365658640861511230e-01,3.718660473823547363e-01,9.393120408058166504e-01,3.783005177974700928e-01,5.901509523391723633e-01,-2.447434365749359131e-01,-5.321096777915954590e-01
-4.145177304744720459e-01,-2.546086907386779785e-01,7.547701150178909302e-02,-4.347337186336517334e-01,2.499148249626159668e-01,2.720389366149902344e-01,-9.779892861843109131e-03,-2.996110022068023682e-01,-5.242427811026573181e-03,1.925134956836700439e-01,2.923915162682533264e-02,3.060868084430694580e-01,3.403664231300354004e-01,6.191002130508422852e-01,1.654187291860580444e-01,5.028792023658752441e-01,3.235144019126892090e-01,1.380593627691268921e-01,-4.787140339612960815e-02,-9.761613011360168457e-01,5.907943472266197205e-02,4.503068029880523682e-01,1.833660155534744263e-02,3.198365271091461182e-01,-3.170293271541595459e-01,5.075876787304878235e-02,2.763513624668121338e-01,8.569656014442443848e-01,4.284233152866363525e-01,7.579725384712219238e-01,-7.010444998741149902e-01,-7.366037368774414062e-01
-6.698367595672607422e-01,-4.174568951129913330e-01,-2.005700394511222839e-02,-6.391409039497375488e-01,4.363216757774353027e-01,1.067449897527694702e-01,1.828392446041107178e-01,-3.150598406791687012e-01,-7.131595164537429810e-02,9.936077892780303955e-02,-1.331150159239768982e-02,3.104673027992248535e-01,2.545788884162902832e-01,7.163546085357666016e-01,4.504388570785522461e-02,1.911470144987106323e-01,6.207481771707534790e-02,5.139171481132507324e-01,-2.332857847213745117e-01,-8.025307059288024902e-01,9.478080272674560547e-02,5.382093191146850586e-01,9.819283336400985718e-02,3.760982751846313477e-01,-3.875510692596435547e-01,2.333791255950927734e-01,1.877985149621963501e-01,3.330986499786376953e-01,6.973505020141601562e-01,6.458693146705627441e-01,-5.824288129806518555e-01,-6.209830641746520996e-01
-3.306302130222320557e-01,-4.547356665134429932e-01,-2.428229302167892456e-01,-6.456970572471618652e-01,4.250987470149993896e-01,6.586077809333801270e-02,2.100447118282318115e-01,-3.254649341106414795e-01,-3.640383183956146240e-01,-2.296624034643173218e-01,-4.129801690578460693e-01,3.561239540576934814e-01,-1.176863312721252441e-01,5.129855275154113770e-01,8.751153014600276947e-03,9.614323079586029053e-02,-7.255813479423522949e-02,9.395013451576232910e-01,-6.754183769226074219e-01,-2.803430855274200439e-01,1.961257606744766235e-01,4.015762507915496826e-01,5.886250734329223633e-01,4.462488293647766113e-01,-1.499282568693161011e-01,6.741462945938110352e-01,-2.289957180619239807e-02,2.854768335819244385e-01,7.768839597702026367e-01,3.080945909023284912e-01,-4.574683010578155518e-01,-5.253176093101501465e-01
-1.807018518447875977e-01,-4.493534266948699951e-01,-2.576964795589447021e-01,-1.147982478141784668e+00,-2.779374644160270691e-02,-4.157885909080505371e-02,4.417336285114288330e-01,-2.912327349185943604e-01,-2.779650688171386719e-01,1.952427923679351807e-01,-2.969795465469360352e-01,2.322985976934432983e-01,-4.368482232093811035e-01,7.003059387207031250e-01,-1.830101013183593750e-01,6.671751290559768677e-02,-4.264194071292877197e-01,8.521217703819274902e-01,-9.001179933547973633e-01,-8.980964869260787964e-02,5.540647506713867188e-01,3.338541090488433838e-02,8.245170116424560547e-01,1.057917438447475433e-02,3.028342127799987793e-01,7.294701337814331055e-01,6.924969702959060669e-02,1.235649064183235168e-01,2.933981418609619141e-01,-1.022650487720966339e-02,-1.067578941583633423e-01,-6.760905385017395020e-01
-1.010484397411346436e-01,-2.933715879917144775e-01,-3.197454661130905151e-02,-9.791053533554077148e-01,-3.173148334026336670e-01,-2.119377851486206055e-01,4.261252284049987793e-01,-3.238494396209716797e-01,-1.255116462707519531e-01,-2.562548965215682983e-02,-5.768865942955017090e-01,5.938446894288063049e-02,-5.590488910675048828e-01,5.373820662498474121e-01,1.336367428302764893e-01,-2.135449796915054321e-01,-4.003703296184539795e-01,1.042809724807739258e+00,-3.901375830173492432e-01,3.203018009662628174e-01,5.340242385864257812e-01,-2.504249811172485352e-01,1.123174190521240234e+00,-1.877683550119400024e-01,4.956693351268768311e-01,4.913979470729827881e-01,-9.542057663202285767e-02,1.384145170450210571e-01,6.987325549125671387e-01,-1.955695450305938721e-01,-1.656776070594787598e-01,-3.878636360168457031e-01
-1.983819752931594849e-01,-1.155187711119651794e-01,-3.621937632560729980e-01,-7.848121523857116699e-01,-4.561975896358489990e-01,-5.493108034133911133e-01,2.626905739307403564e-01,-5.987612605094909668e-01,1.532573401927947998e-01,1.028276607394218445e-01,-6.369572877883911133e-01,6.105830669403076172e-01,-5.504819750785827637e-01,4.837725162506103516e-01,8.217879384756088257e-02,-4.231846034526824951e-01,-4.030653238296508789e-01,7.211033105850219727e-01,1.804314437322318554e-03,3.623224198818206787e-01,6.090499758720397949e-01,-4.967345297336578369e-01,6.389315128326416016e-01,-1.403957158327102661e-01,4.230063855648040771e-01,3.335576057434082031e-01,-2.813073098659515381e-01,-2.843600511550903320e-01,5.552367568016052246e-01,-4.506716728210449219e-01,2.909748442471027374e-02,-3.974964022636413574e-01
-9.829743206501007080e-02,-1.977023035287857056e-01,-2.030608206987380981e-01,-2.916158437728881836e-01,-1.683305650949478149e-01,-9.653040170669555664e-01,-9.374348819255828857e-02,-3.203893303871154785e-01,3.129568099975585938e-01,9.948345273733139038e-02,-4.174281358718872070e-01,6.210440993309020996e-01,-6.580860018730163574e-01,3.590216934680938721e-01,1.945842206478118896e-01,-5.188813209533691406e-01,-2.152909338474273682e-01,6.198191642761230469e-01,-5.105207487940788269e-02,2.855201363563537598e-01,7.508653998374938965e-01,-3.733638226985931396e-01,6.437000036239624023e-01,-5.501307249069213867e-01,-1.598029769957065582e-02,-4.161622002720832825e-02,-1.767289489507675171e-01,-3.778044283390045166e-01,4.963006973266601562e-01,-5.283060073852539062e-01,1.256304979324340820e-01,-1.791469603776931763e-01
-3.536800146102905273e-01,1.751672476530075073e-01,-3.588572442531585693e-01,-2.276952415704727173e-01,-1.996607631444931030e-01,-8.856512308120727539e-01,-3.396083712577819824e-01,-8.482046425342559814e-02,4.895159006118774414e-01,2.154720872640609741e-01,-1.415951848030090332e-01,6.336623430252075195e-01,-8.483325242996215820e-01,-4.990621656179428101e-02,5.251668095588684082e-01,-2.334679365158081055e-01,1.729101091623306274e-01,6.232429742813110352e-01,2.333804666996002197e-01,-4.408506676554679871e-02,4.442724287509918213e-01,-3.813681006431579590e-01,4.090861678123474121e-01,-3.572165071964263916e-01,-1.302065253257751465e-01,-1.547500938177108765e-01,-3.349125087261199951e-01,-3.723151981830596924e-01,1.502643339335918427e-02,-2.538363635540008545e-01,7.760342210531234741e-02,2.113548964262008667e-01
-4.069814980030059814e-01,1.975156366825103760e-01,-2.985976040363311768e-01,3.458340093493461609e-02,3.399305418133735657e-02,-8.284226059913635254e-01,-2.377579212188720703e-01,2.053020149469375610e-01,4.329370260238647461e-01,2.000789493322372437e-01,2.444715350866317749e-01,1.110353916883468628e-01,-6.481376290321350098e-01,-1.635078713297843933e-02,8.120455741882324219e-01,-1.004082635045051575e-01,2.288667410612106323e-01,3.253910243511199951e-01,6.225669980049133301e-01,-1.334065943956375122e-01,4.470257163047790527e-01,-1.291327923536300659e-01,3.199398890137672424e-02,-2.135003358125686646e-01,-2.559231519699096680e-01,3.804215788841247559e-02,-3.558098375797271729e-01,-3.998885154724121094e-01,-1.962986141443252563e-01,-3.836865127086639404e-01,1.168680712580680847e-01,4.502070248126983643e-01
-3.714628219604492188e-01,-3.582110404968261719e-01,-1.012854799628257751e-01,1.349277347326278687e-01,3.027716577053070068e-01,-5.601214766502380371e-01,-2.182494103908538818e-01,3.140191733837127686e-01,6.787891983985900879e-01,7.655792236328125000e-01,3.843060135841369629e-02,1.278552561998367310e-01,-7.638806104660034180e-01,2.602337896823883057e-01,8.895823955535888672e-01,1.970192193984985352e-01,-2.526889145374298096e-01,2.604204714298248291e-01,3.386121690273284912e-01,8.733831346035003662e-02,2.407508641481399536e-01,4.081204831600189209e-01,2.147960513830184937e-01,1.614674627780914307e-01,-1.777299195528030396e-01,2.827711999416351318e-01,-6.150427833199501038e-02,-1.716629043221473694e-02,-4.441609084606170654e-01,-5.375754237174987793e-01,2.239529341459274292e-01,5.049178600311279297e-01
-4.244537353515625000e-01,-6.515721082687377930e-01,1.060441061854362488e-01,-7.909717410802841187e-02,3.431581854820251465e-01,-2.310525923967361450e-01,-2.061843872070312500e-01,3.671702146530151367e-01,6.533436179161071777e-01,7.595036625862121582e-01,1.699651926755905151e-01,-4.952334463596343994e-01,-5.910097360610961914e-01,5.609017610549926758e-01,6.192927956581115723e-01,4.553310275077819824e-01,-2.109825909137725830e-01,4.914346709847450256e-02,3.321951329708099365e-01,9.536666795611381531e-03,-3.115015104413032532e-02,4.774277508258819580e-01,2.058563679456710815e-01,1.682262718677520752e-01,-6.626560091972351074e-01,2.263297140598297119e-01,3.887662887573242188e-01,3.702346980571746826e-01,-6.607888340950012207e-01,-2.783021032810211182e-01,1.227337718009948730e-01,4.046844840049743652e-01
-4.387334287166595459e-01,-7.342655658721923828e-01,5.737672448158264160e-01,-1.326107978820800781e-01,2.840774953365325928e-01,-8.037338405847549438e-02,-3.586220145225524902e-01,-6.344604492187500000e-02,7.237350344657897949e-01,7.791486382484436035e-01,1.487613767385482788e-01,-7.819986343383789062e-01,-8.567364513874053955e-02,6.170286536216735840e-01,4.033102989196777344e-01,5.879277586936950684e-01,1.436882768757641315e-03,-8.786359429359436035e-02,4.512499570846557617e-01,-3.934965133666992188e-01,-4.600947499275207520e-01,3.155927062034606934e-01,1.009061783552169800e-01,1.651174873113632202e-01,-9.133414626121520996e-01,3.343515992164611816e-01,5.282822847366333008e-01,5.774041414260864258e-01,-6.703556776046752930e-01,-3.094790875911712646e-01,1.437553167343139648e-01,1.674736589193344116e-01
-5.548650026321411133e-01,-6.658395528793334961e-01,7.555587291717529297e-01,-3.791169226169586182e-01,6.240012645721435547e-01,-2.176237851381301880e-01,-2.925109267234802246e-01,-4.837634265422821045e-01,6.918779611587524414e-01,7.892024517059326172e-01,-2.740541845560073853e-02,-6.849057674407958984e-01,2.937128543853759766e-01,5.785691738128662109e-01,-4.461727663874626160e-02,3.905780017375946045e-01,2.335494197905063629e-02,-2.335837185382843018e-01,3.228653073310852051e-01,-5.814827680587768555e-01,-7.491741776466369629e-01,4.601846039295196533e-01,1.030312851071357727e-01,2.275188565254211426e-01,-1.005148887634277344e+00,5.473837852478027344e-01,6.194048523902893066e-01,1.162052527070045471e-01,-1.979142129421234131e-01,-2.469349838793277740e-02,-2.933838032186031342e-02,-6.825543823651969433e-04
-7.150049805641174316e-01,-5.987660884857177734e-01,1.024829983711242676e+00,2.720696851611137390e-02,8.699794411659240723e-01,-3.394494950771331787e-01,-2.726156115531921387e-01,-6.855039000511169434e-01,2.308384776115417480e-01,3.195752501487731934e-01,-3.556033372879028320e-01,-4.655790328979492188e-01,5.594682693481445312e-01,3.432298302650451660e-01,-3.067312240600585938e-01,2.864269614219665527e-01,-4.001654684543609619e-01,-6.838251650333404541e-02,4.815863072872161865e-01,-5.564030408859252930e-01,-6.842902302742004395e-01,3.921790122985839844e-01,-4.544953256845474243e-02,3.806264996528625488e-01,-1.103913307189941406e+00,6.422396302223205566e-01,3.679725229740142822e-01,3.253540396690368652e-01,1.123906597495079041e-01,-2.292793542146682739e-01,-1.881912946701049805e-01,9.710641205310821533e-02
