Fp1,Fp2,F7,F3,Fz,F4,F8,FT7,FC3,FCz,FC4,FT8,T3,C3,Cz,C4,T4,TP7,CP3,CPz,CP4,TP8,T5,P3,Pz,P4,T6,O1,Oz,O2,A1,A2
9.565720558166503906e+00,6.070027828216552734e+00,1.145067024230957031e+01,1.278220081329345703e+01,9.017539024353027344e+00,3.890213966369628906e+00,4.582127094268798828e+00,9.578843116760253906e+00,1.044332218170166016e+01,7.607468605041503906e+00,4.371551990509033203e+00,4.513537883758544922e+00,3.553652524948120117e+00,4.891937255859375000e+00,5.493158817291259766e+00,7.480048179626464844e+00,5.158537387847900391e+00,4.029192447662353516e+00,2.455033540725708008e+00,2.667847871780395508e+00,2.419310808181762695e+00,1.761848330497741699e+00,1.265370082855224609e+01,7.594914913177490234e+00,-3.144090175628662109e-01,1.393270015716552734e+00,5.414693832397460938e+00,5.954585075378417969e+00,4.562561035156250000e+00,3.333902120590209961e+00,4.130637645721435547e+00,7.293716430664062500e+00
3.527807712554931641e+00,-1.714595079421997070e+00,2.409213542938232422e+00,5.087257385253906250e+00,5.361019611358642578e+00,2.399790525436401367e+00,2.858398199081420898e+00,4.759947299957275391e+00,1.009478092193603516e+01,5.740369319915771484e+00,1.272576212882995605e+00,-2.546894550323486328e+00,-1.458942770957946777e+00,-3.881077051162719727e+00,-6.484472751617431641e+00,-2.455493927001953125e+00,-4.138006687164306641e+00,-6.647214412689208984e+00,-9.854926109313964844e+00,-9.389272689819335938e+00,-9.039722442626953125e+00,-6.966849327087402344e+00,6.757276535034179688e+00,3.588672161102294922e+00,-5.247797489166259766e+00,-2.780153036117553711e+00,-3.455036878585815430e+00,-1.075703144073486328e+00,-1.720932722091674805e+00,-2.323921680450439453e+00,-4.447988986968994141e+00,-3.307195186614990234e+00
-9.756504058837890625e+00,-1.205140018463134766e+01,-1.212966823577880859e+01,-8.393047332763671875e+00,-4.949478149414062500e+00,-6.258408069610595703e+00,-7.394464492797851562e+00,-6.546147346496582031e+00,-4.052260398864746094e+00,-7.384376049041748047e+00,-7.933503627777099609e+00,-1.033878040313720703e+01,-7.630544662475585938e+00,-1.246117019653320312e+01,-1.368657970428466797e+01,-1.322766017913818359e+01,-1.406520462036132812e+01,-1.375320720672607422e+01,-1.329643535614013672e+01,-1.017645072937011719e+01,-1.100059318542480469e+01,-9.545626640319824219e+00,-5.905962944030761719e+00,2.571847140789031982e-01,-4.194648742675781250e+00,-9.288477897644042969e+00,-1.717240715026855469e+01,-1.408390045166015625e+01,-1.245165061950683594e+01,-1.199955463409423828e+01,-1.416097068786621094e+01,-1.471392822265625000e+01
-7.076220989227294922e+00,-6.648843288421630859e+00,-4.606624126434326172e+00,-1.893039226531982422e+00,-3.593266248703002930e+00,-3.491302251815795898e+00,-4.571576595306396484e+00,-1.259915947914123535e+00,-1.790138125419616699e+00,-1.621070623397827148e+00,-3.881274938583374023e+00,-4.833365440368652344e+00,-5.685723781585693359e+00,-5.172348022460937500e+00,-2.024486303329467773e+00,-1.123240590095520020e+00,-4.527265071868896484e+00,-4.673654556274414062e+00,-2.334825515747070312e+00,2.566930770874023438e+00,2.467421293258666992e+00,1.653133869171142578e+00,-8.261675834655761719e+00,-3.329256296157836914e+00,-2.234188079833984375e+00,6.042055785655975342e-02,-6.015428543090820312e+00,-4.821979522705078125e+00,-5.521334171295166016e+00,-4.165813922882080078e+00,-1.841993570327758789e+00,-3.350423336029052734e+00
2.984647035598754883e+00,2.755761742591857910e-01,4.345035552978515625e+00,5.255427837371826172e+00,3.132640361785888672e+00,1.506370186805725098e+00,6.247720122337341309e-01,3.100242614746093750e+00,4.898856163024902344e+00,5.159306049346923828e+00,3.273473978042602539e-01,-2.978445589542388916e-01,-3.808147430419921875e+00,-7.283902913331985474e-02,6.526871204376220703e+00,1.006420803070068359e+01,7.127138137817382812e+00,4.899538040161132812e+00,6.544712066650390625e+00,6.489798545837402344e+00,7.692180633544921875e+00,7.391143798828125000e+00,-2.868990898132324219e-01,-4.951260089874267578e+00,-5.162992000579833984e+00,5.396692276000976562e+00,1.145265293121337891e+01,9.134749412536621094e+00,3.666072130203247070e+00,4.019986629486083984e+00,6.379309177398681641e+00,3.280350923538208008e+00
4.116206169128417969e+00,-4.846186637878417969e-01,2.409905433654785156e+00,3.533314943313598633e+00,4.974854946136474609e+00,1.437773466110229492e+00,5.981956720352172852e-01,9.309566617012023926e-01,6.615611314773559570e-01,-2.997587203979492188e+00,-4.595147609710693359e+00,-2.838925123214721680e+00,-4.649894237518310547e+00,-6.668806076049804688e-01,9.355281829833984375e+00,1.036490154266357422e+01,7.115829944610595703e+00,6.039232254028320312e+00,8.094176292419433594e+00,2.015660285949707031e+00,1.443523764610290527e+00,3.137608051300048828e+00,2.104493618011474609e+00,-5.256318092346191406e+00,-5.719555377960205078e+00,-3.063105642795562744e-01,9.450374603271484375e+00,5.183235168457031250e+00,1.787885904312133789e+00,1.420729637145996094e+00,6.409019827842712402e-01,-2.911571979522705078e+00
-2.881190776824951172e+00,-6.148761749267578125e+00,-2.878213167190551758e+00,-4.383917748928070068e-01,-4.578974097967147827e-02,-2.286836624145507812e+00,-2.512679815292358398e+00,-3.367110714316368103e-02,-5.012526988983154297e+00,-8.913007736206054688e+00,-7.844890117645263672e+00,-4.925089359283447266e+00,-5.791074752807617188e+00,-1.100911617279052734e+00,9.106793403625488281e+00,5.273141860961914062e+00,1.096557140350341797e+00,7.278205156326293945e-01,4.445375919342041016e+00,-2.122917413711547852e+00,-5.337584018707275391e+00,-4.429942131042480469e+00,-7.878006458282470703e+00,-5.429487228393554688e+00,2.088821411132812500e+00,2.244841903448104858e-01,-5.978122234344482422e+00,-6.297932624816894531e+00,-4.295185565948486328e+00,-3.414903640747070312e+00,-4.415180206298828125e+00,-5.718214035034179688e+00
-1.525285053253173828e+01,-1.314481735229492188e+01,-1.031507492065429688e+01,-8.591777801513671875e+00,-8.334222793579101562e+00,-1.243039321899414062e+01,-1.344714641571044922e+01,-9.284996986389160156e+00,-9.728360176086425781e+00,-1.149742221832275391e+01,-1.329156017303466797e+01,-1.495707511901855469e+01,-1.536570453643798828e+01,-1.021587276458740234e+01,-6.400075912475585938e+00,-1.191117668151855469e+01,-1.355504131317138672e+01,-1.380259037017822266e+01,-9.688485145568847656e+00,-1.327424240112304688e+01,-1.737956237792968750e+01,-1.799434280395507812e+01,-2.264130210876464844e+01,-1.211843109130859375e+01,-4.247762680053710938e+00,-7.429095268249511719e+00,-2.179931831359863281e+01,-1.687594413757324219e+01,-1.475446987152099609e+01,-1.310065269470214844e+01,-1.489778518676757812e+01,-1.307943058013916016e+01
-1.632044029235839844e+01,-9.586575508117675781e+00,-9.736264228820800781e+00,-9.771147727966308594e+00,-6.902498722076416016e+00,-1.039222621917724609e+01,-1.176988029479980469e+01,-1.212931728363037109e+01,-7.814347743988037109e+00,-9.517232894897460938e+00,-1.370980453491210938e+01,-1.863735198974609375e+01,-1.662810707092285156e+01,-1.033312320709228516e+01,-1.400074481964111328e+01,-1.445997524261474609e+01,-1.678299522399902344e+01,-1.571732997894287109e+01,-1.443127918243408203e+01,-1.735824775695800781e+01,-1.953736495971679688e+01,-1.849180984497070312e+01,-2.214735031127929688e+01,-2.135287284851074219e+01,-2.193248367309570312e+01,-2.047888183593750000e+01,-2.034865760803222656e+01,-1.673953247070312500e+01,-1.628329277038574219e+01,-1.615448188781738281e+01,-1.881293106079101562e+01,-1.628701400756835938e+01
2.634860515594482422e+00,3.110043287277221680e+00,3.987383842468261719e-01,8.991808891296386719e-01,4.471316814422607422e+00,8.462259292602539062e+00,7.720882415771484375e+00,2.694019794464111328e+00,1.783020615577697754e+00,3.127154111862182617e+00,4.560486793518066406e+00,6.403046131134033203e+00,5.969768524169921875e+00,9.304706573486328125e+00,3.553885459899902344e+00,6.789144039154052734e+00,5.999762058258056641e+00,6.648916721343994141e+00,2.365978956222534180e+00,-3.402702093124389648e+00,-1.996921181678771973e+00,2.150354623794555664e+00,-1.542168557643890381e-01,-1.153270721435546875e+01,-1.534640693664550781e+01,-1.319939231872558594e+01,-4.357007443904876709e-01,1.502251982688903809e+00,7.154250741004943848e-01,-1.934445977210998535e+00,-5.143741607666015625e+00,-1.187839388847351074e+00
8.815797805786132812e+00,5.606429576873779297e+00,2.382251262664794922e+00,2.201184272766113281e+00,5.359024524688720703e+00,1.020325469970703125e+01,1.038986015319824219e+01,6.895885467529296875e+00,1.607353448867797852e+00,5.374886512756347656e+00,9.971392631530761719e+00,1.640486145019531250e+01,1.278535556793212891e+01,1.296733474731445312e+01,1.089554977416992188e+01,1.670200347900390625e+01,1.490693569183349609e+01,1.300645732879638672e+01,7.898774623870849609e+00,3.353368282318115234e+00,5.896492958068847656e+00,8.967536926269531250e+00,7.573043346405029297e+00,4.104666709899902344e+00,1.824914455413818359e+00,2.655033588409423828e+00,4.470171451568603516e+00,8.032355308532714844e+00,7.646874427795410156e+00,5.231251716613769531e+00,2.730481624603271484e+00,5.053853511810302734e+00
-5.185189247131347656e-01,-4.629819691181182861e-01,-2.173722982406616211e+00,-2.433264732360839844e+00,-5.652282238006591797e-01,-1.417010188102722168e+00,-7.868430614471435547e-01,-1.250523805618286133e+00,-2.245758295059204102e+00,-1.864747703075408936e-01,4.015837311744689941e-01,5.540002584457397461e-01,1.640545964241027832e+00,3.101215362548828125e+00,3.584977149963378906e+00,4.075170993804931641e+00,3.094800949096679688e+00,2.116930723190307617e+00,-1.006054162979125977e+00,-4.751473069190979004e-01,2.079430580139160156e+00,2.952205896377563477e+00,1.208042740821838379e+00,2.561019659042358398e+00,-1.103490352630615234e+00,-1.354261934757232666e-01,-1.623660922050476074e+00,-3.841916918754577637e-01,-1.197162747383117676e+00,-2.259440422058105469e+00,-1.161924719810485840e+00,-1.539647817611694336e+00
-4.812217235565185547e+00,-1.004089736938476562e+01,-9.700798034667968750e+00,-7.577435016632080078e+00,-7.967541694641113281e+00,-6.953346729278564453e+00,-4.495450973510742188e+00,-5.116865158081054688e+00,-3.327829360961914062e+00,-2.578649520874023438e+00,-3.607127964496612549e-01,-2.310527086257934570e+00,1.746050477027893066e+00,3.512269020080566406e+00,2.913568735122680664e+00,4.915004730224609375e+00,3.265869617462158203e+00,5.477823615074157715e-01,-6.062363147735595703e+00,-5.423477172851562500e+00,-1.348971843719482422e+00,2.203613758087158203e+00,-9.247408509254455566e-01,-7.686793804168701172e+00,-1.012716293334960938e+01,-9.993174552917480469e+00,-3.932330131530761719e+00,-3.239339113235473633e+00,-7.243904590606689453e+00,-1.115900039672851562e+01,-9.427796363830566406e+00,-9.010691642761230469e+00
-1.588455581665039062e+01,-2.348649024963378906e+01,-2.091618728637695312e+01,-1.932328033447265625e+01,-2.072687530517578125e+01,-1.803886985778808594e+01,-1.445697402954101562e+01,-1.461737823486328125e+01,-1.410722446441650391e+01,-1.297376823425292969e+01,-9.623728752136230469e+00,-7.674534797668457031e+00,-7.603372097015380859e+00,-6.667430400848388672e+00,-8.701383590698242188e+00,-3.187102317810058594e+00,-5.194490432739257812e+00,-8.081130981445312500e+00,-1.497585773468017578e+01,-1.637100982666015625e+01,-1.348393535614013672e+01,-1.068721294403076172e+01,-1.283239459991455078e+01,-1.033948230743408203e+01,-7.766065597534179688e+00,-1.459197139739990234e+01,-1.987766265869140625e+01,-1.660105705261230469e+01,-1.844926071166992188e+01,-2.224248504638671875e+01,-2.282326889038085938e+01,-2.220832633972167969e+01
-1.875034332275390625e+01,-1.830778312683105469e+01,-1.433857345581054688e+01,-1.600635337829589844e+01,-1.922619056701660156e+01,-1.972032546997070312e+01,-1.750856399536132812e+01,-1.477125549316406250e+01,-1.370688343048095703e+01,-1.252072334289550781e+01,-1.498019599914550781e+01,-1.319203472137451172e+01,-1.267374992370605469e+01,-1.395586872100830078e+01,-1.646051025390625000e+01,-1.328932762145996094e+01,-1.084872341156005859e+01,-1.234130287170410156e+01,-1.268320941925048828e+01,-1.220735168457031250e+01,-1.315423870086669922e+01,-1.661247825622558594e+01,-1.632305908203125000e+01,-8.563519477844238281e+00,-3.439856767654418945e+00,-9.603603363037109375e+00,-2.097466850280761719e+01,-2.266314315795898438e+01,-1.902327346801757812e+01,-1.747208786010742188e+01,-1.695721054077148438e+01,-2.014875221252441406e+01
-1.133378744125366211e+00,7.969409823417663574e-01,4.508089542388916016e+00,4.285037517547607422e+00,2.204191833734512329e-01,-2.360137999057769775e-01,-1.398048251867294312e-01,3.823106765747070312e+00,4.329378128051757812e+00,6.278275966644287109e+00,2.380114078521728516e+00,8.305009007453918457e-01,3.559572935104370117e+00,1.076601624488830566e+00,-7.520821094512939453e-01,-1.962690830230712891e+00,2.362970352172851562e+00,5.898550748825073242e-01,4.029210090637207031e+00,6.587277889251708984e+00,5.262779235839843750e+00,-5.867511034011840820e-01,6.994435787200927734e-01,-5.933451175689697266e+00,-2.121385097503662109e+00,3.837807178497314453e+00,7.617848396301269531e+00,4.283089935779571533e-01,2.369351148605346680e+00,5.150373935699462891e+00,6.574104785919189453e+00,2.944361448287963867e+00
1.531374454498291016e+00,8.430516719818115234e-01,1.285920143127441406e+00,2.368727207183837891e+00,1.069284200668334961e+00,2.687594890594482422e+00,1.973057866096496582e+00,2.605801105499267578e+00,2.867303133010864258e+00,4.867119312286376953e+00,4.826965808868408203e+00,1.955817699432373047e+00,1.414879918098449707e+00,-1.259496569633483887e+00,-3.317047119140625000e+00,-4.025802612304687500e+00,-3.743285179138183594e+00,-3.887041330337524414e+00,-1.636891484260559082e+00,2.649430990219116211e+00,1.507320284843444824e+00,-2.014576196670532227e+00,-1.091187834739685059e+00,-5.276700973510742188e+00,-4.486406326293945312e+00,2.225496053695678711e+00,8.517210960388183594e+00,7.741969585418701172e+00,6.346121311187744141e+00,5.308602333068847656e+00,4.361732959747314453e+00,7.608553409576416016e+00
-4.652298927307128906e+00,-2.540501594543457031e+00,-5.568023204803466797e+00,-7.632923603057861328e+00,-6.393819332122802734e+00,-5.834442138671875000e+00,-6.794623851776123047e+00,-9.382900238037109375e+00,-5.819374561309814453e+00,-6.072722434997558594e+00,-6.180284500122070312e+00,-9.860116958618164062e+00,-1.027219772338867188e+01,-1.438575744628906250e+01,-1.939462280273437500e+01,-1.831212806701660156e+01,-1.712450981140136719e+01,-1.325054454803466797e+01,-1.149424648284912109e+01,-5.806698322296142578e+00,-8.755186080932617188e+00,-1.096871662139892578e+01,-9.129803657531738281e+00,-4.912292003631591797e+00,-6.224914073944091797e+00,-6.830521106719970703e+00,-9.378283500671386719e+00,-6.864319324493408203e+00,-5.708479881286621094e+00,-5.971095085144042969e+00,-6.698814868927001953e+00,-2.945026457309722900e-01
7.628609180450439453e+00,1.233555507659912109e+01,1.033762454986572266e+01,7.115554332733154297e+00,6.930120468139648438e+00,4.541636466979980469e+00,4.922914981842041016e+00,4.669900894165039062e+00,7.461110591888427734e+00,3.464839458465576172e+00,1.609488010406494141e+00,-3.049420356750488281e+00,-5.378085374832153320e-01,-4.359558582305908203e+00,-8.146038055419921875e+00,-1.025405883789062500e+01,-6.834674358367919922e+00,-1.468788027763366699e+00,1.989811658859252930e+00,5.509566307067871094e+00,3.050162792205810547e+00,2.777151584625244141e+00,3.405589818954467773e+00,8.916456699371337891e-01,2.526353836059570312e+00,6.800031185150146484e+00,4.612368106842041016e+00,1.519320130348205566e+00,5.053900718688964844e+00,9.430407524108886719e+00,1.040789031982421875e+01,1.027385425567626953e+01
1.332718467712402344e+01,1.658822822570800781e+01,1.462916183471679688e+01,1.362873649597167969e+01,1.350712776184082031e+01,1.155587387084960938e+01,1.271768856048583984e+01,1.403488540649414062e+01,1.033376598358154297e+01,5.338572978973388672e+00,7.345597743988037109e+00,7.014595508575439453e+00,5.887251853942871094e+00,8.576443791389465332e-01,-2.041417121887207031e+00,-4.083674907684326172e+00,-2.760736465454101562e+00,1.067232489585876465e+00,3.148762464523315430e+00,6.798086166381835938e+00,5.811512470245361328e+00,7.898844242095947266e+00,8.366899490356445312e+00,4.110931873321533203e+00,5.881886005401611328e+00,1.411583614349365234e+01,1.631372833251953125e+01,1.297000408172607422e+01,1.423598957061767578e+01,1.868595504760742188e+01,2.004004478454589844e+01,1.260170555114746094e+01
-1.373368799686431885e-01,1.431384682655334473e+00,-1.645315647125244141e+00,-1.894147872924804688e+00,5.420003533363342285e-01,1.829547643661499023e+00,1.389093518257141113e+00,-3.841754794120788574e-01,-6.550491333007812500e+00,-9.571321487426757812e+00,-3.770460605621337891e+00,9.644084572792053223e-01,-4.831458091735839844e+00,-1.424798202514648438e+01,-1.810617637634277344e+01,-1.599920272827148438e+01,-1.359012889862060547e+01,-1.116219425201416016e+01,-1.243509578704833984e+01,-8.458942413330078125e+00,-1.046110725402832031e+01,-5.853900432586669922e+00,-4.791241645812988281e+00,-1.579146862030029297e+00,-4.393531322479248047e+00,-1.001600980758666992e+00,-6.278961300849914551e-01,2.763020098209381104e-01,-8.553411364555358887e-01,6.498310565948486328e-01,2.447630882263183594e+00,-1.138185858726501465e+00
-2.639763593673706055e+00,-1.347035884857177734e+00,-4.008021354675292969e+00,-5.054371356964111328e+00,-2.606444358825683594e+00,1.141778707504272461e+00,1.092219948768615723e+00,-1.585475087165832520e+00,-5.358981609344482422e+00,-5.390837192535400391e+00,-6.999158859252929688e-01,1.701948881149291992e+00,-4.969457685947418213e-01,-2.229334115982055664e+00,6.837542057037353516e-01,-2.461904764175415039e+00,-2.251151561737060547e+00,2.635925114154815674e-01,5.912051796913146973e-01,-5.320612430572509766e+00,-9.969500541687011719e+00,-4.721499443054199219e+00,2.896280050277709961e+00,7.631283760070800781e+00,6.322024464607238770e-01,-3.858150482177734375e+00,-3.908613920211791992e+00,-1.471330404281616211e+00,-2.550323009490966797e+00,-3.972422599792480469e+00,-3.635206222534179688e+00,-1.239072203636169434e+00
1.618211269378662109e-01,9.530127048492431641e-02,-1.624813199043273926e+00,-3.106650590896606445e+00,-1.766591072082519531e+00,1.287424445152282715e+00,4.068907260894775391e+00,3.257583618164062500e+00,3.602445125579833984e-01,3.797487020492553711e-01,3.588521480560302734e+00,4.661506652832031250e+00,8.139240264892578125e+00,1.343138504028320312e+01,1.826896286010742188e+01,1.163077831268310547e+01,1.237567901611328125e+01,1.398487663269042969e+01,1.755557250976562500e+01,1.892618179321289062e+00,-3.536730051040649414e+00,-9.062482118606567383e-01,1.490593910217285156e+01,1.876348876953125000e+01,1.017601013183593750e+01,-2.604744672775268555e+00,-1.125323772430419922e+00,2.952353477478027344e+00,4.163577556610107422e+00,9.812814593315124512e-01,-1.189207553863525391e+00,3.394325673580169678e-01
-1.652322196960449219e+01,-1.704294204711914062e+01,-1.734716987609863281e+01,-1.887312316894531250e+01,-1.910859298706054688e+01,-1.607809638977050781e+01,-1.270644950866699219e+01,-1.297399425506591797e+01,-1.732354354858398438e+01,-1.700273895263671875e+01,-1.403562736511230469e+01,-9.045407295227050781e+00,-7.213024616241455078e+00,1.852311015129089355e+00,7.262551307678222656e+00,-2.144846677780151367e+00,-2.950135946273803711e+00,-2.108108520507812500e+00,4.512897968292236328e+00,-1.342437934875488281e+01,-1.777455520629882812e+01,-1.552128410339355469e+01,-2.649398326873779297e+00,8.548129200935363770e-01,-9.340156555175781250e+00,-2.350169563293457031e+01,-2.361440467834472656e+01,-1.813089942932128906e+01,-1.598726081848144531e+01,-1.883311080932617188e+01,-1.953469848632812500e+01,-1.550469779968261719e+01
-2.323805809020996094e+01,-2.348208427429199219e+01,-2.320960235595703125e+01,-2.366838073730468750e+01,-2.368376159667968750e+01,-2.053688430786132812e+01,-1.957126998901367188e+01,-1.949224281311035156e+01,-1.953912353515625000e+01,-1.983753585815429688e+01,-1.878567886352539062e+01,-1.653207969665527344e+01,-1.693491172790527344e+01,-1.130945491790771484e+01,-4.243895530700683594e+00,-1.480219650268554688e+01,-1.959242820739746094e+01,-1.887330627441406250e+01,-1.315634441375732422e+01,-2.208445549011230469e+01,-2.557980346679687500e+01,-2.316136169433593750e+01,-1.519176673889160156e+01,-1.424137592315673828e+01,-2.466842079162597656e+01,-2.916739654541015625e+01,-3.035418128967285156e+01,-2.800723648071289062e+01,-2.816611671447753906e+01,-2.870405387878417969e+01,-2.854619789123535156e+01,-2.209554290771484375e+01
-5.579037666320800781e+00,-3.754670858383178711e+00,-2.789181232452392578e+00,-2.335416078567504883e+00,-9.757914543151855469e-01,-1.317436695098876953e+00,-2.317311614751815796e-01,-1.074284315109252930e+00,1.186908841133117676e+00,3.897194564342498779e-02,-3.420468568801879883e-01,-6.068150043487548828e+00,-6.415721416473388672e+00,-6.393468856811523438e+00,2.235338687896728516e+00,-1.124958324432373047e+01,-1.452661991119384766e+01,-1.505932426452636719e+01,-5.537216186523437500e+00,-7.122855663299560547e+00,-8.931548118591308594e+00,-1.112567043304443359e+01,-5.264229774475097656e+00,-2.793203353881835938e+00,-6.523999214172363281e+00,-2.948726713657379150e-01,-1.749489307403564453e+00,-4.879675865173339844e+00,-5.949596881866455078e+00,-4.311702251434326172e+00,-4.901314258575439453e+00,-3.686746358871459961e+00
7.453600168228149414e-01,5.624566555023193359e+00,4.573386669158935547e+00,4.513371944427490234e+00,6.756815433502197266e+00,6.222616195678710938e+00,8.392776489257812500e+00,8.894160270690917969e+00,1.062522888183593750e+01,4.264649391174316406e+00,2.941155195236206055e+00,-9.934318065643310547e-01,1.057681798934936523e+00,-1.591866850852966309e+00,1.182086616754531860e-01,-1.028422546386718750e+01,-9.016074180603027344e+00,-9.001739501953125000e+00,4.403254508972167969e+00,7.008602142333984375e+00,4.889410495758056641e+00,-2.669436216354370117e+00,-1.805618882179260254e+00,2.953913450241088867e+00,8.759316444396972656e+00,1.035786533355712891e+01,1.133773326873779297e+01,6.582114696502685547e+00,6.600893974304199219e+00,8.484273910522460938e+00,9.954473495483398438e+00,7.139473915100097656e+00
-2.973166942596435547e+00,2.801139593124389648e+00,-2.663319408893585205e-01,-2.619032859802246094e+00,-2.075899362564086914e+00,1.220747113227844238e+00,2.173400878906250000e+00,1.304214715957641602e+00,8.116443157196044922e-01,-7.485051751136779785e-01,7.235667109489440918e-01,1.685581326484680176e+00,3.030223369598388672e+00,1.634789824485778809e+00,1.184764623641967773e+00,-6.665893554687500000e+00,-7.635563373565673828e+00,-5.193063259124755859e+00,6.093256473541259766e+00,6.528058052062988281e+00,4.041615962982177734e+00,2.647430896759033203e+00,-7.335973739624023438e+00,-6.080645561218261719e+00,2.330143928527832031e+00,5.287858486175537109e+00,4.464251995086669922e+00,3.352163076400756836e+00,1.901067852973937988e+00,3.338235616683959961e+00,5.771595001220703125e+00,4.075294971466064453e+00
-6.534480094909667969e+00,-2.579549789428710938e+00,-3.306367874145507812e+00,-5.502222061157226562e+00,-5.644395351409912109e+00,-4.200320243835449219e+00,-3.300333738327026367e+00,-2.673547029495239258e+00,1.238600730895996094e+00,6.389023661613464355e-01,6.574258208274841309e-01,-4.868682026863098145e-01,1.330538749694824219e+00,-1.667602300643920898e+00,-6.823120117187500000e-01,-4.284494400024414062e+00,-7.027984619140625000e+00,-5.579290866851806641e+00,1.069699764251708984e+00,-5.120696425437927246e-01,-2.832697391510009766e+00,6.125570535659790039e-01,-7.535127639770507812e+00,-1.057659435272216797e+01,-7.950786590576171875e+00,2.907690525054931641e+00,-6.046121120452880859e-01,1.423552036285400391e-01,-2.206940889358520508e+00,2.510051429271697998e-01,8.866035342216491699e-01,-2.059616327285766602e+00
-1.344793605804443359e+01,-1.344731235504150391e+01,-1.445119380950927734e+01,-1.540628814697265625e+01,-1.343694114685058594e+01,-1.183762454986572266e+01,-9.008536338806152344e+00,-7.502435207366943359e+00,-5.773202419281005859e+00,-1.089181613922119141e+01,-1.213620948791503906e+01,-1.055395507812500000e+01,-7.414584159851074219e+00,-1.233931541442871094e+01,-1.405764102935791016e+01,-1.080753135681152344e+01,-1.032672500610351562e+01,-9.448636054992675781e+00,-6.062200069427490234e+00,-4.741541385650634766e+00,-7.087055206298828125e+00,-7.775753021240234375e+00,-8.334006309509277344e+00,-1.341273689270019531e+01,-1.351877498626708984e+01,-6.340310096740722656e+00,-6.864277362823486328e+00,-9.024557113647460938e+00,-1.163039493560791016e+01,-9.361001968383789062e+00,-7.447725296020507812e+00,-1.246104907989501953e+01
-7.756039619445800781e+00,-9.881006240844726562e+00,-1.315242099761962891e+01,-1.352328109741210938e+01,-1.144231224060058594e+01,-5.123132705688476562e+00,-1.214158296585083008e+00,-9.418323636054992676e-01,-9.832974433898925781e+00,-1.533792781829833984e+01,-1.087860107421875000e+01,-2.912573337554931641e+00,-2.266335725784301758e+00,-5.650715351104736328e+00,-9.332026481628417969e+00,-6.796533107757568359e+00,-6.835934162139892578e+00,-4.724555313587188721e-01,2.320197105407714844e+00,4.451883792877197266e+00,2.019562959671020508e+00,6.772807985544204712e-02,-4.376796245574951172e+00,-9.315739631652832031e+00,-7.065618038177490234e+00,-4.778731822967529297e+00,-4.573817253112792969e+00,-7.243831157684326172e+00,-1.037527751922607422e+01,-9.892478942871093750e+00,-5.579743862152099609e+00,-7.636500835418701172e+00
1.259072780609130859e+01,1.519502639770507812e+01,1.084428024291992188e+01,9.859883308410644531e+00,1.273698234558105469e+01,1.792168998718261719e+01,1.940537643432617188e+01,1.721693229675292969e+01,6.945688724517822266e+00,2.311026573181152344e+00,1.127874946594238281e+01,1.797108650207519531e+01,1.623705863952636719e+01,1.354273509979248047e+01,1.248530578613281250e+01,1.070635414123535156e+01,6.424978256225585938e+00,1.273166275024414062e+01,1.559502029418945312e+01,1.521787357330322266e+01,1.262124538421630859e+01,1.305705833435058594e+01,6.811879634857177734e+00,4.583393096923828125e+00,7.504909992218017578e+00,1.231366348266601562e+01,1.140793323516845703e+01,1.044930744171142578e+01,8.736086845397949219e+00,8.938406944274902344e+00,1.259638881683349609e+01,1.459152793884277344e+01
1.525192260742187500e+01,1.968076133728027344e+01,1.599431324005126953e+01,1.389081954956054688e+01,1.654223060607910156e+01,1.733441925048828125e+01,1.745387840270996094e+01,1.371329116821289062e+01,1.169935131072998047e+01,7.300272464752197266e+00,1.261599922180175781e+01,1.473381996154785156e+01,1.532584857940673828e+01,1.060996150970458984e+01,8.134657859802246094e+00,9.064835548400878906e+00,7.313730239868164062e+00,5.719997882843017578e+00,5.648030757904052734e+00,3.375254869461059570e+00,4.867727756500244141e-01,3.144333600997924805e+00,4.916435241699218750e+00,3.377035379409790039e+00,6.105391979217529297e+00,1.057808113098144531e+01,1.353090476989746094e+01,1.343468284606933594e+01,1.384787273406982422e+01,1.319716072082519531e+01,1.443798065185546875e+01,1.885303115844726562e+01
1.015462517738342285e+00,7.210800170898437500e+00,4.032940387725830078e+00,6.640765070915222168e-01,1.967882961034774780e-01,2.051277875900268555e+00,3.758655071258544922e+00,1.051821708679199219e+00,1.433298826217651367e+00,8.738546371459960938e-01,2.964946746826171875e+00,1.453486561775207520e+00,2.500677406787872314e-01,-5.120601177215576172e+00,-1.063535022735595703e+01,-5.645101070404052734e+00,-3.468146800994873047e+00,-3.740682363510131836e+00,-4.604833602905273438e+00,-7.261310577392578125e+00,-1.157631015777587891e+01,-8.916886329650878906e+00,-4.163874149322509766e+00,-3.761003017425537109e+00,5.938781499862670898e-01,-7.170405387878417969e-01,2.758112251758575439e-01,3.141965627670288086e+00,5.495145797729492188e+00,5.285146236419677734e+00,4.794302463531494141e+00,9.058905601501464844e+00
1.015355587005615234e+01,1.927330207824707031e+01,1.302359485626220703e+01,9.088205337524414062e+00,1.115679645538330078e+01,1.547090244293212891e+01,1.484151554107666016e+01,9.860743522644042969e+00,7.508302211761474609e+00,8.650358200073242188e+00,1.398546028137207031e+01,1.359052085876464844e+01,8.606472969055175781e+00,2.817735910415649414e+00,-4.239667207002639771e-02,9.337522983551025391e-01,2.160361766815185547e+00,8.463360786437988281e+00,1.044345378875732422e+01,1.070235347747802734e+01,7.083267688751220703e+00,8.388340950012207031e+00,6.584913253784179688e+00,1.234226608276367188e+01,1.370274162292480469e+01,1.359612655639648438e+01,1.088285350799560547e+01,1.419061279296875000e+01,1.694238471984863281e+01,1.837640190124511719e+01,1.632462120056152344e+01,1.652951431274414062e+01
1.727320289611816406e+01,2.312069511413574219e+01,1.969562530517578125e+01,1.770952987670898438e+01,1.976219177246093750e+01,2.023129844665527344e+01,1.698969841003417969e+01,1.367233467102050781e+01,1.349444103240966797e+01,1.287768173217773438e+01,1.543915653228759766e+01,1.753782081604003906e+01,1.626524162292480469e+01,1.156860637664794922e+01,1.165153026580810547e+01,9.437927246093750000e+00,1.058896350860595703e+01,1.197741127014160156e+01,1.397324275970458984e+01,1.494026374816894531e+01,1.525516414642333984e+01,1.390827465057373047e+01,1.237621402740478516e+01,1.227122306823730469e+01,1.236130332946777344e+01,1.827701377868652344e+01,2.395557403564453125e+01,2.004589080810546875e+01,2.043350982666015625e+01,2.285667991638183594e+01,2.322924232482910156e+01,2.184111595153808594e+01
-3.030934333801269531e+00,2.506679594516754150e-01,3.460577726364135742e+00,3.872376441955566406e+00,2.491939067840576172e+00,4.958652555942535400e-01,-2.349046230316162109e+00,-1.884071826934814453e+00,8.190758228302001953e-01,2.373996257781982422e+00,4.327053427696228027e-01,-2.770638652145862579e-02,4.816585183143615723e-01,-3.471011400222778320e+00,-4.418761253356933594e+00,-6.180537223815917969e+00,-2.816611051559448242e+00,-5.172535896301269531e+00,-4.802174568176269531e+00,-7.840567588806152344e+00,-6.092378139495849609e+00,-6.438988208770751953e+00,-5.957060813903808594e+00,-1.282382583618164062e+01,-1.231699943542480469e+01,-2.756749153137207031e+00,7.861945629119873047e+00,1.770218372344970703e+00,8.491872549057006836e-01,4.264798164367675781e+00,5.730258464813232422e+00,2.684584379196166992e+00
-7.657516479492187500e+00,-1.779415845870971680e+00,-2.781268358230590820e+00,-4.039638519287109375e+00,-1.744528055191040039e+00,-1.163069367408752441e+00,-4.727009296417236328e+00,-7.350485801696777344e+00,-5.296054840087890625e+00,-2.104856729507446289e+00,-1.218698382377624512e+00,-3.908957481384277344e+00,-6.902991771697998047e+00,-9.681948661804199219e+00,-1.059127616882324219e+01,-1.326054286956787109e+01,-1.146173095703125000e+01,-7.573247909545898438e+00,-4.528914451599121094e+00,-5.472001552581787109e+00,-7.421656131744384766e+00,-7.987789630889892578e+00,-1.254083156585693359e+01,-1.060005760192871094e+01,-1.184862327575683594e+01,-4.104439735412597656e+00,-2.782621622085571289e+00,-3.788405895233154297e+00,-1.558877706527709961e+00,1.409836173057556152e+00,-2.700417518615722656e+00,-5.699528217315673828e+00
1.245382213592529297e+01,2.064085769653320312e+01,1.472208213806152344e+01,1.075858974456787109e+01,1.554394245147705078e+01,1.538213729858398438e+01,1.229687118530273438e+01,7.618182659149169922e+00,8.939023971557617188e+00,1.025449943542480469e+01,1.388763046264648438e+01,1.058284378051757812e+01,9.472655296325683594e+00,6.092510700225830078e+00,5.806926250457763672e+00,2.912258863449096680e+00,4.729621410369873047e+00,5.543253421783447266e+00,9.162599563598632812e+00,1.504426765441894531e+01,1.506781578063964844e+01,1.139538955688476562e+01,9.401715993881225586e-01,8.739386558532714844e+00,1.191437339782714844e+01,1.599440097808837891e+01,1.120121955871582031e+01,1.259153747558593750e+01,1.640660095214843750e+01,1.739077377319335938e+01,1.068491554260253906e+01,1.484178733825683594e+01
1.488490962982177734e+01,2.218959617614746094e+01,2.117232894897460938e+01,1.904275131225585938e+01,1.875325012207031250e+01,1.520392990112304688e+01,1.188337230682373047e+01,1.100596714019775391e+01,1.394129562377929688e+01,1.583327007293701172e+01,1.676751899719238281e+01,1.124989795684814453e+01,1.267053318023681641e+01,7.884064197540283203e+00,8.930887222290039062e+00,6.932653903961181641e+00,1.201770496368408203e+01,5.734431743621826172e+00,6.068336486816406250e+00,1.092083930969238281e+01,1.713466262817382812e+01,1.481048679351806641e+01,7.672595500946044922e+00,1.413911151885986328e+01,1.943946838378906250e+01,1.718959045410156250e+01,1.280741977691650391e+01,1.422541713714599609e+01,1.710011291503906250e+01,1.929860305786132812e+01,1.575668048858642578e+01,2.101584625244140625e+01
3.275551319122314453e+00,4.940519332885742188e+00,7.563783645629882812e+00,8.699432373046875000e+00,6.705453395843505859e+00,3.913307428359985352e+00,-1.162878513336181641e+00,-4.426038563251495361e-01,2.940397024154663086e+00,5.558187484741210938e+00,3.215679407119750977e+00,7.946377396583557129e-01,3.309225142002105713e-01,-4.611391723155975342e-01,3.475698232650756836e+00,1.115773081779479980e+00,1.451120615005493164e+00,-5.283467769622802734e-01,2.237633466720581055e+00,6.001181602478027344e+00,9.633350372314453125e+00,6.855839252471923828e+00,1.028719997406005859e+01,1.579723358154296875e+01,1.532985305786132812e+01,2.721550941467285156e+00,3.442403078079223633e+00,2.968874454498291016e+00,4.352128505706787109e+00,8.062695503234863281e+00,6.848092079162597656e+00,4.834413528442382812e+00
5.904707908630371094e+00,3.606813192367553711e+00,2.619941473007202148e+00,2.226610422134399414e+00,2.503424406051635742e+00,4.828577518463134766e+00,1.886130094528198242e+00,-1.464292883872985840e+00,-1.938455939292907715e+00,2.206335663795471191e-01,1.316613912582397461e+00,5.480370521545410156e+00,3.723372697830200195e+00,3.067466974258422852e+00,7.437926292419433594e+00,7.918587684631347656e+00,4.806379795074462891e+00,4.195733070373535156e+00,8.242695808410644531e+00,1.511277866363525391e+01,1.377310943603515625e+01,9.134690284729003906e+00,1.825306320190429688e+01,1.850226974487304688e+01,1.200900077819824219e+01,-2.683191061019897461e+00,1.094763183593750000e+01,7.989893436431884766e+00,5.300092220306396484e+00,3.268623590469360352e+00,7.336516380310058594e-01,1.190115690231323242e+00
3.979873180389404297e+00,8.531764984130859375e+00,4.305650711059570312e+00,1.788109183311462402e+00,1.347399711608886719e+00,6.735362529754638672e+00,5.283517837524414062e+00,-1.037397384643554688e+00,-3.127120256423950195e+00,-1.636786341667175293e+00,5.872437477111816406e+00,9.014913558959960938e+00,6.641230106353759766e+00,2.013998746871948242e+00,5.344066619873046875e+00,1.030197429656982422e+01,1.310724925994873047e+01,8.406371116638183594e+00,4.369015216827392578e+00,7.321479320526123047e+00,8.038561820983886719e+00,8.158194541931152344e+00,1.501867580413818359e+01,1.355883789062500000e+01,7.020206451416015625e+00,-2.771933317184448242e+00,1.204366397857666016e+01,1.182373905181884766e+01,6.846660137176513672e+00,3.073855489492416382e-02,-1.071465849876403809e+00,7.469724178314208984e+00
-5.518853068351745605e-01,6.266738414764404297e+00,1.632560968399047852e+00,1.408356547355651855e+00,2.171387434005737305e+00,7.619511604309082031e+00,3.264849901199340820e+00,-2.865385770797729492e+00,-4.789890766143798828e+00,-3.581307888031005859e+00,4.650380134582519531e+00,6.887020587921142578e+00,5.263911247253417969e+00,8.807130455970764160e-01,2.494447946548461914e+00,5.447441101074218750e+00,1.080463314056396484e+01,7.051422119140625000e+00,-4.416343569755554199e-01,-5.356370449066162109e+00,-3.220990419387817383e+00,3.473827362060546875e+00,3.981662511825561523e+00,7.731230735778808594e+00,5.286351203918457031e+00,-5.760642290115356445e-01,3.181646168231964111e-01,3.612197637557983398e+00,3.299537897109985352e+00,2.516126036643981934e-01,8.012664318084716797e-01,6.382221221923828125e+00
9.510627746582031250e+00,1.356829547882080078e+01,1.012587833404541016e+01,1.026438045501708984e+01,1.114909267425537109e+01,1.394061946868896484e+01,1.095239925384521484e+01,8.345586776733398438e+00,2.428375482559204102e+00,3.940559625625610352e+00,8.651262283325195312e+00,1.298103237152099609e+01,1.443717098236083984e+01,1.583018112182617188e+01,1.458452033996582031e+01,1.228669357299804688e+01,1.178681087493896484e+01,9.275363922119140625e+00,5.856945991516113281e+00,3.218710184097290039e+00,3.346935749053955078e+00,7.170799732208251953e+00,8.330955505371093750e-01,-7.033261656761169434e-01,-1.736811697483062744e-01,5.406532764434814453e+00,3.939705133438110352e+00,5.133181571960449219e+00,8.150314331054687500e+00,9.240535736083984375e+00,7.656211376190185547e+00,1.241660690307617188e+01
1.340407085418701172e+01,1.964499855041503906e+01,1.806200790405273438e+01,1.631635665893554688e+01,1.370055198669433594e+01,1.464891815185546875e+01,1.609881210327148438e+01,1.588143634796142578e+01,1.099534130096435547e+01,1.111551284790039062e+01,1.397996234893798828e+01,1.373569011688232422e+01,1.431480121612548828e+01,1.683434104919433594e+01,1.617411422729492188e+01,1.468581295013427734e+01,1.338354206085205078e+01,1.134429168701171875e+01,6.804435729980468750e+00,8.389431953430175781e+00,6.831169128417968750e+00,5.435830116271972656e+00,-6.939266681671142578e+00,-1.375417232513427734e+01,-1.050778102874755859e+01,4.242041587829589844e+00,8.848898887634277344e+00,9.862624168395996094e+00,1.213614368438720703e+01,1.103950119018554688e+01,5.495820999145507812e+00,1.466952323913574219e+01
2.527498483657836914e+00,4.736639022827148438e+00,5.281333923339843750e+00,4.966770648956298828e+00,2.547297000885009766e+00,3.090012788772583008e+00,4.583836078643798828e+00,3.253256797790527344e+00,4.471109867095947266e+00,2.958776473999023438e+00,4.723012447357177734e+00,5.579351186752319336e-01,8.001099228858947754e-01,-1.072627067565917969e+00,-4.214444458484649658e-01,1.482991456985473633e+00,3.845298767089843750e+00,3.313934087753295898e+00,-4.059247493743896484e+00,-1.765089392662048340e+00,-3.655281782150268555e+00,-3.824273109436035156e+00,-1.324262332916259766e+01,-8.705480575561523438e+00,-6.569696426391601562e+00,-2.282654047012329102e+00,-4.261233329772949219e+00,2.240305662155151367e+00,5.196941852569580078e+00,4.746097922325134277e-01,-7.346820831298828125e+00,9.558144211769104004e-01
-1.826253533363342285e+00,-8.492306709289550781e+00,-6.086936950683593750e+00,-5.826679706573486328e+00,-5.961653232574462891e+00,-7.788496017456054688e+00,-5.543812751770019531e+00,-5.675908565521240234e+00,-1.866240739822387695e+00,-4.995846271514892578e+00,-5.726493358612060547e+00,-8.912526130676269531e+00,-5.779435157775878906e+00,-5.648551940917968750e+00,-7.294464588165283203e+00,-6.872208118438720703e+00,-6.604963302612304688e+00,-5.709615707397460938e+00,-1.124873924255371094e+01,-4.496358394622802734e+00,-3.792100191116333008e+00,-3.831837892532348633e+00,-4.000752449035644531e+00,5.558654308319091797e+00,2.702273607254028320e+00,-5.026326179504394531e+00,-1.060118579864501953e+01,-3.730657815933227539e+00,-1.599898934364318848e+00,-5.205091476440429688e+00,-1.186309909820556641e+01,-9.053290367126464844e+00
3.960263490676879883e+00,-1.298418760299682617e+00,4.638543128967285156e-01,-1.528510928153991699e+00,-1.661620140075683594e+00,-5.752550601959228516e+00,2.856409549713134766e-01,3.708316802978515625e+00,4.772055149078369141e+00,-2.763348102569580078e+00,-3.904637575149536133e+00,-7.000947475433349609e+00,-2.625785589218139648e+00,2.626302957534790039e+00,8.269236683845520020e-01,-1.832106947898864746e+00,-3.196723937988281250e+00,-1.475582718849182129e-01,-5.893072128295898438e+00,4.837389469146728516e+00,8.952606201171875000e+00,5.074612617492675781e+00,8.534549713134765625e+00,8.765303611755371094e+00,3.318702697753906250e+00,-4.978081703186035156e+00,-4.588164091110229492e-01,1.862399578094482422e+00,1.031254291534423828e+00,1.733945965766906738e+00,-3.653378248214721680e+00,-4.241077899932861328e+00
1.022137928009033203e+01,7.209027290344238281e+00,7.537369728088378906e+00,6.806490421295166016e+00,7.969831466674804688e+00,3.837501764297485352e+00,7.662143230438232422e+00,1.178960800170898438e+01,1.094754600524902344e+01,4.405474662780761719e+00,2.861189126968383789e+00,-5.137377381324768066e-01,1.174726724624633789e+00,5.091026782989501953e+00,5.609592914581298828e+00,5.748273372650146484e+00,7.155940532684326172e+00,8.039811134338378906e+00,-2.889334559440612793e-01,8.065279006958007812e+00,1.371787738800048828e+01,8.399390220642089844e+00,1.657717895507812500e+01,1.138583374023437500e+01,4.113709449768066406e+00,-4.075360298156738281e+00,8.848641395568847656e+00,9.096083641052246094e+00,5.707460880279541016e+00,7.158562183380126953e+00,2.697988033294677734e+00,4.149313926696777344e+00
7.211811065673828125e+00,-9.234200716018676758e-01,-3.206116557121276855e-01,2.444682359695434570e+00,5.318566322326660156e+00,3.145040035247802734e+00,2.025414705276489258e+00,5.149774551391601562e+00,7.076619148254394531e+00,1.012165164947509766e+01,4.951365470886230469e+00,1.998878240585327148e+00,4.021112918853759766e-01,3.374905347824096680e+00,4.152461051940917969e+00,8.253371238708496094e+00,6.406374931335449219e+00,2.167074203491210938e+00,-5.577665328979492188e+00,-4.324483871459960938e+00,1.102623939514160156e+00,2.606144905090332031e+00,1.902060317993164062e+01,9.255393028259277344e+00,-3.243755340576171875e+00,-1.244137096405029297e+01,6.088469505310058594e+00,7.927591323852539062e+00,3.720583438873291016e+00,3.391412794589996338e-01,-5.372385025024414062e+00,-4.363430023193359375e+00
-2.952453613281250000e+00,-1.237616348266601562e+01,-1.121846675872802734e+01,-8.451246261596679688e+00,-7.683248519897460938e+00,-5.929166793823242188e+00,-4.971496582031250000e+00,-1.055433273315429688e+00,-2.699879407882690430e+00,3.071674346923828125e+00,-1.200316071510314941e+00,-2.533619880676269531e+00,-4.847230911254882812e+00,2.775156497955322266e+00,3.664901018142700195e+00,4.448625087738037109e+00,-2.425054788589477539e+00,-1.773620724678039551e+00,-8.909177780151367188e+00,-1.127165222167968750e+01,-7.454031467437744141e+00,-1.627707242965698242e+00,1.352351665496826172e+01,7.455607414245605469e+00,-2.641157627105712891e+00,-1.598006153106689453e+01,-3.528989076614379883e+00,6.143180131912231445e-01,-3.467284679412841797e+00,-7.302228927612304688e+00,-1.162701511383056641e+01,-1.632533454895019531e+01
-3.340716123580932617e+00,-8.780480384826660156e+00,-7.726299285888671875e+00,-4.825184345245361328e+00,-5.489946365356445312e+00,-3.321048498153686523e+00,-1.178096055984497070e+00,4.064448356628417969e+00,-2.363559246063232422e+00,-2.131272792816162109e+00,-5.655236721038818359e+00,-5.652622699737548828e+00,-4.857779979705810547e+00,6.973581314086914062e+00,1.025394535064697266e+01,6.315291404724121094e+00,-5.322858691215515137e-01,6.599535465240478516e+00,1.689324021339416504e+00,2.902765512466430664e+00,4.590972423553466797e+00,3.374497413635253906e+00,9.566358566284179688e+00,1.826445388793945312e+01,1.685231208801269531e+01,-1.851939558982849121e+00,-3.560246706008911133e+00,-1.026292443275451660e+00,-4.319948673248291016e+00,-2.822792768478393555e+00,-2.827539682388305664e+00,-8.830608367919921875e+00
-1.853091001510620117e+00,-3.520584821701049805e+00,2.638622522354125977e-01,4.540661334991455078e+00,3.475086450576782227e+00,8.924317955970764160e-01,-3.983973860740661621e-01,5.032364845275878906e+00,6.216242790222167969e+00,5.313133716583251953e+00,-4.260997772216796875e+00,-8.385888099670410156e+00,-2.607556343078613281e+00,1.354639410972595215e+00,-5.437363982200622559e-01,-2.847209692001342773e+00,2.412123829126358032e-01,5.118126869201660156e+00,2.880856275558471680e+00,8.638666152954101562e+00,1.122210311889648438e+01,5.892543315887451172e+00,1.304774045944213867e+00,9.348953247070312500e+00,1.009432220458984375e+01,-4.277167916297912598e-01,-3.677922487258911133e+00,-2.639099836349487305e+00,-4.486964702606201172e+00,-3.666164159774780273e+00,-4.127075195312500000e+00,-7.640780806541442871e-01
-1.116976928710937500e+01,-1.238120460510253906e+01,-8.889446258544921875e+00,-5.121990203857421875e+00,-4.885152816772460938e+00,-7.326350212097167969e+00,-8.421014785766601562e+00,-5.975101947784423828e+00,4.445002079010009766e-01,6.084329485893249512e-01,-9.188927650451660156e+00,-1.615938758850097656e+01,-1.138196372985839844e+01,-1.389538097381591797e+01,-1.815529251098632812e+01,-1.768528938293457031e+01,-1.160361194610595703e+01,-6.828389644622802734e+00,-1.025568008422851562e+01,-6.597202777862548828e+00,-1.601304054260253906e+00,1.134010702371597290e-01,-9.486699104309082031e+00,-1.452437782287597656e+01,-1.467296123504638672e+01,-1.539508438110351562e+01,-1.341215324401855469e+01,-1.095325088500976562e+01,-1.081117153167724609e+01,-1.413634395599365234e+01,-1.536905384063720703e+01,-1.005766773223876953e+01
-6.106413841247558594e+00,-1.286102199554443359e+01,-1.566139793395996094e+01,-1.170239734649658203e+01,-7.803220748901367188e+00,-6.139933586120605469e+00,-5.938803672790527344e+00,-7.013271331787109375e+00,-7.483589172363281250e+00,-1.085753440856933594e+01,-1.001229858398437500e+01,-8.072738647460937500e+00,-3.300333976745605469e+00,-1.030941486358642578e+01,-9.919365882873535156e+00,-9.878006935119628906e+00,-8.931625366210937500e+00,-4.679912090301513672e+00,-6.840812683105468750e+00,-7.156886577606201172e+00,-1.970232248306274414e+00,4.408505916595458984e+00,-7.935933113098144531e+00,-1.641087722778320312e+01,-1.346630764007568359e+01,-1.064115619659423828e+01,-9.830756187438964844e+00,-5.848006248474121094e+00,-6.856637954711914062e+00,-1.093605136871337891e+01,-9.865773200988769531e+00,-1.215241909027099609e+01
9.572951316833496094e+00,4.444611549377441406e+00,1.301784664392471313e-01,5.179880619049072266e+00,6.579390525817871094e+00,6.503521442413330078e+00,4.055554389953613281e+00,5.897126197814941406e+00,5.373585700988769531e+00,-1.246757432818412781e-01,6.926070213317871094e+00,1.358890056610107422e+01,1.716909599304199219e+01,5.653971195220947266e+00,5.874761104583740234e+00,3.810586929321289062e+00,6.402410507202148438e+00,7.457893848419189453e+00,9.268068313598632812e+00,8.081275939941406250e+00,1.204231071472167969e+01,1.228606796264648438e+01,3.291370868682861328e+00,4.066903114318847656e+00,6.523455142974853516e+00,7.477334976196289062e+00,6.679010391235351562e+00,8.420313835144042969e+00,6.494998455047607422e+00,5.574798583984375000e+00,5.808649539947509766e+00,4.717104911804199219e+00
3.175272464752197266e+00,8.103666305541992188e+00,7.788323402404785156e+00,1.047733974456787109e+01,3.614912509918212891e+00,2.626872062683105469e+00,5.856202840805053711e-01,7.412265777587890625e+00,1.173644638061523438e+01,6.733904361724853516e+00,8.618474960327148438e+00,9.898392677307128906e+00,9.484813690185546875e+00,-1.579766273498535156e+00,-2.074602842330932617e+00,-1.933526515960693359e+00,5.917745590209960938e+00,7.556446552276611328e+00,9.537665367126464844e+00,7.189403533935546875e+00,9.116521835327148438e+00,6.785310745239257812e+00,-3.103677034378051758e+00,-3.990334510803222656e+00,3.173956394195556641e+00,1.393912315368652344e+01,1.418251037597656250e+01,5.066295146942138672e+00,5.432763099670410156e+00,1.234256935119628906e+01,1.600399780273437500e+01,1.655127334594726562e+01
-1.093983745574951172e+01,-9.313572883605957031e+00,-6.548403739929199219e+00,-3.971346616744995117e+00,-9.422656059265136719e+00,-9.178531646728515625e+00,-7.587304592132568359e+00,-1.809507966041564941e+00,-5.650358200073242188e-01,-5.775729179382324219e+00,-5.547406196594238281e+00,-6.321465969085693359e+00,-5.467710018157958984e+00,-1.399392700195312500e+01,-1.579580688476562500e+01,-1.147618579864501953e+01,-2.501654863357543945e+00,-6.532753109931945801e-01,-2.405620813369750977e-01,-2.842312097549438477e+00,-3.694737434387207031e+00,-1.944628953933715820e+00,-1.259081077575683594e+01,-1.850836563110351562e+01,-6.734198093414306641e+00,5.502373218536376953e+00,4.173036575317382812e+00,-7.580451488494873047e+00,-8.121835708618164062e+00,6.851705908775329590e-01,9.604028701782226562e+00,3.126443147659301758e+00
-8.810955047607421875e+00,-1.493955421447753906e+01,-1.801259231567382812e+01,-1.489992713928222656e+01,-1.050278854370117188e+01,-8.084885597229003906e+00,-8.128252029418945312e+00,-9.275608062744140625e+00,-1.122092819213867188e+01,-1.208944511413574219e+01,-3.438127040863037109e+00,-9.210935831069946289e-01,5.589001774787902832e-01,-9.939679145812988281e+00,-1.353592014312744141e+01,-9.802537918090820312e+00,-4.271461486816406250e+00,-8.499273300170898438e+00,-8.569707870483398438e+00,-1.063392734527587891e+01,-9.163356781005859375e+00,-3.266506433486938477e+00,-8.614586830139160156e+00,-1.284796047210693359e+01,-6.352631568908691406e+00,-3.772008419036865234e+00,-4.717253684997558594e+00,-7.738054275512695312e+00,-1.169199180603027344e+01,-1.058016204833984375e+01,-6.312070846557617188e+00,-1.546827507019042969e+01
-2.009900808334350586e+00,-4.908852577209472656e+00,-1.401205921173095703e+01,-1.492752933502197266e+01,-7.929084777832031250e+00,-1.994758367538452148e+00,-2.901904821395874023e+00,-8.667867660522460938e+00,-1.186404132843017578e+01,-8.789649963378906250e+00,6.312350749969482422e+00,1.101624870300292969e+01,8.260228157043457031e+00,-5.622538566589355469e+00,-8.161500930786132812e+00,-6.625084400177001953e+00,-2.847737550735473633e+00,-6.135939598083496094e+00,-8.634366989135742188e+00,-1.216906356811523438e+01,-6.310632228851318359e+00,1.781698942184448242e+00,-3.363102674484252930e+00,-5.582767963409423828e+00,1.148028016090393066e+00,2.458111047744750977e+00,-9.012973308563232422e-01,-1.461061239242553711e+00,-4.489810943603515625e+00,-6.053259849548339844e+00,-6.711981296539306641e+00,-8.806440353393554688e+00
8.863007545471191406e+00,7.517696857452392578e+00,3.089461088180541992e+00,3.132853746414184570e+00,5.769039630889892578e+00,9.598917007446289062e+00,9.902175903320312500e+00,7.306221008300781250e+00,3.313898324966430664e+00,2.073276281356811523e+00,1.274452400207519531e+01,1.666091918945312500e+01,1.512639236450195312e+01,1.860952734947204590e+00,-7.204446792602539062e-01,1.431093692779541016e+00,7.721170902252197266e+00,9.962430000305175781e+00,9.709056854248046875e+00,8.646965026855468750e+00,1.009025096893310547e+01,1.356687736511230469e+01,3.031624555587768555e+00,4.756025791168212891e+00,1.609242630004882812e+01,2.169486618041992188e+01,1.261964416503906250e+01,7.437572956085205078e+00,7.683458328247070312e+00,1.215016746520996094e+01,1.445848369598388672e+01,1.229052639007568359e+01
1.174582195281982422e+01,1.128615093231201172e+01,9.152393341064453125e+00,1.337444972991943359e+01,1.524015522003173828e+01,1.326484107971191406e+01,1.000924015045166016e+01,1.165156745910644531e+01,9.626746177673339844e+00,4.472189426422119141e+00,1.057129001617431641e+01,1.336542510986328125e+01,1.655408287048339844e+01,5.374067783355712891e+00,2.080676794052124023e+00,3.944341897964477539e+00,1.201459217071533203e+01,1.182713031768798828e+01,1.184869384765625000e+01,1.688105392456054688e+01,1.603020286560058594e+01,1.201574993133544922e+01,3.074311017990112305e+00,5.669246196746826172e+00,1.447981071472167969e+01,2.135925483703613281e+01,1.742248153686523438e+01,1.083262443542480469e+01,1.104539680480957031e+01,1.913247871398925781e+01,2.466555023193359375e+01,1.699709510803222656e+01
-2.727208852767944336e+00,1.565939903259277344e+00,-3.971804141998291016e+00,-4.007103919982910156e+00,-8.006244301795959473e-01,-1.698553442955017090e+00,-6.266565799713134766e+00,-5.608017921447753906e+00,-8.771318435668945312e+00,-1.373247623443603516e+01,-6.004975795745849609e+00,-8.216479420661926270e-01,-1.012315154075622559e+00,-1.104950332641601562e+01,-1.257081508636474609e+01,-1.146455574035644531e+01,-3.927572250366210938e+00,-3.096649885177612305e+00,-4.350229263305664062e+00,-2.172398567199707031e+00,-1.028841257095336914e+00,-2.850314140319824219e+00,-4.748162269592285156e+00,-9.190518379211425781e+00,-5.188279628753662109e+00,8.435481786727905273e-01,7.207004070281982422e+00,1.694666385650634766e+00,-9.647271037101745605e-01,3.905235767364501953e+00,1.095760059356689453e+01,6.365778446197509766e+00
1.522807478904724121e+00,2.788373082876205444e-02,-3.019356012344360352e+00,-6.190725803375244141e+00,-3.117061853408813477e+00,-1.073168992996215820e+00,-2.034532546997070312e+00,-3.823544979095458984e+00,-8.721459388732910156e+00,-1.232157707214355469e+01,-6.670333862304687500e+00,-1.284101128578186035e+00,-5.544646263122558594e+00,-1.054356956481933594e+01,-8.794204711914062500e+00,-6.769598007202148438e+00,-2.117971897125244141e+00,6.108202457427978516e+00,5.912884712219238281e+00,3.907572746276855469e+00,4.141968250274658203e+00,6.222479343414306641e+00,6.159959316253662109e+00,3.948804140090942383e+00,7.646948337554931641e+00,6.278157234191894531e+00,7.506877899169921875e+00,3.934695959091186523e+00,1.400106400251388550e-01,9.399055242538452148e-01,8.303368568420410156e+00,6.088385105133056641e+00
1.778405570983886719e+01,6.981564521789550781e+00,9.084799766540527344e+00,1.136561584472656250e+01,1.614830207824707031e+01,1.499826812744140625e+01,1.371800231933593750e+01,1.328457069396972656e+01,1.347160053253173828e+01,1.044269561767578125e+01,1.291158676147460938e+01,1.219368076324462891e+01,1.250741291046142578e+01,1.169002151489257812e+01,1.549216556549072266e+01,1.461942005157470703e+01,1.766421318054199219e+01,2.612941932678222656e+01,2.581196975708007812e+01,2.569206047058105469e+01,2.430239677429199219e+01,2.197549057006835938e+01,2.269504737854003906e+01,2.928661346435546875e+01,3.314003753662109375e+01,2.347938919067382812e+01,1.814943313598632812e+01,1.750867080688476562e+01,1.508807468414306641e+01,1.485071372985839844e+01,1.982304573059082031e+01,1.609345245361328125e+01
3.707965135574340820e+00,-1.254344582557678223e+00,7.175205647945404053e-02,3.864780187606811523e+00,9.138159751892089844e+00,6.785972118377685547e+00,4.056498527526855469e+00,5.850857734680175781e+00,1.185430431365966797e+01,8.539113044738769531e+00,8.101742744445800781e+00,3.750449657440185547e+00,8.035922050476074219e+00,6.275157451629638672e+00,9.257372856140136719e+00,2.475700139999389648e+00,5.888421535491943359e+00,1.073956203460693359e+01,1.444518184661865234e+01,1.066626548767089844e+01,5.421117305755615234e+00,1.977487802505493164e-01,3.954254865646362305e+00,8.439597129821777344e+00,1.178190898895263672e+01,8.454958915710449219e+00,1.102222156524658203e+01,1.022704505920410156e+01,7.592149257659912109e+00,7.915995597839355469e+00,1.043921375274658203e+01,7.079177379608154297e+00
-2.053877639770507812e+01,-2.533418083190917969e+01,-2.063522911071777344e+01,-1.809707069396972656e+01,-1.762406730651855469e+01,-1.905521965026855469e+01,-1.677526092529296875e+01,-1.232500934600830078e+01,-1.046933269500732422e+01,-1.336408424377441406e+01,-1.679589080810546875e+01,-1.663668251037597656e+01,-1.349327087402343750e+01,-1.555144882202148438e+01,-1.119206714630126953e+01,-1.808898925781250000e+01,-1.639858055114746094e+01,-1.173040771484375000e+01,-4.025784015655517578e+00,-1.237108230590820312e+01,-2.056490325927734375e+01,-2.240560531616210938e+01,-1.867153930664062500e+01,-1.985931968688964844e+01,-1.740956878662109375e+01,-1.648187255859375000e+01,-1.055930995941162109e+01,-1.349004745483398438e+01,-1.814190483093261719e+01,-1.811567687988281250e+01,-1.315971851348876953e+01,-1.846497344970703125e+01
-1.779519081115722656e+01,-2.739242744445800781e+01,-1.998432922363281250e+01,-1.567979621887207031e+01,-1.986893081665039062e+01,-2.180795288085937500e+01,-1.525857639312744141e+01,-9.100072860717773438e+00,-1.024743461608886719e+01,-1.221173477172851562e+01,-1.268426322937011719e+01,-1.257846355438232422e+01,-1.078654766082763672e+01,-9.619967460632324219e+00,-8.296250104904174805e-01,-6.402350902557373047e+00,-7.823161602020263672e+00,-6.000274181365966797e+00,2.320064067840576172e+00,-2.196885108947753906e+00,-7.628029346466064453e+00,-1.043322277069091797e+01,-8.275702476501464844e+00,-1.046417045593261719e+01,-8.486624717712402344e+00,-1.312296199798583984e+01,-1.502327156066894531e+01,-1.882580947875976562e+01,-2.166250801086425781e+01,-2.061246681213378906e+01,-1.478016090393066406e+01,-2.323171234130859375e+01
-1.274840641021728516e+01,-1.226382637023925781e+01,-7.800678253173828125e+00,-5.154678821563720703e+00,-9.373428344726562500e+00,-1.114278602600097656e+01,-5.202929973602294922e+00,6.698564291000366211e-01,1.264867782592773438e+00,-1.278071254491806030e-01,8.469006419181823730e-01,-8.954475522041320801e-01,-5.729120969772338867e-01,-9.706044793128967285e-01,7.950678348541259766e+00,2.240960359573364258e+00,1.075151324272155762e+00,-3.973988056182861328e+00,-3.588605225086212158e-01,-1.348308324813842773e+00,-1.465972423553466797e+00,-5.325696468353271484e+00,-4.342620372772216797e+00,8.812320828437805176e-01,5.786047458648681641e+00,2.215144634246826172e-01,-1.181755256652832031e+01,-1.434143543243408203e+01,-1.316870594024658203e+01,-9.084795951843261719e+00,-4.983728885650634766e+00,-9.269737243652343750e+00
-1.306035804748535156e+01,-4.920301437377929688e+00,-2.644133567810058594e+00,-3.778736591339111328e+00,-5.659891128540039062e+00,-6.936987400054931641e+00,-1.929694414138793945e+00,3.700584471225738525e-01,-2.184411048889160156e+00,-7.100306034088134766e+00,-6.253016948699951172e+00,2.087719291448593140e-01,1.087204217910766602e-01,-5.475107192993164062e+00,-2.351491689682006836e+00,-6.478148937225341797e+00,-7.145081520080566406e+00,-1.307437896728515625e+01,-1.221619606018066406e+01,-1.445003700256347656e+01,-1.307376098632812500e+01,-1.245652294158935547e+01,-1.046852970123291016e+01,-6.530288219451904297e+00,-4.336622714996337891e+00,-4.487594604492187500e+00,-1.118001174926757812e+01,-1.331891536712646484e+01,-1.244597339630126953e+01,-7.944067478179931641e+00,-3.601337432861328125e+00,-3.445180416107177734e+00
-2.111753702163696289e+00,-4.020860195159912109e+00,-4.706814289093017578e+00,-4.999765396118164062e+00,-4.501772403717041016e+00,-3.663050889968872070e+00,-3.371968492865562439e-02,-1.076228618621826172e+00,-6.810889720916748047e+00,-8.688462257385253906e+00,-7.116264343261718750e+00,2.932267427444458008e+00,2.708038806915283203e+00,-2.052548408508300781e+00,-2.857065439224243164e+00,-5.669674396514892578e+00,-7.220180511474609375e+00,-6.907850265502929688e+00,-5.159204959869384766e+00,-6.103471755981445312e+00,-5.329673290252685547e+00,-1.627717852592468262e+00,2.862801074981689453e+00,-3.863324403762817383e+00,-1.044707393646240234e+01,-1.155016326904296875e+01,-5.457798004150390625e+00,-4.615166187286376953e+00,-6.692715167999267578e+00,-7.733792781829833984e+00,-5.948929309844970703e+00,-6.488082885742187500e+00
-6.183067798614501953e+00,-1.391080856323242188e+01,-1.770418548583984375e+01,-1.597509860992431641e+01,-1.252528762817382812e+01,-9.115808486938476562e+00,-5.683135032653808594e+00,-9.135602951049804688e+00,-1.192773437500000000e+01,-7.554751396179199219e+00,-5.635975837707519531e+00,-2.649900197982788086e+00,-4.600320339202880859e+00,-7.418202400207519531e+00,-7.304766178131103516e+00,-8.981821060180664062e+00,-9.890277862548828125e+00,-5.128104209899902344e+00,-3.585853815078735352e+00,-2.132637739181518555e+00,-3.576817035675048828e+00,-9.065904617309570312e-01,5.779142856597900391e+00,3.731990814208984375e+00,-5.561385154724121094e+00,-1.504714870452880859e+01,-1.065245723724365234e+01,-6.225084781646728516e+00,-7.821210384368896484e+00,-1.327056026458740234e+01,-1.627057456970214844e+01,-1.657304954528808594e+01
-1.804339981079101562e+01,-1.770798683166503906e+01,-2.050094604492187500e+01,-1.971870613098144531e+01,-1.618007278442382812e+01,-1.519084262847900391e+01,-1.201395511627197266e+01,-1.629946136474609375e+01,-1.817974853515625000e+01,-1.650883674621582031e+01,-1.668122673034667969e+01,-1.362758350372314453e+01,-1.517926025390625000e+01,-2.183536529541015625e+01,-1.750026321411132812e+01,-1.813205718994140625e+01,-1.648880767822265625e+01,-1.469593524932861328e+01,-1.012566661834716797e+01,-1.175602817535400391e+01,-1.616286087036132812e+01,-1.716643905639648438e+01,-2.830191135406494141e+00,8.126010894775390625e+00,2.202063083648681641e+00,-1.548660373687744141e+01,-1.948251342773437500e+01,-1.767901420593261719e+01,-1.512965011596679688e+01,-1.672604751586914062e+01,-1.909968948364257812e+01,-1.856946563720703125e+01
-2.035001993179321289e+00,-2.879430770874023438e+00,-3.172745466232299805e+00,-3.203734159469604492e+00,-9.887948036193847656e-01,-1.849925041198730469e+00,-1.342610597610473633e+00,-4.545172214508056641e+00,-9.067721366882324219e+00,-1.047029495239257812e+01,-7.783388614654541016e+00,-2.580523252487182617e+00,-3.397296190261840820e+00,-9.781807899475097656e+00,-6.301836490631103516e+00,-7.605223655700683594e+00,-4.562472820281982422e+00,-5.630556583404541016e+00,-1.070390224456787109e+00,-4.400360584259033203e+00,-5.854661464691162109e+00,-6.075975894927978516e+00,4.947032928466796875e+00,8.925761222839355469e+00,5.296808242797851562e+00,-7.983145236968994141e+00,-6.304023742675781250e+00,-7.648487091064453125e+00,-5.666871547698974609e+00,-2.792634248733520508e+00,-2.344182491302490234e+00,-2.175854921340942383e+00
1.174955844879150391e+01,1.021903228759765625e+01,1.101770877838134766e+01,1.041744804382324219e+01,1.010140323638916016e+01,1.028892230987548828e+01,1.056057834625244141e+01,1.018849182128906250e+01,7.405276298522949219e+00,7.463084697723388672e+00,1.146270656585693359e+01,1.257803440093994141e+01,1.182192134857177734e+01,1.058013629913330078e+01,1.237046337127685547e+01,8.405510902404785156e+00,1.065094757080078125e+01,1.159095668792724609e+01,1.410407924652099609e+01,1.310935783386230469e+01,1.382860946655273438e+01,1.399097919464111328e+01,1.490406322479248047e+01,1.551092147827148438e+01,1.404018497467041016e+01,6.428291320800781250e+00,1.296795463562011719e+01,1.193912220001220703e+01,9.021203041076660156e+00,1.042704582214355469e+01,1.311278724670410156e+01,1.269866657257080078e+01
-3.417787075042724609e+00,-5.676074981689453125e+00,-4.373230457305908203e+00,-4.331075191497802734e+00,-6.208941936492919922e+00,-4.914289474487304688e+00,-3.017714262008666992e+00,-1.474955439567565918e+00,-4.732171297073364258e-01,-9.593007564544677734e-01,-1.718860507011413574e+00,-1.047084569931030273e+00,4.740788936614990234e-01,1.292748332023620605e+00,3.141840457916259766e+00,-2.638178169727325439e-01,2.682454824447631836e+00,4.502679824829101562e+00,8.409083366394042969e+00,3.965369462966918945e+00,1.955126881599426270e+00,2.721596956253051758e-01,2.412604331970214844e+00,1.017115402221679688e+01,9.644740104675292969e+00,2.662491083145141602e+00,-1.197789669036865234e+00,-1.131745457649230957e+00,-2.941435337066650391e+00,-3.930291175842285156e+00,-1.185719490051269531e+00,-3.795188903808593750e+00
-8.740209579467773438e+00,-8.489305496215820312e+00,-9.132864952087402344e+00,-8.653430938720703125e+00,-9.075564384460449219e+00,-9.138607025146484375e+00,-9.991014480590820312e+00,-8.430982589721679688e+00,-5.902669429779052734e+00,-5.196294784545898438e+00,-8.593170166015625000e+00,-1.032852363586425781e+01,-9.350938796997070312e+00,-7.527443885803222656e+00,-6.610941410064697266e+00,-9.431463241577148438e+00,-5.955195903778076172e+00,-6.833512306213378906e+00,-2.950124502182006836e+00,-9.357637405395507812e+00,-1.134884548187255859e+01,-1.094893836975097656e+01,-1.176252746582031250e+01,-1.208274745941162109e+01,-1.218418121337890625e+01,-5.802785873413085938e+00,-1.078981208801269531e+01,-9.939603805541992188e+00,-7.714724063873291016e+00,-8.756365776062011719e+00,-1.116831684112548828e+01,-1.078730869293212891e+01
9.673627853393554688e+00,1.789134979248046875e+01,1.619862556457519531e+01,1.544734764099121094e+01,1.460661220550537109e+01,1.238379859924316406e+01,8.486131668090820312e+00,9.772927284240722656e+00,1.173218917846679688e+01,1.368847274780273438e+01,1.260206985473632812e+01,8.075630187988281250e+00,7.192968845367431641e+00,6.927653789520263672e+00,4.461905956268310547e+00,-1.757828354835510254e+00,4.672967791557312012e-01,1.877174735069274902e+00,6.526391506195068359e+00,9.227019309997558594e+00,9.116348266601562500e+00,8.977022171020507812e+00,-4.110123515129089355e-01,-8.266564369201660156e+00,-2.728444099426269531e+00,8.038987159729003906e+00,1.423508453369140625e+01,1.401232051849365234e+01,1.393633460998535156e+01,1.328699302673339844e+01,1.068632316589355469e+01,1.498945999145507812e+01
3.404521465301513672e+00,1.172902345657348633e+00,1.336638927459716797e+00,6.762338876724243164e-01,-5.867521166801452637e-01,7.097984552383422852e-01,-6.870196014642715454e-02,3.882716298103332520e-01,8.229478597640991211e-01,1.587672114372253418e+00,1.113163590431213379e+00,6.036863327026367188e-01,1.434836745262145996e+00,1.224574804306030273e+00,-4.493618309497833252e-01,-6.864043235778808594e+00,-6.175642490386962891e+00,-3.561305284500122070e+00,1.913317918777465820e+00,4.266835689544677734e+00,2.755537509918212891e+00,2.778310537338256836e+00,-9.759559631347656250e+00,-7.661558628082275391e+00,2.470555305480957031e+00,2.981079578399658203e+00,1.724738001823425293e+00,2.351985216140747070e+00,2.244714975357055664e+00,1.893523693084716797e+00,2.059385776519775391e+00,1.705493450164794922e+00
-1.931458282470703125e+01,-2.270379829406738281e+01,-1.973238182067871094e+01,-1.935916709899902344e+01,-1.978289031982421875e+01,-2.042996215820312500e+01,-2.191324234008789062e+01,-1.959580993652343750e+01,-1.584579086303710938e+01,-1.835932540893554688e+01,-2.123402595520019531e+01,-2.677653121948242188e+01,-2.447907829284667969e+01,-1.720043563842773438e+01,-8.811121940612792969e+00,-1.528166580200195312e+01,-1.823624992370605469e+01,-2.163373184204101562e+01,-1.705051612854003906e+01,-1.926305389404296875e+01,-2.010378456115722656e+01,-2.177509307861328125e+01,-2.979541778564453125e+01,-2.174630355834960938e+01,-1.419945335388183594e+01,-1.283885097503662109e+01,-2.271670150756835938e+01,-2.380880165100097656e+01,-2.239052391052246094e+01,-2.135431098937988281e+01,-2.107370758056640625e+01,-2.282413482666015625e+01
-1.585844802856445312e+01,-1.614734840393066406e+01,-1.386343765258789062e+01,-1.357762622833251953e+01,-1.477809715270996094e+01,-1.508730220794677734e+01,-1.695090675354003906e+01,-1.405173778533935547e+01,-1.167617034912109375e+01,-9.594594001770019531e+00,-1.257600212097167969e+01,-1.752376365661621094e+01,-1.563604068756103516e+01,-5.952711105346679688e+00,1.266609668731689453e+01,4.503518104553222656e+00,-2.934117555618286133e+00,-7.630209922790527344e+00,-4.166416168212890625e+00,-1.529550647735595703e+01,-1.890848350524902344e+01,-1.807045555114746094e+01,-1.774140167236328125e+01,-2.173654365539550781e+01,-2.724494171142578125e+01,-2.147283554077148438e+01,-1.918077087402343750e+01,-1.674495506286621094e+01,-1.639023780822753906e+01,-1.795291709899902344e+01,-2.188550949096679688e+01,-1.818411064147949219e+01
1.253574013710021973e+00,2.894739151000976562e+00,2.152377843856811523e+00,1.646704912185668945e+00,6.380481719970703125e-01,1.249020814895629883e+00,-1.218568459153175354e-01,1.818850934505462646e-01,-3.615157008171081543e-01,3.726792812347412109e+00,6.621340751647949219e+00,4.198082923889160156e+00,2.712554931640625000e+00,1.367928791046142578e+01,2.389920806884765625e+01,1.867414283752441406e+01,1.184118270874023438e+01,8.385714530944824219e+00,8.935045242309570312e+00,-1.462517023086547852e+00,-4.203329086303710938e+00,2.349803894758224487e-01,-3.092054605484008789e+00,-1.179997062683105469e+01,-1.701317405700683594e+01,-5.961077690124511719e+00,1.861081123352050781e+00,4.616611480712890625e+00,3.690578937530517578e+00,1.730396896600723267e-01,-3.538169145584106445e+00,1.659298658370971680e+00
1.738740921020507812e+01,2.042778205871582031e+01,1.727053642272949219e+01,1.650855445861816406e+01,1.814205551147460938e+01,1.700017929077148438e+01,1.276933383941650391e+01,1.058799266815185547e+01,1.197113800048828125e+01,1.015746879577636719e+01,1.046459293365478516e+01,9.852481842041015625e+00,8.070665359497070312e+00,5.913886070251464844e+00,8.962797164916992188e+00,6.629690170288085938e+00,6.702198028564453125e+00,6.834443092346191406e+00,6.895168781280517578e+00,9.323525428771972656e+00,1.165544891357421875e+01,1.167482852935791016e+01,7.868549823760986328e+00,4.421000957489013672e+00,6.996709346771240234e+00,1.605033493041992188e+01,1.847922706604003906e+01,1.726424217224121094e+01,1.784388923645019531e+01,1.896672821044921875e+01,1.922314453125000000e+01,1.890977859497070312e+01
1.304792976379394531e+01,2.219157981872558594e+01,1.856856346130371094e+01,1.589901542663574219e+01,2.029482460021972656e+01,1.794808006286621094e+01,1.379939460754394531e+01,1.035947513580322266e+01,1.514094448089599609e+01,1.174466705322265625e+01,1.054820919036865234e+01,4.128907203674316406e+00,3.477493286132812500e+00,2.886349678039550781e+00,-1.107716202735900879e+00,-3.658111765980720520e-02,3.013661623001098633e+00,7.064781665802001953e+00,5.368659973144531250e+00,8.434207916259765625e+00,1.021548748016357422e+01,9.118515014648437500e+00,6.609662532806396484e+00,-2.681647241115570068e-01,1.406880617141723633e+00,1.260551834106445312e+01,1.557984733581542969e+01,1.537514877319335938e+01,1.677775382995605469e+01,1.856657600402832031e+01,1.647569465637207031e+01,1.892021369934082031e+01
7.553505897521972656e-01,3.387275695800781250e+00,1.335914731025695801e+00,1.332125902175903320e+00,3.789799690246582031e+00,2.818706274032592773e+00,6.608446836471557617e-01,-1.298195362091064453e+00,-1.152664422988891602e+00,-1.078339099884033203e+00,1.520466566085815430e+00,-4.586476683616638184e-01,-3.167976617813110352e+00,-2.609409391880035400e-01,7.218961715698242188e-01,1.063382863998413086e+00,-1.536155581474304199e+00,-1.537938237190246582e+00,-4.344790935516357422e+00,-7.597164154052734375e+00,-8.277203559875488281e+00,-4.614077091217041016e+00,-8.157469749450683594e+00,-2.075619125366210938e+01,-2.448660469055175781e+01,-7.626726150512695312e+00,6.870367527008056641e-01,2.246701240539550781e+00,2.164529085159301758e+00,7.255538702011108398e-01,-2.003239393234252930e+00,1.365801334381103516e+00
-6.200789809226989746e-01,-5.496443748474121094e+00,-5.532121181488037109e+00,-3.364605188369750977e+00,-4.548520565032958984e+00,-4.366953372955322266e+00,-5.196263790130615234e+00,-4.515358924865722656e+00,-6.316514968872070312e+00,-4.684317588806152344e+00,-4.186378002166748047e+00,-2.247390508651733398e+00,-3.027111291885375977e+00,-2.731627702713012695e+00,-2.191702842712402344e+00,2.697330899536609650e-02,-2.428239583969116211e+00,-7.149653434753417969e+00,-9.796776771545410156e+00,-1.005432701110839844e+01,-9.035311698913574219e+00,-7.241850852966308594e+00,-9.874629020690917969e+00,-7.611744880676269531e+00,-8.123998641967773438e+00,-1.046915769577026367e+00,-6.647572040557861328e+00,-4.734797477722167969e+00,-3.527341604232788086e+00,-4.481819152832031250e+00,-6.175365924835205078e+00,-6.387246131896972656e+00
1.513430714607238770e+00,6.020900726318359375e+00,6.235141277313232422e+00,4.670019626617431641e+00,3.058758497238159180e+00,2.519031763076782227e+00,4.406955718994140625e+00,6.458564281463623047e+00,8.920583724975585938e+00,7.639571189880371094e+00,4.080442905426025391e+00,1.023105978965759277e+00,5.739841461181640625e+00,6.819920063018798828e+00,3.896592617034912109e+00,5.027398586273193359e+00,6.589938163757324219e+00,6.012176990509033203e+00,5.111624240875244141e+00,1.043382644653320312e+01,1.092841339111328125e+01,5.133932113647460938e+00,3.337796211242675781e+00,1.551059627532958984e+01,1.923192787170410156e+01,1.672311210632324219e+01,1.767519563436508179e-01,1.372240185737609863e+00,3.647083044052124023e+00,6.278285026550292969e+00,6.410498619079589844e+00,6.737232208251953125e+00
2.363737583160400391e+00,7.117676734924316406e+00,8.499200820922851562e+00,7.381998538970947266e+00,5.201532840728759766e+00,2.241817235946655273e+00,3.483027935028076172e+00,7.905212402343750000e+00,7.862503051757812500e+00,5.451493740081787109e+00,5.187879085540771484e+00,5.932576656341552734e+00,7.872216701507568359e+00,8.012949943542480469e+00,5.426791667938232422e+00,6.810548305511474609e+00,9.918187141418457031e+00,8.562659263610839844e+00,8.308992385864257812e+00,1.465111351013183594e+01,1.593649005889892578e+01,7.721430778503417969e+00,8.078662872314453125e+00,7.430102825164794922e+00,9.490955352783203125e+00,1.302584171295166016e+01,1.057478237152099609e+01,6.860019683837890625e+00,5.296053886413574219e+00,7.807765483856201172e+00,1.149665927886962891e+01,1.175787448883056641e+01
5.770376205444335938e+00,2.938134193420410156e+00,4.201702594757080078e+00,4.932687282562255859e+00,1.481443405151367188e+00,-1.478907942771911621e+00,-3.540254116058349609e+00,1.616208434104919434e+00,-3.777692317962646484e-01,1.848487854003906250e+00,3.680393457412719727e+00,8.734899520874023438e+00,7.301867961883544922e+00,4.482728004455566406e+00,2.639556407928466797e+00,6.753893375396728516e+00,7.932369232177734375e+00,3.570208549499511719e-01,-4.364665985107421875e+00,-1.462067723274230957e+00,1.495204687118530273e+00,-1.644936352968215942e-01,5.067828178405761719e+00,-6.188443183898925781e+00,-8.649047851562500000e+00,3.140987634658813477e+00,1.416862010955810547e+01,1.003992843627929688e+01,6.035043239593505859e+00,5.615511894226074219e+00,7.349013328552246094e+00,6.128311157226562500e+00
1.502613162994384766e+01,1.491753387451171875e+01,1.213215160369873047e+01,1.052063560485839844e+01,1.033881568908691406e+01,1.040170860290527344e+01,7.693636894226074219e+00,8.775623321533203125e+00,8.609192848205566406e+00,1.027530956268310547e+01,1.076347541809082031e+01,1.361681938171386719e+01,1.469693565368652344e+01,1.068423652648925781e+01,7.787728309631347656e+00,1.061295700073242188e+01,1.226827526092529297e+01,5.208466529846191406e+00,6.110125780105590820e-01,2.911244869232177734e+00,4.766176223754882812e+00,6.149307727813720703e+00,1.329193878173828125e+01,1.141742992401123047e+01,6.340853214263916016e+00,1.217748737335205078e+01,1.770842742919921875e+01,1.839914321899414062e+01,1.769801521301269531e+01,1.616970634460449219e+01,1.518790435791015625e+01,1.404691123962402344e+01
1.765032196044921875e+01,1.906376838684082031e+01,1.608093452453613281e+01,1.548967456817626953e+01,1.757802963256835938e+01,1.582479953765869141e+01,1.251858997344970703e+01,1.195314121246337891e+01,1.382888031005859375e+01,1.359668445587158203e+01,1.387366390228271484e+01,1.396885490417480469e+01,1.342811012268066406e+01,9.769118309020996094e+00,7.437054157257080078e+00,9.024114608764648438e+00,1.181123638153076172e+01,6.868074417114257812e+00,4.704675197601318359e+00,8.046753883361816406e+00,1.039293003082275391e+01,7.114762306213378906e+00,1.719703102111816406e+01,2.612247467041015625e+01,2.239464569091796875e+01,1.799182701110839844e+01,1.471605873107910156e+01,1.483222675323486328e+01,1.659381294250488281e+01,1.785632514953613281e+01,1.738974952697753906e+01,1.772613334655761719e+01
8.253865242004394531e+00,2.655705928802490234e+00,2.182246685028076172e+00,4.399252414703369141e+00,7.018288612365722656e+00,2.520477771759033203e+00,-1.896142244338989258e+00,-2.354364156723022461e+00,2.656369686126708984e+00,5.817821025848388672e+00,6.046617507934570312e+00,2.451287269592285156e+00,-1.811991572380065918e+00,-6.729625225067138672e+00,-9.708189964294433594e+00,-3.534864902496337891e+00,-1.001511335372924805e+00,-1.078372192382812500e+01,-1.760217094421386719e+01,-1.707755661010742188e+01,-1.437431621551513672e+01,-1.513278198242187500e+01,-4.983949363231658936e-01,6.193330287933349609e+00,5.324414253234863281e+00,-3.295606136322021484e+00,-1.399713516235351562e+00,-4.721505343914031982e-01,1.401998519897460938e+00,1.167364597320556641e+00,-4.558527469635009766e+00,-5.090907573699951172e+00
-1.242604136466979980e+00,-3.964477300643920898e+00,-6.183020591735839844e+00,-5.943559169769287109e+00,-1.723211646080017090e+00,-2.559613227844238281e+00,-6.015100479125976562e+00,-6.760447978973388672e+00,-4.191171169281005859e+00,-3.055970907211303711e+00,-3.426140546798706055e+00,-5.410387516021728516e+00,-4.986791610717773438e+00,-7.893448829650878906e+00,-1.272602653503417969e+01,-1.024035644531250000e+01,-8.261748313903808594e+00,-1.568916988372802734e+01,-1.907844161987304688e+01,-1.999969482421875000e+01,-2.074449348449707031e+01,-1.963948822021484375e+01,-7.091763496398925781e+00,2.584066390991210938e-01,1.904652833938598633e+00,-1.123095130920410156e+01,-1.100647258758544922e+01,-6.913657188415527344e+00,-3.943954467773437500e+00,-5.246093273162841797e+00,-1.032646942138671875e+01,-8.902078628540039062e+00
1.227291297912597656e+01,1.540977001190185547e+01,1.152698230743408203e+01,9.044618606567382812e+00,1.204745388031005859e+01,1.232002353668212891e+01,9.453348159790039062e+00,9.458203315734863281e+00,1.185900878906250000e+01,1.023348331451416016e+01,9.874401092529296875e+00,1.015292358398437500e+01,1.137026214599609375e+01,9.586340904235839844e+00,5.666738510131835938e+00,6.025611877441406250e+00,8.411900520324707031e+00,4.661900043487548828e+00,2.870162010192871094e+00,4.628326892852783203e+00,6.922686576843261719e+00,6.799479007720947266e+00,1.622017478942871094e+01,2.708933258056640625e+01,2.812283515930175781e+01,1.601652145385742188e+01,1.305677986145019531e+01,1.449074745178222656e+01,1.542436790466308594e+01,1.481390285491943359e+01,1.704764556884765625e+01,1.714558792114257812e+01
1.606867790222167969e+01,1.817105484008789062e+01,1.765287017822265625e+01,1.716837501525878906e+01,1.501770019531250000e+01,1.129753971099853516e+01,8.742223739624023438e+00,1.145196342468261719e+01,1.283152294158935547e+01,1.142651367187500000e+01,1.219057655334472656e+01,1.335499000549316406e+01,1.254587078094482422e+01,1.447317695617675781e+01,1.472563076019287109e+01,1.496539974212646484e+01,1.604651451110839844e+01,1.070293521881103516e+01,6.502367973327636719e+00,9.341398239135742188e+00,1.323332691192626953e+01,9.805475234985351562e+00,9.271423339843750000e+00,1.393762397766113281e+01,1.652348327636718750e+01,1.855447006225585938e+01,2.087506294250488281e+01,1.842339324951171875e+01,1.747731018066406250e+01,1.868052291870117188e+01,2.047524070739746094e+01,1.915605354309082031e+01
-8.743726730346679688e+00,-6.211281299591064453e+00,-4.504846096038818359e+00,-2.891574621200561523e+00,-4.987113952636718750e+00,-8.294039726257324219e+00,-9.358336448669433594e+00,-5.963141918182373047e+00,-6.588630199432373047e+00,-8.026669502258300781e+00,-6.435225963592529297e+00,-5.632040977478027344e+00,-5.137407779693603516e+00,-1.211875319480895996e+00,-3.010759353637695312e+00,-3.672333955764770508e+00,-4.263993263244628906e+00,-9.778343200683593750e+00,-1.471146392822265625e+01,-1.190344333648681641e+01,-1.017566490173339844e+01,-1.566688442230224609e+01,-2.106826400756835938e+01,-1.514626979827880859e+01,-1.039145660400390625e+01,-6.743862152099609375e+00,-5.995369911193847656e+00,-7.101575851440429688e+00,-8.066491127014160156e+00,-6.422322273254394531e+00,-6.348840236663818359e+00,-6.162576198577880859e+00
-9.165471076965332031e+00,-6.760125637054443359e+00,-4.949800968170166016e+00,-5.737676620483398438e+00,-8.133643150329589844e+00,-1.060310649871826172e+01,-1.013726902008056641e+01,-4.694146156311035156e+00,-3.382357120513916016e+00,-6.977543354034423828e+00,-7.428991794586181641e+00,-7.712548255920410156e+00,-5.798127174377441406e+00,1.113028645515441895e+00,-3.421002030372619629e-01,-1.389888167381286621e+00,-1.790713310241699219e+00,-4.648549079895019531e+00,-7.375249385833740234e+00,-6.424204826354980469e+00,-4.612685680389404297e+00,-6.961236476898193359e+00,-1.373676681518554688e+01,-9.179005622863769531e+00,-5.667050838470458984e+00,-2.177138566970825195e+00,-2.571047544479370117e+00,-3.613963842391967773e+00,-5.150840759277343750e+00,-5.097422599792480469e+00,-1.440035820007324219e+00,-2.276182413101196289e+00
9.525629997253417969e+00,1.223756504058837891e+01,1.314132118225097656e+01,1.159790706634521484e+01,8.813563346862792969e+00,5.753647327423095703e+00,4.357652664184570312e+00,8.365451812744140625e+00,9.187164306640625000e+00,8.289748191833496094e+00,7.562696933746337891e+00,8.147919654846191406e+00,8.361984252929687500e+00,1.324491691589355469e+01,1.352975082397460938e+01,1.252049827575683594e+01,1.405602645874023438e+01,1.292149162292480469e+01,1.248838710784912109e+01,1.223213863372802734e+01,1.551126480102539062e+01,1.269255542755126953e+01,1.133994674682617188e+01,1.556006717681884766e+01,1.807233810424804688e+01,1.835244750976562500e+01,1.774374198913574219e+01,1.478634357452392578e+01,1.251680183410644531e+01,1.248013305664062500e+01,1.809930419921875000e+01,1.971856880187988281e+01
5.328321456909179688e+00,5.242517948150634766e+00,3.230714797973632812e+00,3.081946849822998047e+00,3.539804935455322266e+00,3.486993074417114258e+00,3.105356931686401367e+00,3.224294900894165039e+00,2.875012636184692383e+00,4.007615566253662109e+00,5.281601905822753906e+00,3.856121778488159180e+00,3.567415952682495117e+00,2.366346836090087891e+00,2.660272598266601562e+00,3.701917648315429688e+00,4.430945873260498047e+00,2.127789258956909180e+00,4.928745701909065247e-02,1.255395412445068359e+00,3.622281789779663086e+00,1.903991580009460449e+00,2.251333236694335938e+00,8.203293800354003906e+00,9.744787216186523438e+00,6.304720401763916016e+00,3.742214441299438477e+00,5.402405261993408203e+00,6.020331859588623047e+00,4.812138080596923828e+00,4.146443843841552734e+00,4.323609828948974609e+00
-6.227360725402832031e+00,-9.062672615051269531e+00,-1.062511062622070312e+01,-1.085242366790771484e+01,-8.829891204833984375e+00,-7.238476276397705078e+00,-4.753494262695312500e+00,-4.111264228820800781e+00,-4.244179651141166687e-02,1.546481370925903320e+00,3.009461462497711182e-01,-7.105874538421630859e+00,-5.178185939788818359e+00,-8.733341217041015625e+00,-9.831084251403808594e+00,-6.961260795593261719e+00,-7.110863685607910156e+00,-1.085075283050537109e+01,-1.171584510803222656e+01,-1.149270629882812500e+01,-9.767715454101562500e+00,-7.859056949615478516e+00,-9.168201446533203125e+00,-1.230119895935058594e+01,-1.271961021423339844e+01,-1.097757339477539062e+01,-1.027307891845703125e+01,-8.680388450622558594e+00,-7.400564193725585938e+00,-7.858449459075927734e+00,-7.975328445434570312e+00,-1.176821994781494141e+01
-1.343476772308349609e+01,-1.797334098815917969e+01,-1.693565559387207031e+01,-1.619107627868652344e+01,-1.586154747009277344e+01,-1.595948028564453125e+01,-1.423139286041259766e+01,-1.223751735687255859e+01,-1.235836124420166016e+01,-9.265372276306152344e+00,-9.572853088378906250e+00,-1.442037773132324219e+01,-1.395437717437744141e+01,-1.275174808502197266e+01,-1.307406139373779297e+01,-1.089989376068115234e+01,-1.011235332489013672e+01,-1.039835739135742188e+01,-9.789400100708007812e+00,-1.332282924652099609e+01,-1.321958923339843750e+01,-1.324971675872802734e+01,-1.305536460876464844e+01,-1.189814662933349609e+01,-1.241402721405029297e+01,-1.424358081817626953e+01,-1.765558242797851562e+01,-1.513469982147216797e+01,-1.500372505187988281e+01,-1.795602035522460938e+01,-1.875014305114746094e+01,-1.627517318725585938e+01
-2.409357833862304688e+01,-2.444331932067871094e+01,-2.333308410644531250e+01,-2.335942268371582031e+01,-2.307727050781250000e+01,-2.178594207763671875e+01,-2.052068519592285156e+01,-2.000320243835449219e+01,-2.335706710815429688e+01,-2.376061439514160156e+01,-2.384702682495117188e+01,-2.207212257385253906e+01,-2.237615013122558594e+01,-1.976473426818847656e+01,-1.984485626220703125e+01,-1.904656982421875000e+01,-1.993842315673828125e+01,-1.793432044982910156e+01,-1.817005920410156250e+01,-2.057328414916992188e+01,-2.141415977478027344e+01,-2.250551605224609375e+01,-2.352836036682128906e+01,-1.875691223144531250e+01,-1.921509742736816406e+01,-2.387522888183593750e+01,-2.903211593627929688e+01,-2.396991920471191406e+01,-2.256601715087890625e+01,-2.707159042358398438e+01,-3.079957008361816406e+01,-2.501309204101562500e+01
-9.733635902404785156e+00,-1.174281597137451172e+01,-1.283378219604492188e+01,-1.318995761871337891e+01,-1.231441211700439453e+01,-1.075027656555175781e+01,-8.031281471252441406e+00,-6.726329803466796875e+00,-7.622410774230957031e+00,-1.065954971313476562e+01,-1.026889801025390625e+01,-1.100477695465087891e+01,-9.208121299743652344e+00,-9.717974662780761719e+00,-9.268375396728515625e+00,-7.173313140869140625e+00,-7.251724243164062500e+00,-7.523312091827392578e+00,-6.148549079895019531e+00,-8.149875640869140625e+00,-6.755571842193603516e+00,-7.334201335906982422e+00,-8.495023727416992188e+00,-1.739828681945800781e+01,-1.950073432922363281e+01,-1.724406814575195312e+01,-1.182932662963867188e+01,-1.038462257385253906e+01,-9.799218177795410156e+00,-1.140736198425292969e+01,-1.162022972106933594e+01,-1.228493881225585938e+01
7.160143375396728516e+00,7.695931911468505859e+00,3.925409555435180664e+00,2.249041318893432617e+00,2.548892736434936523e+00,4.601231575012207031e+00,7.006037235260009766e+00,6.707542896270751953e+00,8.074934005737304688e+00,5.874124050140380859e+00,6.397250175476074219e+00,4.777543067932128906e+00,6.106504440307617188e+00,4.757459163665771484e+00,9.175876617431640625e+00,1.004836750030517578e+01,1.057048416137695312e+01,9.573235511779785156e+00,1.147495365142822266e+01,8.163044929504394531e+00,1.034237670898437500e+01,1.026575660705566406e+01,1.144474601745605469e+01,-2.587611079216003418e-01,-4.716621398925781250e+00,-2.868195056915283203e+00,5.078470230102539062e+00,5.168025016784667969e+00,7.013176441192626953e+00,5.837692260742187500e+00,5.864860057830810547e+00,7.561544418334960938e+00
6.506858825683593750e+00,8.893650054931640625e+00,5.061120033264160156e+00,3.147996664047241211e+00,3.558342218399047852e+00,6.490330219268798828e+00,7.589854240417480469e+00,5.944414138793945312e+00,1.702512145042419434e+00,-3.502563238143920898e+00,-1.343256831169128418e+00,4.280845165252685547e+00,4.684020996093750000e+00,3.163433313369750977e+00,6.214050769805908203e+00,6.513380527496337891e+00,6.681633949279785156e+00,8.854750633239746094e+00,1.030802822113037109e+01,9.802766799926757812e+00,1.315845298767089844e+01,1.067978096008300781e+01,1.122015666961669922e+01,5.720043659210205078e+00,3.868215799331665039e+00,1.480647921562194824e+00,6.135833263397216797e+00,8.269442558288574219e+00,9.396747589111328125e+00,6.975296974182128906e+00,6.042050361633300781e+00,7.820150375366210938e+00
-5.691574096679687500e+00,-9.707826614379882812e+00,-8.413344383239746094e+00,-6.503856182098388672e+00,-4.107078075408935547e+00,-2.430554389953613281e+00,9.796153306961059570e-01,2.091124057769775391e+00,-6.426182270050048828e+00,-1.410734939575195312e+01,-1.069342231750488281e+01,1.068506002426147461e+00,-2.127854585647583008e+00,-8.762479782104492188e+00,-1.011557579040527344e+01,-5.447436332702636719e+00,-4.832475662231445312e+00,3.261300325393676758e-01,2.893066406250000000e+00,4.882589340209960938e+00,5.524921894073486328e+00,3.343070983886718750e+00,1.051264166831970215e+00,-4.458028316497802734e+00,-3.738323211669921875e+00,-4.887792110443115234e+00,-2.973332166671752930e+00,-4.557453155517578125e+00,-4.749946117401123047e+00,-4.515941143035888672e+00,-5.093892812728881836e-01,-5.691345691680908203e+00
1.057089865207672119e-01,-1.086114215850830078e+01,-6.900632858276367188e+00,-1.678067564964294434e+00,-5.363604053854942322e-02,1.702597856521606445e+00,7.086935043334960938e+00,7.590897560119628906e+00,8.240560889244079590e-01,-2.365123987197875977e+00,3.981064081192016602e+00,1.165418052673339844e+01,7.581872463226318359e+00,-2.053872644901275635e-01,-2.079220533370971680e+00,2.421966552734375000e+00,5.383270740509033203e+00,8.118540763854980469e+00,8.814336776733398438e+00,7.171976089477539062e+00,8.212383270263671875e+00,6.593120574951171875e+00,5.897756099700927734e+00,5.804454326629638672e+00,8.701703071594238281e+00,5.143357276916503906e+00,-1.182512044906616211e+00,-3.128172159194946289e+00,-3.199794769287109375e+00,-1.650891780853271484e+00,1.896360993385314941e+00,-3.005280971527099609e+00
7.571719169616699219e+00,8.276568412780761719e+00,7.467050075531005859e+00,9.295511245727539062e+00,1.104939079284667969e+01,1.506888771057128906e+01,1.731287193298339844e+01,1.550970554351806641e+01,1.220973682403564453e+01,1.170691776275634766e+01,1.615204048156738281e+01,1.749366378784179688e+01,1.697380447387695312e+01,1.538113498687744141e+01,1.555496406555175781e+01,1.463558197021484375e+01,1.413649654388427734e+01,1.547563362121582031e+01,1.584392166137695312e+01,1.389012622833251953e+01,1.359546375274658203e+01,1.129483127593994141e+01,1.092299270629882812e+01,9.994224548339843750e+00,1.101909828186035156e+01,9.627896308898925781e+00,5.723892688751220703e+00,9.243152618408203125e+00,1.030896854400634766e+01,9.828819274902343750e+00,6.704548835754394531e+00,7.247568607330322266e+00
4.575672626495361328e+00,1.001039695739746094e+01,4.839919090270996094e+00,3.332943201065063477e+00,6.283220291137695312e+00,1.080147075653076172e+01,1.104331588745117188e+01,1.097872257232666016e+01,9.640047073364257812e+00,7.588513851165771484e+00,5.878122329711914062e+00,5.704688549041748047e+00,4.983393669128417969e+00,5.873729705810546875e+00,5.363448143005371094e+00,4.558194160461425781e+00,1.307913780212402344e+00,4.719271659851074219e+00,6.856273651123046875e+00,9.089977264404296875e+00,8.177692413330078125e+00,7.522547721862792969e+00,3.668177843093872070e+00,-1.019252395629882812e+01,-1.435139656066894531e+01,-6.812305450439453125e+00,2.840058803558349609e+00,9.127874374389648438e+00,1.203905773162841797e+01,9.228265762329101562e+00,2.703113794326782227e+00,2.218939542770385742e+00
1.077375113964080811e-01,-3.718780994415283203e+00,-6.724173069000244141e+00,-7.299407482147216797e+00,-5.186139106750488281e+00,-2.086630582809448242e+00,6.565645933151245117e-01,7.566039562225341797e-01,-1.140240192413330078e+00,-4.153855800628662109e+00,-5.775352001190185547e+00,-5.796757698059082031e+00,-8.323528289794921875e+00,-9.057530403137207031e+00,-9.798870086669921875e+00,-6.820926189422607422e+00,-8.124973297119140625e+00,-5.470618247985839844e+00,-4.176323890686035156e+00,-3.289847612380981445e+00,-3.511795282363891602e+00,-9.833261966705322266e-01,-2.968930959701538086e+00,-1.531885910034179688e+01,-1.870572090148925781e+01,-1.372492885589599609e+01,-7.908026218414306641e+00,-2.489359974861145020e-01,5.549789905548095703e+00,1.078285932540893555e+00,-6.927076339721679688e+00,-8.818379402160644531e+00
-6.180074691772460938e+00,-7.151276588439941406e+00,-9.510638236999511719e+00,-1.087011814117431641e+01,-9.246191978454589844e+00,-6.037428855895996094e+00,-1.463142037391662598e+00,-5.013815402984619141e+00,-7.172969818115234375e+00,-1.156181907653808594e+01,-7.555818080902099609e+00,-6.571915149688720703e+00,-6.211213111877441406e+00,-8.877336502075195312e+00,-8.064299583435058594e+00,-4.600121021270751953e+00,-4.506205558776855469e+00,-4.777760982513427734e+00,-5.079274177551269531e+00,-8.112078666687011719e+00,-6.897459506988525391e+00,-3.377084493637084961e+00,-2.737406015396118164e+00,-1.832517504692077637e+00,8.237463235855102539e-01,-3.506503343582153320e+00,-1.500560379028320312e+01,-6.476205348968505859e+00,-1.365831017494201660e+00,-4.595314502716064453e+00,-1.131855678558349609e+01,-9.702638626098632812e+00
-5.794354677200317383e-01,1.185745120048522949e+00,-3.483184099197387695e+00,-5.869290828704833984e+00,-4.347165584564208984e+00,7.152346372604370117e-01,5.145379543304443359e+00,1.497820377349853516e+00,1.132636219263076782e-01,-1.737961769104003906e+00,1.680957436561584473e+00,2.965260267257690430e+00,4.457622051239013672e+00,-8.811710774898529053e-02,-7.487421035766601562e-01,2.562136411666870117e+00,3.608935594558715820e+00,4.502632141113281250e+00,2.951922655105590820e+00,3.105011284351348877e-01,5.086701869964599609e+00,6.416862964630126953e+00,8.175543785095214844e+00,1.897881984710693359e+00,2.250845909118652344e+00,8.046814203262329102e-01,-2.416790485382080078e+00,3.379065990447998047e-01,-4.058624804019927979e-01,-2.003701686859130859e+00,-3.798705816268920898e+00,3.228646755218505859e+00
8.635575294494628906e+00,2.455379009246826172e+00,4.991400539875030518e-01,1.053794741630554199e+00,1.518182992935180664e+00,6.333318233489990234e+00,9.917240142822265625e+00,9.331645965576171875e+00,4.039297580718994141e+00,2.907494068145751953e+00,4.221313953399658203e+00,7.759139060974121094e+00,7.020667552947998047e+00,2.559671163558959961e+00,5.021217346191406250e+00,9.231486320495605469e+00,1.052444839477539062e+01,1.008101463317871094e+01,8.836682319641113281e+00,8.520975112915039062e+00,1.337444877624511719e+01,1.015226554870605469e+01,1.785665893554687500e+01,4.740641593933105469e+00,-1.016654729843139648e+00,-3.398404836654663086e+00,7.021441459655761719e+00,6.832726001739501953e+00,4.514551639556884766e+00,1.967977285385131836e+00,5.027464032173156738e-01,7.563496112823486328e+00
-5.609771609306335449e-01,-3.895341634750366211e+00,-4.190345287322998047e+00,-3.883940219879150391e+00,-3.845110893249511719e+00,-1.562260746955871582e+00,3.166171073913574219e+00,3.393833160400390625e+00,-6.059110641479492188e+00,-1.352663421630859375e+01,-1.094782543182373047e+01,-4.478237628936767578e+00,-4.498884677886962891e+00,-8.712829589843750000e+00,-6.873576045036315918e-01,4.695822715759277344e+00,4.965473175048828125e+00,2.173475265502929688e+00,1.387793302536010742e+00,9.006999135017395020e-01,2.689230680465698242e+00,6.584369540214538574e-01,1.162790870666503906e+01,1.239658164978027344e+01,9.367742538452148438e+00,-5.916317462921142578e+00,-8.413237571716308594e+00,-3.608911752700805664e+00,-1.843583822250366211e+00,-5.808891773223876953e+00,-9.852648735046386719e+00,-3.404984235763549805e+00
1.530094295740127563e-01,8.141370415687561035e-01,-8.380350470542907715e-01,-1.542091965675354004e+00,-2.601297616958618164e+00,-3.023770093917846680e+00,2.468048334121704102e+00,4.129043579101562500e+00,-2.545814037322998047e+00,-9.796727180480957031e+00,-7.417482376098632812e+00,8.521386981010437012e-01,3.784958362579345703e+00,-1.639629125595092773e+00,5.757724642753601074e-01,7.061361789703369141e+00,1.049749469757080078e+01,1.199521350860595703e+01,7.820804119110107422e+00,5.627329826354980469e+00,9.277758598327636719e+00,1.151127433776855469e+01,1.849369239807128906e+01,1.894121170043945312e+01,1.893920516967773438e+01,3.260832309722900391e+00,-3.690245866775512695e+00,-9.663770794868469238e-01,-1.872466653585433960e-01,-2.246596574783325195e+00,-1.720482230186462402e+00,5.178421020507812500e+00
1.512042236328125000e+01,1.105333232879638672e+01,9.443634033203125000e+00,1.206588077545166016e+01,1.033607959747314453e+01,1.145567798614501953e+01,1.419828128814697266e+01,1.602778244018554688e+01,1.628689193725585938e+01,1.382291698455810547e+01,1.783182716369628906e+01,2.252218055725097656e+01,2.248549652099609375e+01,1.647725296020507812e+01,1.601264190673828125e+01,2.138557624816894531e+01,2.512659835815429688e+01,2.533012008666992188e+01,2.353577232360839844e+01,2.078927040100097656e+01,2.645567131042480469e+01,2.715333938598632812e+01,2.901842117309570312e+01,1.981529426574707031e+01,1.706568717956542969e+01,1.144511413574218750e+01,1.978450775146484375e+01,1.575177192687988281e+01,1.188556003570556641e+01,1.337251186370849609e+01,2.029921340942382812e+01,1.850894927978515625e+01
-3.116345167160034180e+00,-7.026350975036621094e+00,-6.261424064636230469e+00,-2.231639146804809570e+00,-2.395775079727172852e+00,2.303023815155029297e+00,4.039746284484863281e+00,2.868883371353149414e+00,3.928468465805053711e+00,5.503774166107177734e+00,9.165811538696289062e+00,8.515442848205566406e+00,8.544990539550781250e+00,5.371086597442626953e+00,4.693385601043701172e+00,8.050128936767578125e+00,8.246479988098144531e+00,8.524484634399414062e+00,7.811804771423339844e+00,4.250287532806396484e+00,7.648344993591308594e+00,6.612614631652832031e+00,3.975620508193969727e+00,-4.845578074455261230e-01,-2.377763032913208008e+00,-3.917023658752441406e+00,3.243553161621093750e+00,-1.581645846366882324e+00,-4.950296401977539062e+00,-1.856227397918701172e+00,4.812084674835205078e+00,-4.403613090515136719e+00
-1.585976982116699219e+01,-2.312983322143554688e+01,-2.185418701171875000e+01,-1.844379615783691406e+01,-1.758741569519042969e+01,-1.702340698242187500e+01,-1.220275688171386719e+01,-1.115108585357666016e+01,-1.222902679443359375e+01,-1.363707637786865234e+01,-1.014948844909667969e+01,-8.643855094909667969e+00,-8.353377342224121094e+00,-9.982669830322265625e+00,-1.244538784027099609e+01,-8.415774345397949219e+00,-7.920715332031250000e+00,-8.482809066772460938e+00,-7.788023471832275391e+00,-9.187465667724609375e+00,-8.631199836730957031e+00,-1.013701820373535156e+01,-1.486797142028808594e+01,-1.827472686767578125e+01,-1.620194244384765625e+01,-1.340462112426757812e+01,-1.911947441101074219e+01,-2.077594947814941406e+01,-2.190859603881835938e+01,-2.177919960021972656e+01,-1.880687522888183594e+01,-2.040394401550292969e+01
4.458484649658203125e+00,-2.427634477615356445e+00,-2.855644226074218750e+00,-1.435055017471313477e+00,2.843591272830963135e-01,-1.475990772247314453e+00,3.228812456130981445e+00,2.598553657531738281e+00,-2.822563052177429199e-01,-3.268911123275756836e+00,1.484424710273742676e+00,6.340151309967041016e+00,5.390708446502685547e+00,2.065616130828857422e+00,8.895960450172424316e-01,3.676619291305541992e+00,4.792729854583740234e+00,3.763124704360961914e+00,5.530726909637451172e+00,9.136043548583984375e+00,8.899856567382812500e+00,6.997050762176513672e+00,1.888330817222595215e+00,-1.067564964294433594e+00,-1.709482192993164062e+00,1.784821867942810059e+00,-3.580015301704406738e-01,-2.293589353561401367e+00,-1.976288557052612305e+00,-2.532079696655273438e+00,-3.167915582656860352e+00,9.684866666793823242e-01
1.471381187438964844e+01,5.962453365325927734e+00,8.329919815063476562e+00,1.355355739593505859e+01,1.476015377044677734e+01,1.235918617248535156e+01,1.548709011077880859e+01,1.588162136077880859e+01,1.425383281707763672e+01,1.288196563720703125e+01,1.600342941284179688e+01,1.912985992431640625e+01,1.706291007995605469e+01,1.148065948486328125e+01,9.152756690979003906e+00,1.300416469573974609e+01,1.523106765747070312e+01,1.452633190155029297e+01,1.052530479431152344e+01,8.204209327697753906e+00,7.394421577453613281e+00,8.416187286376953125e+00,1.207876968383789062e+01,9.558254241943359375e+00,5.194567203521728516e+00,3.451340913772583008e+00,7.111255168914794922e+00,9.639454841613769531e+00,9.146714210510253906e+00,7.297192573547363281e+00,5.249538898468017578e+00,2.726568460464477539e+00
-5.746653556823730469e+00,-1.413792228698730469e+01,-1.041428947448730469e+01,-3.624410629272460938e+00,-2.258419513702392578e+00,-2.040618181228637695e+00,1.447644978761672974e-01,1.750822544097900391e+00,1.009808063507080078e+00,8.740223050117492676e-01,1.653631687164306641e+00,1.351443052291870117e+00,-5.596265196800231934e-01,-4.662624835968017578e+00,-7.832922935485839844e+00,-4.646944522857666016e+00,-1.858688354492187500e+00,-3.512358665466308594e+00,-7.435174942016601562e+00,-1.019574546813964844e+01,-1.137153244018554688e+01,-9.307456016540527344e+00,-7.439469337463378906e+00,-5.088732719421386719e+00,-5.233964443206787109e+00,-5.488066196441650391e+00,-9.783383369445800781e+00,-9.841736793518066406e+00,-1.035050678253173828e+01,-1.103997802734375000e+01,-1.146057224273681641e+01,-1.773946380615234375e+01
-7.363033771514892578e+00,-1.810362243652343750e+01,-1.317370128631591797e+01,-6.977507591247558594e+00,-6.653365612030029297e+00,-8.224600791931152344e+00,-6.067087173461914062e+00,-2.468645572662353516e+00,-4.657843589782714844e+00,-6.001809120178222656e+00,-5.308959960937500000e+00,-1.456820726394653320e+00,1.706910490989685059e+00,2.968698978424072266e+00,-1.798807740211486816e+00,-5.757932662963867188e+00,-3.794928550720214844e+00,-2.562644243240356445e+00,-1.679343819618225098e+00,-1.822816014289855957e+00,-7.442330837249755859e+00,-9.719774246215820312e+00,-1.217475128173828125e+01,-8.463867187500000000e+00,-6.616282939910888672e+00,-1.595212697982788086e+00,-4.841358661651611328e+00,-1.030463218688964844e+01,-1.311480426788330078e+01,-1.315512752532958984e+01,-9.659190177917480469e+00,-1.626190948486328125e+01
-6.622030735015869141e+00,-1.208639049530029297e+01,-4.406037807464599609e+00,2.352473020553588867e+00,-8.524526953697204590e-01,-4.751133918762207031e+00,-3.452092170715332031e+00,6.951183080673217773e-01,8.330821037292480469e+00,6.414030551910400391e+00,4.344501018524169922e+00,-4.778333604335784912e-01,7.622779369354248047e+00,1.183209228515625000e+01,7.196979045867919922e+00,-2.135001182556152344e+00,-3.479420661926269531e+00,-1.293913871049880981e-01,3.770828962326049805e+00,3.184031248092651367e+00,-4.283400535583496094e+00,-8.844794273376464844e+00,-4.975601196289062500e+00,-8.752491950988769531e+00,-1.177617549896240234e+01,-8.106248855590820312e+00,4.514463841915130615e-01,-4.366579532623291016e+00,-6.330021381378173828e+00,-7.384433269500732422e+00,-5.026542663574218750e+00,-1.049183273315429688e+01
-9.134945869445800781e+00,-8.924266815185546875e+00,-2.456018686294555664e+00,9.353111386299133301e-01,-2.028569221496582031e+00,-3.703742027282714844e+00,-5.149495124816894531e+00,-3.198384523391723633e+00,5.586628913879394531e+00,7.555583000183105469e+00,5.361767768859863281e+00,-1.893329501152038574e+00,1.024249911308288574e+00,2.260454893112182617e+00,-2.127342700958251953e+00,-8.040761947631835938e+00,-9.046039581298828125e+00,-7.076278686523437500e+00,-2.778236389160156250e+00,-4.206506729125976562e+00,-1.173092842102050781e+01,-1.440041828155517578e+01,-7.600079059600830078e+00,-9.318593978881835938e+00,-1.407011985778808594e+01,-1.250746631622314453e+01,-8.337120056152343750e+00,-1.021650218963623047e+01,-6.873068332672119141e+00,-7.552835464477539062e+00,-9.669613838195800781e+00,-8.774234771728515625e+00
9.056097984313964844e+00,9.921936035156250000e+00,9.020087242126464844e+00,7.663401126861572266e+00,1.000093364715576172e+01,9.544266700744628906e+00,3.517312526702880859e+00,2.304851055145263672e+00,7.373089313507080078e+00,1.007710170745849609e+01,1.206671142578125000e+01,1.278629112243652344e+01,1.150077152252197266e+01,9.823185920715332031e+00,6.752793788909912109e+00,4.553778648376464844e+00,4.363317966461181641e+00,3.376262187957763672e+00,7.882358074188232422e+00,7.296528816223144531e+00,-5.105824768543243408e-02,-3.557459831237792969e+00,-1.570010900497436523e+00,6.840285778045654297e+00,6.812027931213378906e+00,8.769082069396972656e+00,1.548121571540832520e+00,-4.071827530860900879e-01,4.858663558959960938e+00,6.322400093078613281e+00,4.317285537719726562e+00,7.428973197937011719e+00
8.003561019897460938e+00,1.197630882263183594e+01,1.071482086181640625e+01,1.043205642700195312e+01,1.313562488555908203e+01,1.192555141448974609e+01,4.606688499450683594e+00,2.360476732254028320e+00,8.850493431091308594e+00,1.314339065551757812e+01,1.208073902130126953e+01,1.005971622467041016e+01,1.164483642578125000e+01,1.371971702575683594e+01,1.413994026184082031e+01,8.944688796997070312e+00,7.635235786437988281e+00,6.767861843109130859e+00,1.046068286895751953e+01,8.939656257629394531e+00,3.958189249038696289e+00,2.450006604194641113e-01,1.242691874504089355e+00,7.636620521545410156e+00,9.187978744506835938e+00,8.467679023742675781e+00,7.413048744201660156e+00,3.802957773208618164e+00,5.688475131988525391e+00,7.961015224456787109e+00,1.123433971405029297e+01,8.439098358154296875e+00
-1.837129020690917969e+01,-1.409655570983886719e+01,-1.135147666931152344e+01,-8.294619560241699219e+00,-8.226807594299316406e+00,-8.621716499328613281e+00,-1.452871513366699219e+01,-1.521796798706054688e+01,-1.200497150421142578e+01,-6.686676025390625000e+00,-1.087570667266845703e+01,-1.486592197418212891e+01,-1.327539348602294922e+01,-7.298365592956542969e+00,-6.176771640777587891e+00,-1.218573951721191406e+01,-1.302359199523925781e+01,-8.033418655395507812e+00,-3.877617359161376953e+00,-7.347667217254638672e+00,-1.334673023223876953e+01,-1.527879238128662109e+01,-1.146112823486328125e+01,-1.066489219665527344e+01,-1.352066707611083984e+01,-1.797426223754882812e+01,-1.208839511871337891e+01,-1.459696102142333984e+01,-1.526962089538574219e+01,-1.411605834960937500e+01,-1.016262435913085938e+01,-1.298183345794677734e+01
-9.932623863220214844e+00,-8.626169204711914062e+00,-1.090935039520263672e+01,-9.151985168457031250e+00,-6.805162906646728516e+00,-7.603356361389160156e+00,-1.393742656707763672e+01,-1.344103145599365234e+01,-1.557840538024902344e+01,-1.264148616790771484e+01,-1.626334762573242188e+01,-1.239650630950927734e+01,-1.422952938079833984e+01,-1.208653736114501953e+01,-1.214135742187500000e+01,-1.218404960632324219e+01,-1.111302280426025391e+01,-6.034970283508300781e+00,3.489340841770172119e-02,-1.044633626937866211e+00,-8.077230453491210938e+00,-1.159254741668701172e+01,-4.320070743560791016e+00,-1.146283984184265137e+00,-5.024514198303222656e+00,-1.336261367797851562e+01,-9.356109619140625000e+00,-7.926970481872558594e+00,-9.049963951110839844e+00,-1.073964595794677734e+01,-1.118887996673583984e+01,-9.160663604736328125e+00
1.335172843933105469e+01,1.898754501342773438e+01,1.388164615631103516e+01,1.272545719146728516e+01,1.715617370605468750e+01,1.279707241058349609e+01,5.422443389892578125e+00,5.090809345245361328e+00,3.303761959075927734e+00,4.295186996459960938e+00,7.753475904464721680e-01,3.142544984817504883e+00,2.836888313293457031e+00,2.237165689468383789e+00,2.272442579269409180e+00,3.285111188888549805e+00,4.952837944030761719e+00,5.422309398651123047e+00,8.563578605651855469e+00,1.141219520568847656e+01,8.586640357971191406e+00,4.570243358612060547e+00,1.584913730621337891e+01,2.639828491210937500e+01,2.646282386779785156e+01,1.254212284088134766e+01,1.367346858978271484e+01,1.687554550170898438e+01,1.672970962524414062e+01,1.404424858093261719e+01,1.113713169097900391e+01,1.344635486602783203e+01
8.964303016662597656e+00,1.641856193542480469e+01,1.612960243225097656e+01,1.612329673767089844e+01,1.811499023437500000e+01,1.404064369201660156e+01,8.445223808288574219e+00,7.216167449951171875e+00,8.725241661071777344e+00,7.038439750671386719e+00,3.532178878784179688e+00,1.727064132690429688e+00,4.553188323974609375e+00,4.836590766906738281e+00,5.294105529785156250e+00,1.164416313171386719e+00,1.338156104087829590e+00,4.264316082000732422e+00,5.765946388244628906e+00,8.658052444458007812e+00,7.731010913848876953e+00,5.147469997406005859e+00,1.883306312561035156e+01,3.188247299194335938e+01,3.004350662231445312e+01,1.490857982635498047e+01,1.339091205596923828e+01,1.534558677673339844e+01,1.567696762084960938e+01,1.536741542816162109e+01,1.363726425170898438e+01,1.400046634674072266e+01
5.591941833496093750e+00,5.691217899322509766e+00,5.553481101989746094e+00,7.654075145721435547e+00,9.836114883422851562e+00,7.891994476318359375e+00,2.822321653366088867e+00,2.172257661819458008e+00,5.863933563232421875e+00,6.668642044067382812e+00,2.139648199081420898e+00,1.337880134582519531e+00,3.614310026168823242e+00,3.131566762924194336e+00,1.849726676940917969e+00,-1.145924210548400879e+00,-3.133520126342773438e+00,-9.799419343471527100e-02,3.629175901412963867e+00,6.999151229858398438e+00,5.073671817779541016e+00,1.483764290809631348e+00,1.115856933593750000e+01,1.402554416656494141e+01,9.275884628295898438e+00,2.890967607498168945e+00,4.582788467407226562e+00,3.541002750396728516e+00,3.905734300613403320e+00,6.184503555297851562e+00,5.994271278381347656e+00,5.412081718444824219e+00
2.917926311492919922e+00,3.194271087646484375e+00,9.803695082664489746e-01,3.014694929122924805e+00,4.938401699066162109e+00,2.602850914001464844e+00,-2.646540403366088867e+00,-6.556314826011657715e-01,9.044102668762207031e+00,1.412505722045898438e+01,6.464425563812255859e+00,-1.017526164650917053e-01,4.428586065769195557e-01,-1.150778532028198242e+00,-3.630617618560791016e+00,-3.820874452590942383e+00,-1.894008994102478027e+00,-5.277780055999755859e+00,-4.352847099304199219e+00,8.603695034980773926e-01,2.719730734825134277e-01,-3.420829534530639648e+00,7.552690029144287109e+00,1.878305792808532715e+00,-3.642148256301879883e+00,-6.090109825134277344e+00,2.606498479843139648e+00,-7.756134867668151855e-01,-1.027848958969116211e+00,2.175773233175277710e-01,-1.125513315200805664e+00,-1.337029933929443359e+00
-1.439281177520751953e+01,-1.043975067138671875e+01,-8.051237106323242188e+00,-5.455108165740966797e+00,-6.292054176330566406e+00,-8.492434501647949219e+00,-1.155034542083740234e+01,-1.046594047546386719e+01,-2.234615564346313477e+00,4.309549331665039062e+00,-9.005738496780395508e-01,-1.046025657653808594e+01,-1.093371009826660156e+01,-1.235082912445068359e+01,-1.579205513000488281e+01,-1.782491111755371094e+01,-1.065109729766845703e+01,-1.343128585815429688e+01,-1.742466735839843750e+01,-1.460747146606445312e+01,-1.601142311096191406e+01,-1.625187683105468750e+01,-5.407525062561035156e+00,-1.893482565879821777e+00,-5.863985061645507812e+00,-1.197732734680175781e+01,-1.197554016113281250e+01,-1.182932376861572266e+01,-1.269768047332763672e+01,-1.327282714843750000e+01,-1.678368377685546875e+01,-1.610649490356445312e+01
-1.291080379486083984e+01,-1.516339874267578125e+01,-1.070310878753662109e+01,-6.687972068786621094e+00,-8.562638282775878906e+00,-9.310300827026367188e+00,-9.662800788879394531e+00,-9.549901962280273438e+00,-9.236445426940917969e+00,-6.064487934112548828e+00,-7.141964912414550781e+00,-9.018719673156738281e+00,-1.017166900634765625e+01,-1.215593528747558594e+01,-1.505428123474121094e+01,-1.822944641113281250e+01,-1.604919815063476562e+01,-1.534934234619140625e+01,-1.825234794616699219e+01,-1.586813926696777344e+01,-2.052045631408691406e+01,-2.061784553527832031e+01,-1.589871025085449219e+01,-2.063006162643432617e+00,-1.240766420960426331e-01,-6.428908824920654297e+00,-2.085754585266113281e+01,-1.831358909606933594e+01,-1.854392051696777344e+01,-1.679349899291992188e+01,-1.791263389587402344e+01,-1.993065643310546875e+01
3.567413330078125000e+00,-8.992463946342468262e-01,-5.832639932632446289e-01,2.330884695053100586e+00,1.200619339942932129e+00,3.314663171768188477e-01,1.755797863006591797e+00,4.220409393310546875e+00,3.988323926925659180e+00,1.409505724906921387e+00,3.566973507404327393e-01,5.833047032356262207e-01,5.312410593032836914e-01,-3.418987274169921875e+00,-3.281821250915527344e+00,-4.085937023162841797e+00,-4.904742240905761719e+00,-7.228608608245849609e+00,-7.525781154632568359e+00,-2.472174912691116333e-01,-1.958518385887145996e+00,-4.085132122039794922e+00,-7.194135665893554688e+00,-4.920051097869873047e+00,2.506633996963500977e+00,7.408356189727783203e+00,-2.290261745452880859e+00,-3.844799518585205078e+00,-4.818474292755126953e+00,-2.497557640075683594e+00,3.949093520641326904e-01,-2.789602518081665039e+00
7.537251949310302734e+00,9.701891899108886719e+00,6.730455398559570312e+00,5.018457412719726562e+00,4.545623779296875000e+00,4.154991626739501953e+00,5.852959632873535156e+00,8.127036094665527344e+00,6.074254035949707031e+00,2.188146114349365234e+00,3.343857288360595703e+00,6.214933872222900391e+00,7.214765071868896484e+00,-3.346102833747863770e-01,6.745459437370300293e-01,1.381904244422912598e+00,5.883174419403076172e+00,-3.992817550897598267e-02,-2.972394943237304688e+00,6.035214424133300781e+00,1.090787601470947266e+01,8.817760467529296875e+00,5.053483963012695312e+00,-3.209074020385742188e+00,3.248829364776611328e+00,1.164787006378173828e+01,1.601093673706054688e+01,1.134006214141845703e+01,1.073499965667724609e+01,1.027204990386962891e+01,9.920313835144042969e+00,1.219502258300781250e+01
1.200214099884033203e+01,1.227583408355712891e+01,5.333571910858154297e+00,1.276854038238525391e+00,3.283538579940795898e+00,6.165919303894042969e+00,7.498420715332031250e+00,6.538720130920410156e+00,-3.328201770782470703e+00,-5.710342407226562500e+00,8.074989318847656250e-01,1.285653686523437500e+01,1.212893962860107422e+01,2.478619098663330078e+00,2.695729732513427734e+00,4.118405818939208984e+00,9.663096427917480469e+00,5.681448459625244141e+00,-6.972895860671997070e-01,7.147200584411621094e+00,1.140689849853515625e+01,9.653236389160156250e+00,8.051762580871582031e+00,1.150833702087402344e+01,1.468088054656982422e+01,1.431696224212646484e+01,1.680830383300781250e+01,1.595783138275146484e+01,1.463649272918701172e+01,1.338603496551513672e+01,9.147816658020019531e+00,1.218112373352050781e+01
1.411675930023193359e+01,1.210011959075927734e+01,4.030786991119384766e+00,3.057737588882446289e+00,7.267008304595947266e+00,1.014361763000488281e+01,8.822265625000000000e+00,6.073770999908447266e+00,1.358535289764404297e+00,-6.346802227199077606e-03,6.180922031402587891e+00,9.729251861572265625e+00,7.183409690856933594e+00,1.456574678421020508e+00,-1.025604844093322754e+00,1.527749001979827881e-01,3.968410730361938477e+00,5.665933609008789062e+00,2.510896444320678711e+00,7.489570617675781250e+00,8.848137855529785156e+00,9.131789207458496094e+00,3.351479768753051758e+00,5.620870113372802734e+00,7.656878948211669922e+00,1.390889930725097656e+01,1.223039436340332031e+01,1.429160404205322266e+01,1.252818870544433594e+01,1.068876457214355469e+01,7.504312992095947266e+00,6.092675685882568359e+00
7.590388774871826172e+00,9.379800796508789062e+00,7.567841529846191406e+00,7.692670822143554688e+00,8.550108909606933594e+00,8.758303642272949219e+00,6.400181293487548828e+00,4.568003654479980469e+00,1.164675903320312500e+01,1.199113750457763672e+01,1.167957496643066406e+01,9.979347586631774902e-01,9.923913478851318359e-01,-2.018397897481918335e-01,-2.414427042007446289e+00,-6.476866245269775391e+00,-2.268331766128540039e+00,1.442168593406677246e+00,5.098636627197265625e+00,6.079225063323974609e+00,7.441429138183593750e+00,7.472604274749755859e+00,1.416845440864562988e+00,-9.918602943420410156e+00,-6.214324474334716797e+00,1.243454742431640625e+01,1.607032966613769531e+01,1.250627708435058594e+01,1.134756755828857422e+01,1.189945793151855469e+01,1.187040328979492188e+01,1.089971923828125000e+01
5.479918003082275391e+00,8.200097084045410156e+00,1.216300868988037109e+01,1.146471977233886719e+01,7.283380508422851562e+00,6.093739986419677734e+00,5.385002613067626953e+00,5.289524555206298828e+00,1.169574642181396484e+01,1.306156730651855469e+01,1.007405471801757812e+01,4.345804214477539062e+00,5.560039997100830078e+00,7.217564105987548828e+00,1.205158519744873047e+01,6.078625202178955078e+00,4.238230705261230469e+00,4.368015289306640625e+00,8.715185165405273438e+00,8.518224716186523438e+00,8.585875511169433594e+00,7.153636932373046875e+00,2.281837701797485352e+00,1.790004730224609375e+00,7.954653739929199219e+00,1.995991134643554688e+01,1.741666030883789062e+01,1.280262184143066406e+01,1.089017009735107422e+01,1.354899120330810547e+01,1.427536201477050781e+01,1.566056346893310547e+01
-1.221772861480712891e+01,-1.298164463043212891e+01,-1.299632358551025391e+01,-1.107286834716796875e+01,-1.034568977355957031e+01,-9.119944572448730469e+00,-7.916573047637939453e+00,-9.468945503234863281e+00,-7.714344978332519531e+00,-6.267038822174072266e+00,-5.507678031921386719e+00,-6.704506397247314453e+00,-7.059667110443115234e+00,3.996914148330688477e+00,1.518125343322753906e+01,9.584359169006347656e+00,-4.054032802581787109e+00,-7.935814380645751953e+00,-1.052649211883544922e+01,-1.513110065460205078e+01,-1.752866935729980469e+01,-1.481306457519531250e+01,-1.838997077941894531e+01,-1.059383678436279297e+01,-6.420710563659667969e+00,-2.828238487243652344e+00,-1.113053417205810547e+01,-1.100605392456054688e+01,-1.250929260253906250e+01,-1.412386226654052734e+01,-1.735995483398437500e+01,-1.793448448181152344e+01
-2.159735107421875000e+01,-2.268539810180664062e+01,-2.166914558410644531e+01,-1.909839630126953125e+01,-1.817004776000976562e+01,-1.784576225280761719e+01,-1.651383590698242188e+01,-1.700529289245605469e+01,-1.577125549316406250e+01,-1.400137901306152344e+01,-1.372284126281738281e+01,-1.768814659118652344e+01,-1.816121864318847656e+01,-8.227015495300292969e+00,-7.314597964286804199e-01,-6.405346870422363281e+00,-1.786485481262207031e+01,-2.011629867553710938e+01,-2.198649024963378906e+01,-2.686162948608398438e+01,-2.786982727050781250e+01,-2.537409591674804688e+01,-2.906951141357421875e+01,-2.344431304931640625e+01,-1.821483612060546875e+01,-1.312820529937744141e+01,-2.215999221801757812e+01,-2.148467445373535156e+01,-2.213358306884765625e+01,-2.467595100402832031e+01,-2.807298088073730469e+01,-2.824425506591796875e+01
-1.344610404968261719e+01,-1.488349437713623047e+01,-1.617965888977050781e+01,-1.678713417053222656e+01,-1.724432373046875000e+01,-1.679772949218750000e+01,-1.552220726013183594e+01,-1.268715763092041016e+01,-1.425089359283447266e+01,-1.463610649108886719e+01,-1.548806190490722656e+01,-1.670680236816406250e+01,-1.684388923645019531e+01,-1.424174022674560547e+01,-9.251447677612304688e+00,-1.324423408508300781e+01,-1.512847423553466797e+01,-1.238386631011962891e+01,-7.639801025390625000e+00,-9.247043609619140625e+00,-1.032366561889648438e+01,-1.121567535400390625e+01,-1.747130012512207031e+01,-2.004960823059082031e+01,-1.619232940673828125e+01,-7.004794597625732422e+00,-1.148115539550781250e+01,-1.394918441772460938e+01,-1.463188171386718750e+01,-1.380583763122558594e+01,-1.439212894439697266e+01,-1.436812877655029297e+01
-1.434826469421386719e+01,-1.473402595520019531e+01,-1.825349235534667969e+01,-1.919014167785644531e+01,-1.980025100708007812e+01,-1.903909111022949219e+01,-1.801869201660156250e+01,-1.518422508239746094e+01,-2.057928085327148438e+01,-2.290618515014648438e+01,-2.212256050109863281e+01,-1.882747840881347656e+01,-2.043756294250488281e+01,-1.690826606750488281e+01,-4.138340473175048828e+00,-8.251333236694335938e+00,-1.288349914550781250e+01,-1.060757827758789062e+01,-5.956931114196777344e+00,-1.070792007446289062e+01,-1.207596492767333984e+01,-1.104086971282958984e+01,-1.550193500518798828e+01,-1.506670951843261719e+01,-1.184422111511230469e+01,-6.128314971923828125e+00,-1.250077915191650391e+01,-1.530506038665771484e+01,-1.581648349761962891e+01,-1.504112815856933594e+01,-1.460160255432128906e+01,-1.528789615631103516e+01
-2.166583299636840820e+00,-1.711750626564025879e+00,-6.546342372894287109e+00,-7.681386947631835938e+00,-7.570158958435058594e+00,-6.661423206329345703e+00,-6.122340202331542969e+00,-4.608450412750244141e+00,-9.096667289733886719e+00,-9.274580955505371094e+00,-8.320052146911621094e+00,-6.166388034820556641e+00,-7.926544666290283203e+00,-4.404880523681640625e+00,5.185145378112792969e+00,-5.503041297197341919e-02,-4.927502632141113281e+00,-2.609427690505981445e+00,4.348537027835845947e-01,-1.171686291694641113e+00,5.998346209526062012e-01,2.398599833250045776e-01,-3.611516952514648438e+00,-7.823066711425781250e-01,4.014417171478271484e+00,7.143273353576660156e+00,-5.148472189903259277e-01,-3.495718955993652344e+00,-3.736449718475341797e+00,-3.111294031143188477e+00,-2.106597900390625000e+00,-3.730395317077636719e+00
