Fp1,Fp2,F7,F3,Fz,F4,F8,FT7,FC3,FCz,FC4,FT8,T3,C3,Cz,C4,T4,TP7,CP3,CPz,CP4,TP8,T5,P3,Pz,P4,T6,O1,Oz,O2,A1,A2
-4.501753449440002441e-01,1.220636144280433655e-01,-6.016191840171813965e-01,5.838395357131958008e-01,4.387357532978057861e-01,-4.144954383373260498e-01,4.944974482059478760e-01,7.215048670768737793e-01,-5.027394294738769531e-01,5.802731029689311981e-03,-8.292427659034729004e-01,1.278983503580093384e-01,1.567277759313583374e-01,2.466592639684677124e-01,-5.566803216934204102e-01,-9.010963439941406250e-01,-1.175648644566535950e-01,-5.306823849678039551e-01,-1.560564935207366943e-01,-3.489209413528442383e-01,-2.749314010143280029e-01,-5.067301392555236816e-01,-1.479629427194595337e-01,-3.408356904983520508e-01,-1.406604945659637451e-01,6.823304295539855957e-01,-4.444329440593719482e-02,2.348307073116302490e-01,2.255379259586334229e-01,1.652925312519073486e-01,1.899223774671554565e-01,-1.038032118231058121e-02
-6.241622567176818848e-01,9.563945978879928589e-02,-2.306603826582431793e-02,2.760213315486907959e-01,3.350358605384826660e-01,-4.308466017246246338e-01,1.308496296405792236e-01,5.235025882720947266e-01,-3.974655568599700928e-01,-1.490056663751602173e-01,-4.912506937980651855e-01,2.876502694562077522e-04,7.818403244018554688e-01,1.290979832410812378e-01,-8.644280582666397095e-02,-1.023355364799499512e+00,-2.622783780097961426e-01,-5.999606251716613770e-01,-3.971063196659088135e-01,-2.748198807239532471e-01,-4.660148322582244873e-01,-4.411952495574951172e-01,-2.419975697994232178e-01,-2.496245205402374268e-01,-2.074360400438308716e-01,6.528497338294982910e-01,-4.576165080070495605e-01,1.181654483079910278e-01,1.232086569070816040e-01,3.764009177684783936e-01,4.798464477062225342e-01,-2.983900308609008789e-01
-5.795166492462158203e-01,4.097728133201599121e-01,-4.858449101448059082e-01,1.920097768306732178e-01,3.249207884073257446e-02,-1.984851211309432983e-01,-1.439390331506729126e-01,6.590432673692703247e-02,-5.651084780693054199e-01,-2.317152321338653564e-01,-1.723214089870452881e-01,3.631229326128959656e-02,9.407660961151123047e-01,1.584197431802749634e-01,2.832109928131103516e-01,-7.823774218559265137e-01,1.137765496969223022e-01,-3.534684777259826660e-01,-4.391954541206359863e-01,-4.016970992088317871e-01,-2.991046011447906494e-01,7.467057555913925171e-02,-3.393496870994567871e-01,2.475868463516235352e-01,-1.476982682943344116e-01,4.022241234779357910e-01,-3.594470024108886719e-01,2.666585147380828857e-01,1.286480724811553955e-01,-1.240630894899368286e-01,8.096356987953186035e-01,-4.167019724845886230e-01
-8.029311895370483398e-01,4.257272779941558838e-01,-7.685060799121856689e-02,1.812359839677810669e-01,1.320763528347015381e-01,1.100511476397514343e-02,-1.789855659008026123e-01,-1.278881281614303589e-01,-3.250242769718170166e-01,-3.448516130447387695e-01,1.163236200809478760e-01,3.584286570549011230e-01,1.057051897048950195e+00,2.380439788103103638e-01,2.978938817977905273e-01,-5.738105773925781250e-01,-4.253988713026046753e-02,-1.402379721403121948e-01,-6.883104443550109863e-01,-4.484735429286956787e-01,6.013896316289901733e-02,3.159201741218566895e-01,-5.552291870117187500e-01,4.784692227840423584e-01,-2.495218813419342041e-01,3.322606980800628662e-01,-1.898791939020156860e-01,3.384733200073242188e-01,1.630939245223999023e-01,-4.296986460685729980e-01,7.373104095458984375e-01,-1.920493543148040771e-01
-4.292637109756469727e-01,3.256120979785919189e-01,-2.310929298400878906e-01,-9.944055974483489990e-02,-6.779261678457260132e-02,-1.175574734807014465e-01,-9.386178851127624512e-02,4.225993901491165161e-02,1.646792516112327576e-02,-2.017842829227447510e-01,1.399372518062591553e-01,6.175993084907531738e-01,7.117627859115600586e-01,6.704350709915161133e-01,4.313825368881225586e-01,-4.784916341304779053e-01,3.624804019927978516e-01,-2.280883640050888062e-01,-7.509666681289672852e-01,-4.764160513877868652e-01,8.300030231475830078e-02,6.150301098823547363e-01,-5.086788535118103027e-01,4.144865572452545166e-01,9.335288405418395996e-02,-8.286412805318832397e-02,-4.217793643474578857e-01,2.497502863407135010e-01,-3.777609393000602722e-02,-9.786094427108764648e-01,6.936643719673156738e-01,-5.192118287086486816e-01
2.960425615310668945e-02,4.665919840335845947e-01,9.651084244251251221e-02,-4.853190779685974121e-01,-1.843281388282775879e-01,-1.555687785148620605e-01,-1.240619719028472900e-01,-1.271970123052597046e-01,3.377331197261810303e-01,-2.260409295558929443e-01,-5.354265123605728149e-02,8.287817239761352539e-01,6.351909637451171875e-01,8.078167438507080078e-01,3.488270044326782227e-01,-3.198022544384002686e-01,4.604366719722747803e-01,-1.149126589298248291e-01,-6.972649097442626953e-01,-7.915978133678436279e-02,1.866430640220642090e-01,5.752361416816711426e-01,-4.916701018810272217e-01,4.805159568786621094e-01,3.586078286170959473e-01,-1.413392573595046997e-01,-6.523120403289794922e-02,2.573980763554573059e-02,-3.685731589794158936e-01,-9.312803149223327637e-01,4.212714433670043945e-01,-3.823876082897186279e-01
2.344904392957687378e-01,4.992569386959075928e-01,5.005473271012306213e-02,-6.224254369735717773e-01,-8.469916582107543945e-01,7.685495913028717041e-02,4.003630578517913818e-01,-1.667160540819168091e-01,4.187106490135192871e-01,-2.448488175868988037e-01,-2.033257633447647095e-01,2.925258278846740723e-01,4.594958126544952393e-01,6.419725418090820312e-01,1.574052274227142334e-01,-1.524693053215742111e-02,2.867399156093597412e-01,-1.527198404073715210e-01,-4.656814634799957275e-01,2.241625785827636719e-01,3.851868510246276855e-01,1.723247021436691284e-01,-4.655104577541351318e-01,2.345702350139617920e-01,8.314901590347290039e-01,-6.257602572441101074e-02,2.638020366430282593e-02,5.237041041254997253e-02,-6.162855029106140137e-01,-9.570769667625427246e-01,4.050158560276031494e-01,-3.754217028617858887e-01
3.816629573702812195e-02,2.817022502422332764e-01,1.292202621698379517e-01,-4.549565613269805908e-01,-1.186640620231628418e+00,2.818476557731628418e-01,9.099442511796951294e-03,-4.511702358722686768e-01,3.048494458198547363e-01,-9.409849345684051514e-02,-4.005864262580871582e-01,-9.004654362797737122e-03,1.606997251510620117e-01,3.888992667198181152e-01,-9.350435435771942139e-02,-7.345989346504211426e-02,2.988748848438262939e-01,1.274089422076940536e-02,1.103527471423149109e-02,4.334433078765869141e-01,2.236284464597702026e-01,2.310162037611007690e-01,-4.594967663288116455e-01,-2.353165447711944580e-01,7.526562213897705078e-01,1.424879729747772217e-01,2.493526786565780640e-02,4.555969238281250000e-01,-7.754269242286682129e-01,-6.964360475540161133e-01,4.420075118541717529e-01,-1.117489933967590332e-01
2.462234906852245331e-02,1.766016334295272827e-01,2.234076708555221558e-01,-2.879641056060791016e-01,-8.429260849952697754e-01,2.709812223911285400e-01,2.900698222219944000e-02,-5.060463547706604004e-01,-3.738308325409889221e-02,1.542678475379943848e-01,-4.025274813175201416e-01,-3.769620954990386963e-01,1.757663637399673462e-01,1.336660385131835938e-01,-4.516541957855224609e-02,-4.138007014989852905e-02,2.584482133388519287e-01,5.078691244125366211e-02,2.524115741252899170e-01,4.586968421936035156e-01,4.657193124294281006e-01,-6.422621011734008789e-02,-6.718321144580841064e-02,-6.634761095046997070e-01,6.579350233078002930e-01,3.243584930896759033e-01,4.275706410408020020e-01,4.374644756317138672e-01,-6.776154041290283203e-01,-6.067997813224792480e-01,8.665299415588378906e-02,9.655191004276275635e-02
-1.412301957607269287e-01,-3.453305363655090332e-01,2.720000967383384705e-02,-8.343715965747833252e-02,-7.232918143272399902e-01,2.747383415699005127e-01,2.497184127569198608e-01,-4.194091632962226868e-02,-3.387039005756378174e-01,2.858968377113342285e-01,-2.440528571605682373e-01,-2.046094238758087158e-01,-3.607546910643577576e-02,-2.769019603729248047e-01,-2.949076592922210693e-01,2.471852302551269531e-01,2.076237201690673828e-01,-3.137978613376617432e-01,4.572181403636932373e-01,4.858077466487884521e-01,5.349161624908447266e-01,-4.438710957765579224e-02,4.848466217517852783e-01,-4.659419953823089600e-01,4.011811912059783936e-01,4.589350819587707520e-01,5.965008139610290527e-01,7.606002092361450195e-01,-5.346392989158630371e-01,-2.769972980022430420e-01,1.553171724081039429e-01,4.190572202205657959e-01
-3.937220200896263123e-03,-4.626180529594421387e-01,-2.736852467060089111e-01,1.713980585336685181e-01,-4.182757735252380371e-01,1.986888945102691650e-01,8.154832720756530762e-01,6.967239081859588623e-02,-5.319749116897583008e-01,4.178005158901214600e-01,-3.047458231449127197e-01,-3.510720655322074890e-02,-1.347789615392684937e-01,-2.824378609657287598e-01,-5.292785167694091797e-01,2.057316601276397705e-01,-7.139994204044342041e-02,-9.905529022216796875e-02,7.674888372421264648e-01,5.994023755192756653e-02,4.488524496555328369e-01,-3.532407283782958984e-01,6.690534353256225586e-01,-6.795205473899841309e-01,1.001137420535087585e-01,5.381722450256347656e-01,8.938421607017517090e-01,1.067053556442260742e+00,-3.688404262065887451e-01,-3.292499482631683350e-01,-6.144507229328155518e-02,6.266086697578430176e-01
-1.412711143493652344e-01,-5.969568490982055664e-01,-7.072260379791259766e-01,-4.224412515759468079e-02,-2.162757664918899536e-01,1.116102859377861023e-01,8.606952428817749023e-01,6.073198914527893066e-01,-5.935586094856262207e-01,3.695159256458282471e-01,7.203116267919540405e-02,-8.083623647689819336e-02,-5.703294873237609863e-01,-4.469822943210601807e-01,-8.105525374412536621e-01,1.008249595761299133e-01,-2.864628732204437256e-01,-5.254831910133361816e-01,5.762090086936950684e-01,-7.237201184034347534e-02,2.975056469440460205e-01,-6.865883469581604004e-01,6.506870388984680176e-01,-7.048633098602294922e-01,-7.379580289125442505e-02,3.100214600563049316e-01,8.901913166046142578e-01,9.366920590400695801e-01,-2.125287652015686035e-01,-1.995808035135269165e-01,-1.247918903827667236e-01,5.858402252197265625e-01
-1.122873723506927490e-01,-8.811228275299072266e-01,-7.191556692123413086e-01,-4.613052904605865479e-01,4.434160888195037842e-02,-3.325739204883575439e-01,1.011344909667968750e+00,7.219126820564270020e-01,-4.494822621345520020e-01,-5.080097541213035583e-02,1.193323656916618347e-01,-1.039570271968841553e-01,-5.199378132820129395e-01,-3.963069021701812744e-01,-7.527802586555480957e-01,-5.013551190495491028e-02,-3.482583463191986084e-01,-5.916225910186767578e-01,3.724719882011413574e-01,-2.507829070091247559e-01,-5.713378638029098511e-02,-7.847486734390258789e-01,5.391447544097900391e-01,-6.970690488815307617e-01,-8.922053128480911255e-02,2.464137077331542969e-01,6.392290592193603516e-01,5.029425621032714844e-01,-1.227705180644989014e-01,-1.261923313140869141e-01,-1.182498782873153687e-01,3.293060064315795898e-01
1.739628240466117859e-02,-4.545597732067108154e-01,-1.025822639465332031e+00,-5.234633088111877441e-01,-1.866336911916732788e-01,-3.596788048744201660e-01,8.337426185607910156e-01,5.747022628784179688e-01,-4.452566206455230713e-01,-1.192686483263969421e-01,2.830219222232699394e-03,-1.741733774542808533e-02,-1.438490450382232666e-01,-4.488473236560821533e-01,-8.184312582015991211e-01,-3.460571467876434326e-01,-2.519895434379577637e-01,-3.499929606914520264e-01,5.426037311553955078e-01,-5.663406848907470703e-02,-1.599399745464324951e-01,-9.534459710121154785e-01,5.422105789184570312e-01,-5.420522093772888184e-01,-2.164607793092727661e-01,1.252873539924621582e-01,3.136120438575744629e-01,3.627737462520599365e-01,-3.330039680004119873e-01,1.244760379195213318e-01,2.129438817501068115e-01,-5.124306306242942810e-03
-6.921201944351196289e-02,-1.257324814796447754e-01,-8.602622747421264648e-01,-4.591949880123138428e-01,-1.859298050403594971e-01,-4.920242726802825928e-01,5.810369849205017090e-01,3.767561018466949463e-01,-5.431776642799377441e-01,-2.829107046127319336e-01,3.404963612556457520e-01,1.850020438432693481e-01,8.897746354341506958e-02,-3.524181246757507324e-01,-4.342785477638244629e-01,-4.655195772647857666e-01,-3.382279276847839355e-01,-1.461835950613021851e-01,4.783044159412384033e-01,-1.496580243110656738e-01,-1.198246702551841736e-01,-8.897928595542907715e-01,5.509622097015380859e-01,-4.672696590423583984e-01,-5.718031525611877441e-02,3.102386742830276489e-02,1.686567962169647217e-01,2.247318476438522339e-01,-2.404426038265228271e-01,3.542504012584686279e-01,4.946075081825256348e-01,3.855557367205619812e-02
1.348166540265083313e-02,-2.729903757572174072e-01,-7.611150741577148438e-01,-5.973549485206604004e-01,-3.968711942434310913e-02,-5.442326664924621582e-01,-6.178836151957511902e-02,2.556621730327606201e-01,-5.112113356590270996e-01,-3.638056516647338867e-01,5.396847724914550781e-01,4.764150381088256836e-01,1.700240522623062134e-01,-3.731439113616943359e-01,2.689068391919136047e-02,-3.782332837581634521e-01,-1.419875919818878174e-01,8.370113372802734375e-02,1.469939351081848145e-01,-4.334986209869384766e-01,1.311385482549667358e-01,-4.435032308101654053e-01,4.284206330776214600e-01,-2.253967970609664917e-01,-1.133141964673995972e-01,-1.348484903573989868e-01,-3.217009082436561584e-02,1.243458501994609833e-02,-1.439800113439559937e-01,6.832640618085861206e-02,5.543919801712036133e-01,4.084980487823486328e-01
6.350070238113403320e-02,-2.959265112876892090e-01,-4.150511622428894043e-01,-6.249685883522033691e-01,-1.150071807205677032e-02,1.599329337477684021e-02,9.398755431175231934e-02,1.498517692089080811e-01,-1.818518936634063721e-01,-5.200104042887687683e-02,5.822732448577880859e-01,5.814405083656311035e-01,5.648338794708251953e-01,-2.808929979801177979e-01,4.086395800113677979e-01,1.294570714235305786e-01,4.582816064357757568e-01,1.916034966707229614e-01,-3.233112022280693054e-02,-6.380758881568908691e-01,3.054679334163665771e-01,-1.749420613050460815e-01,5.440883636474609375e-01,1.533663552254438400e-02,-2.686132490634918213e-01,-5.305232405662536621e-01,-5.302318185567855835e-02,-1.014014407992362976e-01,4.884659498929977417e-02,-3.854346275329589844e-02,5.055993199348449707e-01,9.063950181007385254e-02
4.694234430789947510e-01,-1.927086859941482544e-01,-6.860499382019042969e-01,-6.271867752075195312e-01,-5.676522850990295410e-02,-2.244120985269546509e-01,3.828405588865280151e-02,-1.078075841069221497e-01,-9.677647054195404053e-02,3.127788379788398743e-02,6.934255361557006836e-01,9.884177446365356445e-01,1.831538379192352295e-01,1.669110804796218872e-01,2.813335657119750977e-01,1.415461897850036621e-01,7.256177067756652832e-01,2.467535138130187988e-01,-1.098344549536705017e-01,-3.959074318408966064e-01,5.279911160469055176e-01,-9.753591567277908325e-02,2.322034388780593872e-01,2.140550911426544189e-01,-2.467613071203231812e-01,-7.179895043373107910e-01,-8.200535178184509277e-02,-4.521045684814453125e-01,-2.646730542182922363e-01,-3.217471539974212646e-01,2.959627807140350342e-01,1.331379562616348267e-01
1.005861520767211914e+00,-2.817918658256530762e-01,-4.304093420505523682e-01,-7.298998832702636719e-01,-2.023475021123886108e-01,-4.066179692745208740e-02,-2.252810001373291016e-01,-2.319393455982208252e-01,4.102718667127192020e-04,1.746664792299270630e-01,5.182497501373291016e-01,1.103600502014160156e+00,-6.823197007179260254e-02,6.083962321281433105e-01,4.144037067890167236e-01,3.270896971225738525e-01,2.583684325218200684e-01,9.485739469528198242e-02,-3.461873531341552734e-02,-3.322162926197052002e-01,4.228319823741912842e-01,-3.321777582168579102e-01,-1.445037275552749634e-01,4.202542304992675781e-01,1.290651857852935791e-01,-7.462462782859802246e-01,-1.629759371280670166e-01,-2.627274096012115479e-01,-1.949144750833511353e-01,-3.338503539562225342e-01,-1.725343465805053711e-01,2.387912720441818237e-01
8.475245833396911621e-01,-1.797985583543777466e-01,-1.008040308952331543e-01,-6.580721139907836914e-01,-3.285819292068481445e-01,4.387788176536560059e-01,-2.433943599462509155e-01,-3.192025125026702881e-01,2.374405413866043091e-01,3.643216192722320557e-01,1.049102321267127991e-01,6.316891312599182129e-01,5.045340210199356079e-02,6.420711874961853027e-01,4.560357332229614258e-01,3.158246874809265137e-01,2.737947702407836914e-01,-9.984884411096572876e-02,4.521972965449094772e-03,2.865989506244659424e-01,5.714042186737060547e-01,-1.324598491191864014e-01,-2.063156850636005402e-02,2.060094922780990601e-01,8.186829090118408203e-02,-7.189462780952453613e-01,-3.343682587146759033e-01,-2.679833471775054932e-01,-3.760935962200164795e-01,-3.051485121250152588e-01,-1.332256197929382324e-01,1.812001466751098633e-01
9.087025523185729980e-01,-1.768696308135986328e-01,1.596438586711883545e-01,-3.680103421211242676e-01,-3.569960594177246094e-01,7.505998015403747559e-01,-3.439105153083801270e-01,-7.986392378807067871e-01,-5.053701400756835938e-01,4.262543320655822754e-01,2.313163690268993378e-02,4.351642429828643799e-01,-1.806628108024597168e-01,3.174894154071807861e-01,5.524513125419616699e-01,2.692691385746002197e-01,3.653449714183807373e-01,9.251505136489868164e-02,2.547789216041564941e-01,3.675463795661926270e-01,1.849695444107055664e-01,-3.779326975345611572e-01,1.961769759654998779e-01,2.515634000301361084e-01,-9.967121481895446777e-02,-4.685893058776855469e-01,-2.715489864349365234e-01,-2.750450372695922852e-01,-6.609587669372558594e-01,9.374756366014480591e-02,-1.423088312149047852e-01,2.572931945323944092e-01
6.538926959037780762e-01,-2.360949218273162842e-01,5.480268001556396484e-01,-3.062894567847251892e-02,-3.085246384143829346e-01,1.040813922882080078e+00,-5.219591856002807617e-01,-6.079745292663574219e-01,-6.622545719146728516e-01,6.803542375564575195e-01,-6.224608421325683594e-02,6.454316526651382446e-02,-8.102556318044662476e-02,3.870394080877304077e-02,5.150276422500610352e-01,2.011894285678863525e-01,1.139594539999961853e-01,-1.569661647081375122e-01,3.719492852687835693e-01,6.374105215072631836e-01,4.634465873241424561e-01,-4.736465811729431152e-01,3.966145515441894531e-01,-4.040695726871490479e-02,-1.661471277475357056e-01,-2.483540475368499756e-01,7.583817839622497559e-02,1.644496917724609375e-01,-4.273573160171508789e-01,8.512940257787704468e-02,-7.448738068342208862e-02,7.247738242149353027e-01
3.292385041713714600e-01,-6.334248185157775879e-01,4.974244534969329834e-01,2.486757785081863403e-01,3.256764635443687439e-02,1.105815052986145020e+00,-4.199161827564239502e-01,-4.142685234546661377e-01,-8.989994525909423828e-01,9.143109917640686035e-01,-2.025843262672424316e-01,1.457522213459014893e-01,-1.999761164188385010e-01,-1.930721700191497803e-01,5.039701461791992188e-01,2.429467439651489258e-02,3.737219423055648804e-02,-1.752417534589767456e-01,5.161228179931640625e-01,5.074264407157897949e-01,4.283197522163391113e-01,-3.476463854312896729e-01,6.109977364540100098e-01,-1.772188395261764526e-01,-3.897063136100769043e-01,2.525633871555328369e-01,5.125316381454467773e-01,4.338435232639312744e-01,-9.658932685852050781e-02,1.549698859453201294e-01,-4.127127826213836670e-01,8.126785159111022949e-01
2.020159065723419189e-01,-9.117297530174255371e-01,3.824224770069122314e-01,2.824850380420684814e-01,4.831230044364929199e-01,6.693172454833984375e-01,-1.082346811890602112e-01,-3.361992239952087402e-01,-6.159015297889709473e-01,1.208558678627014160e+00,-4.796912968158721924e-01,-1.088658049702644348e-01,-2.381990998983383179e-01,-2.790609896183013916e-01,3.941803574562072754e-01,2.099501937627792358e-01,-3.341714441776275635e-01,-7.404183745384216309e-01,3.000255227088928223e-01,6.260166764259338379e-01,-2.025282569229602814e-02,-2.014409452676773071e-01,6.863213181495666504e-01,-9.396874904632568359e-02,-7.669914364814758301e-01,-1.099295392632484436e-01,6.507867574691772461e-01,6.144609451293945312e-01,5.244339108467102051e-01,1.223045364022254944e-01,-3.945668637752532959e-01,6.108097434043884277e-01
1.089374050498008728e-01,-6.826758980751037598e-01,-2.448780834674835205e-01,2.743370831012725830e-01,7.674249410629272461e-01,5.419012904167175293e-01,1.107396855950355530e-01,-2.120934613049030304e-02,-5.973818302154541016e-01,7.438818216323852539e-01,-3.178592622280120850e-01,-2.009607404470443726e-01,-3.527576625347137451e-01,-4.768103361129760742e-01,-2.882809378206729889e-02,5.715005472302436829e-02,-6.339622735977172852e-01,-8.663671612739562988e-01,4.417244195938110352e-01,4.601351618766784668e-01,-2.709220051765441895e-01,-5.915482044219970703e-01,4.556505382061004639e-01,1.058280169963836670e-01,-8.083937764167785645e-01,1.164512112736701965e-01,6.011843085289001465e-01,6.477392911911010742e-01,6.089166402816772461e-01,4.387702345848083496e-01,-2.525370121002197266e-01,4.242802858352661133e-01
1.270360127091407776e-02,-4.408833384513854980e-01,-2.849036157131195068e-01,2.426556497812271118e-01,5.152820944786071777e-01,4.344164133071899414e-01,1.997341811656951904e-01,2.682588249444961548e-02,-3.543626964092254639e-01,3.361744284629821777e-01,-1.746950447559356689e-01,-7.612540572881698608e-02,-2.889062166213989258e-01,-3.882041871547698975e-01,-1.699603535234928131e-02,-2.747998237609863281e-01,-9.313400387763977051e-01,-7.385318279266357422e-01,2.537915706634521484e-01,5.065870881080627441e-01,-7.734486460685729980e-01,-5.155621767044067383e-01,2.112040668725967407e-01,2.137139290571212769e-01,-8.711138963699340820e-01,1.087390109896659851e-01,7.275594472885131836e-01,3.375819921493530273e-01,5.749672651290893555e-01,3.024546802043914795e-01,2.116758674383163452e-01,7.447439432144165039e-02
-1.493556797504425049e-01,-1.333588361740112305e-01,-2.595677077770233154e-01,-5.473960191011428833e-02,4.506026804447174072e-01,2.429690659046173096e-01,3.916291985660791397e-03,-9.533484280109405518e-02,-3.539563715457916260e-01,2.387024462223052979e-02,-6.704300176352262497e-03,-5.546821951866149902e-01,-1.971124112606048584e-01,-4.252706468105316162e-01,-4.910204093903303146e-03,-4.796820580959320068e-01,-1.129082322120666504e+00,-2.869285643100738525e-01,4.917899891734123230e-02,6.246879696846008301e-01,-8.295110464096069336e-01,-4.434658885002136230e-01,-1.416125446557998657e-01,5.385921895503997803e-02,-5.354030132293701172e-01,3.782912492752075195e-01,4.023890495300292969e-01,1.838451325893402100e-01,7.937471866607666016e-01,3.112649321556091309e-01,3.351804018020629883e-01,-2.100954651832580566e-01
-3.029187023639678955e-01,2.918330132961273193e-01,-5.217527970671653748e-02,-2.073025256395339966e-01,2.534043490886688232e-01,1.227632611989974976e-01,-3.933819234371185303e-01,-4.580827653408050537e-01,-5.164410546422004700e-02,1.229254342615604401e-02,7.205400615930557251e-02,-2.281452119350433350e-01,1.648185551166534424e-01,-6.192961335182189941e-01,4.366241991519927979e-01,-2.222521305084228516e-01,-9.179114103317260742e-01,-1.690448820590972900e-01,3.378947451710700989e-02,4.914055764675140381e-01,-9.869923591613769531e-01,3.810516744852066040e-02,8.270930498838424683e-02,4.036873579025268555e-01,-2.397670447826385498e-01,1.384454965591430664e-01,1.748603582382202148e-01,2.141131833195686340e-02,6.923705935478210449e-01,2.919732332229614258e-01,5.597577095031738281e-01,-3.324660360813140869e-01
-1.569408327341079712e-01,2.519412934780120850e-01,-9.931626170873641968e-02,-1.701970845460891724e-01,1.445963531732559204e-01,2.533067166805267334e-01,-5.377275347709655762e-01,-4.183260202407836914e-01,8.890683762729167938e-03,-2.503015100955963135e-01,7.740832567214965820e-01,8.783577382564544678e-02,3.685637116432189941e-01,-5.845516920089721680e-01,5.880055427551269531e-01,-2.060518413782119751e-01,-6.589222550392150879e-01,2.411646991968154907e-01,4.456558823585510254e-02,2.233415693044662476e-01,-6.590200066566467285e-01,3.376579880714416504e-01,-1.457598209381103516e-01,6.562024950981140137e-01,-3.599804639816284180e-01,4.813949111849069595e-03,2.026692181825637817e-01,2.727879285812377930e-01,6.222643852233886719e-01,1.719617098569869995e-01,7.016385197639465332e-01,-4.043440818786621094e-01
1.090595964342355728e-03,2.029339969158172607e-01,1.439547091722488403e-01,-3.515030443668365479e-01,5.741972848773002625e-02,3.128607571125030518e-01,-7.215802073478698730e-01,-5.348677039146423340e-01,2.624336779117584229e-01,-1.373559981584548950e-01,7.517646551132202148e-01,2.524437308311462402e-01,4.849261790513992310e-02,-3.220158815383911133e-01,6.389595866203308105e-01,8.826133608818054199e-02,-6.620711684226989746e-01,4.352721869945526123e-01,-2.288579344749450684e-01,-7.525689154863357544e-02,-4.646196365356445312e-01,4.272934794425964355e-01,-2.217224687337875366e-01,7.654846906661987305e-01,-1.623637974262237549e-01,-4.091821908950805664e-01,1.328521519899368286e-01,5.943857133388519287e-02,5.319562554359436035e-01,-3.170639574527740479e-01,3.973493874073028564e-01,-3.003968894481658936e-01
3.975336253643035889e-01,-1.947120130062103271e-01,3.284938037395477295e-01,-6.556103229522705078e-01,6.553914397954940796e-02,1.161677688360214233e-01,-5.344401597976684570e-01,-5.141033530235290527e-01,6.367423534393310547e-01,-4.163794517517089844e-01,8.591476678848266602e-01,1.686626076698303223e-01,-7.214593887329101562e-02,-1.933680661022663116e-02,5.234006643295288086e-01,6.807798147201538086e-01,-2.037073522806167603e-01,3.679192960262298584e-01,-3.852775990962982178e-01,-6.255966424942016602e-02,-4.621597230434417725e-01,6.937679052352905273e-01,-3.930866122245788574e-01,5.437500476837158203e-01,-1.074601560831069946e-01,-6.774830222129821777e-01,1.541187614202499390e-01,-2.104093730449676514e-01,3.404841721057891846e-01,-5.436481833457946777e-01,1.401484310626983643e-01,-3.945079743862152100e-01
5.383933782577514648e-01,-4.709361866116523743e-02,2.769968211650848389e-01,-5.365779399871826172e-01,-2.605546116828918457e-01,1.330092549324035645e-01,-3.094472587108612061e-01,-4.776379466056823730e-01,7.652410268783569336e-01,-1.746019721031188965e-01,7.473229169845581055e-01,1.945309489965438843e-01,-3.221679627895355225e-01,-4.505881667137145996e-02,4.380786418914794922e-01,7.198393344879150391e-01,-8.116821944713592529e-02,5.602565407752990723e-01,-2.024910449981689453e-01,2.136247456073760986e-01,-9.643499553203582764e-02,4.729069471359252930e-01,-3.859709501266479492e-01,6.785873770713806152e-01,6.260572373867034912e-02,-7.784194946289062500e-01,3.094621375203132629e-02,-2.742294073104858398e-01,-1.646496937610208988e-03,-4.580627679824829102e-01,2.169611398130655289e-03,-4.611929059028625488e-01
8.409017920494079590e-01,5.733252316713333130e-02,-5.026737973093986511e-02,-7.063176035881042480e-01,-3.914817273616790771e-01,2.228051275014877319e-01,-3.825353085994720459e-01,-6.212012171745300293e-01,5.066335797309875488e-01,-3.568992614746093750e-01,3.261873126029968262e-01,-2.390681579709053040e-02,-5.553503632545471191e-01,-1.354875117540359497e-01,1.921168565750122070e-01,7.195712327957153320e-01,-8.822380006313323975e-02,6.466415524482727051e-01,4.417822957038879395e-01,4.634163081645965576e-01,-6.139887496829032898e-02,2.170027643442153931e-01,-2.741560339927673340e-01,4.776867330074310303e-01,3.606218993663787842e-01,-4.658145606517791748e-01,9.078886359930038452e-02,-3.484115600585937500e-01,-3.349310457706451416e-01,-1.910831928253173828e-01,-2.482227087020874023e-01,-2.562255263328552246e-01
8.647809028625488281e-01,4.016264528036117554e-02,4.196900129318237305e-01,-3.811853528022766113e-01,-6.253447532653808594e-01,5.077297687530517578e-01,-2.964484393596649170e-01,-5.754487514495849609e-01,5.094237327575683594e-01,-1.526912152767181396e-01,1.889817714691162109e-01,-1.055289059877395630e-01,-7.785575985908508301e-01,-4.169023036956787109e-01,1.827748864889144897e-01,8.216606378555297852e-01,-1.694743335247039795e-01,8.415393829345703125e-01,7.290726304054260254e-01,5.833037495613098145e-01,2.547698020935058594e-01,5.086078494787216187e-02,-6.688278168439865112e-02,-2.440586984157562256e-01,5.945234298706054688e-01,-3.517429828643798828e-01,6.457934528589248657e-02,-2.711310386657714844e-01,-4.007750451564788818e-01,-7.887384295463562012e-02,-3.954362273216247559e-01,2.883014082908630371e-02
4.431456923484802246e-01,-2.439065575599670410e-01,4.965882897377014160e-01,1.880508661270141602e-02,-3.044694066047668457e-01,5.574138164520263672e-01,-1.350314617156982422e-01,-4.473551213741302490e-01,2.690875828266143799e-01,1.683237105607986450e-01,1.784043610095977783e-01,-2.905511558055877686e-01,-9.874580502510070801e-01,-4.972589313983917236e-01,3.744581937789916992e-01,8.565948009490966797e-01,-1.568478196859359741e-01,4.751586616039276123e-01,6.802310347557067871e-01,3.967386484146118164e-01,2.352625131607055664e-01,1.338033843785524368e-02,2.505809366703033447e-01,-3.195858299732208252e-01,3.226139545440673828e-01,-2.381678372621536255e-01,-4.493574425578117371e-02,-1.952014714479446411e-01,-4.981803297996520996e-01,1.396380215883255005e-01,-5.524199008941650391e-01,1.290911585092544556e-01
7.290790081024169922e-01,-6.597666740417480469e-01,3.662498295307159424e-01,4.224910438060760498e-01,-2.761584520339965820e-02,4.366315603256225586e-01,-1.331584602594375610e-01,-3.652416467666625977e-01,1.317146569490432739e-01,3.327388465404510498e-01,2.461420744657516479e-01,-3.238685131072998047e-01,-6.004889607429504395e-01,-8.002990484237670898e-01,1.621358282864093781e-02,1.108588576316833496e+00,-9.929203242063522339e-02,5.643882751464843750e-01,7.842503786087036133e-01,4.030383527278900146e-01,6.331820040941238403e-03,-2.109147161245346069e-01,6.593980193138122559e-01,-2.876442968845367432e-01,-8.607581257820129395e-02,-1.013932675123214722e-01,4.861040115356445312e-01,3.168789148330688477e-01,-1.011116653680801392e-01,4.032452702522277832e-01,-7.240667343139648438e-01,6.244965195655822754e-01
3.993239402770996094e-01,-8.546564579010009766e-01,-1.637134142220020294e-02,3.673609197139739990e-01,1.239830851554870605e-01,2.193436026573181152e-01,4.096660614013671875e-01,2.637435197830200195e-01,-1.159659624099731445e-01,5.264294743537902832e-01,2.291232198476791382e-01,-3.160541951656341553e-01,-7.677068710327148438e-01,-6.352260708808898926e-01,-1.835958957672119141e-01,8.103954195976257324e-01,-1.313845962285995483e-01,2.409851104021072388e-01,5.557904839515686035e-01,1.726241260766983032e-01,8.341534435749053955e-02,-4.064901769161224365e-01,7.719268798828125000e-01,-8.910298347473144531e-02,-2.576001882553100586e-01,-3.369641900062561035e-01,6.055134534835815430e-01,2.777960598468780518e-01,1.119525879621505737e-01,4.481416344642639160e-01,-1.080443024635314941e+00,7.628824710845947266e-01
3.499455153942108154e-01,-8.945308327674865723e-01,-4.600035548210144043e-01,1.073149889707565308e-01,5.390413403511047363e-01,5.642884969711303711e-02,2.970249056816101074e-01,5.097954869270324707e-01,-2.139916718006134033e-01,1.782998740673065186e-01,-1.188555825501680374e-02,-2.655933797359466553e-01,-1.112871646881103516e+00,-3.973590731620788574e-01,-1.761469542980194092e-01,5.109283924102783203e-01,-4.623553156852722168e-01,-1.218780875205993652e-01,5.892466902732849121e-01,-3.215495124459266663e-02,-1.978324651718139648e-01,-5.602438449859619141e-01,6.514925956726074219e-01,-5.648336559534072876e-02,-4.366824328899383545e-01,-3.453605771064758301e-01,3.595904707908630371e-01,-6.433844566345214844e-02,5.116268396377563477e-01,5.843622088432312012e-01,-9.733933806419372559e-01,3.421997129917144775e-01
2.175914645195007324e-01,-6.125518679618835449e-01,-4.260121881961822510e-01,2.069510072469711304e-01,7.064033746719360352e-01,-2.071383446455001831e-01,4.375828802585601807e-01,3.243724107742309570e-01,-5.873747542500495911e-02,5.129272118210792542e-03,-8.139836788177490234e-02,-3.096587955951690674e-01,-9.045658111572265625e-01,-3.621644079685211182e-01,-3.899487853050231934e-01,4.001954197883605957e-01,-6.731974482536315918e-01,-8.367276936769485474e-02,1.548347324132919312e-01,9.632492065429687500e-02,-6.274192929267883301e-01,-6.364509463310241699e-01,5.762618184089660645e-01,-1.086324825882911682e-02,-6.673803329467773438e-01,-1.289446800947189331e-01,-1.400269567966461182e-01,-9.226766973733901978e-02,3.917896151542663574e-01,6.691873669624328613e-01,-7.551199197769165039e-01,1.246909499168395996e-01
2.474420368671417236e-01,-3.186401724815368652e-01,-2.550727427005767822e-01,3.528379499912261963e-01,6.530575156211853027e-01,-3.658413589000701904e-01,2.931401431560516357e-01,1.186520010232925415e-01,-8.979050815105438232e-02,-2.233681678771972656e-01,6.900620460510253906e-02,-2.305099666118621826e-01,-2.121866643428802490e-01,-3.479459285736083984e-01,-2.375934123992919922e-01,-7.637212425470352173e-02,-4.047186672687530518e-01,3.831475600600242615e-02,1.601152122020721436e-01,-2.051717042922973633e-01,-7.151265740394592285e-01,-4.390990138053894043e-01,2.137229144573211670e-01,2.995125055313110352e-01,-6.460732221603393555e-01,-1.236325874924659729e-01,-1.802316457033157349e-01,-3.972999155521392822e-01,4.453409910202026367e-01,1.119006633758544922e+00,-3.426616191864013672e-01,-1.301856487989425659e-01
4.535630345344543457e-02,1.698379814624786377e-01,-2.669560611248016357e-01,5.993770956993103027e-01,6.662100553512573242e-01,-2.294977307319641113e-01,-4.567452669143676758e-01,9.075477719306945801e-02,-5.009269341826438904e-02,-4.003306925296783447e-01,4.826354086399078369e-01,-3.693952783942222595e-02,1.750661805272102356e-02,-4.390268027782440186e-01,3.700232803821563721e-01,-1.490910351276397705e-01,-3.785360753536224365e-01,5.086705088615417480e-01,-2.451102063059806824e-02,-3.015763163566589355e-01,-4.727654159069061279e-01,-1.174842417240142822e-01,-5.733747780323028564e-02,5.211225748062133789e-01,-5.336790084838867188e-01,-1.506546288728713989e-01,-4.619883298873901367e-01,-6.074433922767639160e-01,5.995373129844665527e-01,7.829480171203613281e-01,1.450944878160953522e-02,-2.386136949062347412e-01
1.578577607870101929e-01,2.812532782554626465e-01,8.355075865983963013e-02,1.239669471979141235e-01,7.756505608558654785e-01,-5.004589445888996124e-03,-6.289427876472473145e-01,-1.456228196620941162e-01,-2.237007208168506622e-02,-1.964090764522552490e-01,3.052538931369781494e-01,1.118731647729873657e-01,2.210025936365127563e-01,-2.220437228679656982e-01,4.947596490383148193e-01,1.530220955610275269e-01,4.556035995483398438e-02,4.590689837932586670e-01,-4.169040322303771973e-01,-7.351170182228088379e-01,-3.727026581764221191e-01,1.772473752498626709e-01,-2.978152334690093994e-01,5.386711359024047852e-01,-7.080215215682983398e-01,-3.756637871265411377e-01,-6.920152306556701660e-01,-4.462716579437255859e-01,5.825325846672058105e-01,4.396561086177825928e-01,2.418850362300872803e-02,-1.149410009384155273e-01
1.193354576826095581e-01,3.310945928096771240e-01,3.754074871540069580e-01,1.994558572769165039e-01,5.373446345329284668e-01,-1.736679696477949619e-03,-6.211243867874145508e-01,-1.736202836036682129e-01,1.379675567150115967e-01,-3.075740337371826172e-01,4.288510382175445557e-01,2.358501851558685303e-01,3.421647846698760986e-01,2.904776930809020996e-01,6.484829783439636230e-01,2.543670237064361572e-01,2.935011088848114014e-01,3.845098018646240234e-01,-6.615020632743835449e-01,-5.277161598205566406e-01,-2.567320764064788818e-01,6.121820807456970215e-01,-2.420353144407272339e-01,1.029268264770507812e+00,-5.934854149818420410e-01,-6.435170173645019531e-01,-6.915729045867919922e-01,-6.863563060760498047e-01,5.497951507568359375e-01,5.477111786603927612e-02,-1.149196699261665344e-01,-4.273693263530731201e-01
5.170591473579406738e-01,1.957914531230926514e-01,3.790748417377471924e-01,4.559538140892982483e-02,3.630733788013458252e-01,2.158247083425521851e-01,-5.112165808677673340e-01,-1.230043247342109680e-01,4.517958760261535645e-01,-2.685633599758148193e-01,2.703477740287780762e-01,4.125955402851104736e-01,1.904167383909225464e-01,2.807624936103820801e-01,6.888594627380371094e-01,4.355031251907348633e-01,1.910829693078994751e-01,3.910976052284240723e-01,-8.336142897605895996e-01,-4.497148692607879639e-01,-2.169825732707977295e-01,7.106909155845642090e-01,-7.160935997962951660e-01,1.119596600532531738e+00,-1.881587058305740356e-01,-8.061907887458801270e-01,-5.791981816291809082e-01,-7.024820446968078613e-01,4.490746259689331055e-01,-1.825978606939315796e-01,-2.804244160652160645e-01,-4.559910893440246582e-01
5.512314438819885254e-01,4.658275544643402100e-01,5.748512148857116699e-01,8.371900022029876709e-02,3.036575913429260254e-01,3.791181743144989014e-01,-7.838767170906066895e-01,-4.764828979969024658e-01,5.807214379310607910e-01,-3.018540143966674805e-01,4.421575367450714111e-02,2.049624174833297729e-01,2.392199486494064331e-01,8.146982192993164062e-01,4.991632401943206787e-01,5.357342958450317383e-01,6.185672804713249207e-02,2.677184045314788818e-01,-6.479662656784057617e-01,6.024134904146194458e-02,-1.907259821891784668e-01,6.169424653053283691e-01,-6.718691587448120117e-01,8.470706939697265625e-01,1.264567673206329346e-01,-4.504250288009643555e-01,-9.324694275856018066e-01,-7.151099443435668945e-01,1.847427040338516235e-01,-3.888624012470245361e-01,-4.117577672004699707e-01,-4.909754693508148193e-01
4.320212304592132568e-01,4.193190038204193115e-01,7.498405575752258301e-01,1.303219702094793320e-02,1.109547540545463562e-01,2.877999842166900635e-01,-7.299188375473022461e-01,-6.763753890991210938e-01,6.457837224006652832e-01,-2.240798920392990112e-01,-2.793267369270324707e-01,-2.270021140575408936e-01,-9.665285050868988037e-02,6.550304889678955078e-01,5.611994266510009766e-01,5.403636693954467773e-01,2.121577411890029907e-01,3.974793851375579834e-01,-3.774812519550323486e-01,3.213322460651397705e-01,-2.428324967622756958e-01,2.956405282020568848e-01,-6.685522198677062988e-01,4.764138162136077881e-01,4.116039574146270752e-01,-3.277617692947387695e-01,-6.222208142280578613e-01,-5.824377536773681641e-01,-1.413560509681701660e-01,-2.558299005031585693e-01,-4.387331604957580566e-01,-5.913850665092468262e-01
3.075346052646636963e-01,2.656149268150329590e-01,9.517632126808166504e-01,2.634706497192382812e-01,-5.873429030179977417e-02,5.517573952674865723e-01,-6.823426485061645508e-01,-5.513362288475036621e-01,3.739823400974273682e-01,1.082537844777107239e-01,-6.145912408828735352e-01,-5.195398330688476562e-01,-3.051123768091201782e-02,3.093584775924682617e-01,4.512677192687988281e-01,4.505416154861450195e-01,1.401105970144271851e-01,1.427836865186691284e-01,-8.828009665012359619e-02,4.698402285575866699e-01,-3.547056019306182861e-01,1.636943519115447998e-01,-7.774421572685241699e-01,3.337188363075256348e-01,3.518265187740325928e-01,1.985034346580505371e-01,-4.409744739532470703e-01,-2.824321389198303223e-01,-1.852038688957691193e-02,-3.559074923396110535e-02,-1.766764819622039795e-01,-5.235707759857177734e-01
-9.693785011768341064e-02,3.280450999736785889e-01,9.237399101257324219e-01,5.053062438964843750e-01,-4.007754102349281311e-02,7.530997991561889648e-01,-3.720048964023590088e-01,-4.789031744003295898e-01,6.901923567056655884e-02,1.822383701801300049e-02,-2.792879343032836914e-01,-8.195089697837829590e-01,-9.722974151372909546e-02,8.278281986713409424e-02,1.603364571928977966e-02,1.654257625341415405e-02,-9.578578174114227295e-02,2.086258083581924438e-01,-1.356204152107238770e-01,6.055544614791870117e-01,-1.520626097917556763e-01,3.355745375156402588e-01,-4.402409493923187256e-01,-2.666842006146907806e-02,3.532484769821166992e-01,4.815331697463989258e-01,-4.892593994736671448e-02,3.972970843315124512e-01,-4.414264485239982605e-02,-2.356713078916072845e-02,-2.509004175662994385e-01,-1.605151742696762085e-01
-3.812200129032135010e-01,1.703594997525215149e-02,6.960084438323974609e-01,7.908779978752136230e-01,7.691775262355804443e-02,5.623539090156555176e-01,-4.439778625965118408e-01,1.517468392848968506e-01,1.712823063135147095e-01,1.221873909235000610e-01,-6.298700571060180664e-01,-8.158994913101196289e-01,-2.511423826217651367e-01,7.874833047389984131e-02,1.689065694808959961e-01,2.904554605484008789e-01,-2.502430081367492676e-01,-2.204127423465251923e-02,-2.637030780315399170e-01,3.987721502780914307e-01,-1.075615361332893372e-01,2.946841120719909668e-01,-1.907745897769927979e-01,1.629541814327239990e-01,2.145182639360427856e-01,5.099422931671142578e-01,1.733539253473281860e-01,4.381755888462066650e-01,3.503355383872985840e-01,-6.222669407725334167e-02,-5.684753656387329102e-01,7.901203632354736328e-02
-3.929083645343780518e-01,-1.778894364833831787e-01,2.574535310268402100e-01,7.027367353439331055e-01,5.416495203971862793e-01,3.099024295806884766e-01,3.185665607452392578e-01,8.960303664207458496e-02,2.810478955507278442e-02,1.383011490106582642e-01,-5.212985873222351074e-01,-6.854944825172424316e-01,-1.717148572206497192e-01,-3.307402729988098145e-01,-7.847718894481658936e-02,3.757314383983612061e-01,-1.621211320161819458e-01,-3.729279935359954834e-01,-1.599952876567840576e-01,3.441201746463775635e-01,-5.231968164443969727e-01,1.723072528839111328e-01,-6.947427988052368164e-02,1.075475243851542473e-03,-1.102286949753761292e-01,4.319566488265991211e-01,6.010497212409973145e-01,4.832470118999481201e-01,5.051288008689880371e-01,4.013082757592201233e-02,-2.990601360797882080e-01,-1.159071102738380432e-01
-4.051749110221862793e-01,1.522916257381439209e-01,-1.533883512020111084e-01,6.109067201614379883e-01,2.691142261028289795e-01,-3.994718194007873535e-01,5.729593038558959961e-01,5.253618955612182617e-01,2.073164731264114380e-01,-1.345174014568328857e-01,-3.625607788562774658e-01,-7.065013051033020020e-01,-2.813856005668640137e-01,-3.647282421588897705e-01,-6.631960868835449219e-01,2.509355545043945312e-01,-6.362024545669555664e-01,-5.053423047065734863e-01,-2.996574342250823975e-01,9.995146840810775757e-02,-7.356442213058471680e-01,8.152848482131958008e-02,6.385417189449071884e-03,-5.891297012567520142e-02,-1.986779421567916870e-01,7.470890879631042480e-01,3.197733461856842041e-01,3.674890697002410889e-01,3.140730261802673340e-01,1.993729323148727417e-01,-2.387308180332183838e-01,-2.998279929161071777e-01
-4.725250005722045898e-01,9.863094240427017212e-02,-2.433328777551651001e-01,3.300202786922454834e-01,3.333292901515960693e-01,-5.517007708549499512e-01,4.033091962337493896e-01,8.405923247337341309e-01,1.548610776662826538e-01,-7.258498668670654297e-01,-3.491756618022918701e-01,-7.748001813888549805e-01,-2.159402519464492798e-01,-1.848929077386856079e-01,-6.467143893241882324e-01,-3.675110340118408203e-01,-7.000273466110229492e-01,-1.657194457948207855e-02,-1.996200382709503174e-01,1.262223720550537109e-01,-6.616654992103576660e-01,-9.081798791885375977e-02,-4.768927395343780518e-01,-3.229523599147796631e-01,1.729751527309417725e-01,8.373834490776062012e-01,3.460266590118408203e-01,2.971110045909881592e-01,2.542701959609985352e-01,1.872473955154418945e-01,-1.631058007478713989e-01,-4.499314725399017334e-01
-4.799388051033020020e-01,4.264442920684814453e-01,-1.990738660097122192e-01,1.378095448017120361e-01,1.203418150544166565e-01,-6.263846755027770996e-01,2.258340567350387573e-01,3.764334022998809814e-01,3.582367300987243652e-01,-8.398081064224243164e-01,-2.652983181178569794e-02,-7.103247046470642090e-01,9.494122862815856934e-02,-4.138050675392150879e-01,-2.556134462356567383e-01,-4.689246714115142822e-01,-4.206200838088989258e-01,-2.915738709270954132e-02,-1.192194223403930664e-01,-1.957032382488250732e-01,-7.191393971443176270e-01,3.806833177804946899e-02,-4.390861690044403076e-01,-2.692115865647792816e-02,3.884001374244689941e-01,3.118874728679656982e-01,-1.029862239956855774e-01,-1.517565250396728516e-01,2.649745643138885498e-01,1.327258646488189697e-01,2.110988795757293701e-01,-7.493394613265991211e-01
-5.331096649169921875e-01,5.782788991928100586e-01,-3.011296093463897705e-01,9.910918027162551880e-02,2.589792385697364807e-02,-7.765929102897644043e-01,1.364737153053283691e-01,2.112211734056472778e-01,8.290323615074157715e-02,-1.032722234725952148e+00,1.140491664409637451e-01,-5.484579801559448242e-01,3.156273961067199707e-01,-3.029293715953826904e-01,-2.348203361034393311e-01,-1.619186103343963623e-01,-1.882785111665725708e-01,2.043546885251998901e-01,-2.557038366794586182e-01,-4.426184296607971191e-01,-3.944422602653503418e-01,3.201092779636383057e-01,-4.704459011554718018e-01,1.954212933778762817e-01,1.360999792814254761e-01,2.100081294775009155e-01,-2.766965702176094055e-02,-1.324254125356674194e-01,-1.547949854284524918e-03,1.102135479450225830e-01,3.715745210647583008e-01,-9.190044403076171875e-01
-4.913964569568634033e-01,3.469488024711608887e-01,-2.010327279567718506e-01,-1.149526014924049377e-01,-1.752504855394363403e-01,-6.800270080566406250e-01,-9.271000325679779053e-02,3.316052556037902832e-01,2.695423662662506104e-01,-8.683339357376098633e-01,5.558394193649291992e-01,-8.544310182332992554e-02,5.730655193328857422e-01,-2.286945134401321411e-01,-2.817476987838745117e-01,-1.024881973862648010e-01,1.283215284347534180e-01,5.528082251548767090e-01,-5.220763683319091797e-01,-7.302951812744140625e-01,-6.265399046242237091e-03,5.669881701469421387e-01,-1.350002139806747437e-01,2.193910628557205200e-01,2.093328237533569336e-01,1.607630252838134766e-01,-3.028859198093414307e-01,-3.721163840964436531e-03,-1.658607870340347290e-01,-2.455268502235412598e-01,3.186206519603729248e-01,-5.831553936004638672e-01
-1.975807845592498779e-01,4.910988807678222656e-01,-2.593185305595397949e-01,-2.890767753124237061e-01,-1.319918185472488403e-01,-7.651591300964355469e-01,8.236954919993877411e-03,3.434854447841644287e-01,5.360281467437744141e-01,-7.988811135292053223e-01,7.688592076301574707e-01,2.538638412952423096e-01,2.257838994264602661e-01,-5.593352764844894409e-02,-4.582114890217781067e-02,2.919796705245971680e-01,4.034224152565002441e-01,6.750116944313049316e-01,-7.168580293655395508e-01,-8.857820034027099609e-01,7.051658630371093750e-02,3.926022648811340332e-01,-3.118484616279602051e-01,1.217996180057525635e-01,3.293425142765045166e-01,-2.426124364137649536e-01,-4.906177818775177002e-01,-1.935164481401443481e-01,-3.625789284706115723e-01,-6.643779873847961426e-01,-1.845215074717998505e-02,-5.325590968132019043e-01
8.783026039600372314e-02,3.335838019847869873e-01,-3.534691035747528076e-01,-4.467519521713256836e-01,-3.530289828777313232e-01,-5.016649961471557617e-01,9.886824339628219604e-02,3.163217604160308838e-01,8.279212713241577148e-01,-7.288103699684143066e-01,3.855798542499542236e-01,3.375090062618255615e-01,1.513582766056060791e-01,5.038000941276550293e-01,-1.881027072668075562e-01,6.371695995330810547e-01,7.268317937850952148e-01,5.153951644897460938e-01,-4.842374026775360107e-01,-5.361687541007995605e-01,5.558834075927734375e-01,5.398278236389160156e-01,-4.709843993186950684e-01,1.723671406507492065e-01,4.785159528255462646e-01,-5.980321168899536133e-01,-6.462547183036804199e-01,-4.166457951068878174e-01,-3.023708164691925049e-01,-4.331312775611877441e-01,2.188714221119880676e-02,-5.559627413749694824e-01
4.371090233325958252e-01,3.725211918354034424e-01,-1.142586022615432739e-01,-5.452393293380737305e-01,-6.195955872535705566e-01,-4.877651631832122803e-01,1.226127743721008301e-01,1.460302770137786865e-01,5.323264598846435547e-01,-7.025440335273742676e-01,-5.643656849861145020e-02,2.555156648159027100e-01,1.136933490633964539e-01,6.353464722633361816e-01,-2.409355938434600830e-01,7.480578422546386719e-01,8.877664804458618164e-01,3.575316071510314941e-01,-3.132358789443969727e-01,-3.999797105789184570e-01,3.820982277393341064e-01,5.787894725799560547e-01,-5.752267241477966309e-01,1.340705808252096176e-02,5.242008566856384277e-01,-3.398245275020599365e-01,-7.330750226974487305e-01,-5.052480101585388184e-01,-7.521492242813110352e-01,-3.779135942459106445e-01,-4.179788529872894287e-01,-3.809752762317657471e-01
6.764165163040161133e-01,6.097020115703344345e-03,-2.465316802263259888e-01,-4.151325821876525879e-01,-7.400284409523010254e-01,-4.369134306907653809e-01,3.236539959907531738e-01,1.892766952514648438e-01,3.429111242294311523e-01,-2.960116863250732422e-01,-1.918167322874069214e-01,1.881066113710403442e-01,-1.095123887062072754e-01,6.714579463005065918e-01,-1.649689525365829468e-01,5.424098372459411621e-01,6.839128732681274414e-01,5.324966907501220703e-01,1.121518388390541077e-01,-2.879564762115478516e-01,4.475013017654418945e-01,4.200299456715583801e-02,-2.996002137660980225e-01,-3.789949417114257812e-01,8.235745429992675781e-01,-2.269639670848846436e-01,-6.420122385025024414e-01,-4.461074471473693848e-01,-7.043587565422058105e-01,-2.511776387691497803e-01,-4.903497099876403809e-01,-2.852143645286560059e-01
4.452518522739410400e-01,6.609225273132324219e-02,-6.321172416210174561e-02,8.028361201286315918e-02,-7.254486680030822754e-01,1.634800136089324951e-01,-5.398472771048545837e-02,1.068892702460289001e-01,9.596824645996093750e-02,8.951812982559204102e-03,-3.839181661605834961e-01,-2.116606570780277252e-02,2.595635503530502319e-02,6.020839214324951172e-01,-7.251004874706268311e-02,4.783378243446350098e-01,7.292257547378540039e-01,2.290935963392257690e-01,1.524022966623306274e-01,-2.520794570446014404e-01,8.479370474815368652e-01,-2.261154502630233765e-01,-2.149552851915359497e-01,-5.264419913291931152e-01,8.109893798828125000e-01,-1.075050141662359238e-02,-5.228570103645324707e-01,-4.889279901981353760e-01,-8.214344978332519531e-01,-1.260268241167068481e-01,-4.696867167949676514e-01,7.744115591049194336e-02
1.492276042699813843e-02,-2.860479652881622314e-01,4.621732234954833984e-02,3.937050700187683105e-01,-3.379816412925720215e-01,1.286112666130065918e-01,2.145038992166519165e-01,2.119207829236984253e-01,-2.266546636819839478e-01,3.685961663722991943e-01,-5.954762101173400879e-01,-8.045775443315505981e-02,-1.395787149667739868e-01,3.457962274551391602e-01,-3.457401096820831299e-01,4.663573503494262695e-01,8.102229237556457520e-01,1.519964635372161865e-01,9.484555572271347046e-03,-1.952789574861526489e-01,7.349138259887695312e-01,-9.253653883934020996e-02,2.605315446853637695e-01,-4.611043035984039307e-01,4.062917828559875488e-01,1.651347875595092773e-01,-3.415480256080627441e-01,1.258034259080886841e-01,-7.066271305084228516e-01,9.663436561822891235e-02,-6.687725186347961426e-01,3.538872301578521729e-01
-9.720121510326862335e-03,-3.873983919620513916e-01,-1.998839676380157471e-01,8.154205679893493652e-01,-1.189525648951530457e-01,6.542848795652389526e-02,7.362709045410156250e-01,5.014489293098449707e-01,-6.339561343193054199e-01,6.084147095680236816e-01,-6.071623563766479492e-01,-1.905152201652526855e-01,-1.490559079684317112e-03,1.561691462993621826e-01,-3.594041466712951660e-01,2.746392190456390381e-01,7.562904357910156250e-01,-1.719844490289688110e-01,3.477948606014251709e-01,-2.051342427730560303e-01,3.461590409278869629e-01,-1.875583529472351074e-01,4.364098310470581055e-01,-3.961540162563323975e-01,-1.721072494983673096e-01,3.428041934967041016e-01,1.618866622447967529e-01,2.354027181863784790e-01,-4.246743023395538330e-01,1.259320974349975586e-01,-6.693105101585388184e-01,7.654671072959899902e-01
-1.513996720314025879e-01,-4.488838911056518555e-01,-5.421345233917236328e-01,7.116944193840026855e-01,2.166399061679840088e-01,-2.192023210227489471e-02,5.336337089538574219e-01,5.842015147209167480e-01,-7.012087702751159668e-01,4.646966159343719482e-01,-6.143014430999755859e-01,2.943180799484252930e-01,-1.096522994339466095e-02,3.588067889213562012e-01,-6.193727850914001465e-01,-5.435729399323463440e-03,2.157335281372070312e-01,-5.788119435310363770e-01,-9.133938699960708618e-02,-1.295361667871475220e-01,2.766009271144866943e-01,-4.910037815570831299e-01,3.748520612716674805e-01,-5.186084508895874023e-01,-2.140623033046722412e-01,4.358922541141510010e-01,1.527091264724731445e-01,3.396593928337097168e-01,-1.342986375093460083e-01,8.668661117553710938e-02,-6.343437433242797852e-01,5.262915492057800293e-01
-2.600257396697998047e-01,-3.804033994674682617e-01,-6.092110276222229004e-01,4.272515177726745605e-01,3.603260517120361328e-01,-3.332628309726715088e-01,7.715677022933959961e-01,9.401930570602416992e-01,-6.011402010917663574e-01,1.552740186452865601e-01,-6.766047477722167969e-01,-5.379232764244079590e-02,-1.601316630840301514e-01,2.739585340023040771e-01,-6.810894608497619629e-01,-1.748533397912979126e-01,1.353502273559570312e-01,-5.078377127647399902e-01,-3.995768427848815918e-01,-9.535970538854598999e-02,-9.267023205757141113e-02,-6.921885013580322266e-01,1.686030328273773193e-01,-3.773107230663299561e-01,-4.555476307868957520e-01,4.579364359378814697e-01,6.477541476488113403e-02,3.051061630249023438e-01,3.020922541618347168e-01,2.702611386775970459e-01,-5.728269815444946289e-01,2.945611774921417236e-01
-3.563552498817443848e-01,-7.498922944068908691e-02,-8.679658770561218262e-01,2.467024922370910645e-01,4.938716292381286621e-01,-4.750493466854095459e-01,5.336961150169372559e-01,6.500861048698425293e-01,-6.866847276687622070e-01,9.593409486114978790e-03,-6.893895864486694336e-01,-1.626878082752227783e-01,3.878473937511444092e-01,2.551164627075195312e-01,-4.552600681781768799e-01,-5.561836957931518555e-01,-2.313472703099250793e-02,-8.650716543197631836e-01,-2.341846972703933716e-01,-1.134061440825462341e-01,-2.531462013721466064e-01,-5.868066549301147461e-01,1.400259733200073242e-01,-2.383556663990020752e-01,-3.087439239025115967e-01,5.513985753059387207e-01,-1.947852075099945068e-01,1.932190805673599243e-01,2.311088293790817261e-01,3.092544674873352051e-01,1.072179004549980164e-01,-1.491753607988357544e-01
-4.630103707313537598e-01,3.202709555625915527e-01,-6.908768415451049805e-01,4.798175990581512451e-01,3.423376753926277161e-02,-4.826591014862060547e-01,3.570093512535095215e-01,5.296885967254638672e-01,-6.650553345680236816e-01,-1.300099194049835205e-01,-5.637325644493103027e-01,-2.806363999843597412e-02,5.835494399070739746e-01,8.359792083501815796e-02,-1.944090425968170166e-01,-8.091405630111694336e-01,-3.707651793956756592e-01,-5.353435277938842773e-01,-2.491485178470611572e-01,-4.310952126979827881e-01,-4.142663776874542236e-01,-4.351919293403625488e-01,-1.382964849472045898e-01,-9.460020065307617188e-02,-5.357877016067504883e-01,6.185448765754699707e-01,-3.265016973018646240e-01,2.244461327791213989e-01,1.313368231058120728e-01,3.322351872920989990e-01,6.344572305679321289e-01,-2.709526419639587402e-01
-7.695492506027221680e-01,5.360974073410034180e-01,-4.023337662220001221e-01,2.656555175781250000e-01,1.467023640871047974e-01,-2.321755141019821167e-01,-1.178409457206726074e-01,1.793900132179260254e-01,-2.788171470165252686e-01,-3.945634067058563232e-01,-2.059467881917953491e-01,1.943043321371078491e-01,9.760137200355529785e-01,3.144399821758270264e-02,2.531697154045104980e-01,-8.741790056228637695e-01,-1.106327995657920837e-01,-1.452200859785079956e-01,-4.349592030048370361e-01,-5.385290384292602539e-01,-2.106992155313491821e-01,-1.604623198509216309e-01,-3.555204868316650391e-01,2.524596452713012695e-01,-1.012220159173011780e-01,4.487691223621368408e-01,-3.670523166656494141e-01,1.045658364892005920e-01,-3.011643514037132263e-02,-1.294695138931274414e-01,1.030949473381042480e+00,-2.764208316802978516e-01
-7.172530293464660645e-01,3.218878805637359619e-01,-1.627885550260543823e-01,1.091232970356941223e-01,1.236863657832145691e-01,-2.245782166719436646e-01,-1.877449154853820801e-01,5.105109140276908875e-02,-2.908291220664978027e-01,-2.520059347152709961e-01,-7.444141060113906860e-02,3.321883380413055420e-01,9.451158642768859863e-01,2.526991069316864014e-01,4.473336637020111084e-01,-7.228639721870422363e-01,2.891291081905364990e-01,-1.509378254413604736e-01,-8.374667763710021973e-01,-5.070666670799255371e-01,2.380763366818428040e-02,5.148382782936096191e-01,-5.555106401443481445e-01,3.601098656654357910e-01,-1.277730315923690796e-01,1.552700996398925781e-01,-5.000408887863159180e-01,1.162396073341369629e-01,2.405735254287719727e-01,-6.563921570777893066e-01,8.621672391891479492e-01,-4.891678392887115479e-01
-5.309957861900329590e-01,8.201088905334472656e-01,-7.441087509505450726e-04,-1.155659779906272888e-01,-1.759433895349502563e-01,-1.081460788846015930e-01,-1.845232099294662476e-01,-8.220417052507400513e-02,9.025586396455764771e-02,-1.628793776035308838e-01,8.754674345254898071e-02,4.933486580848693848e-01,8.555974364280700684e-01,4.843158125877380371e-01,3.309125602245330811e-01,-3.000468313694000244e-01,4.006887376308441162e-01,-2.627604305744171143e-01,-9.770533442497253418e-01,-4.340256750583648682e-01,2.587927505373954773e-02,7.758830189704895020e-01,-3.932135105133056641e-01,6.177509427070617676e-01,-4.957782477140426636e-02,-1.489144377410411835e-02,8.786177262663841248e-03,1.923977881669998169e-01,-3.345621228218078613e-01,-7.600622773170471191e-01,7.545747160911560059e-01,-5.443586111068725586e-01
6.535878777503967285e-02,6.149787306785583496e-01,4.532214999198913574e-02,-5.784391760826110840e-01,-3.811975121498107910e-01,-6.699918210506439209e-02,-1.281834095716476440e-01,-1.141035482287406921e-01,1.491227298974990845e-01,-1.371598690748214722e-01,2.145726978778839111e-01,5.604978799819946289e-01,6.431611776351928711e-01,5.315673947334289551e-01,1.766487509012222290e-01,-1.259037703275680542e-01,3.846706449985504150e-01,-1.031092777848243713e-01,-6.254248023033142090e-01,-3.022008240222930908e-01,1.383794546127319336e-01,4.290407598018646240e-01,-5.747556686401367188e-01,5.710582733154296875e-01,5.521674752235412598e-01,-1.255106329917907715e-01,-1.263035535812377930e-01,1.790794134140014648e-01,-2.872152030467987061e-01,-1.084297299385070801e+00,6.612807512283325195e-01,-4.566121399402618408e-01
1.657972335815429688e-01,6.466497778892517090e-01,5.623713135719299316e-02,-5.897063016891479492e-01,-7.505471706390380859e-01,6.097964197397232056e-02,-1.392587572336196899e-01,-2.387125790119171143e-01,3.125140070915222168e-01,-1.941740065813064575e-01,-2.968617379665374756e-01,3.571664094924926758e-01,4.437166452407836914e-01,6.543398499488830566e-01,2.688980102539062500e-01,2.947572991251945496e-02,2.915934324264526367e-01,-8.241755515336990356e-02,-3.871993422508239746e-01,2.275432497262954712e-01,3.720276653766632080e-01,1.816502213478088379e-01,-5.804517865180969238e-01,2.366468869149684906e-02,6.510279774665832520e-01,-9.649612754583358765e-02,-2.008079737424850464e-01,1.206532344222068787e-01,-3.671059012413024902e-01,-1.109789133071899414e+00,3.351523578166961670e-01,-3.763918280601501465e-01
1.999886631965637207e-01,3.528948724269866943e-01,3.829045891761779785e-01,-4.221841990947723389e-01,-9.055164456367492676e-01,8.460906147956848145e-02,-1.605383120477199554e-02,-3.565880358219146729e-01,3.596611618995666504e-01,-1.934897452592849731e-01,-3.329141139984130859e-01,-5.718387290835380554e-02,2.797113060951232910e-01,6.284435391426086426e-01,1.567509211599826813e-02,1.504690647125244141e-01,1.930181682109832764e-01,-4.258967936038970947e-01,-7.198105752468109131e-02,6.015852689743041992e-01,3.056272566318511963e-01,1.919017881155014038e-01,-4.728900790214538574e-01,-2.888387739658355713e-01,7.378968596458435059e-01,2.223379760980606079e-01,-1.722102165222167969e-01,1.709628254175186157e-01,-7.766976952552795410e-01,-8.266473412513732910e-01,5.409107208251953125e-01,-2.901504933834075928e-01
-2.111003547906875610e-01,2.486423701047897339e-01,4.192814975976943970e-02,-1.996351927518844604e-01,-9.920710921287536621e-01,4.240453541278839111e-01,9.936226904392242432e-02,-1.793527752161026001e-01,-7.151499390602111816e-02,5.970997735857963562e-02,-4.125050306320190430e-01,-1.354087144136428833e-01,1.629188954830169678e-01,3.034740313887596130e-02,-1.425025463104248047e-01,-2.660705149173736572e-02,7.909192144870758057e-02,-1.072322651743888855e-01,3.786374926567077637e-01,4.790209233760833740e-01,3.467225730419158936e-01,6.335406005382537842e-02,2.010082453489303589e-01,-4.923652112483978271e-01,4.820324182510375977e-01,4.595427811145782471e-01,2.906626164913177490e-01,5.966652631759643555e-01,-7.279599308967590332e-01,-7.174443006515502930e-01,4.032560586929321289e-01,2.138146311044692993e-01
-8.992630243301391602e-02,-2.887848019599914551e-01,5.168523639440536499e-02,-7.397958636283874512e-02,-7.836230397224426270e-01,4.891332387924194336e-01,3.098605573177337646e-01,1.250360719859600067e-02,-3.266654610633850098e-01,2.457584589719772339e-01,-1.735961139202117920e-01,-5.886295437812805176e-02,-2.822679653763771057e-02,-1.502424329519271851e-01,-2.648080289363861084e-01,1.205199360847473145e-01,3.656266257166862488e-02,4.133437573909759521e-02,4.918202161788940430e-01,3.326796591281890869e-01,7.122190594673156738e-01,-2.873069345951080322e-01,1.032708138227462769e-01,-5.151624083518981934e-01,3.485244214534759521e-01,4.655030965805053711e-01,4.699999392032623291e-01,9.927765727043151855e-01,-6.478472352027893066e-01,-4.447516500949859619e-01,1.615607142448425293e-01,5.473623871803283691e-01
-4.070647060871124268e-01,-3.724223375320434570e-01,-1.274609267711639404e-01,-1.036875173449516296e-01,-3.075554072856903076e-01,3.363487720489501953e-01,4.948108196258544922e-01,2.821269631385803223e-01,-5.094138979911804199e-01,4.784228205680847168e-01,-1.106604337692260742e-01,-8.852611482143402100e-02,-2.785798609256744385e-01,-4.451426863670349121e-01,-4.399218857288360596e-01,2.137914067134261131e-03,-9.628015011548995972e-02,-4.844707250595092773e-01,5.322604179382324219e-01,2.339658588171005249e-01,6.323403120040893555e-01,-2.934088408946990967e-01,4.110246896743774414e-01,-4.193795323371887207e-01,3.812464326620101929e-02,2.953431308269500732e-01,9.068470597267150879e-01,1.073480248451232910e+00,-3.910140991210937500e-01,-3.753087520599365234e-01,-3.651967644691467285e-02,5.645977258682250977e-01
-1.150752231478691101e-01,-5.807479023933410645e-01,-8.349877595901489258e-01,-1.968934684991836548e-01,-2.011424750089645386e-01,-1.473805010318756104e-01,8.183712959289550781e-01,4.530413746833801270e-01,-3.674774169921875000e-01,2.125549912452697754e-01,-4.109007120132446289e-02,6.002853810787200928e-02,-2.795591354370117188e-01,-6.195842623710632324e-01,-7.366829514503479004e-01,1.109912395477294922e-01,-2.437121719121932983e-01,-4.507729113101959229e-01,5.019778013229370117e-01,1.272011250257492065e-01,2.229140102863311768e-01,-6.798107028007507324e-01,8.803981542587280273e-01,-6.080960035324096680e-01,-9.509640187025070190e-02,2.650460600852966309e-01,8.050465583801269531e-01,9.442830085754394531e-01,-3.195001482963562012e-01,-1.488192528486251831e-01,-8.089850842952728271e-02,4.830906987190246582e-01
1.243354380130767822e-01,-6.819261908531188965e-01,-9.465591311454772949e-01,-2.588149905204772949e-01,-1.949712634086608887e-01,-4.447142779827117920e-01,9.200207591056823730e-01,6.837584376335144043e-01,-4.734882414340972900e-01,-9.735182672739028931e-02,-4.057186469435691833e-02,-1.540931016206741333e-01,-4.473138749599456787e-01,-5.827435255050659180e-01,-7.385764718055725098e-01,-6.947552412748336792e-02,-2.977650761604309082e-01,-6.257468461990356445e-01,5.684465169906616211e-01,5.422383174300193787e-02,5.535849835723638535e-03,-7.680556178092956543e-01,7.497273087501525879e-01,-4.949580430984497070e-01,-2.188818156719207764e-02,2.708200514316558838e-01,9.298152923583984375e-01,7.455213069915771484e-01,-2.792130410671234131e-01,-7.618574798107147217e-02,6.716624647378921509e-02,3.914589583873748779e-01
-1.228219643235206604e-02,-4.663195610046386719e-01,-1.069209933280944824e+00,-5.573319792747497559e-01,-2.684007585048675537e-01,-4.511004686355590820e-01,8.901439905166625977e-01,6.629285216331481934e-01,-3.616981506347656250e-01,-2.125891745090484619e-01,2.907660603523254395e-02,-4.079995676875114441e-02,-3.084460794925689697e-01,-3.205236494541168213e-01,-6.349545121192932129e-01,-2.065109014511108398e-01,-3.844791948795318604e-01,-3.686400353908538818e-01,2.964808642864227295e-01,-1.348233819007873535e-01,-3.697031363844871521e-02,-9.515818357467651367e-01,3.629676103591918945e-01,-5.369819998741149902e-01,-3.773818910121917725e-02,2.056374847888946533e-01,5.709196925163269043e-01,5.997678637504577637e-01,4.523313138633966446e-03,2.301576733589172363e-01,2.438876330852508545e-01,1.174288019537925720e-01
-2.413796186447143555e-01,-3.014450669288635254e-01,-7.971997857093811035e-01,-6.759604811668395996e-01,-1.615547090768814087e-01,-5.881825685501098633e-01,4.596497714519500732e-01,3.357181251049041748e-01,-4.593978226184844971e-01,-2.165149301290512085e-01,1.373941302299499512e-01,1.019582748413085938e-01,1.378873139619827271e-01,-4.901688992977142334e-01,-9.888888150453567505e-02,-4.959770143032073975e-01,-3.869923949241638184e-01,-1.453701555728912354e-01,3.756796121597290039e-01,-1.011386737227439880e-01,-9.938687086105346680e-02,-5.961641073226928711e-01,4.737480878829956055e-01,-3.468575775623321533e-01,-6.831502914428710938e-02,1.836134493350982666e-01,3.161097317934036255e-02,2.737335264682769775e-01,-1.076869145035743713e-01,4.745788276195526123e-01,4.030952453613281250e-01,6.193866580724716187e-02
1.519800722599029541e-01,-1.333824247121810913e-01,-6.597786545753479004e-01,-4.922999143600463867e-01,-1.694563627243041992e-01,-4.434659481048583984e-01,1.520682424306869507e-01,2.921416759490966797e-01,-4.372664093971252441e-01,-2.324637770652770996e-01,2.233248949050903320e-01,3.879526853561401367e-01,4.655342996120452881e-01,-4.230518341064453125e-01,2.175455391407012939e-01,-3.289508819580078125e-01,9.655321389436721802e-02,8.077600598335266113e-02,2.501917779445648193e-01,-4.594723284244537354e-01,2.174694985151290894e-01,-4.115792512893676758e-01,3.716121315956115723e-01,-2.452514134347438812e-02,-2.131507992744445801e-01,-4.562145471572875977e-01,1.009336113929748535e-01,1.966273970901966095e-02,-2.467820495367050171e-01,2.001616507768630981e-01,5.593750476837158203e-01,-5.447101593017578125e-02
2.100870907306671143e-01,-1.821607649326324463e-01,-6.758862137794494629e-01,-5.669906735420227051e-01,3.137014433741569519e-02,-2.377684861421585083e-01,1.036803647875785828e-01,1.360037624835968018e-01,-3.288433253765106201e-01,-4.262767732143402100e-02,8.085849285125732422e-01,8.786730170249938965e-01,2.961012423038482666e-01,-2.131990045309066772e-01,3.384373784065246582e-01,1.623344868421554565e-01,3.141493201255798340e-01,1.415724009275436401e-01,2.269736677408218384e-01,-7.332237362861633301e-01,3.278082013130187988e-01,-1.948207914829254150e-01,2.670143246650695801e-01,1.906518638134002686e-01,-3.695045411586761475e-01,-6.893263459205627441e-01,1.646278947591781616e-01,1.699268668889999390e-01,-2.554695010185241699e-01,-1.883614361286163330e-01,3.902428150177001953e-01,2.714905738830566406e-01
4.215510785579681396e-01,-2.161793261766433716e-01,-5.551850795745849609e-01,-4.843918979167938232e-01,-1.068056747317314148e-01,7.351145148277282715e-02,-2.082893252372741699e-01,5.003674328327178955e-02,-9.520090534351766109e-04,1.361040472984313965e-01,7.114526629447937012e-01,1.143459677696228027e+00,6.088394299149513245e-02,3.287310302257537842e-01,4.317407011985778809e-01,4.175846278667449951e-01,3.216573894023895264e-01,2.980703115463256836e-01,-2.612320482730865479e-01,-5.659208297729492188e-01,4.482601881027221680e-01,1.122558787465095520e-01,4.594369232654571533e-02,4.801760017871856689e-01,-9.526177495718002319e-02,-8.776333332061767578e-01,2.860624343156814575e-02,-1.751549541950225830e-01,-1.681318879127502441e-01,-4.800618588924407959e-01,1.965527832508087158e-01,3.047242760658264160e-01
8.139938712120056152e-01,-3.155433535575866699e-01,-2.422432154417037964e-01,-6.215484738349914551e-01,-1.050592362880706787e-01,1.930848509073257446e-02,-3.270565569400787354e-01,-3.553090989589691162e-01,-4.871882498264312744e-02,4.708448350429534912e-01,2.970722615718841553e-01,1.107190489768981934e+00,-1.260916516184806824e-02,6.143166422843933105e-01,3.434044122695922852e-01,4.613718986511230469e-01,7.208607196807861328e-01,2.219093590974807739e-02,-1.751724779605865479e-01,-2.282175570726394653e-01,2.588878273963928223e-01,-1.322856694459915161e-01,-5.402801558375358582e-02,1.802918016910552979e-01,-1.444575637578964233e-01,-8.580017089843750000e-01,-1.930064558982849121e-01,-2.659671306610107422e-01,-4.458238184452056885e-01,-3.908294439315795898e-01,3.717134147882461548e-02,2.404356300830841064e-01
1.101722955703735352e+00,-2.136236578226089478e-01,-1.590108722448348999e-01,-6.009834408760070801e-01,-4.273610115051269531e-01,3.050544857978820801e-01,-1.657454073429107666e-01,-4.443126022815704346e-01,-7.371643185615539551e-02,2.940227687358856201e-01,2.149734497070312500e-01,8.118494749069213867e-01,3.781172679737210274e-03,7.349748611450195312e-01,3.602016568183898926e-01,4.272989630699157715e-01,3.394131362438201904e-01,2.877521812915802002e-01,2.075773924589157104e-01,1.477998048067092896e-01,2.378892749547958374e-01,-3.070666491985321045e-01,-3.033462911844253540e-02,1.519566476345062256e-01,-1.297019124031066895e-01,-7.264313697814941406e-01,-2.375252544879913330e-01,-3.096403181552886963e-01,-4.863036572933197021e-01,2.848561108112335205e-02,-2.049406617879867554e-01,4.203051030635833740e-01
8.690586686134338379e-01,-2.314905375242233276e-01,3.484487831592559814e-01,-3.195029199123382568e-01,-5.258922576904296875e-01,6.355615258216857910e-01,-4.001937210559844971e-01,-5.130798220634460449e-01,-2.909532487392425537e-01,3.544028103351593018e-01,-1.156802028417587280e-01,6.621618866920471191e-01,-1.674308329820632935e-01,4.862180352210998535e-01,6.297796368598937988e-01,1.713945716619491577e-01,1.952990442514419556e-01,2.847713418304920197e-02,3.903578817844390869e-01,4.061346352100372314e-01,3.655649721622467041e-01,-5.287491679191589355e-01,1.651403754949569702e-01,7.171507924795150757e-02,3.097193129360675812e-02,-4.387184083461761475e-01,-2.472382038831710815e-01,-2.631865441799163818e-01,-4.034343361854553223e-01,-6.623537838459014893e-02,-9.536599367856979370e-02,3.677020370960235596e-01
5.079863071441650391e-01,-3.004902303218841553e-01,3.634464442729949951e-01,1.142031997442245483e-01,-7.215857505798339844e-02,9.751806259155273438e-01,-5.030147433280944824e-01,-7.438005805015563965e-01,-4.297895133495330811e-01,9.354215264320373535e-01,-2.115789949893951416e-01,8.313278853893280029e-02,-2.441699355840682983e-01,5.491133034229278564e-02,5.454437732696533203e-01,1.692841947078704834e-01,1.225419193506240845e-01,-1.317302882671356201e-01,1.842005401849746704e-01,4.565686285495758057e-01,3.511943519115447998e-01,-6.312660574913024902e-01,2.369717061519622803e-01,-2.555710077285766602e-01,-2.106564193964004517e-01,-1.566835194826126099e-01,5.516056343913078308e-02,1.333593279123306274e-01,-4.136776030063629150e-01,-4.768256470561027527e-02,-1.979373544454574585e-01,7.859000563621520996e-01
1.756782829761505127e-01,-5.597563982009887695e-01,3.887954950332641602e-01,3.550945818424224854e-01,7.499582320451736450e-02,9.603026509284973145e-01,-1.009780317544937134e-01,-6.919548511505126953e-01,-7.103785276412963867e-01,9.643874168395996094e-01,-3.727838099002838135e-01,1.280283033847808838e-01,-2.046529203653335571e-01,-3.668291568756103516e-01,3.976361155509948730e-01,3.675148636102676392e-02,1.259718462824821472e-02,-2.795487344264984131e-01,4.111197292804718018e-01,6.369261741638183594e-01,1.857675164937973022e-01,-4.515620768070220947e-01,6.127959489822387695e-01,1.955977678298950195e-01,-4.489839673042297363e-01,-3.179264813661575317e-02,2.378609925508499146e-01,3.837726414203643799e-01,-2.200845628976821899e-01,2.608930766582489014e-01,9.897170960903167725e-02,1.054789423942565918e+00
2.864193022251129150e-01,-7.563573718070983887e-01,1.247090399265289307e-01,4.657545685768127441e-01,2.531851232051849365e-01,9.909631609916687012e-01,1.147463172674179077e-01,-3.693542480468750000e-01,-7.120092511177062988e-01,1.003523111343383789e+00,-3.171785473823547363e-01,1.073180362582206726e-01,-3.794173002243041992e-01,-1.823384761810302734e-01,3.224427998065948486e-01,7.934524863958358765e-02,-2.355116903781890869e-01,-6.091665029525756836e-01,4.335475564002990723e-01,6.751737594604492188e-01,1.740105599164962769e-01,-5.241354107856750488e-01,5.719223022460937500e-01,-1.281446218490600586e-02,-8.036816716194152832e-01,-5.437948927283287048e-02,8.248747587203979492e-01,7.429984807968139648e-01,2.866395413875579834e-01,1.729443371295928955e-01,-3.801976144313812256e-01,8.994436264038085938e-01
8.972001075744628906e-02,-6.112101674079895020e-01,-4.655121266841888428e-02,2.889122366905212402e-01,6.300547719001770020e-01,5.946496129035949707e-01,1.116489917039871216e-01,4.365351051092147827e-02,-6.584545373916625977e-01,8.457170724868774414e-01,-3.022632300853729248e-01,-8.224879950284957886e-02,-5.004923939704895020e-01,-4.856562912464141846e-01,5.822367593646049500e-02,-1.222857236862182617e-01,-4.913348853588104248e-01,-7.673831582069396973e-01,1.123500689864158630e-01,5.109007358551025391e-01,-3.986402750015258789e-01,-4.827925264835357666e-01,6.179879903793334961e-01,1.995622068643569946e-01,-7.273646593093872070e-01,2.047457098960876465e-01,9.237396121025085449e-01,4.257993102073669434e-01,5.652686953544616699e-01,1.133461967110633850e-01,-1.739533394575119019e-01,7.224742174148559570e-01
-2.037104964256286621e-01,-6.090095043182373047e-01,-1.216953173279762268e-01,1.025474295020103455e-01,7.257667183876037598e-01,3.361012339591979980e-01,-6.137520074844360352e-02,-2.628394961357116699e-01,-4.297256767749786377e-01,5.937368869781494141e-01,-1.361632496118545532e-01,-3.151873052120208740e-01,-2.570156455039978027e-01,-4.024330079555511475e-01,2.287728339433670044e-02,-1.067480519413948059e-01,-6.770491003990173340e-01,-9.832507967948913574e-01,1.119244247674942017e-01,4.646231830120086670e-01,-7.662979364395141602e-01,-4.397965669631958008e-01,2.542216777801513672e-01,4.963989369571208954e-03,-7.054617404937744141e-01,1.604676991701126099e-01,4.574910402297973633e-01,3.890330195426940918e-01,6.482616066932678223e-01,4.276579916477203369e-01,1.209394913166761398e-02,1.404846310615539551e-01
-2.196862846612930298e-01,-1.876948028802871704e-01,-8.966669440269470215e-02,-6.216528266668319702e-02,2.507250308990478516e-01,8.665425702929496765e-03,-6.584852933883666992e-02,-1.671108901500701904e-01,-2.762779593467712402e-01,5.070604756474494934e-02,-2.840140759944915771e-01,-3.529395461082458496e-01,-8.124975860118865967e-02,-4.720344841480255127e-01,1.730595976114273071e-01,-3.341191411018371582e-01,-9.852290153503417969e-01,-4.317278563976287842e-01,2.828908264636993408e-01,5.982974767684936523e-01,-1.166584730148315430e+00,-3.153140842914581299e-01,4.258036240935325623e-02,3.250701129436492920e-01,-6.464993953704833984e-01,2.994759678840637207e-01,2.825244665145874023e-01,2.903543114662170410e-01,6.839357018470764160e-01,4.354900419712066650e-01,4.630836546421051025e-01,-3.070767223834991455e-01
8.261420764029026031e-03,2.876990139484405518e-01,-1.125716045498847961e-01,6.649706512689590454e-02,3.231369554996490479e-01,1.865779012441635132e-01,-2.876318693161010742e-01,-1.339113563299179077e-01,-2.236400097608566284e-01,-3.735769391059875488e-01,2.190194129943847656e-01,-1.008225306868553162e-01,1.880934536457061768e-01,-4.627125263214111328e-01,1.993827819824218750e-01,-4.897492527961730957e-01,-9.448962807655334473e-01,-2.438119053840637207e-01,-7.739444077014923096e-02,4.372594952583312988e-01,-9.229024052619934082e-01,-2.035150118172168732e-02,1.173701360821723938e-01,2.382604032754898071e-01,-4.591321051120758057e-01,2.446196377277374268e-01,2.552841603755950928e-01,3.169260025024414062e-01,5.036346912384033203e-01,3.188003003597259521e-01,5.201603174209594727e-01,-4.633069336414337158e-01
-2.398396134376525879e-01,3.080839514732360840e-01,3.994424268603324890e-02,-2.714055776596069336e-01,9.655287116765975952e-02,2.613108456134796143e-01,-5.556827783584594727e-01,-3.459682762622833252e-01,6.465114653110504150e-02,-2.398435473442077637e-01,5.933400988578796387e-01,3.254188597202301025e-02,1.957088410854339600e-01,-6.627626419067382812e-01,5.813461542129516602e-01,-3.789159655570983887e-01,-4.801086187362670898e-01,2.778521180152893066e-01,-1.036423146724700928e-01,3.055603504180908203e-01,-7.163579463958740234e-01,1.739040613174438477e-01,-1.523967683315277100e-01,5.767068862915039062e-01,-3.560462892055511475e-01,-3.584062457084655762e-01,2.613276541233062744e-01,1.836491376161575317e-01,5.850813984870910645e-01,-4.419143311679363251e-03,5.717710256576538086e-01,-6.199333071708679199e-01
-7.692836970090866089e-02,2.063864022493362427e-01,7.996112853288650513e-02,-2.962244749069213867e-01,-3.196625411510467529e-02,4.513496160507202148e-02,-5.034307837486267090e-01,-4.617279171943664551e-01,3.446364402770996094e-01,-2.273520380258560181e-01,8.495643734931945801e-01,2.253399193286895752e-01,2.167439162731170654e-01,-4.549115896224975586e-01,8.268506526947021484e-01,1.317057907581329346e-01,-3.047839999198913574e-01,3.237749338150024414e-01,-3.526450693607330322e-01,1.063859686255455017e-01,-3.311323523521423340e-01,8.153474926948547363e-01,-6.000432372093200684e-02,7.475897669792175293e-01,-4.137404561042785645e-01,-5.317026972770690918e-01,1.622144430875778198e-01,-6.093459203839302063e-02,4.589368700981140137e-01,-1.175094246864318848e-01,5.256533622741699219e-01,-3.825030028820037842e-01
3.403646647930145264e-01,2.229952663183212280e-01,1.188770681619644165e-01,-4.771988689899444580e-01,-2.328127026557922363e-01,1.262747645378112793e-01,-4.682135879993438721e-01,-5.588430762290954590e-01,5.426180958747863770e-01,-3.853526711463928223e-01,9.505884051322937012e-01,4.153106808662414551e-01,-5.193107575178146362e-02,-2.673632502555847168e-01,5.777183175086975098e-01,4.890272915363311768e-01,-2.347892373800277710e-01,4.412189424037933350e-01,-1.543317437171936035e-01,1.015228554606437683e-01,-2.647345066070556641e-01,4.269223213195800781e-01,-2.810607850551605225e-02,8.404617905616760254e-01,-1.185335144400596619e-01,-7.231219410896301270e-01,2.499866634607315063e-01,-1.637863665819168091e-01,2.676422894001007080e-01,-4.025351703166961670e-01,1.582049131393432617e-01,-3.187712132930755615e-01
8.512563705444335938e-01,3.083437085151672363e-01,1.489459574222564697e-01,-7.168610692024230957e-01,-3.206578195095062256e-01,6.627231091260910034e-02,-4.803402423858642578e-01,-2.526917159557342529e-01,9.805226922035217285e-01,-2.472486197948455811e-01,8.909560441970825195e-01,2.582586407661437988e-01,-3.801623284816741943e-01,-7.764626294374465942e-02,4.584708511829376221e-01,7.587634921073913574e-01,-2.157956063747406006e-01,5.246267318725585938e-01,1.975917369127273560e-01,2.213564217090606689e-01,-2.006051093339920044e-01,2.478487044572830200e-01,-5.117084383964538574e-01,5.732240080833435059e-01,3.687237203121185303e-01,-7.727125883102416992e-01,4.419028013944625854e-02,-3.441813886165618896e-01,-3.223575279116630554e-02,-4.432321488857269287e-01,-7.405109703540802002e-02,-2.865538895130157471e-01
7.960321307182312012e-01,1.368114911019802094e-02,4.591944217681884766e-01,-6.235145330429077148e-01,-4.101403355598449707e-01,3.715154528617858887e-02,-3.542099297046661377e-01,-5.863688588142395020e-01,6.443473696708679199e-01,-1.480730772018432617e-01,4.917202889919281006e-01,2.737881988286972046e-02,-6.238390803337097168e-01,1.193690076470375061e-01,4.701747894287109375e-01,6.072127819061279297e-01,-1.391232311725616455e-01,6.155084967613220215e-01,7.303334772586822510e-02,4.638352990150451660e-01,6.334190815687179565e-02,2.467142641544342041e-01,-2.998171746730804443e-01,2.456333935260772705e-01,3.619930744171142578e-01,-6.257870197296142578e-01,6.760837882757186890e-02,-4.245233237743377686e-01,-2.536465227603912354e-01,-3.719822466373443604e-01,-2.926921546459197998e-01,-2.863346934318542480e-01
8.269975781440734863e-01,-1.102324649691581726e-01,6.550956964492797852e-01,-4.232918024063110352e-01,-5.862788558006286621e-01,4.005802571773529053e-01,-2.440252602100372314e-01,-5.541811585426330566e-01,3.823432922363281250e-01,9.239472448825836182e-02,1.573300510644912720e-01,-3.331462740898132324e-01,-8.232036232948303223e-01,-2.158222049474716187e-01,3.469185829162597656e-01,8.243579268455505371e-01,-1.205933317542076111e-01,6.870728135108947754e-01,3.934903442859649658e-01,5.037080645561218262e-01,9.811986237764358521e-02,-5.237856879830360413e-02,9.080014377832412720e-02,-6.072120368480682373e-02,4.158770143985748291e-01,-4.902088642120361328e-01,5.329475179314613342e-02,-2.613362669944763184e-01,-5.651211738586425781e-01,-9.327077120542526245e-02,-2.254332154989242554e-01,-9.573507308959960938e-02
6.992306709289550781e-01,-1.576700359582901001e-01,5.359785556793212891e-01,-4.824814945459365845e-02,-4.846379756927490234e-01,6.637035608291625977e-01,-1.640152484178543091e-01,-3.740883171558380127e-01,1.390371471643447876e-01,1.676341295242309570e-01,4.024553894996643066e-01,-2.761364877223968506e-01,-5.358088016510009766e-01,-6.249093413352966309e-01,6.724882870912551880e-02,8.141913414001464844e-01,6.201062351465225220e-02,6.380873918533325195e-01,6.475724577903747559e-01,4.897111654281616211e-01,3.537120819091796875e-01,-1.207535564899444580e-01,2.569695711135864258e-01,-2.003172785043716431e-01,2.111359685659408569e-01,-3.264807164669036865e-01,1.493541598320007324e-01,1.573556661605834961e-01,-5.216965079307556152e-01,5.117015838623046875e-01,-4.824860095977783203e-01,1.707647889852523804e-01
6.584727168083190918e-01,-7.388399243354797363e-01,2.604228854179382324e-01,1.572590470314025879e-01,9.191220998764038086e-02,3.519329428672790527e-01,1.702493578195571899e-01,-2.212413996458053589e-01,-4.816665127873420715e-02,2.104482650756835938e-01,3.101742863655090332e-01,-2.981686592102050781e-01,-8.396169543266296387e-01,-6.015104651451110840e-01,2.190745668485760689e-03,6.685014367103576660e-01,-1.412999927997589111e-01,3.767162263393402100e-01,9.013539552688598633e-01,3.859664499759674072e-01,3.023383915424346924e-01,-3.051144480705261230e-01,4.620986282825469971e-01,-2.764597237110137939e-01,-2.246512025594711304e-01,-2.822250425815582275e-01,2.185165584087371826e-01,3.103234106674790382e-03,-6.606143712997436523e-02,3.977664709091186523e-01,-7.733242511749267578e-01,3.877984583377838135e-01
2.905034124851226807e-01,-9.574361443519592285e-01,-2.690638899803161621e-01,3.172243535518646240e-01,4.721542894840240479e-01,3.345958292484283447e-01,2.800961434841156006e-01,-1.955497823655605316e-02,-2.950245440006256104e-01,6.892926096916198730e-01,1.398476809263229370e-01,-3.285312652587890625e-01,-1.037101507186889648e+00,-6.485190391540527344e-01,-3.579359352588653564e-01,9.185516834259033203e-01,-2.211104035377502441e-01,-6.692939205095171928e-04,3.521940708160400391e-01,2.178469449281692505e-01,2.205170989036560059e-01,-2.498212009668350220e-01,8.490342497825622559e-01,-1.815335005521774292e-01,-3.567635118961334229e-01,-4.338164329528808594e-01,5.432693958282470703e-01,-9.424274787306785583e-03,8.195900171995162964e-02,3.962464928627014160e-01,-1.003829240798950195e+00,4.970780313014984131e-01
2.937623262405395508e-01,-7.805142402648925781e-01,-3.503924608230590820e-01,4.250658452510833740e-01,6.062377691268920898e-01,3.493632003664970398e-02,4.065977036952972412e-01,5.223484635353088379e-01,-2.968517541885375977e-01,1.757158637046813965e-01,3.082072436809539795e-01,-2.456520497798919678e-01,-8.565964102745056152e-01,-5.342710018157958984e-01,-2.388631105422973633e-01,3.915449380874633789e-01,-2.739208638668060303e-01,-2.780166864395141602e-01,3.504708707332611084e-01,2.049471586942672729e-01,-4.948915839195251465e-01,-4.791027605533599854e-01,7.328703999519348145e-01,1.109522804617881775e-01,-5.757753252983093262e-01,-2.802537679672241211e-01,3.785425722599029541e-01,-1.345123946666717529e-01,4.008235037326812744e-01,8.444496393203735352e-01,-8.497579097747802734e-01,2.360074222087860107e-01
3.766209781169891357e-01,-6.116427779197692871e-01,-5.138182640075683594e-01,3.384542763233184814e-01,7.494837641716003418e-01,-4.163547158241271973e-01,2.187979668378829956e-01,4.713954031467437744e-01,-1.923500001430511475e-01,-1.156411021947860718e-01,-2.411282435059547424e-02,-2.838134765625000000e-01,-8.555491566658020020e-01,-2.439194172620773315e-01,-3.538397252559661865e-01,2.131471335887908936e-01,-4.448213279247283936e-01,1.087122485041618347e-01,3.388966917991638184e-01,-2.665647678077220917e-02,-5.062156319618225098e-01,-6.737919449806213379e-01,3.235025703907012939e-01,2.559182606637477875e-02,-6.642395853996276855e-01,-2.093536853790283203e-01,1.482786834239959717e-01,-2.406275570392608643e-01,3.795701265335083008e-01,8.598830699920654297e-01,-6.403440237045288086e-01,-9.319397062063217163e-02
2.060373425483703613e-01,-2.574028074741363525e-01,-3.494041264057159424e-01,4.226007163524627686e-01,7.219212055206298828e-01,-2.473709285259246826e-01,-2.123752981424331665e-02,3.828445374965667725e-01,-4.330907389521598816e-02,-2.625366151332855225e-01,8.580296486616134644e-02,1.103694923222064972e-02,-5.128579735755920410e-01,-2.983289957046508789e-01,-1.674427837133407593e-01,-1.754887774586677551e-02,-4.521954953670501709e-01,1.215465366840362549e-01,7.407182455062866211e-02,-1.542389988899230957e-01,-5.748911499977111816e-01,-4.549538493156433105e-01,2.417507916688919067e-01,5.587737262248992920e-02,-5.945674777030944824e-01,-1.908298581838607788e-01,-2.109394371509552002e-01,-4.486474394798278809e-01,4.612588584423065186e-01,8.651098012924194336e-01,-2.206495404243469238e-01,-1.339307278394699097e-01
3.210451081395149231e-02,-1.267970055341720581e-01,-2.464644238352775574e-02,3.486765623092651367e-01,8.179512619972229004e-01,-3.233999907970428467e-01,-4.645027220249176025e-01,9.639666974544525146e-02,-1.292098313570022583e-01,-1.730631291866302490e-01,1.952002495527267456e-01,1.462406106293201447e-02,8.289961144328117371e-03,-3.487944304943084717e-01,1.503841578960418701e-01,1.326484829187393188e-01,-2.976509332656860352e-01,4.236097633838653564e-01,-2.082459926605224609e-01,-1.916373819112777710e-01,-6.842247247695922852e-01,1.377196013927459717e-01,-1.289843916893005371e-01,4.962336719036102295e-01,-5.507801175117492676e-01,-4.234063923358917236e-01,-5.836659073829650879e-01,-5.765190720558166504e-01,2.462735027074813843e-01,7.666751146316528320e-01,-1.207511499524116516e-01,-2.843404412269592285e-01
2.491687797009944916e-02,2.410775870084762573e-01,-9.252956137061119080e-03,3.050796985626220703e-01,4.228280782699584961e-01,1.547383368015289307e-01,-4.519537091255187988e-01,-1.388273984193801880e-01,-1.491607129573822021e-01,-2.746230363845825195e-01,2.754293680191040039e-01,3.452902436256408691e-01,3.940631151199340820e-01,-1.740242540836334229e-01,4.977584779262542725e-01,1.636985838413238525e-01,-1.768324151635169983e-02,6.253178119659423828e-01,-3.801611959934234619e-01,-5.456489920616149902e-01,-3.635657131671905518e-01,2.637135088443756104e-01,-1.320241093635559082e-01,8.425462245941162109e-01,-7.707654833793640137e-01,-5.152590870857238770e-01,-4.849635660648345947e-01,-6.599548459053039551e-01,3.905894160270690918e-01,5.445961952209472656e-01,-1.431526523083448410e-02,-3.020352721214294434e-01
9.850805252790451050e-02,1.283545792102813721e-01,1.960465908050537109e-01,2.294883877038955688e-01,4.957776367664337158e-01,1.247001215815544128e-01,-7.860491275787353516e-01,-1.323654800653457642e-01,6.979237496852874756e-02,-1.502872854471206665e-01,4.205703437328338623e-01,4.998224675655364990e-01,3.237472474575042725e-01,2.592127025127410889e-01,6.767755150794982910e-01,7.517610490322113037e-02,1.770166754722595215e-01,6.418807506561279297e-01,-6.413359045982360840e-01,-5.658794045448303223e-01,-2.727400064468383789e-01,3.650019764900207520e-01,-4.249409437179565430e-01,1.090769052505493164e+00,-4.337980151176452637e-01,-5.462256073951721191e-01,-6.217156052589416504e-01,-5.206554532051086426e-01,4.133575558662414551e-01,1.955479234457015991e-01,-6.788423284888267517e-03,-2.777934372425079346e-01
2.194529622793197632e-01,1.369418352842330933e-01,3.447824120521545410e-01,1.037599146366119385e-01,6.191996932029724121e-01,-3.180890902876853943e-02,-6.709216833114624023e-01,-2.842541038990020752e-01,3.379025757312774658e-01,-2.440964281558990479e-01,3.344316482543945312e-01,4.551143944263458252e-01,2.655803561210632324e-01,3.827881515026092529e-01,7.342059016227722168e-01,3.770384192466735840e-01,1.981611400842666626e-01,3.217206001281738281e-01,-9.197690486907958984e-01,-3.750002682209014893e-01,-3.158556818962097168e-01,4.662310481071472168e-01,-7.016914486885070801e-01,9.233593344688415527e-01,-1.832200288772583008e-01,-5.861514210700988770e-01,-7.389494776725769043e-01,-6.443865895271301270e-01,5.322955250740051270e-01,-8.741827309131622314e-02,-2.324149310588836670e-01,-6.199676394462585449e-01
6.169013381004333496e-01,4.045577347278594971e-01,6.350531578063964844e-01,-3.426465392112731934e-02,6.484416779130697250e-03,2.714656889438629150e-01,-5.935228466987609863e-01,-4.370364248752593994e-01,3.852231502532958984e-01,-1.687957197427749634e-01,3.463178128004074097e-02,2.343957424163818359e-01,1.581474542617797852e-01,7.777197360992431641e-01,4.501682519912719727e-01,3.843645155429840088e-01,2.450617253780364990e-01,3.101366460323333740e-01,-7.389839887619018555e-01,-8.934204280376434326e-02,-1.143452301621437073e-01,5.283300876617431641e-01,-6.590863466262817383e-01,7.669332027435302734e-01,7.909653335809707642e-02,-5.420262217521667480e-01,-5.628966093063354492e-01,-6.640936732292175293e-01,3.506142878904938698e-03,3.026150725781917572e-02,-4.153703749179840088e-01,-4.946054220199584961e-01
3.619435429573059082e-01,6.179745793342590332e-01,7.044249176979064941e-01,1.051666513085365295e-01,-8.117798715829849243e-03,3.808847367763519287e-01,-4.698295891284942627e-01,-5.270915031433105469e-01,4.796832203865051270e-01,-1.172727644443511963e-01,-1.781051009893417358e-01,-1.687056273221969604e-01,2.333458140492439270e-02,6.409783363342285156e-01,3.499630689620971680e-01,3.782340288162231445e-01,-3.036449104547500610e-02,2.371366769075393677e-01,-3.543510437011718750e-01,3.696625232696533203e-01,-2.136884182691574097e-01,4.339735507965087891e-01,-6.802494525909423828e-01,5.821142196655273438e-01,4.568453133106231689e-01,3.279392793774604797e-02,-6.556607484817504883e-01,-5.733535885810852051e-01,2.676836214959621429e-02,-1.602333635091781616e-01,-3.889231681823730469e-01,-4.030358195304870605e-01
2.986117005348205566e-01,4.766480028629302979e-01,8.743873834609985352e-01,4.831521511077880859e-01,-8.147249929606914520e-03,6.725469231605529785e-01,-6.686376929283142090e-01,-7.482334375381469727e-01,1.450169980525970459e-01,2.274786867201328278e-02,-4.336081147193908691e-01,-5.185755491256713867e-01,2.728459984064102173e-02,4.235398173332214355e-01,4.319170415401458740e-01,1.967960894107818604e-01,-1.773917376995086670e-01,3.374920189380645752e-01,-3.371477127075195312e-02,4.070814251899719238e-01,-1.506309062242507935e-01,4.969420433044433594e-01,-6.939116120338439941e-01,3.640822693705558777e-02,4.334541261196136475e-01,2.419420033693313599e-01,-6.184977889060974121e-01,-2.437163591384887695e-01,-2.155955880880355835e-02,-1.059933230280876160e-01,-4.045052528381347656e-01,-3.827942013740539551e-01
-1.036282852292060852e-01,3.746048808097839355e-01,8.790845870971679688e-01,7.091040015220642090e-01,-1.991842128336429596e-02,5.780896544456481934e-01,-2.988780140876770020e-01,-5.672497749328613281e-01,1.946208178997039795e-01,2.297815978527069092e-01,-5.615562200546264648e-01,-8.067368268966674805e-01,5.952651798725128174e-02,4.480810835957527161e-02,5.568181872367858887e-01,2.994246184825897217e-01,1.565426588058471680e-01,1.331642121076583862e-01,-1.156689226627349854e-01,6.115741729736328125e-01,-1.260306537151336670e-01,5.170360803604125977e-01,-3.494881987571716309e-01,7.333822548389434814e-02,2.993227243423461914e-01,3.134340643882751465e-01,-2.980049848556518555e-01,2.185816019773483276e-01,-1.278536319732666016e-01,5.962670221924781799e-02,-3.179734647274017334e-01,-4.208959341049194336e-01
-8.873263001441955566e-02,9.495621919631958008e-02,6.439990997314453125e-01,8.404328227043151855e-01,2.139905989170074463e-01,5.864711999893188477e-01,-2.168040871620178223e-01,-2.309189289808273315e-01,1.080559939146041870e-01,2.513482272624969482e-01,-3.406185507774353027e-01,-6.607002019882202148e-01,-9.300298243761062622e-02,-2.086725085973739624e-01,4.018332343548536301e-03,2.146455794572830200e-01,-1.331646144390106201e-01,5.495698656886816025e-03,-8.392723649740219116e-02,4.041544795036315918e-01,-3.314668536186218262e-01,3.069989085197448730e-01,-6.097435951232910156e-02,5.410840734839439392e-02,-1.449718512594699860e-02,6.172904968261718750e-01,3.386086225509643555e-01,4.879067540168762207e-01,3.191277757287025452e-02,5.510352551937103271e-02,-3.580751121044158936e-01,-1.024870574474334717e-01
-2.940273582935333252e-01,-8.789318799972534180e-02,3.963162899017333984e-01,7.017254829406738281e-01,3.384022712707519531e-01,2.836722433567047119e-01,1.674736887216567993e-01,4.160281121730804443e-01,1.111251339316368103e-01,-4.294152557849884033e-02,-5.998052358627319336e-01,-8.762164711952209473e-01,-3.650722503662109375e-01,-3.400593698024749756e-01,-3.573363423347473145e-01,1.008511558175086975e-01,-2.967536747455596924e-01,-2.411161959171295166e-01,-9.057181328535079956e-02,2.534549832344055176e-01,-1.261284798383712769e-01,6.975077837705612183e-02,-1.061538681387901306e-01,-3.455460071563720703e-02,-8.148480951786041260e-02,4.640143811702728271e-01,4.648974239826202393e-01,6.259301900863647461e-01,3.343535661697387695e-01,1.548191905021667480e-01,-3.753641843795776367e-01,4.497886169701814651e-03
-2.644635438919067383e-01,9.756257385015487671e-02,-8.598157763481140137e-02,4.411729872226715088e-01,4.689733684062957764e-01,-1.026475876569747925e-01,3.963158428668975830e-01,5.209768414497375488e-01,1.175089105963706970e-01,-3.221892714500427246e-01,-2.772470414638519287e-01,-7.708375453948974609e-01,-1.935589462518692017e-01,-3.897317945957183838e-01,-7.233771681785583496e-01,7.159589231014251709e-02,-4.853915274143218994e-01,-2.891548275947570801e-01,-2.852291762828826904e-01,1.485293507575988770e-01,-6.853855848312377930e-01,6.759465485811233521e-02,-2.931335270404815674e-01,-2.924696207046508789e-01,-2.083231508731842041e-02,5.573407411575317383e-01,3.145715296268463135e-01,4.603493213653564453e-01,4.232194721698760986e-01,2.165127247571945190e-01,-2.728736698627471924e-01,-4.201756715774536133e-01
-4.996925890445709229e-01,2.156293690204620361e-01,-3.828951120376586914e-01,3.138752579689025879e-01,1.344072818756103516e-01,-6.133712530136108398e-01,5.888004302978515625e-01,4.959385991096496582e-01,1.546331942081451416e-01,-4.845511615276336670e-01,-4.636456072330474854e-01,-8.798646330833435059e-01,-1.458518505096435547e-01,-2.794375717639923096e-01,-6.544507145881652832e-01,-8.541017770767211914e-02,-5.393915176391601562e-01,-3.654101192951202393e-01,-2.093810588121414185e-01,2.574818022549152374e-02,-8.047416806221008301e-01,6.274656206369400024e-02,-2.724001407623291016e-01,-9.640306979417800903e-02,-4.384644329547882080e-02,5.377549529075622559e-01,1.324632465839385986e-01,1.927771419286727905e-01,3.321603238582611084e-01,1.482066214084625244e-01,-1.429491043090820312e-01,-4.242995381355285645e-01
-6.863241195678710938e-01,5.360964536666870117e-01,-2.314150780439376831e-01,2.787445187568664551e-01,1.424942165613174438e-01,-7.680668234825134277e-01,6.026925444602966309e-01,5.397995114326477051e-01,3.467453420162200928e-01,-8.803569674491882324e-01,-1.657839864492416382e-01,-8.213704824447631836e-01,2.842955887317657471e-01,-4.879494607448577881e-01,-7.147896885871887207e-01,-4.154120683670043945e-01,-4.387792348861694336e-01,-3.245612978935241699e-02,-1.224457100033760071e-01,-1.744002401828765869e-01,-6.922799348831176758e-01,7.283198088407516479e-02,-3.822060823440551758e-01,-9.191996604204177856e-02,9.617505967617034912e-02,2.954702377319335938e-01,-5.794523656368255615e-02,7.613246887922286987e-02,9.804464131593704224e-02,1.188752893358469009e-02,3.163269162178039551e-02,-6.824603080749511719e-01
-6.578651666641235352e-01,7.752169966697692871e-01,-1.876010745763778687e-01,1.600670665502548218e-01,-5.570274218916893005e-02,-5.229568481445312500e-01,-1.263927221298217773e-01,3.390924036502838135e-01,2.356255203485488892e-01,-1.085883021354675293e+00,2.314585298299789429e-01,-3.380565345287322998e-01,2.504597306251525879e-01,-3.042415678501129150e-01,-3.297124207019805908e-01,-5.311528444290161133e-01,-3.609241843223571777e-01,5.580927729606628418e-01,-5.064873695373535156e-01,-5.017631053924560547e-01,-3.757826983928680420e-01,3.667402267456054688e-01,-5.060157179832458496e-01,-6.830438971519470215e-02,2.997704148292541504e-01,3.118599653244018555e-01,-1.280942410230636597e-01,6.317537277936935425e-02,9.390148520469665527e-02,-2.867077291011810303e-01,3.579966425895690918e-01,-6.809567213058471680e-01
-8.452840447425842285e-01,4.983749985694885254e-01,-2.916797399520874023e-01,-1.135433167219161987e-01,-1.122801080346107483e-01,-5.198560357093811035e-01,2.307588458061218262e-01,4.288052916526794434e-01,3.703931272029876709e-01,-7.605409026145935059e-01,4.137905836105346680e-01,-8.549052476882934570e-02,4.802861511707305908e-01,-1.745553016662597656e-01,1.229711398482322693e-01,1.489762961864471436e-01,2.286600917577743530e-01,6.052838563919067383e-01,-6.682246327400207520e-01,-6.060196757316589355e-01,-2.027952224016189575e-01,5.082535743713378906e-01,-2.064536362886428833e-01,2.253001183271408081e-01,2.984881699085235596e-01,9.401182830333709717e-02,-4.080235958099365234e-01,-6.180141121149063110e-02,-3.370526060461997986e-02,-2.363113164901733398e-01,4.496971070766448975e-01,-6.505002379417419434e-01
-8.745341002941131592e-02,4.990389049053192139e-01,-1.805704087018966675e-01,-3.840626478195190430e-01,-3.051046729087829590e-01,-8.665323853492736816e-01,1.371948271989822388e-01,2.411192357540130615e-01,4.454882740974426270e-01,-7.756041288375854492e-01,4.857988357543945312e-01,3.168394863605499268e-01,2.703544199466705322e-01,2.160819768905639648e-01,-1.229044571518898010e-01,4.041295647621154785e-01,6.107345223426818848e-01,5.810576677322387695e-01,-7.243729829788208008e-01,-6.641007661819458008e-01,3.223100900650024414e-01,6.844901442527770996e-01,-3.414342999458312988e-01,3.457591831684112549e-01,3.661115765571594238e-01,-4.544233381748199463e-01,-3.131361901760101318e-01,-3.581893444061279297e-01,-8.191702514886856079e-02,-5.156373977661132812e-01,1.024972572922706604e-01,-7.081012725830078125e-01
4.235301911830902100e-01,3.536783158779144287e-01,-2.860395908355712891e-01,-2.610136866569519043e-01,-3.641154468059539795e-01,-5.762756466865539551e-01,1.689267158508300781e-01,3.087562918663024902e-01,6.033343076705932617e-01,-5.571535229682922363e-01,6.078164577484130859e-01,4.116380214691162109e-01,1.384371519088745117e-01,4.941868484020233154e-01,-1.745783239603042603e-01,4.903334081172943115e-01,7.280263900756835938e-01,4.640467166900634766e-01,-5.152227878570556641e-01,-9.337325692176818848e-01,1.986667960882186890e-01,5.223222970962524414e-01,-3.692471086978912354e-01,2.728014290332794189e-01,4.229716062545776367e-01,-5.364123582839965820e-01,-3.905405104160308838e-01,-3.483244776725769043e-01,-3.305141031742095947e-01,-5.408522486686706543e-01,-1.145907565951347351e-01,-4.517857730388641357e-01
4.407737851142883301e-01,3.153945505619049072e-01,-4.078162610530853271e-01,-3.842395544052124023e-01,-5.283074378967285156e-01,-4.248381555080413818e-01,1.106004416942596436e-01,1.678288280963897705e-01,5.909864306449890137e-01,-6.349344849586486816e-01,2.777245640754699707e-01,1.845625191926956177e-01,-9.086378850042819977e-03,8.314200043678283691e-01,-3.159079253673553467e-01,4.457916915416717529e-01,6.792284250259399414e-01,4.751139879226684570e-01,-4.643640518188476562e-01,-6.449134945869445801e-01,4.761658310890197754e-01,6.805971264839172363e-02,-5.406300425529479980e-01,9.384466335177421570e-03,8.834258913993835449e-01,-3.707123100757598877e-01,-6.064257621765136719e-01,-5.918135643005371094e-01,-6.951422095298767090e-01,-6.296554803848266602e-01,-5.671850442886352539e-01,-5.879815816879272461e-01
3.900846838951110840e-01,8.055149763822555542e-02,2.411131560802459717e-02,-2.180059403181076050e-01,-6.322231292724609375e-01,-2.746064364910125732e-01,4.792386293411254883e-02,8.820769935846328735e-02,4.469675719738006592e-01,-3.905983269214630127e-01,1.572980917990207672e-02,5.930816009640693665e-02,-8.730675093829631805e-03,7.437366843223571777e-01,-1.372692137956619263e-01,5.181447863578796387e-01,7.694215774536132812e-01,1.839847415685653687e-01,-2.073738723993301392e-02,-4.615780711174011230e-01,5.267927050590515137e-01,7.428297400474548340e-02,-5.045526623725891113e-01,-3.095807135105133057e-01,7.466775774955749512e-01,-4.706183969974517822e-01,-7.748107910156250000e-01,-4.765726625919342041e-01,-8.472868800163269043e-01,-1.309169381856918335e-01,-3.996033370494842529e-01,-4.684101939201354980e-01
4.934676289558410645e-01,1.029133349657058716e-01,4.429570958018302917e-02,2.573739588260650635e-01,-6.516762375831604004e-01,4.291192442178726196e-02,1.711668521165847778e-01,6.275530159473419189e-02,-7.004262506961822510e-02,-1.117631122469902039e-01,-3.790308237075805664e-01,-1.036328226327896118e-01,2.757037617266178131e-02,6.090853214263916016e-01,-2.648244798183441162e-01,4.350963830947875977e-01,7.931879758834838867e-01,2.622528076171875000e-01,3.275735080242156982e-01,-2.204631865024566650e-01,7.591431736946105957e-01,-4.312690347433090210e-02,7.738742232322692871e-02,-4.845363795757293701e-01,8.363412022590637207e-01,1.298456192016601562e-01,-3.906684517860412598e-01,-1.446551643311977386e-02,-1.071712493896484375e+00,-1.732751429080963135e-01,-3.740622401237487793e-01,7.792011648416519165e-02
3.062168359756469727e-01,-6.240414083003997803e-02,8.583402633666992188e-02,5.487163066864013672e-01,-4.418224096298217773e-01,-2.913787215948104858e-02,2.295842319726943970e-01,4.095394611358642578e-01,-4.870415031909942627e-01,1.862462013959884644e-01,-4.987992942333221436e-01,-1.907109469175338745e-01,-2.804968273267149925e-03,1.414828300476074219e-01,-4.618299305438995361e-01,3.627648353576660156e-01,7.007933855056762695e-01,1.255198270082473755e-01,2.870007157325744629e-01,-2.780449390411376953e-01,7.391933202743530273e-01,-2.189801186323165894e-01,2.246994376182556152e-01,-5.747904777526855469e-01,2.741599380970001221e-01,2.236243784427642822e-01,-6.868123263120651245e-02,2.634832859039306641e-01,-8.183879852294921875e-01,-5.719700083136558533e-02,-5.533810257911682129e-01,4.684324562549591064e-01
-3.236861154437065125e-02,-4.621583819389343262e-01,-9.389353916049003601e-03,6.021668910980224609e-01,2.626256942749023438e-01,3.397218585014343262e-01,3.282881677150726318e-01,4.169900119304656982e-01,-5.726298093795776367e-01,5.399069786071777344e-01,-5.619770288467407227e-01,4.914343729615211487e-02,-1.415136009454727173e-01,3.989299833774566650e-01,-3.637726008892059326e-01,4.265075623989105225e-01,5.845836997032165527e-01,-1.837487518787384033e-01,3.171950876712799072e-01,-4.380680918693542480e-01,6.788530945777893066e-01,-3.491929769515991211e-01,3.693119883537292480e-01,-6.074657440185546875e-01,1.406842656433582306e-02,1.666456758975982666e-01,-1.815864890813827515e-01,3.458489179611206055e-01,-2.841076552867889404e-01,-4.375581443309783936e-02,-2.354765087366104126e-01,6.910204887390136719e-01
-1.282854825258255005e-01,-5.366424918174743652e-01,-2.886141538619995117e-01,5.084891915321350098e-01,3.237619698047637939e-01,1.149662360548973083e-01,7.693451642990112305e-01,6.337338089942932129e-01,-4.904825091361999512e-01,4.964530169963836670e-01,-5.204156637191772461e-01,-1.083764806389808655e-01,-2.161153107881546021e-01,1.255019754171371460e-01,-3.353876471519470215e-01,-8.018003776669502258e-03,6.272949576377868652e-01,-6.367726325988769531e-01,-3.743169456720352173e-02,-3.729017972946166992e-01,4.492628574371337891e-01,-5.305202603340148926e-01,5.345889329910278320e-01,-3.346543610095977783e-01,-3.744544088840484619e-01,3.878164887428283691e-01,1.180469989776611328e-01,5.982481837272644043e-01,3.954867273569107056e-02,1.879680305719375610e-01,-5.951682925224304199e-01,3.644460141658782959e-01
-3.172204494476318359e-01,-5.701088905334472656e-01,-8.473031520843505859e-01,4.803348779678344727e-01,4.655950367450714111e-01,-3.079176545143127441e-01,7.213246226310729980e-01,8.610670566558837891e-01,-7.463526129722595215e-01,3.826304078102111816e-01,-7.109945416450500488e-01,-3.357916325330734253e-02,-1.984602957963943481e-02,1.173696070909500122e-01,-6.215961575508117676e-01,-1.900759637355804443e-01,-6.145062297582626343e-02,-8.573065996170043945e-01,-1.880408674478530884e-01,-2.740779221057891846e-01,-1.075794398784637451e-01,-6.746660470962524414e-01,3.901402950286865234e-01,-1.330302506685256958e-01,-5.392575263977050781e-01,5.222191214561462402e-01,-3.272203728556632996e-02,1.818748116493225098e-01,1.537972092628479004e-01,1.861555576324462891e-01,-4.269524812698364258e-01,2.765972912311553955e-01
-4.903077483177185059e-01,2.966860681772232056e-02,-5.816980600357055664e-01,3.417896330356597900e-01,2.524482905864715576e-01,-3.247846066951751709e-01,5.582073926925659180e-01,6.639156937599182129e-01,-6.698934435844421387e-01,-1.094287112355232239e-01,-7.689712643623352051e-01,-2.802237272262573242e-01,2.894717156887054443e-01,1.658748090267181396e-01,-5.034128427505493164e-01,-7.833870053291320801e-01,-2.634115517139434814e-01,-6.219496130943298340e-01,-2.677320837974548340e-01,-3.114688396453857422e-01,-3.350097537040710449e-01,-6.228342652320861816e-01,-1.351249963045120239e-01,-2.182753831148147583e-01,-3.993489444255828857e-01,7.634899020195007324e-01,-1.633491665124893188e-01,1.422302424907684326e-01,2.475826442241668701e-01,1.847164630889892578e-01,9.833090007305145264e-02,-7.196227461099624634e-02
-7.348592281341552734e-01,1.169400438666343689e-01,-6.268740296363830566e-01,3.244036734104156494e-01,5.451514720916748047e-01,-4.439014494419097900e-01,2.546315193176269531e-01,3.795426785945892334e-01,-6.126212477684020996e-01,-3.306132853031158447e-01,-6.764058470726013184e-01,-1.133690625429153442e-01,5.560486316680908203e-01,1.954302489757537842e-01,-2.066079676151275635e-01,-9.274190664291381836e-01,-1.831135451793670654e-01,-7.144111394882202148e-01,-4.854256212711334229e-01,-2.862414419651031494e-01,-2.292859107255935669e-01,-2.888326942920684814e-01,-3.316441774368286133e-01,-1.762551516294479370e-01,-2.883787453174591064e-01,6.011968255043029785e-01,-3.644389212131500244e-01,9.023009240627288818e-02,3.056804239749908447e-01,2.823384404182434082e-01,3.496344983577728271e-01,-4.742002785205841064e-01
-6.762850284576416016e-01,5.782828330993652344e-01,-3.574006557464599609e-01,3.766652941703796387e-01,1.931262463331222534e-01,-2.215320020914077759e-01,3.306966274976730347e-02,2.286316156387329102e-01,-4.955337941646575928e-01,-2.443654537200927734e-01,-3.430683016777038574e-01,2.219192385673522949e-01,1.138064265251159668e+00,1.957268118858337402e-01,1.019750013947486877e-01,-9.881465435028076172e-01,-3.601149097084999084e-02,-5.448761582374572754e-01,-5.032309293746948242e-01,-4.388362765312194824e-01,-2.798999845981597900e-01,-1.603945344686508179e-02,-2.286964356899261475e-01,2.687889933586120605e-01,-3.247419595718383789e-01,4.455529451370239258e-01,-3.046923875808715820e-01,4.708024486899375916e-02,1.303816437721252441e-01,5.984849110245704651e-02,9.462823867797851562e-01,-4.264069795608520508e-01
-6.682072281837463379e-01,6.933782100677490234e-01,-2.688520550727844238e-01,2.085854858160018921e-01,1.489923894405364990e-01,-1.382080912590026855e-01,-2.080494612455368042e-01,-1.727514714002609253e-01,-1.744864434003829956e-01,-9.628880023956298828e-02,-2.068233862519264221e-02,2.710992097854614258e-01,1.034449100494384766e+00,4.281590878963470459e-01,4.459714293479919434e-01,-7.967792749404907227e-01,1.395063400268554688e-01,-4.739288240671157837e-02,-7.090209722518920898e-01,-2.558126449584960938e-01,1.964845955371856689e-01,3.802868425846099854e-01,-4.349996149539947510e-01,4.702141880989074707e-01,-1.763505637645721436e-01,2.671991884708404541e-01,-2.187142223119735718e-01,1.027343720197677612e-01,1.100455150008201599e-01,-4.566569030284881592e-01,7.665653228759765625e-01,-4.230491816997528076e-01
-2.813304066658020020e-01,4.472205042839050293e-01,3.277857601642608643e-02,-3.140021264553070068e-01,1.175967138260602951e-02,-8.248123526573181152e-02,-3.133609890937805176e-01,-1.518254727125167847e-01,4.784161970019340515e-02,-2.544460594654083252e-01,4.972574487328529358e-02,5.708904862403869629e-01,8.325493335723876953e-01,3.798038661479949951e-01,3.430504500865936279e-01,-5.568926930427551270e-01,1.928686201572418213e-01,-2.031561285257339478e-01,-1.152538061141967773e+00,-4.540130794048309326e-01,4.246788099408149719e-02,4.386397302150726318e-01,-4.035509228706359863e-01,4.205787181854248047e-01,1.415225714445114136e-01,-3.016482293605804443e-02,-2.371444702148437500e-01,2.724398076534271240e-01,1.237579733133316040e-01,-1.014254927635192871e+00,6.204744577407836914e-01,-4.464775621891021729e-01
-5.787701904773712158e-02,3.959138691425323486e-01,-2.359297499060630798e-02,-5.424785614013671875e-01,-3.267861008644104004e-01,-1.205167695879936218e-01,-6.713506579399108887e-02,-1.801081597805023193e-01,6.555745601654052734e-01,-3.695798218250274658e-01,-1.471364051103591919e-01,3.977298736572265625e-01,5.509316325187683105e-01,7.353052496910095215e-01,3.192664682865142822e-01,2.865235693752765656e-02,3.106591999530792236e-01,-1.684082299470901489e-01,-7.139244675636291504e-01,-1.805381327867507935e-01,-1.237736120820045471e-01,4.764159023761749268e-01,-5.262821316719055176e-01,5.209201574325561523e-01,3.273163437843322754e-01,-2.399142235517501831e-01,-1.864636242389678955e-01,2.330341935157775879e-01,-2.433167695999145508e-01,-9.736456274986267090e-01,4.620608091354370117e-01,-5.296582579612731934e-01
2.026745975017547607e-01,6.256543397903442383e-01,1.318100690841674805e-01,-6.928384304046630859e-01,-7.414248585700988770e-01,-1.049578413367271423e-01,4.148060083389282227e-02,-2.728045284748077393e-01,3.134302496910095215e-01,-3.229633271694183350e-01,-1.286053061485290527e-01,3.600210547447204590e-01,5.113123059272766113e-01,5.450257062911987305e-01,1.343033462762832642e-01,2.664608880877494812e-02,2.345892339944839478e-01,-2.458201348781585693e-01,-3.290036916732788086e-01,2.769760191440582275e-01,1.277527660131454468e-01,3.560681641101837158e-01,-6.495732069015502930e-01,-1.297440379858016968e-03,5.767500996589660645e-01,1.037462651729583740e-01,-2.549782991409301758e-01,9.675606340169906616e-02,-5.289954543113708496e-01,-8.304770588874816895e-01,3.249056637287139893e-01,-2.075947672128677368e-01
3.639829754829406738e-01,5.838640332221984863e-01,8.567389845848083496e-02,-3.004744648933410645e-01,-1.007676005363464355e+00,3.811718225479125977e-01,-6.996487826108932495e-02,-6.352581828832626343e-02,1.816511601209640503e-01,-1.746495366096496582e-01,-3.775807917118072510e-01,-9.920833690557628870e-05,1.759386509656906128e-01,3.469926714897155762e-01,-1.462529301643371582e-01,6.035835668444633484e-02,9.352441877126693726e-02,-1.419613361358642578e-01,1.047547981142997742e-01,3.485424518585205078e-01,4.081880152225494385e-01,-2.203839868307113647e-01,-4.331742823123931885e-01,-2.978077828884124756e-01,8.989517688751220703e-01,3.000885248184204102e-01,7.510084193199872971e-03,5.860778689384460449e-01,-6.109082698822021484e-01,-8.130703568458557129e-01,2.477771192789077759e-01,-1.253981441259384155e-01
1.837833225727081299e-01,2.018612474203109741e-01,2.511350512504577637e-01,-4.491309523582458496e-01,-8.650496006011962891e-01,5.802319049835205078e-01,-1.378913819789886475e-01,-3.106956481933593750e-01,-2.382717281579971313e-01,-1.354309022426605225e-01,-4.551692306995391846e-01,-1.494355350732803345e-01,-3.083060681819915771e-02,9.866204857826232910e-02,-2.751623392105102539e-01,-1.797073632478713989e-01,1.094601824879646301e-01,-2.315379381179809570e-01,4.933767318725585938e-01,3.695143759250640869e-01,4.961592853069305420e-01,-6.825452297925949097e-02,-3.207125663757324219e-01,-6.851512789726257324e-01,8.615204095840454102e-01,5.022785663604736328e-01,2.244868725538253784e-01,3.523462712764739990e-01,-7.693081498146057129e-01,-7.274291515350341797e-01,1.611852198839187622e-01,1.469276845455169678e-01
-6.552972644567489624e-02,-2.659580111503601074e-01,1.579222977161407471e-01,-8.198736608028411865e-02,-7.718429565429687500e-01,2.766500711441040039e-01,1.170301139354705811e-01,-2.525825798511505127e-01,-2.767046689987182617e-01,4.956154525279998779e-01,-3.161059617996215820e-01,-1.780447661876678467e-01,-1.147986873984336853e-01,-2.305477559566497803e-01,-3.144418895244598389e-01,7.854954153299331665e-02,3.940156847238540649e-02,-2.055470198392868042e-01,6.307314038276672363e-01,4.021403789520263672e-01,4.911066591739654541e-01,-1.410650163888931274e-01,3.789333403110504150e-01,-5.316962003707885742e-01,4.654017984867095947e-01,3.413775563240051270e-01,5.131952166557312012e-01,9.005410075187683105e-01,-5.786775946617126465e-01,-5.103234648704528809e-01,2.079828828573226929e-01,3.765499293804168701e-01
-7.209283858537673950e-02,-6.600444912910461426e-01,-2.455830723047256470e-01,1.810076236724853516e-01,-4.074427187442779541e-01,2.261902987957000732e-01,8.384009599685668945e-01,1.566498279571533203e-01,-3.669126629829406738e-01,3.392969369888305664e-01,-5.901246890425682068e-02,-1.361900269985198975e-01,-2.470771819353103638e-01,-5.065946578979492188e-01,-6.674475073814392090e-01,7.366620749235153198e-02,-5.956573784351348877e-02,-2.807824909687042236e-01,5.406927466392517090e-01,4.133868515491485596e-01,5.382611751556396484e-01,-4.443341195583343506e-01,6.620363593101501465e-01,-7.291109561920166016e-01,-1.624247990548610687e-03,3.173900544643402100e-01,7.554338574409484863e-01,9.786232709884643555e-01,-2.020400464534759521e-01,-3.233357667922973633e-01,2.918787114322185516e-02,5.791687965393066406e-01
-2.485179007053375244e-01,-5.728576183319091797e-01,-5.373498201370239258e-01,-8.745642006397247314e-02,-3.159927129745483398e-01,-3.556368174031376839e-03,9.028257727622985840e-01,7.209727764129638672e-01,-4.736861884593963623e-01,-2.823398262262344360e-02,-1.225610300898551941e-01,3.024439793080091476e-03,-5.074332952499389648e-01,-5.370342731475830078e-01,-6.069235801696777344e-01,-3.089768812060356140e-02,-1.984552592039108276e-01,-4.386529624462127686e-01,4.005792140960693359e-01,4.417685419321060181e-02,1.435787230730056763e-01,-4.150393307209014893e-01,5.273955464363098145e-01,-7.710365653038024902e-01,-1.290625631809234619e-01,3.343008756637573242e-01,9.650611281394958496e-01,9.611858725547790527e-01,-2.618795037269592285e-01,-1.188502460718154907e-01,-1.225539818406105042e-01,6.429255008697509766e-01
-1.777364760637283325e-01,-7.283404469490051270e-01,-9.361045956611633301e-01,-2.893264889717102051e-01,-4.228500649333000183e-02,-5.342288017272949219e-01,8.389952182769775391e-01,6.652249097824096680e-01,-3.425534963607788086e-01,3.424825072288513184e-01,-2.944536507129669189e-01,-1.131898313760757446e-01,-2.984565198421478271e-01,-4.603870213031768799e-01,-8.619211316108703613e-01,-2.886278331279754639e-01,-3.109583258628845215e-01,-4.884192645549774170e-01,3.822175264358520508e-01,-1.141020581126213074e-01,-8.909593522548675537e-02,-8.405180573463439941e-01,5.297025442123413086e-01,-4.751167893409729004e-01,-1.976646333932876587e-01,2.055800110101699829e-01,5.998689532279968262e-01,6.329615116119384766e-01,-2.014177590608596802e-01,-8.964388817548751831e-02,-1.621455550193786621e-01,2.558674514293670654e-01
1.195545420050621033e-01,-3.858433663845062256e-01,-9.712882041931152344e-01,-3.723431527614593506e-01,-2.300547063350677490e-01,-6.664786934852600098e-01,6.684712171554565430e-01,6.213971376419067383e-01,-4.268470108509063721e-01,1.642176508903503418e-02,-1.306282430887222290e-01,4.685875028371810913e-02,-8.445476740598678589e-02,-4.554769396781921387e-01,-7.147695422172546387e-01,-2.239176630973815918e-01,-3.744317293167114258e-01,-3.770057857036590576e-01,5.061556100845336914e-01,5.287088081240653992e-02,-1.672123670578002930e-01,-6.922279000282287598e-01,6.094664931297302246e-01,-5.758758187294006348e-01,-2.572663426399230957e-01,1.791746318340301514e-01,3.128731250762939453e-01,3.714735209941864014e-01,-4.132327809929847717e-02,3.179041147232055664e-01,1.621786952018737793e-01,-4.618706181645393372e-02
-1.535613648593425751e-02,-1.059613227844238281e-01,-7.312775850296020508e-01,-5.792186856269836426e-01,-1.012126505374908447e-01,-5.546027421951293945e-01,6.360104084014892578e-01,5.913221240043640137e-01,-6.541027426719665527e-01,-3.536164164543151855e-01,3.439625501632690430e-01,1.901582628488540649e-01,1.048816964030265808e-01,-4.576666951179504395e-01,-3.140785992145538330e-01,-5.505046844482421875e-01,-4.287729859352111816e-01,-1.578342914581298828e-01,2.971071302890777588e-01,-2.450036704540252686e-01,-8.329664915800094604e-02,-6.272172331809997559e-01,3.710731863975524902e-01,-3.585227727890014648e-01,-2.764270305633544922e-01,6.489031761884689331e-02,3.850615918636322021e-01,1.084911078214645386e-01,6.838865578174591064e-03,3.895375728607177734e-01,5.154672265052795410e-01,1.035128906369209290e-01
-1.034217551350593567e-01,-1.783434450626373291e-01,-4.953170418739318848e-01,-4.533287882804870605e-01,-2.257200479507446289e-01,-1.889707595109939575e-01,1.147811412811279297e-01,2.614187002182006836e-01,-3.589751720428466797e-01,-2.847345173358917236e-01,3.636913001537322998e-01,4.786730110645294189e-01,2.602709829807281494e-01,-3.891081511974334717e-01,1.229505334049463272e-02,-3.548811376094818115e-01,-6.488609313964843750e-02,2.921854257583618164e-01,1.354046463966369629e-01,-5.570971965789794922e-01,2.809879779815673828e-01,-3.796392977237701416e-01,4.032958149909973145e-01,-1.969273239374160767e-01,-5.371121317148208618e-02,-1.318484544754028320e-01,-4.598423466086387634e-02,6.238890439271926880e-02,-2.182813882827758789e-01,1.267036050558090210e-01,4.404073953628540039e-01,1.343295574188232422e-01
8.149202913045883179e-02,-2.390414178371429443e-01,-6.751556992530822754e-01,-5.164790153503417969e-01,-1.823587864637374878e-01,-1.422238200902938843e-01,1.003484651446342468e-01,1.164540871977806091e-01,-5.998701453208923340e-01,3.462051600217819214e-02,5.692462325096130371e-01,7.400295138359069824e-01,3.922528922557830811e-01,-1.522244513034820557e-01,4.649423956871032715e-01,1.902410835027694702e-01,3.620971739292144775e-01,2.322819977998733521e-01,-5.467893555760383606e-02,-5.496210455894470215e-01,3.154449760913848877e-01,-2.195511311292648315e-01,4.486423432826995850e-01,1.343207210302352905e-01,-2.691342234611511230e-01,-8.389079570770263672e-01,-1.663382649421691895e-01,-1.187038719654083252e-01,-1.816336661577224731e-01,-1.610296592116355896e-02,5.216294527053833008e-01,3.886766731739044189e-01
5.000146031379699707e-01,-1.410643160343170166e-01,-4.385237991809844971e-01,-6.833409070968627930e-01,-1.016464754939079285e-01,-6.000711023807525635e-02,-6.373565644025802612e-02,-2.030783444643020630e-01,-9.120224416255950928e-02,3.181517422199249268e-01,4.561060369014739990e-01,1.122527718544006348e+00,3.694419264793395996e-01,7.741060107946395874e-02,6.350718140602111816e-01,3.348391652107238770e-01,5.439946651458740234e-01,3.226807713508605957e-01,-3.017954528331756592e-01,-3.999433517456054688e-01,5.563443899154663086e-01,4.513352178037166595e-03,4.197811186313629150e-01,4.887585639953613281e-01,-3.642241358757019043e-01,-9.153569936752319336e-01,-8.402966894209384918e-03,-1.964919418096542358e-01,-1.094976514577865601e-01,-3.252161145210266113e-01,2.282375693321228027e-01,3.333912193775177002e-01
