Fp1,Fp2,F7,F3,Fz,F4,F8,FT7,FC3,FCz,FC4,FT8,T3,C3,Cz,C4,T4,TP7,CP3,CPz,CP4,TP8,T5,P3,Pz,P4,T6,O1,Oz,O2,A1,A2
3.029225587844848633e+00,7.613688468933105469e+00,9.976173400878906250e+00,1.065928173065185547e+01,7.145054817199707031e+00,3.204309701919555664e+00,2.655103445053100586e+00,6.002617359161376953e+00,5.844305038452148438e+00,5.034985542297363281e+00,2.993363618850708008e+00,2.620088100433349609e+00,2.812340855598449707e-02,-5.282834529876708984e+00,-7.457891941070556641e+00,-3.247265145182609558e-02,3.523993015289306641e+00,3.346705198287963867e+00,3.285443782806396484e+00,5.463976860046386719e+00,6.630398273468017578e+00,4.711034297943115234e+00,3.909980058670043945e+00,2.521264076232910156e+00,5.148219585418701172e+00,5.481323719024658203e+00,7.083605766296386719e+00,4.900069236755371094e+00,4.196909427642822266e+00,4.087824344635009766e+00,5.260261058807373047e+00,8.526691436767578125e+00
4.717812538146972656e+00,8.343677520751953125e+00,9.363201141357421875e+00,8.642349243164062500e+00,8.219170570373535156e+00,3.778480052947998047e+00,3.382234096527099609e+00,5.402398586273193359e+00,7.812806606292724609e+00,8.509925842285156250e+00,3.646117448806762695e+00,-2.854207992553710938e+00,-2.330008983612060547e+00,2.424701452255249023e+00,5.394180774688720703e+00,9.298196792602539062e+00,7.137898921966552734e+00,9.724956512451171875e+00,1.254740619659423828e+01,1.191022586822509766e+01,8.829268455505371094e+00,5.975310325622558594e+00,7.726659774780273438e+00,4.435945987701416016e+00,3.743038654327392578e+00,4.247043609619140625e+00,8.130564689636230469e+00,7.223262786865234375e+00,4.243094921112060547e+00,5.604763507843017578e+00,8.080752372741699219e+00,1.139928627014160156e+01
-2.044034481048583984e+00,-3.932255268096923828e+00,-8.926045894622802734e-01,-1.537652015686035156e+00,-2.379571914672851562e+00,-4.718008041381835938e+00,-4.079558372497558594e+00,-2.032657623291015625e+00,-3.804754316806793213e-01,-1.186173796653747559e+00,-4.602955818176269531e+00,-8.330146789550781250e+00,-4.430965423583984375e+00,5.230264663696289062e+00,7.647441864013671875e+00,3.759961366653442383e+00,-1.543663263320922852e+00,4.846030771732330322e-01,3.782496213912963867e+00,3.877980709075927734e+00,2.561695575714111328e+00,-8.156920075416564941e-01,-1.292455673217773438e+00,-4.858273506164550781e+00,-5.538843631744384766e+00,-3.697101593017578125e+00,-1.517451763153076172e+00,-1.824008822441101074e+00,-1.720013976097106934e+00,-9.393217563629150391e-01,-1.923170804977416992e+00,-9.592162072658538818e-02
-2.721132040023803711e+00,-3.931212902069091797e+00,-3.365359067916870117e+00,-1.546018958091735840e+00,-2.030076742172241211e+00,-3.614962339401245117e+00,-6.031002998352050781e+00,-3.237370729446411133e+00,-6.246505737304687500e+00,-9.641066551208496094e+00,-1.015153026580810547e+01,-8.730077743530273438e+00,-7.689625740051269531e+00,-8.290840148925781250e+00,-8.450795173645019531e+00,-8.682544708251953125e+00,-8.757013320922851562e+00,-9.422866821289062500e+00,-1.046758270263671875e+01,-8.886979103088378906e+00,-8.241850852966308594e+00,-7.622526168823242188e+00,-9.875420570373535156e+00,-8.319136619567871094e+00,-4.302714824676513672e+00,-1.724130988121032715e+00,-6.210601329803466797e+00,-6.971123218536376953e+00,-3.740487337112426758e+00,-4.222527980804443359e+00,-8.574540138244628906e+00,-5.074687480926513672e+00
-3.566891193389892578e+00,1.416054844856262207e+00,-1.711775302886962891e+00,-1.436638951301574707e+00,1.370635271072387695e+00,1.801461338996887207e+00,-2.641733169555664062e+00,-2.896714925765991211e+00,-3.156193256378173828e+00,-5.931157588958740234e+00,-7.553762435913085938e+00,-9.117809295654296875e+00,-9.487621307373046875e+00,-1.317875099182128906e+01,-1.528514099121093750e+01,-1.045342063903808594e+01,-8.545640945434570312e+00,-9.499328613281250000e+00,-1.161821842193603516e+01,-1.100525569915771484e+01,-1.366472053527832031e+01,-1.154929828643798828e+01,-1.067876434326171875e+01,-5.154655933380126953e+00,-7.393864989280700684e-01,1.359557390213012695e+00,-6.778780937194824219e+00,-7.027918338775634766e+00,-3.215407848358154297e+00,-1.862445592880249023e+00,-3.655375003814697266e+00,3.380638599395751953e+00
-7.000923633575439453e+00,-2.260702371597290039e+00,-1.910819053649902344e+00,-2.857814073562622070e+00,-1.676345825195312500e+00,-1.991112589836120605e+00,-4.431795597076416016e+00,-4.966123580932617188e+00,-1.474548101425170898e+00,-3.323443651199340820e+00,-6.030622482299804688e+00,-1.020895099639892578e+01,-7.730425357818603516e+00,-3.113903999328613281e+00,-3.994322299957275391e+00,-5.669105052947998047e+00,-8.515697479248046875e+00,-8.172391891479492188e+00,-6.481520175933837891e+00,-6.640792846679687500e+00,-8.286959648132324219e+00,-1.056869316101074219e+01,-8.876575469970703125e+00,-1.063037300109863281e+01,-1.159134006500244141e+01,-7.738722801208496094e+00,-7.466770648956298828e+00,-6.926268100738525391e+00,-4.450296401977539062e+00,-2.182200431823730469e+00,-2.231638431549072266e+00,3.124293565750122070e+00
-7.561289787292480469e+00,-8.501630783081054688e+00,-1.774062037467956543e+00,-7.432709336280822754e-01,-7.048484802246093750e+00,-9.820152282714843750e+00,-9.639071464538574219e+00,-5.917750358581542969e+00,-4.899134159088134766e+00,-7.111564636230468750e+00,-9.427898406982421875e+00,-9.055262565612792969e+00,-5.969851493835449219e+00,-1.454661250114440918e+00,-1.347477555274963379e+00,-4.869957923889160156e+00,-8.181812286376953125e+00,-7.680171012878417969e+00,-5.442683219909667969e+00,-6.270876407623291016e+00,-5.521894454956054688e+00,-7.845327854156494141e+00,-7.115877628326416016e+00,-1.459277629852294922e+01,-1.792797660827636719e+01,-1.466261005401611328e+01,-8.365235328674316406e+00,-8.170012474060058594e+00,-9.243277549743652344e+00,-8.981122016906738281e+00,-8.064916610717773438e+00,-2.613634109497070312e+00
-1.008050441741943359e+01,-9.207056045532226562e+00,-3.067171335220336914e+00,-4.010089397430419922e+00,-1.288991451263427734e+01,-1.253452682495117188e+01,-1.074432659149169922e+01,-7.178278923034667969e+00,-6.337778091430664062e+00,-5.603093147277832031e+00,-7.549490451812744141e+00,-5.037424564361572266e+00,-2.863815069198608398e+00,-2.744421720504760742e+00,-3.962587833404541016e+00,-1.839181780815124512e+00,-1.623849153518676758e+00,-1.915372490882873535e+00,-4.333857059478759766e+00,-5.635978221893310547e+00,-6.246983528137207031e+00,-5.397855281829833984e+00,-5.436667442321777344e+00,-7.420656681060791016e+00,-8.444735527038574219e+00,-9.298767089843750000e+00,-9.190044403076171875e+00,-1.012883281707763672e+01,-1.176812744140625000e+01,-1.282586383819580078e+01,-1.021931362152099609e+01,1.455630064010620117e-01
-8.745719909667968750e+00,-7.601770877838134766e+00,-5.437019348144531250e+00,-8.439288139343261719e+00,-1.225378417968750000e+01,-1.001754856109619141e+01,-8.454510688781738281e+00,-9.267073631286621094e+00,-6.088950157165527344e+00,-1.987079977989196777e+00,-2.674106359481811523e+00,-5.270595073699951172e+00,-4.131619930267333984e+00,-3.693830728530883789e+00,-4.713459014892578125e+00,-3.752224206924438477e+00,-3.518975019454956055e+00,-3.528138160705566406e+00,-5.077282905578613281e+00,-3.992626905441284180e+00,-5.330946445465087891e+00,-5.090505123138427734e+00,-5.069005489349365234e+00,-3.388518810272216797e+00,-4.257104396820068359e+00,-4.422759532928466797e+00,-5.718334674835205078e+00,-6.493922710418701172e+00,-6.247305870056152344e+00,-7.512068748474121094e+00,-6.736632347106933594e+00,2.931608915328979492e+00
-1.136754631996154785e+00,-7.710332870483398438e+00,-5.865160465240478516e+00,-4.905938625335693359e+00,-4.697424888610839844e+00,-6.354768753051757812e+00,-6.139329910278320312e+00,-6.202281951904296875e+00,-5.975415706634521484e+00,-5.063022613525390625e+00,-2.925344944000244141e+00,-4.411643981933593750e+00,-4.667174339294433594e+00,-4.620251178741455078e+00,-3.866051912307739258e+00,-6.558808803558349609e+00,-8.143882751464843750e+00,-8.248023033142089844e+00,-6.891333103179931641e+00,-4.454034805297851562e+00,-4.891307830810546875e+00,-4.774924755096435547e+00,-3.345584630966186523e+00,-3.206707239151000977e+00,-6.679256916046142578e+00,-5.352519035339355469e+00,-3.892436027526855469e+00,-1.935194015502929688e+00,-3.373785018920898438e+00,-5.424157619476318359e+00,-7.045835971832275391e+00,2.464498996734619141e+00
-5.514264106750488281e+00,-8.843287467956542969e+00,-5.472122669219970703e+00,-3.914107322692871094e+00,-5.604998111724853516e+00,-6.923940658569335938e+00,-5.607796192169189453e+00,-8.197574019432067871e-01,-1.701516389846801758e+00,-3.140102386474609375e+00,-4.825316429138183594e+00,-1.510054945945739746e+00,-1.391880273818969727e+00,-1.564378261566162109e+00,-1.557212471961975098e+00,-3.167617797851562500e+00,-3.279406547546386719e+00,-3.555505990982055664e+00,-2.312447786331176758e+00,-3.222603321075439453e+00,-4.128921031951904297e+00,-5.003842830657958984e+00,-7.107284545898437500e+00,-3.383132696151733398e+00,-2.429184436798095703e+00,-4.714907646179199219e+00,-1.019362640380859375e+01,-1.038367271423339844e+01,-1.235702419281005859e+01,-1.213235282897949219e+01,-8.352322578430175781e+00,1.675333619117736816e+00
-1.056887626647949219e+01,-5.071308612823486328e+00,-2.285419464111328125e+00,-4.331572532653808594e+00,-7.185862064361572266e+00,-5.616534709930419922e+00,-5.047844886779785156e+00,-1.572790145874023438e+00,2.370162248611450195e+00,5.225513935089111328e+00,-1.485843956470489502e-01,-6.828973889350891113e-01,-1.472596675157546997e-01,1.128534793853759766e+00,-1.681701093912124634e-01,-6.810821890830993652e-01,-5.229618549346923828e-01,-4.023262560367584229e-01,-4.355259537696838379e-01,-3.060759544372558594e+00,-5.019661426544189453e+00,-5.700253963470458984e+00,-8.167022705078125000e+00,-3.958878517150878906e+00,-6.819263696670532227e-01,-2.760126352310180664e+00,-8.488639831542968750e+00,-1.266237449645996094e+01,-1.289593124389648438e+01,-1.095575046539306641e+01,-4.467871665954589844e+00,-2.214183807373046875e+00
-7.661485671997070312e+00,-2.133889675140380859e+00,-2.640969753265380859e+00,-3.843850374221801758e+00,-2.440893411636352539e+00,-3.879636764526367188e+00,-6.860571861267089844e+00,-4.656956195831298828e+00,-6.938766241073608398e-01,8.904556035995483398e-01,-3.105294942855834961e+00,-5.255005836486816406e+00,-5.729014873504638672e+00,-4.072407245635986328e+00,-5.139467716217041016e+00,-5.230195045471191406e+00,-7.018978595733642578e+00,-6.704922676086425781e+00,-6.064731121063232422e+00,-6.308872699737548828e+00,-7.131018161773681641e+00,-8.150658607482910156e+00,-6.349899768829345703e+00,-1.011407756805419922e+01,-8.409642219543457031e+00,-5.084419727325439453e+00,-2.078935384750366211e+00,-7.604285717010498047e+00,-7.371178627014160156e+00,-4.722182750701904297e+00,-1.862558126449584961e+00,-3.771406412124633789e+00
-2.255862236022949219e+00,-1.849152088165283203e+00,-4.994765758514404297e+00,-5.916429996490478516e+00,-2.276634693145751953e+00,-3.458626270294189453e+00,-4.664649009704589844e+00,-1.113989949226379395e+00,-2.526803255081176758e+00,-6.344517230987548828e+00,-7.808363437652587891e+00,-3.348401069641113281e+00,-5.446119308471679688e+00,-7.926987648010253906e+00,-8.710511207580566406e+00,-5.820707321166992188e+00,-5.990962028503417969e+00,-6.445091724395751953e+00,-6.084703445434570312e+00,-6.325798034667968750e+00,-6.229873180389404297e+00,-7.352179527282714844e+00,-5.805360794067382812e+00,-1.173400402069091797e+01,-1.075319004058837891e+01,-6.545511245727539062e+00,-2.906624555587768555e+00,-7.092768669128417969e+00,-7.152224540710449219e+00,-4.264748096466064453e+00,-2.032740116119384766e+00,3.481738090515136719e+00
2.381155490875244141e+00,5.145537376403808594e+00,1.951931953430175781e+00,-2.203435659408569336e+00,-3.686797380447387695e+00,4.997567832469940186e-01,2.615437030792236328e+00,4.016270637512207031e+00,2.384856700897216797e+00,1.603841900825500488e+00,1.250173449516296387e+00,5.755644798278808594e+00,2.481618881225585938e+00,-3.713171958923339844e+00,-4.122793197631835938e+00,1.341981053352355957e+00,3.375463247299194336e+00,2.275182485580444336e+00,1.112564206123352051e+00,-1.582128703594207764e-01,5.094046592712402344e-01,1.062386631965637207e+00,2.533590234816074371e-02,-1.104718208312988281e+00,4.543938860297203064e-02,9.985061883926391602e-01,1.316599607467651367e+00,-8.409241437911987305e-01,-8.208777308464050293e-01,5.638374686241149902e-01,3.535914659500122070e+00,8.770164489746093750e+00
3.250011444091796875e+00,8.908998489379882812e+00,5.513546466827392578e+00,2.106180667877197266e+00,-2.591142654418945312e-01,3.529604673385620117e+00,4.124222755432128906e+00,2.747513294219970703e+00,1.315050601959228516e+00,3.035037755966186523e+00,4.606672763824462891e+00,7.175087451934814453e+00,6.338415622711181641e+00,2.006363391876220703e+00,8.045958727598190308e-02,3.711551427841186523e+00,5.382671833038330078e+00,5.516260147094726562e+00,3.408452033996582031e+00,3.713881731033325195e+00,4.729984283447265625e+00,5.740750789642333984e+00,5.348779678344726562e+00,6.522216320037841797e+00,6.874886035919189453e+00,5.569821834564208984e+00,6.010887145996093750e+00,6.704391479492187500e+00,6.763198852539062500e+00,6.757416248321533203e+00,5.493017196655273438e+00,5.974379777908325195e-01
-1.473573327064514160e+00,-3.975664675235748291e-01,-4.092218399047851562e+00,-3.809355258941650391e+00,1.266332864761352539e+00,1.605304479598999023e+00,-8.025573492050170898e-01,-4.805137157440185547e+00,-7.921004295349121094e+00,-6.892239093780517578e+00,-1.386524319648742676e+00,1.772791862487792969e+00,5.150436878204345703e+00,5.698490619659423828e+00,1.636439800262451172e+00,-2.900350391864776611e-01,3.833770453929901123e-01,1.565000176429748535e+00,-1.510507941246032715e+00,-1.989737451076507568e-01,-1.366429179906845093e-01,1.507965922355651855e+00,2.100075721740722656e+00,5.021852493286132812e+00,1.502754688262939453e+00,-2.162376165390014648e+00,-1.217478990554809570e+00,3.917576551437377930e+00,4.379316329956054688e+00,2.258696079254150391e+00,-5.211181163787841797e+00,-1.824741172790527344e+01
-7.322353363037109375e+00,-8.297155380249023438e+00,-1.210878658294677734e+01,-1.155514812469482422e+01,-6.045774459838867188e+00,-5.267505645751953125e+00,-7.014674186706542969e+00,-8.010828018188476562e+00,-8.260151863098144531e+00,-6.804066658020019531e+00,-6.051428318023681641e+00,-6.965987682342529297e+00,-5.594032287597656250e+00,-2.821841478347778320e+00,-2.621006727218627930e+00,-6.720272541046142578e+00,-8.303243637084960938e+00,-9.174370765686035156e+00,-8.459598541259765625e+00,-9.290327072143554688e+00,-9.611145973205566406e+00,-9.739733695983886719e+00,-1.099123191833496094e+01,-8.669905662536621094e+00,-1.034346866607666016e+01,-1.246476936340332031e+01,-1.185816097259521484e+01,-1.009301853179931641e+01,-9.106288909912109375e+00,-9.950882911682128906e+00,-1.339328002929687500e+01,-1.896162605285644531e+01
-4.860584259033203125e+00,-3.252660989761352539e+00,-4.331512928009033203e+00,-5.672561168670654297e+00,-7.075372219085693359e+00,-5.754475116729736328e+00,-6.906116008758544922e+00,-6.669090747833251953e+00,-4.540227890014648438e+00,-6.099303960800170898e-01,-1.842799067497253418e+00,-6.303127765655517578e+00,-6.462530612945556641e+00,-4.451437950134277344e+00,-2.713647127151489258e+00,-7.005858421325683594e+00,-9.762892723083496094e+00,-1.023717784881591797e+01,-6.085384845733642578e+00,-5.387278556823730469e+00,-5.312251091003417969e+00,-6.488742828369140625e+00,-6.279363155364990234e+00,-5.410715103149414062e+00,-4.524444580078125000e+00,-4.694589138031005859e+00,-3.631696224212646484e+00,-4.478429794311523438e+00,-5.216038227081298828e+00,-6.063641548156738281e+00,-7.428704738616943359e+00,-1.337238311767578125e+01
3.614883899688720703e+00,3.224298357963562012e-01,2.806680917739868164e+00,2.384053707122802734e+00,1.321742534637451172e+00,1.115824103355407715e+00,2.334870815277099609e+00,1.452919125556945801e+00,1.218639016151428223e+00,5.692052245140075684e-01,1.976078510284423828e+00,6.556458473205566406e-01,1.347046852111816406e+00,-6.906021237373352051e-01,-9.805829524993896484e-01,-3.729515075683593750e+00,-4.175424575805664062e+00,-3.499686479568481445e+00,-1.192898005247116089e-01,2.633696794509887695e+00,4.844734668731689453e+00,4.231244564056396484e+00,4.400075435638427734e+00,5.177042961120605469e+00,6.410236358642578125e+00,5.055424690246582031e+00,4.657961845397949219e+00,5.754055976867675781e+00,5.790605068206787109e+00,4.210177421569824219e+00,2.796861171722412109e+00,-8.054783344268798828e-01
8.154236793518066406e+00,3.443520307540893555e+00,4.887125492095947266e+00,4.448446273803710938e+00,4.771618366241455078e+00,5.198098182678222656e+00,5.890935897827148438e+00,3.025512218475341797e+00,2.910774707794189453e+00,7.522988319396972656e-02,2.583921432495117188e+00,2.267419338226318359e+00,2.070654153823852539e+00,-1.566959500312805176e+00,-1.090121865272521973e+00,-3.483554124832153320e-01,-1.486362814903259277e-01,-7.844880819320678711e-01,-1.450869321823120117e+00,-1.294065356254577637e+00,2.324957609176635742e+00,5.165610790252685547e+00,6.018137454986572266e+00,6.705430030822753906e+00,5.385620117187500000e+00,2.236446380615234375e+00,1.115307927131652832e+00,5.172749042510986328e+00,7.411664962768554688e+00,4.752064704895019531e+00,2.931442499160766602e+00,4.697247028350830078e+00
7.675962924957275391e+00,1.100410461425781250e+01,8.592561721801757812e+00,5.832842826843261719e+00,4.280492305755615234e+00,5.925693035125732422e+00,3.081332206726074219e+00,-8.761083483695983887e-01,-2.376211643218994141e+00,-4.061956882476806641e+00,-8.731690049171447754e-01,-2.046435773372650146e-01,-1.853975653648376465e+00,-3.607029676437377930e+00,-2.597651243209838867e+00,-3.166210353374481201e-01,-1.274754047393798828e+00,-1.165665388107299805e+00,-3.294880867004394531e+00,-5.190994262695312500e+00,-3.150204181671142578e+00,2.868653059005737305e+00,7.360563278198242188e+00,4.362028121948242188e+00,6.140930652618408203e-01,1.672550290822982788e-01,2.470086812973022461e+00,5.785820007324218750e+00,6.085372924804687500e+00,3.943824291229248047e+00,1.624345302581787109e+00,2.493999719619750977e+00
6.121236324310302734e+00,9.445355415344238281e+00,4.521694660186767578e+00,3.647668361663818359e+00,7.316469669342041016e+00,6.873891830444335938e+00,5.307922363281250000e+00,1.457819819450378418e+00,-3.367930173873901367e+00,-6.551878929138183594e+00,-1.066911220550537109e+00,1.802354335784912109e+00,5.827869772911071777e-01,-2.375378608703613281e-01,-9.549581408500671387e-01,-8.183184266090393066e-02,3.279084563255310059e-01,1.486706852912902832e+00,-9.663667082786560059e-01,-2.727358818054199219e+00,-2.023851156234741211e+00,3.159559488296508789e+00,7.237025260925292969e+00,3.167886495590209961e+00,-8.382831811904907227e-01,2.247206211090087891e+00,7.679108619689941406e+00,9.945265769958496094e+00,8.132752418518066406e+00,8.742758750915527344e+00,7.171997547149658203e+00,-1.380814433097839355e+00
5.703320980072021484e+00,4.419818878173828125e+00,-4.084428846836090088e-01,1.797709107398986816e+00,9.781878471374511719e+00,8.671972274780273438e+00,8.236380577087402344e+00,4.688323020935058594e+00,3.709792375564575195e+00,3.493640184402465820e+00,6.324246406555175781e+00,6.328533172607421875e+00,5.206619739532470703e+00,3.941823959350585938e+00,2.736619949340820312e+00,3.427728891372680664e+00,4.482950210571289062e+00,3.874287843704223633e+00,5.375037193298339844e-01,-1.164972066879272461e+00,2.613939046859741211e-01,2.894786357879638672e+00,3.161945343017578125e+00,3.304189443588256836e+00,2.220335006713867188e+00,3.652452945709228516e+00,6.031064510345458984e+00,7.354605197906494141e+00,7.864090442657470703e+00,9.890361785888671875e+00,9.516175270080566406e+00,-2.041222572326660156e+00
3.796271085739135742e+00,1.033257961273193359e+01,7.588802814483642578e+00,6.975793838500976562e+00,8.553491592407226562e+00,9.989842414855957031e+00,7.496304035186767578e+00,4.264938831329345703e+00,5.312995433807373047e+00,8.845552444458007812e+00,7.888602733612060547e+00,6.710409641265869141e+00,3.910222768783569336e+00,9.719781279563903809e-01,-1.023165583610534668e+00,1.935502409934997559e+00,3.146251678466796875e+00,2.623068094253540039e+00,5.246819853782653809e-01,2.260635614395141602e+00,4.598008632659912109e+00,5.035824775695800781e+00,3.410398006439208984e+00,5.851383686065673828e+00,9.297693252563476562e+00,8.070791244506835938e+00,5.676661014556884766e+00,4.643139839172363281e+00,6.820536136627197266e+00,7.155889511108398438e+00,6.444719791412353516e+00,8.703909873962402344e+00
-1.433416128158569336e+00,6.276202678680419922e+00,5.587407112121582031e+00,2.831585884094238281e+00,8.939530253410339355e-01,2.491648674011230469e+00,2.673941850662231445e+00,9.179624915122985840e-01,-2.241398572921752930e+00,-1.169519901275634766e+00,-9.711667150259017944e-02,1.625869035720825195e+00,-5.495215952396392822e-02,-1.533779740333557129e+00,-2.769897937774658203e+00,-3.101337909698486328e+00,-2.152600288391113281e+00,-1.846321582794189453e+00,8.570925593376159668e-01,5.703714847564697266e+00,5.789900779724121094e+00,2.195354938507080078e+00,1.048234701156616211e+00,2.197010755538940430e+00,5.864918231964111328e+00,6.309680461883544922e+00,4.827684402465820312e+00,1.625291824340820312e+00,2.052045345306396484e+00,3.893554687500000000e+00,6.047678947448730469e+00,1.417406558990478516e+01
2.276339054107666016e+00,-1.555316567420959473e+00,-4.673382282257080078e+00,-4.069527626037597656e+00,-2.026083506643772125e-02,6.449739336967468262e-01,2.870856046676635742e+00,3.951034247875213623e-01,-3.335576534271240234e+00,-2.109205961227416992e+00,2.667363166809082031e+00,3.142711877822875977e+00,2.537539005279541016e+00,3.302610158920288086e+00,4.812163352966308594e+00,1.747429728507995605e+00,7.606050968170166016e-01,-5.160931348800659180e-01,2.419513702392578125e+00,3.329198598861694336e+00,3.181252479553222656e+00,4.487322866916656494e-01,9.068729281425476074e-01,2.637050390243530273e+00,4.036205291748046875e+00,5.061766147613525391e+00,5.722812175750732422e+00,3.721503496170043945e+00,2.831957578659057617e+00,6.131648063659667969e+00,1.078185653686523438e+01,4.514838218688964844e+00
9.849231719970703125e+00,2.905748128890991211e+00,-4.143127441406250000e+00,-2.354327440261840820e+00,4.512861251831054688e+00,7.379513740539550781e+00,6.165476799011230469e+00,1.461757779121398926e+00,-1.052886962890625000e+00,4.529171943664550781e+00,1.154174804687500000e+01,1.341515541076660156e+01,1.061152076721191406e+01,6.775794029235839844e+00,6.521625041961669922e+00,8.786796569824218750e+00,9.742148399353027344e+00,9.851916313171386719e+00,9.558823585510253906e+00,9.348861694335937500e+00,1.040203380584716797e+01,1.052706146240234375e+01,9.735640525817871094e+00,1.497099590301513672e+01,1.685575103759765625e+01,1.353815555572509766e+01,1.087982845306396484e+01,1.063485527038574219e+01,8.041014671325683594e+00,7.834910869598388672e+00,1.135609149932861328e+01,-1.205533981323242188e+00
1.241855621337890625e+01,1.060610198974609375e+01,3.851375102996826172e+00,2.271526098251342773e+00,6.798214435577392578e+00,1.072782039642333984e+01,1.029029369354248047e+01,5.507370948791503906e+00,9.887533783912658691e-01,4.715275764465332031e+00,1.126594066619873047e+01,1.641534996032714844e+01,1.277340221405029297e+01,3.361634731292724609e+00,3.462537527084350586e-01,7.311842441558837891e+00,1.202309131622314453e+01,1.402794075012207031e+01,1.087213706970214844e+01,1.347094917297363281e+01,1.632087707519531250e+01,1.932170104980468750e+01,1.589901256561279297e+01,1.987444877624511719e+01,2.043681526184082031e+01,1.734113502502441406e+01,1.480531597137451172e+01,1.662041854858398438e+01,1.388009071350097656e+01,1.130815982818603516e+01,1.104241275787353516e+01,4.297103404998779297e+00
2.096693515777587891e+00,4.520061016082763672e-01,-1.232915401458740234e+00,-1.633976221084594727e+00,3.754990994930267334e-01,3.982360363006591797e-01,2.809695243835449219e+00,1.168051719665527344e+00,-7.024201154708862305e-01,-2.917556166648864746e-01,2.779329121112823486e-01,4.704898595809936523e-02,4.688137769699096680e-01,-1.573981642723083496e+00,-1.528809785842895508e+00,-1.121244192123413086e+00,-1.575531959533691406e+00,-1.681843161582946777e+00,-2.305346727371215820e+00,-7.091595530509948730e-01,2.108800172805786133e+00,5.105999469757080078e+00,3.394929885864257812e+00,3.720077514648437500e+00,3.362608432769775391e+00,4.248447418212890625e+00,5.347217082977294922e+00,4.982213497161865234e+00,4.763138294219970703e+00,5.207239151000976562e+00,6.241601467132568359e+00,-4.848643392324447632e-02
-6.848985671997070312e+00,-6.527566432952880859e+00,-5.997384071350097656e+00,-4.160149097442626953e+00,-5.858102798461914062e+00,-7.463490962982177734e+00,-8.018626213073730469e+00,-7.657865047454833984e+00,-6.428019523620605469e+00,-3.425121784210205078e+00,-4.879053592681884766e+00,-9.924964904785156250e+00,-7.993201732635498047e+00,-1.170071005821228027e+00,1.402524352073669434e+00,-5.822736740112304688e+00,-1.178512382507324219e+01,-1.294627189636230469e+01,-9.409416198730468750e+00,-8.240630149841308594e+00,-6.102314472198486328e+00,-7.268258571624755859e+00,-6.724004745483398438e+00,-3.936321496963500977e+00,-1.658605694770812988e+00,-2.519880533218383789e+00,-2.555030107498168945e+00,-5.901968479156494141e+00,-7.354939460754394531e+00,-6.101557731628417969e+00,-1.363219738006591797e+00,-6.665570259094238281e+00
4.132246673107147217e-01,7.171546936035156250e+00,2.745135307312011719e+00,3.675087690353393555e-01,-5.783667564392089844e-01,1.021811008453369141e+00,-1.783971935510635376e-01,-2.795398950576782227e+00,-5.706059455871582031e+00,-2.848095417022705078e+00,1.902438282966613770e+00,2.288184165954589844e+00,9.395887255668640137e-01,9.371054172515869141e-01,9.687973558902740479e-02,-2.271997451782226562e+00,-3.292755842208862305e+00,-2.532904386520385742e+00,-1.829705357551574707e+00,-1.084721565246582031e+00,2.332104444503784180e+00,3.421445131301879883e+00,3.528201103210449219e+00,4.372442722320556641e+00,4.142962455749511719e+00,3.788253068923950195e+00,5.682894229888916016e+00,6.729866981506347656e+00,2.744026899337768555e+00,2.087741136550903320e+00,3.985543966293334961e+00,2.488454580307006836e+00
7.530144691467285156e+00,1.170998096466064453e+01,4.737075805664062500e+00,1.349129199981689453e+00,6.424426078796386719e+00,8.504277229309082031e+00,8.950003623962402344e+00,2.577801704406738281e+00,-1.396984815597534180e+00,-7.180653810501098633e-01,5.774594783782958984e+00,7.656452655792236328e+00,5.243680000305175781e+00,-9.565171599388122559e-01,-4.824736118316650391e+00,-9.222424626350402832e-01,1.893190503120422363e+00,2.719065904617309570e+00,1.444863826036453247e-01,-9.802391380071640015e-02,2.049802064895629883e+00,6.424822330474853516e+00,7.927915096282958984e+00,4.258149623870849609e+00,-1.437463015317916870e-01,1.978957176208496094e+00,7.932551383972167969e+00,1.176431941986083984e+01,1.213573837280273438e+01,1.251289081573486328e+01,9.106133460998535156e+00,3.443487644195556641e+00
2.371308326721191406e+00,-2.746300697326660156e-01,-1.903360009193420410e+00,1.355980187654495239e-01,5.757585525512695312e+00,4.139472007751464844e+00,2.803223133087158203e+00,-2.629414558410644531e+00,-3.528865098953247070e+00,-4.040502071380615234e+00,-1.643439888954162598e+00,-3.686194658279418945e+00,-4.947426795959472656e+00,-7.012464046478271484e+00,-8.659935951232910156e+00,-6.390226364135742188e+00,-7.706751346588134766e+00,-8.888845443725585938e+00,-9.080699920654296875e+00,-7.091819286346435547e+00,-5.838802814483642578e+00,-4.472563266754150391e+00,-2.891980648040771484e+00,-3.221068620681762695e+00,-2.329876899719238281e+00,-2.778908491134643555e+00,-1.692129969596862793e+00,-2.095988035202026367e+00,2.858884096145629883e+00,3.567468881607055664e+00,8.943305611610412598e-01,-5.687195301055908203e+00
-7.631410121917724609e+00,-1.062049388885498047e+01,-8.790090560913085938e+00,-6.145609378814697266e+00,-5.823003292083740234e+00,-7.625797748565673828e+00,-8.153274536132812500e+00,-8.666769981384277344e+00,-1.021058464050292969e+01,-1.171376228332519531e+01,-1.190204906463623047e+01,-1.384388828277587891e+01,-1.421511077880859375e+01,-1.198199558258056641e+01,-1.258780765533447266e+01,-1.249840164184570312e+01,-1.340450477600097656e+01,-1.509823799133300781e+01,-1.611213684082031250e+01,-1.281195640563964844e+01,-1.098898792266845703e+01,-1.241885948181152344e+01,-1.254876136779785156e+01,-7.516590595245361328e+00,-1.944391369819641113e+00,-4.059788227081298828e+00,-1.019425678253173828e+01,-1.230692291259765625e+01,-1.027961063385009766e+01,-9.890945434570312500e+00,-9.453074455261230469e+00,-8.727901458740234375e+00
-5.479558944702148438e+00,-6.306418418884277344e+00,-7.635939598083496094e+00,-8.183450698852539062e+00,-8.965210914611816406e+00,-7.002507209777832031e+00,-4.715051651000976562e+00,-4.463685035705566406e+00,-7.046279907226562500e+00,-7.955776214599609375e+00,-7.228953361511230469e+00,-8.179561614990234375e+00,-7.819532394409179688e+00,-6.693036556243896484e+00,-9.440805435180664062e+00,-8.153062820434570312e+00,-5.204185962677001953e+00,-5.030756473541259766e+00,-1.010100460052490234e+01,-1.210749053955078125e+01,-1.131408786773681641e+01,-7.116314411163330078e+00,-4.043537616729736328e+00,-2.878882408142089844e+00,-3.145223140716552734e+00,-3.777121543884277344e+00,-7.005128860473632812e+00,-6.959678173065185547e+00,-7.345510005950927734e+00,-5.972814559936523438e+00,-6.567428588867187500e+00,-8.326377868652343750e+00
1.310794830322265625e+00,-1.310190200805664062e+00,-2.957659244537353516e+00,-1.281318426132202148e+00,-6.174610462039709091e-03,2.567933559417724609e+00,3.157443284988403320e+00,9.952841997146606445e-01,-8.058643341064453125e-01,2.584483623504638672e-01,2.681103467941284180e+00,2.529517412185668945e+00,1.480056762695312500e+00,-6.996479034423828125e-01,-3.266692876815795898e+00,1.667491346597671509e-01,1.943879961967468262e+00,3.600990772247314453e+00,-1.035015225410461426e+00,-3.979416608810424805e+00,-3.647199630737304688e+00,1.994395971298217773e+00,6.953395366668701172e+00,1.075274586677551270e+00,-2.050328016281127930e+00,-3.268148899078369141e+00,-1.694218397140502930e+00,-1.606402635574340820e+00,-9.015272855758666992e-01,-1.429722428321838379e+00,-2.134723424911499023e+00,-6.605908870697021484e+00
2.272384166717529297e+00,-1.384392738342285156e+00,-1.642806053161621094e+00,1.980891823768615723e+00,6.389565467834472656e+00,5.799999713897705078e+00,5.757928848266601562e+00,3.624117374420166016e+00,1.676823377609252930e+00,1.312188267707824707e+00,2.985010623931884766e+00,3.166338920593261719e+00,1.784062743186950684e+00,1.696321725845336914e+00,1.886925697326660156e+00,4.537814140319824219e+00,3.782654523849487305e+00,3.430882930755615234e+00,3.538032472133636475e-01,2.407033443450927734e+00,4.079705238342285156e+00,3.215134382247924805e+00,4.308201313018798828e+00,-2.412202835083007812e+00,-3.153067827224731445e+00,-4.338646411895751953e+00,-2.520735263824462891e+00,-2.038498640060424805e+00,-7.393974661827087402e-01,-3.660364151000976562e+00,-4.631597042083740234e+00,-2.720142602920532227e+00
1.801712512969970703e+00,-4.719341099262237549e-01,-2.076934337615966797e+00,3.332369029521942139e-01,7.628369808197021484e+00,6.281322002410888672e+00,7.615772724151611328e+00,5.322438716888427734e+00,3.757622241973876953e+00,2.196311950683593750e+00,2.787107467651367188e+00,2.440315008163452148e+00,3.318679809570312500e+00,4.781719684600830078e+00,4.573252201080322266e+00,4.661938190460205078e+00,5.312188148498535156e+00,4.797977924346923828e+00,1.697734713554382324e+00,-9.411384463310241699e-01,-2.127288818359375000e+00,-5.325457453727722168e-01,1.425904393196105957e+00,-2.897853612899780273e+00,-5.089770793914794922e+00,-3.716922283172607422e+00,-1.886915683746337891e+00,-1.783767193555831909e-01,9.619929194450378418e-01,1.080517843365669250e-01,-3.438925266265869141e+00,-3.461645364761352539e+00
7.878948688507080078e+00,5.222537517547607422e+00,4.371155261993408203e+00,5.962555408477783203e+00,9.427021026611328125e+00,1.060022449493408203e+01,1.112255096435546875e+01,8.938972473144531250e+00,8.643083572387695312e+00,9.152775764465332031e+00,1.183825969696044922e+01,1.450342464447021484e+01,1.304485797882080078e+01,8.778834342956542969e+00,5.887831687927246094e+00,8.612476348876953125e+00,1.146756267547607422e+01,1.357764434814453125e+01,1.173578071594238281e+01,6.562180042266845703e+00,4.163775444030761719e+00,7.555480003356933594e+00,9.872226715087890625e+00,6.876825809478759766e+00,6.067742347717285156e+00,5.501914978027343750e+00,6.193819522857666016e+00,6.157461166381835938e+00,6.199602127075195312e+00,5.117711544036865234e+00,3.826726436614990234e+00,2.107652664184570312e+00
1.027906036376953125e+01,7.408808708190917969e+00,9.980413436889648438e+00,1.011729335784912109e+01,6.529214382171630859e+00,8.110181808471679688e+00,9.480453491210937500e+00,9.555680274963378906e+00,9.282976150512695312e+00,1.038521671295166016e+01,1.381334781646728516e+01,1.866611862182617188e+01,1.584110069274902344e+01,1.099718093872070312e+01,1.062879276275634766e+01,1.686956024169921875e+01,1.889118003845214844e+01,1.976730155944824219e+01,1.692753219604492188e+01,1.709820365905761719e+01,1.871341896057128906e+01,1.765254402160644531e+01,1.282049083709716797e+01,1.162131881713867188e+01,1.430134391784667969e+01,9.516654014587402344e+00,8.000492095947265625e+00,7.203162193298339844e+00,6.896484375000000000e+00,2.651367664337158203e+00,4.594363212585449219e+00,1.094956207275390625e+01
-2.698292493820190430e+00,-5.564851760864257812e+00,-1.070502400398254395e+00,-1.067892193794250488e+00,-5.402927875518798828e+00,-7.338749885559082031e+00,-4.934195041656494141e+00,-2.449857711791992188e+00,-9.701996445655822754e-01,-2.744510769844055176e-01,-1.410206198692321777e+00,1.277453541755676270e+00,4.099861145019531250e+00,7.060489177703857422e+00,9.483156204223632812e+00,1.130051898956298828e+01,9.882703781127929688e+00,9.009984970092773438e+00,6.087307929992675781e+00,7.440673828125000000e+00,8.460188865661621094e+00,6.297327041625976562e+00,-8.342828750610351562e-01,1.610863357782363892e-01,1.877666115760803223e+00,-2.852053642272949219e+00,-5.953836441040039062e+00,-6.871005535125732422e+00,-7.043245792388916016e+00,-9.194644927978515625e+00,-8.540932655334472656e+00,-5.505437374114990234e+00
-1.002602767944335938e+01,-1.488996028900146484e+01,-1.259863376617431641e+01,-1.003061580657958984e+01,-9.189281463623046875e+00,-1.246305656433105469e+01,-1.293759536743164062e+01,-1.016219425201416016e+01,-7.356042861938476562e+00,-6.086418628692626953e+00,-8.730684280395507812e+00,-7.342005729675292969e+00,-3.955703258514404297e+00,2.913669049739837646e-01,-7.366884350776672363e-01,-2.824851989746093750e+00,-5.602053165435791016e+00,-4.497694969177246094e+00,-5.131631851196289062e+00,-4.163093090057373047e+00,-5.100179195404052734e+00,-6.196466922760009766e+00,-8.343390464782714844e+00,-7.263046264648437500e+00,-5.717453002929687500e+00,-8.880128860473632812e+00,-1.175561428070068359e+01,-1.505832481384277344e+01,-1.692856216430664062e+01,-1.715133857727050781e+01,-1.622314834594726562e+01,-2.258401679992675781e+01
-8.840566277503967285e-01,-6.807675361633300781e+00,-8.623842239379882812e+00,-6.564099788665771484e+00,-3.278027772903442383e+00,-4.782224178314208984e+00,-5.668435096740722656e+00,-2.907446384429931641e+00,-1.610414505004882812e+00,-1.994630217552185059e+00,-3.075169563293457031e+00,-2.517859697341918945e+00,-3.091993093490600586e+00,-3.293942213058471680e+00,-4.806296348571777344e+00,-4.796949863433837891e+00,-4.961470127105712891e+00,-3.705489873886108398e+00,-4.507006645202636719e+00,-3.135303497314453125e+00,-2.951039552688598633e+00,-4.122412681579589844e+00,-4.027142524719238281e+00,-3.397305965423583984e+00,7.265968918800354004e-01,-1.864403843879699707e+00,-3.483701229095458984e+00,-7.767011642456054688e+00,-8.906014442443847656e+00,-1.108076763153076172e+01,-8.222389221191406250e+00,-9.321906089782714844e+00
1.425076365470886230e+00,1.071315526962280273e+00,-1.712533712387084961e+00,-3.518675804138183594e+00,-3.462009191513061523e+00,-3.974077939987182617e+00,-2.813838243484497070e+00,-2.258305251598358154e-01,2.085060834884643555e+00,2.143377542495727539e+00,-2.445006072521209717e-01,-4.004974842071533203e+00,-2.006901025772094727e+00,-4.255625605583190918e-02,1.948316216468811035e+00,2.433954030275344849e-01,1.169596195220947266e+00,-1.257176846265792847e-01,6.690533161163330078e-01,4.227767586708068848e-01,-7.290416359901428223e-01,-3.366588830947875977e+00,-2.623230695724487305e+00,-1.780116558074951172e+00,1.658070534467697144e-01,1.813138648867607117e-02,7.163073867559432983e-02,-1.575389027595520020e+00,-1.049253821372985840e+00,-2.289971351623535156e+00,-1.298027873039245605e+00,3.484823226928710938e+00
-4.308689117431640625e+00,-3.461927652359008789e+00,-3.702126741409301758e+00,-6.800843238830566406e+00,-1.071448707580566406e+01,-9.633359909057617188e+00,-7.944504737854003906e+00,-4.668871879577636719e+00,1.729673296213150024e-01,3.649878501892089844e+00,-5.835154056549072266e-01,-4.496363639831542969e+00,-1.055889725685119629e+00,3.688788890838623047e+00,4.650093078613281250e+00,-7.909813523292541504e-02,-2.150185346603393555e+00,-1.436913132667541504e+00,3.393603563308715820e+00,1.189758658409118652e+00,-2.888350963592529297e+00,-5.727973937988281250e+00,-4.475421428680419922e+00,-3.484244585037231445e+00,-3.741704463958740234e+00,-1.527501106262207031e+00,-8.879700303077697754e-01,-1.560911655426025391e+00,-2.469983577728271484e+00,-8.793125152587890625e-01,-3.812336921691894531e-02,-1.291423439979553223e+00
-3.175419807434082031e+00,-1.118926143646240234e+01,-8.679059982299804688e+00,-1.011560916900634766e+01,-1.411917686462402344e+01,-1.255543327331542969e+01,-1.015315151214599609e+01,-6.220976829528808594e+00,-1.579344630241394043e+00,1.686006188392639160e-01,-3.820651054382324219e+00,-2.350337982177734375e+00,-2.827705144882202148e+00,-6.976145505905151367e-01,-1.180052280426025391e+00,-2.078449726104736328e+00,-2.760648965835571289e+00,-1.149229854345321655e-01,1.715542912483215332e+00,-1.413319587707519531e+00,-5.079227447509765625e+00,-5.884802818298339844e+00,-5.720101833343505859e+00,-5.869039058685302734e+00,-3.756754636764526367e+00,-1.549299359321594238e+00,-1.131188869476318359e+00,-2.883912324905395508e+00,-2.995491027832031250e+00,-2.320729732513427734e+00,-1.050452589988708496e+00,-5.196482181549072266e+00
-3.320448637008666992e+00,-1.145666122436523438e+01,-1.116795539855957031e+01,-1.080962944030761719e+01,-1.015632152557373047e+01,-1.097217750549316406e+01,-9.791275978088378906e+00,-6.432236194610595703e+00,-3.936290502548217773e+00,-5.577499389648437500e+00,-8.541716575622558594e+00,-5.539607048034667969e+00,-5.573065280914306641e+00,-3.772879123687744141e+00,-2.024977445602416992e+00,-1.838083028793334961e+00,9.976535439491271973e-01,1.387755990028381348e+00,-7.548392564058303833e-02,-4.107615470886230469e+00,-6.624555587768554688e+00,-6.481039524078369141e+00,-5.827004432678222656e+00,-7.235211849212646484e+00,-6.555692195892333984e+00,-5.071128845214843750e+00,-4.201951026916503906e+00,-5.247008323669433594e+00,-4.296590328216552734e+00,-3.952033042907714844e+00,-4.491317749023437500e+00,-6.083581447601318359e+00
-3.459797382354736328e+00,-1.799302816390991211e+00,-4.423143386840820312e+00,-3.938856363296508789e+00,-1.737368106842041016e+00,-2.133504867553710938e+00,-2.993358135223388672e+00,-4.194774925708770752e-01,1.954418867826461792e-01,-3.760331273078918457e-01,-2.103449821472167969e+00,-1.142983317375183105e+00,7.130260467529296875e-01,4.327670097351074219e+00,8.137095451354980469e+00,3.020762920379638672e+00,3.170955419540405273e+00,3.460500717163085938e+00,7.550507545471191406e+00,4.931344985961914062e+00,2.829643011093139648e+00,1.044093489646911621e+00,-3.011071588844060898e-03,-2.588176429271697998e-01,-4.800007045269012451e-01,-6.908319592475891113e-01,-1.841063022613525391e+00,-1.055935025215148926e+00,-9.972535967826843262e-01,-9.087318181991577148e-01,-2.589680910110473633e+00,-1.491821527481079102e+00
1.795982837677001953e+00,7.608694553375244141e+00,8.124110221862792969e+00,7.228220939636230469e+00,5.504626750946044922e+00,5.652628421783447266e+00,6.133758544921875000e+00,9.540894508361816406e+00,1.084714889526367188e+01,8.087621688842773438e+00,3.714641809463500977e+00,3.031008481979370117e+00,4.831745147705078125e+00,9.038388252258300781e+00,1.309874343872070312e+01,8.855296134948730469e+00,6.835844516754150391e+00,8.352231979370117188e+00,1.513147258758544922e+01,1.688664245605468750e+01,1.438221645355224609e+01,8.436627388000488281e+00,3.767051696777343750e+00,7.250768184661865234e+00,1.246992206573486328e+01,1.048727798461914062e+01,5.197319507598876953e+00,4.034857273101806641e+00,5.499249935150146484e+00,6.458115577697753906e+00,7.497951507568359375e+00,9.673492431640625000e+00
-4.251286506652832031e+00,-8.484554290771484375e-01,4.984694957733154297e+00,4.621088027954101562e+00,-7.940607517957687378e-02,-3.522964715957641602e+00,-3.625996112823486328e+00,7.818868160247802734e-01,5.234583377838134766e+00,1.692079067230224609e+00,-5.819561481475830078e+00,-8.691036224365234375e+00,-4.754103660583496094e+00,-3.651435375213623047e-01,3.743841171264648438e+00,2.529288768768310547e+00,2.674901247024536133e+00,3.346563339233398438e+00,7.197416782379150391e+00,9.055427551269531250e+00,6.640785694122314453e+00,-1.207420602440834045e-01,-3.440474748611450195e+00,6.839335560798645020e-01,7.312212467193603516e+00,6.215238094329833984e+00,8.003428578376770020e-01,-3.358913421630859375e+00,-2.416169404983520508e+00,2.326203584671020508e+00,6.526738643646240234e+00,4.490461826324462891e+00
-1.491219902038574219e+01,-1.191327571868896484e+01,-6.846394538879394531e+00,-6.627174854278564453e+00,-9.165140151977539062e+00,-1.246140956878662109e+01,-1.497894477844238281e+01,-1.209071254730224609e+01,-6.081830024719238281e+00,-5.529456615447998047e+00,-1.080149841308593750e+01,-1.415619277954101562e+01,-1.176317977905273438e+01,-8.824475288391113281e+00,-5.741490840911865234e+00,-8.573294639587402344e+00,-8.446116447448730469e+00,-8.859228134155273438e+00,-3.725380420684814453e+00,-4.051548957824707031e+00,-5.404032230377197266e+00,-9.675497055053710938e+00,-9.879085540771484375e+00,-7.892777442932128906e+00,-5.626418113708496094e+00,-5.684981346130371094e+00,-9.179207801818847656e+00,-1.100822162628173828e+01,-1.247058677673339844e+01,-8.711925506591796875e+00,-5.333273410797119141e+00,-6.241012573242187500e+00
-8.182985305786132812e+00,-4.621987819671630859e+00,-4.778802394866943359e+00,-5.933865547180175781e+00,-4.472872734069824219e+00,-3.798359394073486328e+00,-5.490509033203125000e+00,-4.954469203948974609e+00,-8.907696604728698730e-01,-1.527367979288101196e-01,-2.766563415527343750e+00,-5.550539970397949219e+00,-6.479599475860595703e+00,-4.666224956512451172e+00,-2.670292139053344727e+00,-4.790812492370605469e+00,-7.659342765808105469e+00,-8.169892311096191406e+00,-3.049063920974731445e+00,-2.589977025985717773e+00,-3.217606306076049805e+00,-5.528909683227539062e+00,-5.075748443603515625e+00,-6.400942802429199219e+00,-7.932988166809082031e+00,-8.072843551635742188e+00,-7.166182518005371094e+00,-5.182446479797363281e+00,-6.050857067108154297e+00,-8.378091812133789062e+00,-8.581565856933593750e+00,-1.914150476455688477e+00
-1.959356546401977539e+00,1.747785806655883789e+00,-9.428856968879699707e-01,-1.076549887657165527e+00,2.478747606277465820e+00,3.640515565872192383e+00,1.294920921325683594e+00,1.247135996818542480e+00,2.522554874420166016e+00,1.054925918579101562e+00,-1.739425539970397949e+00,-3.445730924606323242e+00,-2.203777313232421875e+00,-5.116420388221740723e-01,1.866898089647293091e-01,6.250116229057312012e-01,-9.727021455764770508e-01,-3.868697881698608398e-01,1.432501077651977539e-01,-2.569459564983844757e-02,-1.929890632629394531e+00,-2.501072406768798828e+00,-1.291712164878845215e+00,-7.394262313842773438e+00,-1.129248237609863281e+01,-1.026670837402343750e+01,-2.968851566314697266e+00,-1.847035646438598633e+00,-1.814626932144165039e+00,-4.967351913452148438e+00,-6.282147407531738281e+00,-1.576566696166992188e+00
-6.684135437011718750e+00,-1.886152386665344238e+00,-1.810365676879882812e+00,-2.624182999134063721e-01,2.297239303588867188e+00,2.026715517044067383e+00,-2.339825630187988281e+00,-2.608260393142700195e+00,-1.859316825866699219e+00,-1.700973510742187500e+00,-3.497074127197265625e+00,-2.332884073257446289e+00,-1.135820820927619934e-01,-8.317870497703552246e-01,-2.495964765548706055e+00,-9.659204483032226562e-01,9.927600622177124023e-01,3.136578798294067383e+00,1.439525485038757324e+00,-1.138136386871337891e+00,-2.562644004821777344e+00,-1.164746522903442383e+00,-1.687757730484008789e+00,-9.036933898925781250e+00,-1.307996559143066406e+01,-1.276200294494628906e+01,-7.265950679779052734e+00,-6.511168003082275391e+00,-5.718038558959960938e+00,-6.265560150146484375e+00,-7.188855648040771484e+00,-8.917007446289062500e+00
-2.013866901397705078e+00,1.957773566246032715e+00,5.051646709442138672e+00,4.470716476440429688e+00,4.521144390106201172e+00,4.126173496246337891e+00,3.026985645294189453e+00,2.235784530639648438e+00,2.638720989227294922e+00,2.089963674545288086e+00,1.122406840324401855e+00,2.600029945373535156e+00,2.094637632369995117e+00,5.148585140705108643e-02,-1.045775055885314941e+00,1.628626585006713867e+00,3.166453361511230469e+00,2.811985731124877930e+00,1.713594198226928711e+00,-1.563805937767028809e-01,7.137984633445739746e-01,2.467784166336059570e+00,-6.079082563519477844e-02,-1.681315183639526367e+00,-4.603611946105957031e+00,-6.990387439727783203e+00,-9.587080955505371094e+00,-4.432915210723876953e+00,-2.602720737457275391e+00,-5.925596237182617188e+00,-9.166781425476074219e+00,-1.130517482757568359e+00
2.584853410720825195e+00,6.494499206542968750e+00,8.599859237670898438e+00,7.001418590545654297e+00,4.944736957550048828e+00,4.580006599426269531e+00,4.887804031372070312e+00,5.207802772521972656e+00,3.831934690475463867e+00,1.038239479064941406e+00,-7.644978165626525879e-01,-2.233728647232055664e+00,-2.407660961151123047e+00,-2.746981620788574219e+00,-1.901314616203308105e+00,-9.516711831092834473e-01,-1.584180831909179688e+00,-5.326380729675292969e+00,-6.800160884857177734e+00,-5.087376594543457031e+00,-4.194493293762207031e+00,-3.159709692001342773e+00,-3.279222249984741211e+00,-1.674630403518676758e+00,-5.353859424591064453e+00,-5.876991748809814453e+00,-7.110236167907714844e+00,-1.441819429397583008e+00,-7.858040928840637207e-01,-5.126362800598144531e+00,-8.819635391235351562e+00,8.316891670227050781e+00
-5.152353763580322266e+00,7.542852163314819336e-01,1.446210741996765137e+00,1.233827948570251465e+00,-2.314509898424148560e-01,-2.099797725677490234e+00,-4.667310714721679688e+00,-1.668066143989562988e+00,-1.622856736183166504e+00,-3.924195528030395508e+00,-7.382322788238525391e+00,-9.596170425415039062e+00,-7.408699035644531250e+00,-6.695542335510253906e+00,-7.848809719085693359e+00,-1.104320526123046875e+01,-1.303480339050292969e+01,-1.298354530334472656e+01,-1.375955295562744141e+01,-1.183642196655273438e+01,-1.191467857360839844e+01,-1.160187149047851562e+01,-1.043482208251953125e+01,-9.248719215393066406e+00,-9.618205070495605469e+00,-7.550186157226562500e+00,-6.146239280700683594e+00,-5.729282379150390625e+00,-5.854269027709960938e+00,-5.218668937683105469e+00,-5.905147075653076172e+00,2.079974412918090820e+00
-8.894505500793457031e+00,-4.820552349090576172e+00,-3.683148622512817383e+00,-2.989800930023193359e+00,-1.978014111518859863e+00,-4.060164928436279297e+00,-6.992948055267333984e+00,-4.569369316101074219e+00,-1.459890365600585938e+00,-2.466609239578247070e+00,-7.994259357452392578e+00,-1.060662364959716797e+01,-8.792969703674316406e+00,-7.050960540771484375e+00,-9.784774780273437500e+00,-1.253247833251953125e+01,-1.389909934997558594e+01,-1.184720897674560547e+01,-9.914939880371093750e+00,-1.079921054840087891e+01,-1.256826877593994141e+01,-1.403614425659179688e+01,-1.394960975646972656e+01,-9.312043190002441406e+00,-3.546075820922851562e+00,-2.478024244308471680e+00,-9.498058319091796875e+00,-1.139417934417724609e+01,-9.773414611816406250e+00,-6.179125308990478516e+00,-5.751166820526123047e+00,-6.312767505645751953e+00
-1.003691577911376953e+01,-9.879694938659667969e+00,-7.102585792541503906e+00,-6.480158329010009766e+00,-7.431718826293945312e+00,-8.470329284667968750e+00,-8.891603469848632812e+00,-7.152263641357421875e+00,-6.298110485076904297e+00,-5.125380992889404297e+00,-1.037502098083496094e+01,-1.150442218780517578e+01,-8.859333992004394531e+00,-4.056419372558593750e+00,-4.512874126434326172e+00,-6.636771678924560547e+00,-7.802809238433837891e+00,-1.030858516693115234e+01,-6.390464782714843750e+00,-6.570569992065429688e+00,-9.697816848754882812e+00,-1.286456108093261719e+01,-1.353533077239990234e+01,-7.290918827056884766e+00,-3.376365661621093750e+00,-4.211896896362304688e+00,-1.336014938354492188e+01,-1.389143085479736328e+01,-1.360167121887207031e+01,-1.363977336883544922e+01,-1.249299335479736328e+01,-6.624743461608886719e+00
-1.179872989654541016e+01,-1.277427005767822266e+01,-7.465593338012695312e+00,-7.069188594818115234e+00,-1.088654613494873047e+01,-1.370600318908691406e+01,-1.267197799682617188e+01,-8.449915885925292969e+00,-9.692650794982910156e+00,-6.602456569671630859e+00,-9.910432815551757812e+00,-7.832790374755859375e+00,-6.007412433624267578e+00,-7.874324321746826172e-01,4.090892672538757324e-01,-3.549101114273071289e+00,-5.765668869018554688e+00,-7.910952568054199219e+00,-4.733579158782958984e+00,-2.588346958160400391e+00,-3.626070976257324219e+00,-7.479750156402587891e+00,-8.956995010375976562e+00,-8.828727722167968750e+00,-8.332479476928710938e+00,-9.370615005493164062e+00,-9.401422500610351562e+00,-1.205117511749267578e+01,-1.315655612945556641e+01,-1.537766075134277344e+01,-1.074703025817871094e+01,-1.151077985763549805e+00
-3.282220840454101562e+00,-4.257809162139892578e+00,2.972422599792480469e+00,3.621337890625000000e+00,1.414331793785095215e+00,-3.041452646255493164e+00,-1.165082216262817383e+00,3.608576536178588867e+00,5.578297615051269531e+00,7.447279453277587891e+00,3.067922830581665039e+00,2.918834924697875977e+00,3.512954711914062500e+00,7.020216464996337891e+00,8.059363365173339844e+00,4.131537914276123047e+00,1.386839151382446289e+00,2.963114261627197266e+00,5.591961383819580078e+00,6.950674533843994141e+00,7.149890899658203125e+00,2.700729846954345703e+00,1.683090806007385254e+00,7.506063580513000488e-02,2.768872737884521484e+00,2.940804481506347656e+00,4.032451629638671875e+00,-8.993036746978759766e-01,-2.134164810180664062e+00,-1.251741290092468262e+00,3.450205564498901367e+00,4.241419315338134766e+00
4.053945243358612061e-01,3.285556793212890625e+00,1.023200321197509766e+01,1.093538188934326172e+01,6.733331680297851562e+00,3.583177328109741211e+00,5.425101280212402344e+00,1.008248519897460938e+01,1.349125957489013672e+01,1.319505500793457031e+01,8.747904777526855469e+00,5.689012527465820312e+00,7.215515136718750000e+00,8.150015830993652344e+00,9.610140800476074219e+00,7.391675949096679688e+00,5.876733779907226562e+00,5.932099342346191406e+00,1.063250255584716797e+01,1.197904968261718750e+01,1.045005798339843750e+01,5.881355762481689453e+00,5.412586688995361328e+00,6.430519580841064453e+00,9.674804687500000000e+00,1.168055248260498047e+01,1.010758972167968750e+01,7.051744937896728516e+00,5.106452941894531250e+00,6.797760486602783203e+00,8.466796875000000000e+00,1.748229265213012695e+00
-5.304660320281982422e+00,9.851760864257812500e-01,6.291711807250976562e+00,4.902983665466308594e+00,-1.225701570510864258e+00,-4.491181850433349609e+00,-3.218082666397094727e+00,1.308982968330383301e+00,3.454446792602539062e+00,2.572391986846923828e+00,-1.819391965866088867e+00,-2.785566806793212891e+00,-2.972645044326782227e+00,-4.732394695281982422e+00,-2.675035953521728516e+00,-2.758650779724121094e+00,-3.829621076583862305e+00,-4.785516262054443359e+00,-1.701454520225524902e-01,4.221873283386230469e+00,3.245965242385864258e+00,7.624263167381286621e-01,-1.501798868179321289e+00,-1.631912112236022949e+00,-1.144207358360290527e+00,-8.181515932083129883e-01,-8.833333849906921387e-01,-8.778833150863647461e-01,-4.035824537277221680e-01,-2.870408535003662109e+00,-2.645660161972045898e+00,-1.987472414970397949e+00
-2.181952714920043945e+00,6.847240924835205078e-01,5.125666141510009766e+00,3.088691711425781250e+00,1.573410987854003906e+00,-3.968743085861206055e+00,-2.575657367706298828e+00,7.855848073959350586e-01,2.958419322967529297e+00,-9.749553203582763672e-01,-4.488305568695068359e+00,-5.698174953460693359e+00,-6.904197692871093750e+00,-7.936953544616699219e+00,-6.681543827056884766e+00,-6.215313434600830078e+00,-7.251561641693115234e+00,-6.968327522277832031e+00,-6.660593032836914062e+00,-2.907009840011596680e+00,-7.898262739181518555e-01,-1.041683673858642578e+00,-2.530734777450561523e+00,-3.300432682037353516e+00,-4.573826789855957031e+00,-7.157200813293457031e+00,-7.675349712371826172e+00,-2.831089019775390625e+00,-5.121468901634216309e-01,-4.690677165985107422e+00,-7.697198867797851562e+00,1.850600242614746094e+00
9.081060409545898438e+00,5.538723945617675781e+00,8.725259780883789062e+00,9.228513717651367188e+00,1.163112640380859375e+01,8.626620292663574219e+00,1.059133052825927734e+01,1.049863529205322266e+01,8.672145843505859375e+00,4.169139385223388672e+00,3.335005521774291992e+00,1.656250119209289551e+00,1.723762631416320801e+00,-1.881306529045104980e+00,-1.912468671798706055e+00,-1.502367138862609863e+00,1.560274511575698853e-01,-9.399352073669433594e-01,-2.667572498321533203e+00,-3.952525615692138672e+00,-3.177776813507080078e+00,-9.858638048171997070e-01,1.335300207138061523e+00,1.019780635833740234e-01,-2.680513143539428711e+00,-7.919375896453857422e-01,2.398682236671447754e-01,7.814905643463134766e+00,8.249286651611328125e+00,5.292894363403320312e+00,-1.394320130348205566e-01,5.199839115142822266e+00
8.743003845214843750e+00,7.748726367950439453e+00,9.478322029113769531e+00,1.158138751983642578e+01,1.440516757965087891e+01,1.286046028137207031e+01,1.413648605346679688e+01,1.205036544799804688e+01,5.095447540283203125e+00,2.446666717529296875e+00,5.958629608154296875e+00,6.354279518127441406e+00,4.839314937591552734e+00,-7.610847949981689453e-01,-2.402045726776123047e+00,4.918841719627380371e-01,3.491113185882568359e+00,1.593369364738464355e+00,-3.645046055316925049e-01,-2.293554306030273438e+00,-1.848125576972961426e+00,3.029663324356079102e+00,5.111709117889404297e+00,5.894041061401367188e-01,-7.384912967681884766e+00,-3.377944231033325195e+00,3.689205884933471680e+00,1.106398677825927734e+01,1.170818805694580078e+01,7.606559753417968750e+00,-6.933595240116119385e-02,5.304134488105773926e-01
6.787691593170166016e+00,7.928624153137207031e+00,7.214117527008056641e+00,8.642051696777343750e+00,1.449687767028808594e+01,1.113382816314697266e+01,1.201935291290283203e+01,1.052759647369384766e+01,4.680243968963623047e+00,2.652191400527954102e+00,7.520722866058349609e+00,8.486158370971679688e+00,4.187568664550781250e+00,-6.648121476173400879e-01,-4.710365295410156250e+00,1.405100703239440918e+00,4.141275882720947266e+00,2.775458812713623047e+00,-3.369065761566162109e+00,-2.046574115753173828e+00,2.664325952529907227e+00,8.388894081115722656e+00,8.586584091186523438e+00,6.267076015472412109e+00,-5.672513484954833984e+00,-8.307593345642089844e+00,-2.728882074356079102e+00,7.933413982391357422e+00,1.020540618896484375e+01,3.452725410461425781e+00,-9.128065109252929688e+00,-4.553503513336181641e+00
7.851009845733642578e+00,5.954319477081298828e+00,4.394996643066406250e+00,4.296154975891113281e+00,1.110225105285644531e+01,9.982261657714843750e+00,9.784193992614746094e+00,8.485884666442871094e+00,4.930363655090332031e+00,4.226665496826171875e+00,7.298872470855712891e+00,7.733006000518798828e+00,6.781053066253662109e+00,4.311771869659423828e+00,-1.018236041069030762e+00,3.125227689743041992e+00,5.951124191284179688e+00,4.734698295593261719e+00,-5.336451530456542969e+00,-4.588609695434570312e+00,1.337961912155151367e+00,6.716522216796875000e+00,7.121376991271972656e+00,1.070215702056884766e+01,1.798934817314147949e+00,-3.209396600723266602e+00,-1.781462669372558594e+00,7.997659206390380859e+00,8.151144027709960938e+00,4.846190452575683594e+00,-5.148330211639404297e+00,-1.163501381874084473e+00
5.119582176208496094e+00,8.398776054382324219e+00,9.969201087951660156e+00,7.003364562988281250e+00,6.314173221588134766e+00,8.019392013549804688e+00,6.116876125335693359e+00,4.665753841400146484e+00,1.134957194328308105e+00,3.548712015151977539e+00,5.707323074340820312e+00,6.853986740112304688e+00,6.927122116088867188e+00,5.749842643737792969e+00,1.822924256324768066e+00,6.075826644897460938e+00,7.883849620819091797e+00,6.101629257202148438e+00,-2.307119369506835938e+00,-3.227150440216064453e+00,-1.994154006242752075e-01,6.575241565704345703e+00,8.590321540832519531e+00,8.554734230041503906e+00,4.703591346740722656e+00,6.521991729736328125e+00,1.163546943664550781e+01,1.114633750915527344e+01,9.515822410583496094e+00,1.205905818939208984e+01,1.391544246673583984e+01,1.761882019042968750e+01
1.202930831909179688e+01,1.639989852905273438e+01,1.452242183685302734e+01,1.133599662780761719e+01,1.155570888519287109e+01,1.373413753509521484e+01,1.205483245849609375e+01,9.672796249389648438e+00,6.050656795501708984e+00,8.889994621276855469e+00,1.241675758361816406e+01,1.331186866760253906e+01,9.286490440368652344e+00,5.403162956237792969e+00,2.949326515197753906e+00,1.003022861480712891e+01,1.173071384429931641e+01,1.095222473144531250e+01,5.125277996063232422e+00,4.037193298339843750e+00,6.855161666870117188e+00,1.327627754211425781e+01,1.699268150329589844e+01,1.365487575531005859e+01,1.110509777069091797e+01,1.425775337219238281e+01,1.991013908386230469e+01,1.886765480041503906e+01,1.753892326354980469e+01,1.844213294982910156e+01,2.220601081848144531e+01,2.745737457275390625e+01
1.206297016143798828e+01,9.699697494506835938e+00,-9.053010344505310059e-01,-1.917169332504272461e+00,9.285446166992187500e+00,1.436803245544433594e+01,1.393136024475097656e+01,9.742445945739746094e+00,2.254380226135253906e+00,4.332215785980224609e+00,1.101059246063232422e+01,1.275346374511718750e+01,1.032638072967529297e+01,7.261514186859130859e+00,5.438133716583251953e+00,8.237893104553222656e+00,1.042403793334960938e+01,1.082044696807861328e+01,6.839637279510498047e+00,5.236263275146484375e+00,8.618080139160156250e+00,1.007662963867187500e+01,1.190168762207031250e+01,1.413518619537353516e+01,1.262609958648681641e+01,1.151292037963867188e+01,1.132490730285644531e+01,1.499298286437988281e+01,1.352180957794189453e+01,1.265999126434326172e+01,1.101501464843750000e+01,9.117096900939941406e+00
-2.008049249649047852e+00,-3.640573263168334961e+00,-1.339822769165039062e+01,-1.478543090820312500e+01,-3.812680482864379883e+00,2.107809066772460938e+00,2.297556638717651367e+00,-2.176509618759155273e+00,-1.221214103698730469e+01,-8.678249359130859375e+00,-8.721035718917846680e-01,9.825464487075805664e-01,1.999192476272583008e+00,2.128271579742431641e+00,1.425390969961881638e-02,-6.721177697181701660e-01,-7.865543365478515625e-01,-4.353420436382293701e-01,-2.813737392425537109e+00,-2.945711851119995117e+00,-1.100565195083618164e+00,-3.235176563262939453e+00,-4.820249557495117188e+00,-7.034607529640197754e-01,1.755584836006164551e+00,1.235878467559814453e+00,-1.491035580635070801e+00,-2.704930543899536133e+00,-2.113309144973754883e+00,-8.203808069229125977e-01,1.035807371139526367e+00,-4.901331424713134766e+00
-5.388679981231689453e+00,3.070058345794677734e+00,-9.459035396575927734e-01,-3.561445236206054688e+00,-8.145145177841186523e-01,-2.666477441787719727e+00,-4.037611007690429688e+00,-4.212543487548828125e+00,-9.368465423583984375e+00,-7.362971305847167969e+00,-3.527529239654541016e+00,-5.084531307220458984e+00,-5.452677726745605469e+00,-5.224398612976074219e+00,-8.088102340698242188e+00,-5.379683494567871094e+00,-6.648751735687255859e+00,-5.810628414154052734e+00,-7.887486934661865234e+00,-4.109684944152832031e+00,-4.647656381130218506e-01,-2.043694257736206055e+00,-3.752932310104370117e+00,-4.539187908172607422e+00,-8.760525584220886230e-01,2.479300260543823242e+00,2.674033641815185547e+00,-3.720316886901855469e+00,-2.887938261032104492e+00,4.065428972244262695e-01,6.321514606475830078e+00,6.348847866058349609e+00
8.324614524841308594e+00,1.513699150085449219e+01,9.054615020751953125e+00,6.875937938690185547e+00,8.949902534484863281e+00,6.765225410461425781e+00,3.609340667724609375e+00,3.148905277252197266e+00,-2.074618190526962280e-01,-1.072313070297241211e+00,2.845011711120605469e+00,4.020573139190673828e+00,1.719101905822753906e+00,-2.124338626861572266e+00,-3.196213245391845703e+00,1.184654235839843750e+00,3.108066082000732422e+00,4.301015853881835938e+00,1.384765505790710449e+00,4.125340461730957031e+00,9.449734687805175781e+00,1.121827411651611328e+01,1.158734035491943359e+01,6.357684612274169922e+00,6.928712368011474609e+00,1.058177375793457031e+01,1.583332443237304688e+01,1.272550201416015625e+01,1.059824657440185547e+01,1.260374259948730469e+01,1.484774494171142578e+01,1.409398555755615234e+01
7.314835548400878906e+00,6.323701381683349609e+00,1.962623953819274902e+00,-1.957079172134399414e-01,1.027046084403991699e+00,4.753540515899658203e+00,4.286642551422119141e+00,1.079447746276855469e+00,-1.315993547439575195e+00,3.161232769489288330e-01,5.001348972320556641e+00,5.706292629241943359e+00,4.369432449340820312e+00,1.021900296211242676e+00,4.017515659332275391e+00,4.372187137603759766e+00,5.985526084899902344e+00,6.878566741943359375e+00,7.051113128662109375e+00,6.251308441162109375e+00,6.783921718597412109e+00,7.288001537322998047e+00,7.836684703826904297e+00,5.742963790893554688e+00,7.684458732604980469e+00,8.023786544799804688e+00,9.581617355346679688e+00,7.588566780090332031e+00,6.634413719177246094e+00,6.302941322326660156e+00,6.974505424499511719e+00,2.967300176620483398e+00
-3.414975166320800781e+00,-6.565533161163330078e+00,-7.067412376403808594e+00,-6.983544349670410156e+00,-6.957688331604003906e+00,-5.298542499542236328e+00,-4.528359889984130859e+00,-6.587810993194580078e+00,-3.856418132781982422e+00,-1.251868844032287598e+00,-5.326988697052001953e-01,-4.022065639495849609e+00,-3.789166450500488281e+00,-4.300937175750732422e+00,-2.532635450363159180e+00,-5.889173507690429688e+00,-6.164577484130859375e+00,-6.143045425415039062e+00,-4.048458576202392578e+00,-3.967150211334228516e+00,-6.376812458038330078e+00,-6.627989292144775391e+00,-6.629018783569335938e+00,-3.222882270812988281e+00,2.208184719085693359e+00,8.866427540779113770e-01,-6.237130641937255859e+00,-8.139446258544921875e+00,-7.240209579467773438e+00,-7.923587799072265625e+00,-7.808988571166992188e+00,-5.190164089202880859e+00
-2.187043666839599609e+00,-6.701697349548339844e+00,-1.143875980377197266e+01,-9.518393516540527344e+00,-5.526036739349365234e+00,-4.959259510040283203e+00,-6.271770477294921875e+00,-7.508140563964843750e+00,-6.840177536010742188e+00,-5.803685188293457031e+00,-6.359740257263183594e+00,-6.075586795806884766e+00,-5.658460617065429688e+00,-6.509654045104980469e+00,-6.453733444213867188e+00,-1.059503269195556641e+01,-1.026196956634521484e+01,-1.175250339508056641e+01,-1.120206451416015625e+01,-1.184541797637939453e+01,-1.145388698577880859e+01,-9.355093955993652344e+00,-8.004637718200683594e+00,-4.005993366241455078e+00,4.781715571880340576e-01,-2.863961085677146912e-02,-6.886868476867675781e+00,-5.361036300659179688e+00,-5.596409797668457031e+00,-3.527343511581420898e+00,-4.985326290130615234e+00,-5.875669479370117188e+00
-6.275478005409240723e-01,-3.367536306381225586e+00,-9.140290260314941406e+00,-9.169318199157714844e+00,-6.425014019012451172e+00,-2.465920209884643555e+00,-3.303043127059936523e+00,-6.001388072967529297e+00,-9.693316459655761719e+00,-9.232967376708984375e+00,-7.000992298126220703e+00,-4.013608932495117188e+00,-5.077540874481201172e+00,-4.908218860626220703e+00,-1.415684223175048828e+00,-4.554952144622802734e+00,-4.224590778350830078e+00,-4.378317832946777344e+00,-2.270605802536010742e+00,-7.268292427062988281e+00,-8.109062194824218750e+00,-5.724052906036376953e+00,-2.957559347152709961e+00,-2.019717931747436523e+00,3.535414338111877441e-01,1.234616041183471680e+00,1.941965669393539429e-01,6.752248406410217285e-01,-5.172788500785827637e-01,3.780078172683715820e+00,4.393233299255371094e+00,-5.198636054992675781e+00
-3.005422353744506836e+00,1.149616241455078125e+00,2.120037078857421875e+00,1.175264239311218262e+00,-3.307299375534057617e+00,-3.962328433990478516e-01,9.846019744873046875e-01,-1.592300057411193848e+00,-1.100719928741455078e+00,-1.173049688339233398e+00,2.687982618808746338e-01,-6.057224050164222717e-02,-8.760510087013244629e-01,-7.467752695083618164e-01,2.410759449005126953e+00,4.031263589859008789e-01,9.998826384544372559e-01,1.971626281738281250e+00,4.821747303009033203e+00,-1.180366635322570801e+00,-3.939595460891723633e+00,-1.869198322296142578e+00,1.615238070487976074e+00,8.564423918724060059e-01,4.282859802246093750e+00,3.706862926483154297e+00,2.576465606689453125e+00,4.126414358615875244e-01,3.899647593498229980e-01,1.676424503326416016e+00,1.448746562004089355e+00,-2.151770830154418945e+00
2.866113662719726562e+00,5.660442829132080078e+00,5.019791603088378906e+00,6.782958030700683594e+00,4.502224445343017578e+00,6.592713356018066406e+00,6.286105632781982422e+00,2.756102800369262695e+00,7.457402706146240234e+00,7.988183975219726562e+00,9.723560333251953125e+00,8.535347938537597656e+00,7.483477115631103516e+00,4.914960861206054688e+00,3.417734622955322266e+00,2.890376329421997070e+00,3.580449819564819336e+00,2.740243673324584961e+00,3.868806838989257812e+00,1.334351539611816406e+00,1.662951350212097168e+00,3.501576185226440430e+00,4.848269939422607422e+00,5.224540233612060547e+00,8.578532218933105469e+00,7.149329662322998047e+00,5.577300071716308594e+00,5.723516464233398438e+00,5.398691177368164062e+00,3.997372865676879883e+00,2.227936983108520508e+00,3.383079767227172852e+00
7.089212894439697266e+00,3.559366226196289062e+00,-1.562915325164794922e+00,1.329349428415298462e-01,1.786454796791076660e+00,8.122627258300781250e+00,5.429083824157714844e+00,-8.060017228126525879e-01,1.872591495513916016e+00,3.827954769134521484e+00,6.628932476043701172e+00,8.414801597595214844e+00,5.488115787506103516e+00,1.792330384254455566e+00,-3.654712811112403870e-02,3.047544479370117188e+00,3.351595401763916016e+00,3.156586647033691406e+00,4.734739780426025391e+00,4.427432060241699219e+00,3.974911928176879883e+00,6.378366470336914062e+00,6.781803131103515625e+00,4.556651115417480469e+00,5.214107513427734375e+00,5.777875423431396484e+00,8.211021423339843750e+00,8.682958602905273438e+00,7.350661754608154297e+00,8.245297431945800781e+00,1.024617958068847656e+01,8.983594894409179688e+00
1.737320542335510254e+00,6.653508186340332031e+00,6.075827121734619141e+00,3.677857160568237305e+00,-5.205334424972534180e-01,3.474360466003417969e+00,2.331099510192871094e+00,-1.814222186803817749e-01,6.179003119468688965e-01,-3.018250465393066406e-01,-2.326486349105834961e+00,-1.392380356788635254e+00,-2.354367256164550781e+00,-5.683926105499267578e+00,-5.147143840789794922e+00,-2.536466121673583984e+00,1.226294755935668945e+00,3.529440164566040039e+00,4.890833377838134766e+00,7.147553443908691406e+00,5.765761852264404297e+00,6.409006595611572266e+00,7.054690837860107422e+00,5.702150344848632812e+00,8.911578178405761719e+00,1.130081462860107422e+01,1.377113056182861328e+01,9.285737991333007812e+00,8.691855430603027344e+00,1.351942539215087891e+01,1.748358154296875000e+01,1.315169620513916016e+01
-6.508732795715332031e+00,1.935067057609558105e+00,2.799571275711059570e+00,7.081391215324401855e-01,-5.147323131561279297e+00,-5.522093296051025391e+00,-6.967772006988525391e+00,-5.519194126129150391e+00,-3.814081192016601562e+00,-5.724800109863281250e+00,-8.906873703002929688e+00,-8.581815719604492188e+00,-6.673341274261474609e+00,-6.334917545318603516e+00,-3.168535232543945312e+00,-6.832395076751708984e+00,-3.583577394485473633e+00,-3.354049682617187500e+00,-5.112484931945800781e+00,-3.067977190017700195e+00,-7.201289534568786621e-01,-8.917254209518432617e-01,-2.681254625320434570e+00,5.699976533651351929e-02,5.470226764678955078e+00,5.325465679168701172e+00,3.141826868057250977e+00,-6.924396753311157227e-01,6.138622760772705078e-01,4.759834289550781250e+00,3.704663038253784180e+00,-4.640313148498535156e+00
-1.083029079437255859e+01,-1.507791996002197266e+01,-1.733740806579589844e+01,-1.591743564605712891e+01,-1.397152805328369141e+01,-1.341062927246093750e+01,-1.457959175109863281e+01,-1.310152816772460938e+01,-1.255132293701171875e+01,-1.121190261840820312e+01,-1.118403720855712891e+01,-1.057282638549804688e+01,-9.197120666503906250e+00,-4.452100753784179688e+00,1.068507790565490723e+00,-4.635972499847412109e+00,-8.764850616455078125e+00,-9.980051040649414062e+00,-1.093652439117431641e+01,-1.222246265411376953e+01,-1.193062019348144531e+01,-1.314760780334472656e+01,-1.424144840240478516e+01,-1.351532745361328125e+01,-1.200111961364746094e+01,-1.273411750793457031e+01,-1.469561576843261719e+01,-1.420400428771972656e+01,-1.415843296051025391e+01,-1.349808120727539062e+01,-1.423556900024414062e+01,-1.985558509826660156e+01
-7.393310546875000000e+00,-1.430000877380371094e+01,-1.519079780578613281e+01,-1.384875202178955078e+01,-1.073010444641113281e+01,-9.822240829467773438e+00,-7.923090934753417969e+00,-8.177732467651367188e+00,-7.900681018829345703e+00,-4.201877593994140625e+00,-3.257793426513671875e+00,-6.320489406585693359e+00,-4.916075706481933594e+00,2.135823726654052734e+00,8.634594917297363281e+00,1.455333352088928223e+00,-6.014371871948242188e+00,-4.099495410919189453e+00,2.663536071777343750e+00,-5.467792749404907227e-01,-7.957741737365722656e+00,-1.332256126403808594e+01,-1.017459106445312500e+01,-1.208153057098388672e+01,-1.507387638092041016e+01,-1.359082889556884766e+01,-1.224861145019531250e+01,-1.139716434478759766e+01,-1.226850223541259766e+01,-1.352295112609863281e+01,-1.292883777618408203e+01,-8.886074066162109375e+00
-2.092048883438110352e+00,-8.731315732002258301e-01,-2.315656185150146484e+00,-2.548588514328002930e+00,-2.089664936065673828e+00,-9.104169011116027832e-01,-6.541225910186767578e-01,-2.577927589416503906e+00,-1.969953536987304688e+00,1.576198220252990723e+00,2.581720829010009766e+00,-3.748807907104492188e-01,2.399122953414916992e+00,1.104662799835205078e+01,1.572523307800292969e+01,7.839496612548828125e+00,2.548877954483032227e+00,5.754675865173339844e+00,1.256261920928955078e+01,8.442770957946777344e+00,1.766142964363098145e+00,-3.310523509979248047e+00,-1.977309703826904297e+00,-1.321176290512084961e+00,-3.610247135162353516e+00,-3.183943033218383789e+00,-3.601867437362670898e+00,-2.377642393112182617e+00,-7.810398340225219727e-01,-5.453838706016540527e-01,-2.550086975097656250e+00,-2.166414111852645874e-01
9.995484352111816406e+00,1.267551517486572266e+01,9.807310104370117188e+00,8.684961318969726562e+00,1.055706596374511719e+01,1.204311561584472656e+01,1.043898582458496094e+01,7.569549560546875000e+00,5.361051082611083984e+00,5.589152812957763672e+00,7.801649570465087891e+00,1.047956657409667969e+01,8.780007362365722656e+00,1.095587444305419922e+01,1.128063774108886719e+01,1.491893482208251953e+01,1.328439235687255859e+01,1.431662845611572266e+01,1.622762107849121094e+01,1.740275955200195312e+01,1.624497795104980469e+01,1.159970760345458984e+01,1.101423454284667969e+01,1.140988922119140625e+01,1.282264041900634766e+01,1.292507076263427734e+01,1.279944038391113281e+01,1.338557052612304688e+01,1.328186225891113281e+01,1.504891777038574219e+01,1.587594985961914062e+01,1.141006946563720703e+01
6.422348022460937500e+00,3.879581451416015625e+00,3.455090045928955078e+00,4.264261245727539062e+00,7.962644577026367188e+00,7.334123134613037109e+00,7.626811027526855469e+00,6.148488521575927734e+00,2.331750154495239258e+00,5.738196372985839844e-01,2.637145996093750000e+00,5.850533485412597656e+00,4.395838737487792969e+00,7.589368820190429688e+00,6.304337978363037109e+00,1.446647930145263672e+01,1.064628696441650391e+01,1.181323528289794922e+01,1.631412124633789062e+01,1.838112640380859375e+01,1.534914970397949219e+01,7.911326408386230469e+00,7.919946193695068359e+00,2.178034305572509766e+00,2.842284440994262695e+00,5.644957542419433594e+00,1.009012603759765625e+01,8.204272270202636719e+00,6.474905490875244141e+00,7.331780433654785156e+00,9.287493705749511719e+00,8.470550537109375000e+00
-5.333346843719482422e+00,-5.032242774963378906e+00,-6.340998172760009766e+00,-6.579406738281250000e+00,-4.989547252655029297e+00,-4.714831352233886719e+00,-4.876474857330322266e+00,-5.065025329589843750e+00,-6.063325881958007812e+00,-3.802284479141235352e+00,-3.630656957626342773e+00,-4.780671119689941406e+00,-2.122073411941528320e+00,6.884587287902832031e+00,3.705585479736328125e+00,5.822721004486083984e+00,-1.132507994771003723e-01,2.299595832824707031e+00,7.128764152526855469e+00,5.552146911621093750e+00,5.776856541633605957e-01,-5.959332466125488281e+00,-5.983915805816650391e+00,-5.854150772094726562e+00,-8.143477439880371094e+00,-7.574270248413085938e+00,-6.913229942321777344e+00,-5.893073081970214844e+00,-4.652650833129882812e+00,-3.781108856201171875e+00,-5.304358482360839844e+00,-6.951618194580078125e+00
1.117426276206970215e+00,5.183206081390380859e+00,4.698989868164062500e+00,1.754621386528015137e+00,-2.003068208694458008e+00,-1.173753619194030762e+00,-2.210656166076660156e+00,-1.149236679077148438e+00,2.400054931640625000e+00,6.376938819885253906e+00,4.557503700256347656e+00,1.964355468750000000e+00,1.946265459060668945e+00,5.317196846008300781e+00,2.260005235671997070e+00,4.035745620727539062e+00,3.552196025848388672e+00,4.526296615600585938e+00,3.947538852691650391e+00,4.428200721740722656e+00,2.989574432373046875e+00,6.270204782485961914e-01,2.184201180934906006e-01,7.898622512817382812e+00,1.007730865478515625e+01,7.666334152221679688e+00,1.592834591865539551e+00,2.070205926895141602e+00,3.431187868118286133e+00,4.660747528076171875e+00,6.103776454925537109e+00,3.586781740188598633e+00
2.458861172199249268e-01,1.620022803544998169e-01,5.559635639190673828e+00,4.086972236633300781e+00,-2.613708257675170898e+00,-4.515870571136474609e+00,-2.940381050109863281e+00,-4.295238554477691650e-01,3.609589576721191406e+00,3.578941106796264648e+00,9.540803432464599609e-01,-1.321377277374267578e+00,-2.621191501617431641e+00,-1.728944540023803711e+00,-2.586401462554931641e+00,-2.575996518135070801e-01,1.375394940376281738e+00,2.494688510894775391e+00,5.216022729873657227e-01,1.653093218803405762e+00,1.454379439353942871e+00,1.119314670562744141e+00,6.261754035949707031e-01,1.081589579582214355e+00,4.357909679412841797e+00,4.145780563354492188e+00,2.076164007186889648e+00,-3.997999429702758789e-01,-1.865192294120788574e+00,-4.017270565032958984e+00,-4.222731888294219971e-01,9.514376640319824219e+00
-5.549950599670410156e+00,-8.714360237121582031e+00,-6.602830886840820312e+00,-5.887954711914062500e+00,-6.588563919067382812e+00,-7.641861915588378906e+00,-5.741364002227783203e+00,-5.418411254882812500e+00,-5.526829719543457031e+00,-5.961710929870605469e+00,-6.667267799377441406e+00,-6.794246673583984375e+00,-6.261524677276611328e+00,-4.610632419586181641e+00,-4.148377418518066406e+00,-7.345149993896484375e+00,-6.525752544403076172e+00,-6.431080818176269531e+00,-5.457221031188964844e+00,-4.194042205810546875e+00,-3.964961528778076172e+00,-5.416016101837158203e+00,-6.933508872985839844e+00,-1.005936050415039062e+01,-1.077123451232910156e+01,-1.084031486511230469e+01,-8.264687538146972656e+00,-9.163151741027832031e+00,-1.026851177215576172e+01,-1.332323837280273438e+01,-1.341573047637939453e+01,-8.380647659301757812e+00
8.587460517883300781e+00,7.273891448974609375e+00,2.366752147674560547e+00,2.495458841323852539e+00,7.882230758666992188e+00,9.736079216003417969e+00,8.727308273315429688e+00,4.579454421997070312e+00,3.300507962703704834e-01,1.452400922775268555e+00,4.702424049377441406e+00,7.507414817810058594e+00,3.861469268798828125e+00,-1.223213911056518555e+00,-9.533626437187194824e-01,-1.576805949211120605e+00,1.567657709121704102e+00,8.044351935386657715e-01,2.086778640747070312e+00,5.121916770935058594e+00,7.072755336761474609e+00,5.776472568511962891e+00,4.880915164947509766e+00,5.756883621215820312e+00,6.359380245208740234e+00,4.466655254364013672e+00,5.624586105346679688e+00,5.837817668914794922e+00,6.524438858032226562e+00,7.399796962738037109e+00,6.259228229522705078e+00,-2.359303474426269531e+00
1.561810111999511719e+01,1.483031558990478516e+01,1.483613872528076172e+01,1.592789649963378906e+01,1.963233566284179688e+01,1.994876670837402344e+01,2.012065505981445312e+01,1.546290683746337891e+01,9.905328750610351562e+00,8.710879325866699219e+00,1.256235885620117188e+01,1.436029052734375000e+01,9.621958732604980469e+00,2.917861700057983398e+00,2.643929243087768555e+00,4.736058235168457031e+00,8.939822196960449219e+00,9.230108261108398438e+00,7.826419830322265625e+00,8.684438705444335938e+00,1.204999542236328125e+01,1.422150039672851562e+01,1.511081314086914062e+01,1.445976924896240234e+01,1.700369262695312500e+01,1.724938774108886719e+01,1.874545860290527344e+01,1.742144393920898438e+01,1.631309890747070312e+01,1.795573997497558594e+01,2.064081382751464844e+01,1.674659919738769531e+01
6.641558408737182617e-01,-1.147230625152587891e+00,5.691623210906982422e+00,7.479509353637695312e+00,6.366931915283203125e+00,3.883850574493408203e+00,7.581750869750976562e+00,6.743315696716308594e+00,4.850477218627929688e+00,4.350070476531982422e+00,5.183725833892822266e+00,3.863742589950561523e+00,4.971952438354492188e+00,4.766805171966552734e+00,5.389017581939697266e+00,1.108992621302604675e-01,2.568978071212768555e+00,2.631216764450073242e+00,8.626254647970199585e-02,-2.829095840454101562e+00,-7.648754119873046875e-02,3.852077245712280273e+00,3.712810516357421875e+00,3.359814643859863281e+00,3.727540731430053711e+00,3.538854837417602539e+00,3.963454008102416992e+00,3.459837198257446289e+00,6.353729367256164551e-01,1.375201940536499023e+00,5.505273342132568359e+00,9.318119049072265625e+00
-1.884547829627990723e+00,-2.532810688018798828e+00,1.312848448753356934e+00,9.873049259185791016e-01,-1.380740165710449219e+00,-3.319708824157714844e+00,-1.759264111518859863e+00,-9.924345612525939941e-01,1.338618755340576172e+00,3.930466413497924805e+00,2.917014837265014648e+00,2.385100603103637695e+00,3.597091913223266602e+00,2.241563081741333008e+00,3.407368898391723633e+00,-2.463639974594116211e-01,2.194947600364685059e-01,-1.656900644302368164e-01,-1.208646655082702637e+00,-4.106697082519531250e+00,-4.825204849243164062e+00,-8.056932091712951660e-01,-1.542963624000549316e+00,2.000568389892578125e+00,1.931119799613952637e+00,-2.644147276878356934e-01,-4.565594196319580078e+00,-3.262749195098876953e+00,-3.154043674468994141e+00,-1.696507334709167480e+00,1.166653513908386230e+00,4.549897193908691406e+00
9.511333465576171875e+00,1.313802814483642578e+01,1.290075397491455078e+01,1.161691379547119141e+01,1.070281028747558594e+01,1.019466876983642578e+01,8.657354354858398438e+00,7.663620471954345703e+00,9.338706016540527344e+00,1.078610801696777344e+01,1.097370147705078125e+01,1.171843147277832031e+01,9.538650512695312500e+00,1.850610136985778809e+00,2.277287244796752930e+00,4.361671447753906250e+00,6.830377101898193359e+00,6.573393821716308594e+00,6.890230655670166016e+00,5.088126182556152344e+00,4.372107505798339844e+00,9.272972106933593750e+00,9.087359428405761719e+00,7.790971755981445312e+00,7.975456714630126953e+00,1.106835842132568359e+01,1.029493045806884766e+01,1.110570430755615234e+01,1.423907375335693359e+01,1.740292549133300781e+01,1.689833259582519531e+01,1.352701663970947266e+01
9.025793075561523438e+00,1.842072296142578125e+01,1.285563755035400391e+01,1.026975536346435547e+01,1.276594829559326172e+01,1.521940231323242188e+01,1.205381679534912109e+01,9.822624206542968750e+00,8.808786392211914062e+00,8.614239692687988281e+00,9.042545318603515625e+00,9.344448089599609375e+00,9.036134719848632812e+00,5.072768211364746094e+00,3.929431915283203125e+00,4.365864276885986328e+00,7.583282947540283203e+00,5.129195690155029297e+00,2.771941900253295898e+00,4.091626644134521484e+00,7.816003799438476562e+00,1.144592380523681641e+01,1.192285346984863281e+01,6.583299160003662109e+00,3.973263740539550781e+00,9.929689407348632812e+00,1.599732589721679688e+01,1.697941017150878906e+01,1.840025329589843750e+01,1.823222541809082031e+01,1.398236846923828125e+01,1.114157867431640625e+01
1.328771829605102539e+00,5.700235843658447266e+00,8.923850022256374359e-03,-3.200383424758911133e+00,-1.218620419502258301e+00,1.200098514556884766e+00,-2.243196249008178711e+00,-2.582972764968872070e+00,-2.474224567413330078e+00,-2.641597509384155273e+00,-3.888561248779296875e+00,-1.400788187980651855e+00,9.837751388549804688e-01,1.171922564506530762e+00,1.557865142822265625e+00,2.065203428268432617e+00,2.628015995025634766e+00,-9.287956953048706055e-01,-4.730915546417236328e+00,-1.516851425170898438e+00,2.594635009765625000e+00,4.646590709686279297e+00,4.787046909332275391e+00,3.833986759185791016e+00,5.516377687454223633e-01,-3.493981361389160156e-01,2.225527763366699219e+00,3.561538934707641602e+00,2.192866563796997070e+00,-1.470245718955993652e+00,-3.626984357833862305e+00,-1.423210382461547852e+00
3.782731771469116211e+00,-1.924929141998291016e+00,-3.072675704956054688e+00,-3.513865232467651367e+00,-4.339952468872070312e+00,-4.727985858917236328e+00,-6.384333610534667969e+00,-4.270711421966552734e+00,-4.832880496978759766e+00,-5.651763916015625000e+00,-6.620526790618896484e+00,-1.947960257530212402e+00,-1.380482554435729980e+00,-4.250466823577880859e+00,-2.965109109878540039e+00,1.360190033912658691e+00,2.394883155822753906e+00,8.979055285453796387e-01,-1.570703387260437012e+00,-3.656909763813018799e-01,2.137634754180908203e+00,4.705336093902587891e+00,4.375466346740722656e+00,4.644653797149658203e+00,3.633314371109008789e+00,-4.299016669392585754e-02,-1.280477046966552734e+00,4.336975812911987305e-01,-5.224389433860778809e-01,-5.421982765197753906e+00,-7.502573490142822266e+00,-3.453808069229125977e+00
1.292001157999038696e-01,-1.025036692619323730e+00,-3.204277276992797852e+00,-3.267693519592285156e+00,-2.861555337905883789e+00,-1.304087400436401367e+00,-2.743283987045288086e+00,-1.691952109336853027e+00,-2.389623880386352539e+00,-1.662317276000976562e+00,-2.100111961364746094e+00,-1.592975378036499023e+00,-2.948659181594848633e+00,-5.223756790161132812e+00,-3.887529850006103516e+00,-7.429367899894714355e-01,9.786475896835327148e-01,1.894484758377075195e-01,-1.229215741157531738e+00,-9.915459156036376953e-01,1.345180630683898926e+00,2.084600687026977539e+00,2.723253726959228516e+00,2.675034046173095703e+00,3.036440610885620117e+00,1.498620867729187012e+00,2.073681592941284180e+00,2.885957479476928711e+00,2.359729766845703125e+00,-2.012439012527465820e+00,-5.816639423370361328e+00,-4.892762660980224609e+00
-4.672749042510986328e+00,4.846894741058349609e-02,-5.440861225128173828e+00,-8.573694229125976562e+00,-3.802721738815307617e+00,-1.109338521957397461e+00,-3.979186534881591797e+00,-6.383697032928466797e+00,-3.794339418411254883e+00,-3.766077995300292969e+00,-4.323174953460693359e+00,-5.676649093627929688e+00,-6.651450634002685547e+00,-6.345471382141113281e+00,-4.504361629486083984e+00,-3.112100839614868164e+00,-4.360044002532958984e+00,-5.181420803070068359e+00,-5.428687572479248047e+00,-3.813041210174560547e+00,-2.587082386016845703e+00,-4.326361179351806641e+00,-2.370548486709594727e+00,2.324963808059692383e+00,5.176496028900146484e+00,2.444648265838623047e+00,-1.046425342559814453e+00,-3.108195066452026367e+00,-3.252115011215209961e+00,-3.237035512924194336e+00,-3.440106153488159180e+00,-4.216120243072509766e+00
2.643785238265991211e+00,4.154163360595703125e+00,4.693778514862060547e+00,3.279270648956298828e+00,5.440186500549316406e+00,4.304046630859375000e+00,4.797666072845458984e+00,3.513256072998046875e+00,4.017535686492919922e+00,-5.074620246887207031e-01,-1.290139198303222656e+00,-4.456346929073333740e-01,-3.364233672618865967e-01,-2.518256187438964844e+00,-3.630396127700805664e+00,-1.274996042251586914e+00,-1.618569970130920410e+00,-6.856600046157836914e-01,-2.149680852890014648e+00,-1.368145823478698730e+00,2.828860878944396973e-01,9.404082894325256348e-01,1.907864093780517578e+00,5.239386081695556641e+00,8.411435127258300781e+00,5.934784889221191406e+00,1.249845147132873535e+00,2.771610617637634277e-01,7.814747095108032227e-01,1.793668031692504883e+00,2.046490669250488281e+00,4.002905845642089844e+00
4.920920372009277344e+00,5.586874961853027344e+00,1.206108951568603516e+01,1.407639694213867188e+01,1.263351058959960938e+01,1.070218372344970703e+01,1.449075984954833984e+01,1.402812385559082031e+01,9.288552284240722656e+00,5.113876342773437500e+00,6.343948841094970703e+00,8.003166198730468750e+00,7.903615951538085938e+00,3.447785854339599609e+00,-6.092665791511535645e-01,1.562080383300781250e+00,4.740910053253173828e+00,4.667692184448242188e+00,5.271944403648376465e-01,-4.285348355770111084e-01,2.366547822952270508e+00,4.850955486297607422e+00,4.347878456115722656e+00,1.171417385339736938e-01,-7.054741382598876953e-01,7.683767080307006836e-01,4.121106147766113281e+00,5.308589935302734375e+00,4.365471363067626953e+00,1.302554726600646973e+00,-1.823668718338012695e+00,1.836821556091308594e+00
-2.159864902496337891e+00,-1.560048699378967285e+00,1.449927926063537598e+00,3.293509960174560547e+00,5.590468406677246094e+00,4.958662986755371094e+00,6.013049602508544922e+00,3.618264198303222656e+00,1.695530295372009277e+00,2.352739334106445312e+00,3.892514944076538086e+00,3.797365427017211914e+00,1.448580861091613770e+00,-1.901057839393615723e+00,-5.294969081878662109e+00,-2.130647420883178711e+00,-1.166368484497070312e+00,-2.466197967529296875e+00,-6.543962478637695312e+00,-7.016670227050781250e+00,-7.537545204162597656e+00,-5.246063232421875000e+00,-4.653107643127441406e+00,-7.408832550048828125e+00,-9.677022933959960938e+00,-7.062525272369384766e+00,-4.001258850097656250e+00,-4.499193668365478516e+00,-6.764716148376464844e+00,-7.279314041137695312e+00,-7.598790168762207031e+00,-5.127635955810546875e+00
-5.907620906829833984e+00,-9.206455230712890625e+00,-7.397164821624755859e+00,-4.952661991119384766e+00,-2.685900211334228516e+00,-5.282465457916259766e+00,-5.369923114776611328e+00,-5.377629280090332031e+00,-2.313875913619995117e+00,-1.501237392425537109e+00,-2.478536367416381836e+00,-5.348975658416748047e+00,-7.425201416015625000e+00,-8.822437286376953125e+00,-1.139557838439941406e+01,-9.827361106872558594e+00,-1.173817729949951172e+01,-1.133114242553710938e+01,-1.345424175262451172e+01,-1.272523593902587891e+01,-1.389866256713867188e+01,-1.178624153137207031e+01,-1.123787021636962891e+01,-8.591369628906250000e+00,-7.478708744049072266e+00,-7.615822315216064453e+00,-1.192154979705810547e+01,-1.237303733825683594e+01,-1.249164390563964844e+01,-1.018424797058105469e+01,-9.737709999084472656e+00,-7.758360862731933594e+00
-5.809655189514160156e+00,-4.963706016540527344e+00,-4.468356966972351074e-01,1.686442255973815918e+00,-1.293996214866638184e+00,-4.232348918914794922e+00,-2.227912664413452148e+00,2.216606214642524719e-02,4.955856800079345703e-01,-3.007813930511474609e+00,-3.374157428741455078e+00,-6.806773662567138672e+00,-8.245905876159667969e+00,-9.240270614624023438e+00,-1.129743576049804688e+01,-1.099862670898437500e+01,-1.068783283233642578e+01,-1.060570335388183594e+01,-1.234128665924072266e+01,-8.965009689331054688e+00,-5.523890495300292969e+00,-6.703784465789794922e+00,-7.982100963592529297e+00,-6.118843555450439453e+00,-4.643543720245361328e+00,-7.325992107391357422e+00,-9.978663444519042969e+00,-6.239338397979736328e+00,-4.876317024230957031e+00,-8.354644775390625000e+00,-1.352033329010009766e+01,-7.725553035736083984e+00
-8.660238981246948242e-01,1.385985970497131348e+00,2.365510940551757812e+00,3.467594623565673828e+00,2.543807983398437500e+00,2.483141422271728516e+00,2.602704286575317383e+00,3.876458644866943359e+00,2.394847869873046875e+00,-2.454069852828979492e+00,-2.854620218276977539e+00,-4.005264282226562500e+00,-5.855151176452636719e+00,-8.615918159484863281e+00,-8.026567459106445312e+00,-4.734386444091796875e+00,-4.134565353393554688e+00,-5.662705421447753906e+00,-5.821390151977539062e+00,-2.108533143997192383e+00,-6.141130998730659485e-02,-2.395807743072509766e+00,-3.157906770706176758e+00,-1.395074844360351562e+00,-3.328524589538574219e+00,-6.241479873657226562e+00,-6.516930580139160156e+00,-1.979680418968200684e+00,-1.839378118515014648e+00,-6.425781726837158203e+00,-1.012750816345214844e+01,-3.573790550231933594e+00
3.182403564453125000e+00,-3.928561210632324219e+00,-5.582180023193359375e+00,-2.630302190780639648e+00,6.911408305168151855e-01,1.213054776191711426e+00,-4.343951940536499023e-01,-2.347586601972579956e-01,-1.559736490249633789e+00,-3.874885559082031250e+00,-4.094927787780761719e+00,-1.782451987266540527e+00,-1.226315259933471680e+00,-1.580963373184204102e+00,-9.666986465454101562e-01,-2.749172747135162354e-01,-2.584146261215209961e+00,-2.736479759216308594e+00,-3.835785686969757080e-01,-3.458607494831085205e-01,-2.775449752807617188e+00,-2.742549419403076172e+00,-3.062488079071044922e+00,1.546447515487670898e+00,8.330255746841430664e-01,1.986521482467651367e-02,-5.049385070800781250e+00,-3.497587680816650391e+00,-3.550439119338989258e+00,-3.128832101821899414e+00,-3.059899091720581055e+00,-1.264137387275695801e+00
-5.945865154266357422e+00,-1.198653602600097656e+01,-9.702992439270019531e+00,-8.563577651977539062e+00,-9.921348571777343750e+00,-9.755999565124511719e+00,-8.621673583984375000e+00,-8.199999809265136719e+00,-8.451177597045898438e+00,-8.236541748046875000e+00,-6.921399593353271484e+00,-5.404162406921386719e+00,-2.586429834365844727e+00,1.700938701629638672e+00,2.064883232116699219e+00,-3.547857284545898438e+00,-5.958263397216796875e+00,-5.144046783447265625e+00,-1.216342091560363770e+00,-4.154888629913330078e+00,-7.324822425842285156e+00,-8.570311546325683594e+00,-8.412344932556152344e+00,-5.691205978393554688e+00,-3.122606515884399414e+00,-2.542568445205688477e+00,-6.559518814086914062e+00,-7.689668178558349609e+00,-6.771456241607666016e+00,-6.738637924194335938e+00,-7.542822837829589844e+00,-7.337294101715087891e+00
-1.417242622375488281e+01,-1.188221359252929688e+01,-9.002347946166992188e+00,-1.205916500091552734e+01,-1.636087417602539062e+01,-1.602725791931152344e+01,-1.436882591247558594e+01,-1.286787605285644531e+01,-8.441982269287109375e+00,-7.069097995758056641e+00,-9.449706077575683594e+00,-1.173235511779785156e+01,-9.283561706542968750e+00,-4.919097900390625000e+00,-4.341185092926025391e+00,-9.049002647399902344e+00,-1.056847000122070312e+01,-1.050801086425781250e+01,-7.031743526458740234e+00,-9.967625617980957031e+00,-1.288953495025634766e+01,-1.514873886108398438e+01,-1.318918323516845703e+01,-1.418834590911865234e+01,-1.302782058715820312e+01,-1.143070507049560547e+01,-8.804222106933593750e+00,-1.103603553771972656e+01,-1.031982803344726562e+01,-1.005476379394531250e+01,-8.913100242614746094e+00,-1.086934471130371094e+01
-7.792348384857177734e+00,-6.540676116943359375e+00,-6.230578422546386719e+00,-7.841584682464599609e+00,-9.940277099609375000e+00,-1.072634220123291016e+01,-1.062854194641113281e+01,-7.701547145843505859e+00,-9.263127446174621582e-01,1.534118890762329102e+00,-5.059824943542480469e+00,-1.004389953613281250e+01,-6.327197551727294922e+00,-1.722762227058410645e+00,-3.118402481079101562e+00,-6.887491703033447266e+00,-9.313802719116210938e+00,-8.844234466552734375e+00,-7.480166435241699219e+00,-9.025309562683105469e+00,-1.083106422424316406e+01,-1.077780723571777344e+01,-1.042163181304931641e+01,-1.023389816284179688e+01,-9.699887275695800781e+00,-6.043006420135498047e+00,-3.778473377227783203e+00,-7.416266918182373047e+00,-7.624652385711669922e+00,-2.043515443801879883e+00,3.904197216033935547e+00,-4.701908588409423828e+00
-2.981072664260864258e+00,-2.417782068252563477e+00,-2.115929126739501953e+00,-1.869905591011047363e+00,-4.869053840637207031e+00,-5.072377204895019531e+00,-5.050209522247314453e+00,-2.254037141799926758e+00,1.313976168632507324e+00,4.314017772674560547e+00,-1.345415115356445312e-01,-5.298906803131103516e+00,-2.546879529953002930e+00,2.563334703445434570e+00,1.603098869323730469e+00,-1.561530828475952148e+00,-2.681293010711669922e+00,-1.414845824241638184e+00,-7.590616345405578613e-01,-1.983150720596313477e+00,-2.841338396072387695e+00,-3.623872995376586914e+00,-5.301877498626708984e+00,-4.472646236419677734e+00,-1.454607725143432617e+00,2.529571533203125000e+00,2.107129096984863281e+00,-2.864554166793823242e+00,-3.504247665405273438e+00,1.783348679542541504e+00,6.927038192749023438e+00,7.779307961463928223e-01
-6.469755649566650391e+00,-4.645803928375244141e+00,-5.009217262268066406e+00,-5.710086822509765625e+00,-6.995914459228515625e+00,-7.773697853088378906e+00,-7.428764343261718750e+00,-4.935450077056884766e+00,-3.716735124588012695e+00,-3.999269962310791016e+00,-5.022436618804931641e+00,-6.232037544250488281e+00,-7.370608329772949219e+00,-5.764586448669433594e+00,-2.488978624343872070e+00,-2.527088880538940430e+00,-2.456147909164428711e+00,-2.095950841903686523e+00,-5.929788947105407715e-01,-1.690919637680053711e+00,-2.444551467895507812e+00,-3.338240861892700195e+00,-3.898284196853637695e+00,-7.644775390625000000e+00,-7.672777175903320312e+00,-5.172966003417968750e+00,-2.271094560623168945e+00,-4.880093097686767578e+00,-4.481445789337158203e+00,-3.209728240966796875e+00,-2.129393815994262695e+00,-2.897673368453979492e+00
-3.623683691024780273e+00,-7.358846187591552734e+00,-8.490113258361816406e+00,-6.871359825134277344e+00,-3.487206220626831055e+00,-6.020909309387207031e+00,-6.137503147125244141e+00,-4.700416088104248047e+00,-4.472282886505126953e+00,-7.774640560150146484e+00,-6.012499809265136719e+00,-1.844497084617614746e+00,-1.025906682014465332e+00,-2.469636201858520508e+00,-2.097664773464202881e-01,-1.921941637992858887e-01,5.045504570007324219e-01,1.237697720527648926e+00,1.274492621421813965e+00,-3.403745293617248535e-01,7.859042286872863770e-02,1.670247316360473633e+00,6.704774498939514160e-01,-4.442472934722900391e+00,-9.029977798461914062e+00,-9.650551795959472656e+00,-5.646995544433593750e+00,-3.216762542724609375e+00,-1.460921049118041992e+00,-2.122669219970703125e+00,-3.867268085479736328e+00,-6.308258533477783203e+00
-1.297798156738281250e+00,-5.790468215942382812e+00,-4.631618499755859375e+00,-1.708077311515808105e+00,-1.178476572036743164e+00,-3.059526205062866211e+00,-2.279811620712280273e+00,-1.509269595146179199e+00,-2.200242280960083008e+00,-2.206323623657226562e+00,2.191500186920166016e+00,6.203907966613769531e+00,9.386719703674316406e+00,1.031272315979003906e+01,9.810832023620605469e+00,6.946730613708496094e+00,8.597546577453613281e+00,9.549157142639160156e+00,8.670003890991210938e+00,7.730230808258056641e+00,6.952767848968505859e+00,6.943648815155029297e+00,5.345946311950683594e+00,2.280560255050659180e+00,-9.603938460350036621e-01,-4.872395515441894531e+00,-4.169116020202636719e+00,-1.857132673263549805e+00,-3.294438421726226807e-01,-2.950647592544555664e+00,-4.669970989227294922e+00,-5.187517642974853516e+00
2.287066221237182617e+00,2.496318817138671875e+00,-1.573475264012813568e-02,-1.945488333702087402e+00,-1.515176892280578613e+00,-2.766546010971069336e-01,-2.354646921157836914e-01,-1.555907368659973145e+00,-2.343346834182739258e+00,3.960457742214202881e-01,4.846867084503173828e+00,7.168063163757324219e+00,6.901772975921630859e+00,7.534967899322509766e+00,8.991995811462402344e+00,7.980364322662353516e+00,8.953232765197753906e+00,8.442838668823242188e+00,9.975302696228027344e+00,1.116938400268554688e+01,8.049328804016113281e+00,6.762353897094726562e+00,8.681411743164062500e+00,2.673671960830688477e+00,-2.058429241180419922e+00,-4.248363018035888672e+00,1.152303695678710938e+00,2.293797492980957031e+00,1.458464384078979492e+00,-1.480179905891418457e+00,-1.629610776901245117e+00,-4.327185824513435364e-02
7.509149074554443359e+00,8.763724327087402344e+00,2.411911010742187500e+00,-6.416401267051696777e-02,2.701709270477294922e+00,4.976812839508056641e+00,3.957640886306762695e+00,1.003561735153198242e+00,9.375122189521789551e-02,1.045253753662109375e+00,4.376973628997802734e+00,7.715188026428222656e+00,5.696430683135986328e+00,2.190601348876953125e+00,2.455132246017456055e+00,6.873497009277343750e+00,7.726670265197753906e+00,7.794843196868896484e+00,9.383801460266113281e+00,8.681093215942382812e+00,7.457411289215087891e+00,8.274696350097656250e+00,1.039698886871337891e+01,3.916534662246704102e+00,-1.561766386032104492e+00,-7.978286743164062500e-01,6.107897281646728516e+00,8.713827133178710938e+00,7.814059257507324219e+00,7.539558410644531250e+00,7.347012519836425781e+00,5.360626697540283203e+00
1.166371059417724609e+01,1.122159957885742188e+01,4.898329734802246094e+00,6.056343555450439453e+00,9.242058753967285156e+00,1.233339405059814453e+01,1.181414031982421875e+01,7.141726016998291016e+00,4.622420787811279297e+00,4.878096103668212891e+00,9.891641616821289062e+00,1.354121017456054688e+01,1.183921432495117188e+01,6.661961555480957031e+00,3.855956554412841797e+00,1.131705665588378906e+01,1.382866001129150391e+01,1.427598094940185547e+01,1.409222316741943359e+01,1.426023387908935547e+01,1.491936874389648438e+01,1.501496982574462891e+01,1.379299068450927734e+01,1.358420085906982422e+01,1.292398834228515625e+01,1.143919563293457031e+01,1.052707481384277344e+01,1.227414608001708984e+01,1.345130252838134766e+01,1.314998817443847656e+01,1.254539394378662109e+01,1.228628444671630859e+01
1.489574623107910156e+01,1.178202533721923828e+01,2.428607463836669922e+00,1.436300039291381836e+00,8.531533241271972656e+00,1.417469120025634766e+01,1.292145538330078125e+01,5.199564933776855469e+00,1.722356200218200684e+00,3.085278987884521484e+00,9.968739509582519531e+00,1.305729866027832031e+01,9.617078781127929688e+00,5.353441715240478516e+00,5.275453567504882812e+00,1.062115001678466797e+01,1.406221580505371094e+01,1.399024391174316406e+01,1.312620639801025391e+01,1.597862052917480469e+01,1.532589244842529297e+01,1.507987785339355469e+01,1.434709358215332031e+01,1.627066612243652344e+01,1.479183197021484375e+01,1.271522140502929688e+01,1.160563755035400391e+01,1.292123508453369141e+01,1.429841327667236328e+01,1.258110237121582031e+01,1.159006500244140625e+01,1.408974838256835938e+01
-5.224655270576477051e-01,-3.441786289215087891e+00,-8.027288436889648438e+00,-9.752950668334960938e+00,-7.557065486907958984e+00,-3.361809015274047852e+00,-3.819519996643066406e+00,-7.099821090698242188e+00,-8.286586761474609375e+00,-6.652414321899414062e+00,-4.681851387023925781e+00,-3.504497289657592773e+00,-4.012404441833496094e+00,-1.992246747016906738e+00,4.295519590377807617e-01,-4.088137626647949219e+00,-3.893377065658569336e+00,-3.875772714614868164e+00,-3.723514556884765625e+00,-4.451531410217285156e+00,-4.791416168212890625e+00,-3.701809883117675781e+00,-3.352043390274047852e+00,-3.960827350616455078e+00,-6.932833194732666016e+00,-6.322784423828125000e+00,-5.130763530731201172e+00,-3.665372371673583984e+00,-3.010061502456665039e+00,-2.261629581451416016e+00,-3.258590936660766602e+00,-5.220405578613281250e+00
-1.223193073272705078e+01,-1.229002285003662109e+01,-1.080059051513671875e+01,-1.112251663208007812e+01,-1.540611076354980469e+01,-1.276902770996093750e+01,-1.114145183563232422e+01,-9.679969787597656250e+00,-1.093175601959228516e+01,-9.167341232299804688e+00,-9.489966392517089844e+00,-1.003398799896240234e+01,-7.466394424438476562e+00,-4.780291080474853516e+00,-5.839488029479980469e+00,-1.048266983032226562e+01,-1.159396362304687500e+01,-1.223394966125488281e+01,-1.234268283843994141e+01,-1.405220603942871094e+01,-1.274736499786376953e+01,-1.198216724395751953e+01,-1.286021041870117188e+01,-1.239932823181152344e+01,-1.241721248626708984e+01,-1.252658653259277344e+01,-1.489304828643798828e+01,-1.431542587280273438e+01,-1.264868831634521484e+01,-1.143887329101562500e+01,-1.295459270477294922e+01,-1.694189071655273438e+01
-6.867296218872070312e+00,-9.987693786621093750e+00,-1.255324363708496094e+01,-1.193600273132324219e+01,-8.571681976318359375e+00,-8.510596275329589844e+00,-8.315088272094726562e+00,-7.647285938262939453e+00,-8.777750968933105469e+00,-8.478234291076660156e+00,-7.322608947753906250e+00,-7.333677291870117188e+00,-7.065048217773437500e+00,-8.764780998229980469e+00,-1.099354553222656250e+01,-7.208852767944335938e+00,-6.573171138763427734e+00,-7.146234989166259766e+00,-7.468523025512695312e+00,-7.098467826843261719e+00,-8.206845283508300781e+00,-8.681118965148925781e+00,-8.808275222778320312e+00,-9.378903388977050781e+00,-1.060358142852783203e+01,-1.119993495941162109e+01,-1.075793266296386719e+01,-1.090803527832031250e+01,-1.004598903656005859e+01,-1.181157112121582031e+01,-1.301465606689453125e+01,-1.209119033813476562e+01
-1.840077042579650879e+00,-9.424986839294433594e+00,-1.223440742492675781e+01,-9.876491546630859375e+00,-3.616160154342651367e+00,-5.679229259490966797e+00,-5.640547275543212891e+00,-5.493402481079101562e+00,-6.630696773529052734e+00,-7.334586143493652344e+00,-5.920384883880615234e+00,-4.620397090911865234e+00,-6.347201347351074219e+00,-9.213288307189941406e+00,-1.021350669860839844e+01,-7.297126293182373047e+00,-5.601868629455566406e+00,-5.114255428314208984e+00,-5.351208686828613281e+00,-7.309016704559326172e+00,-9.892751693725585938e+00,-8.953227996826171875e+00,-8.069484710693359375e+00,-1.212373065948486328e+01,-1.583612918853759766e+01,-1.424124717712402344e+01,-1.001866436004638672e+01,-8.994758605957031250e+00,-8.864125251770019531e+00,-1.133519649505615234e+01,-1.320356845855712891e+01,-1.051386928558349609e+01
-3.650799989700317383e-01,8.320313096046447754e-01,1.907616615295410156e+00,2.294273138046264648e+00,1.764709115028381348e+00,1.532795429229736328e+00,2.203545570373535156e+00,1.538625478744506836e+00,-3.599154204130172729e-02,2.826515585184097290e-02,1.763133049011230469e+00,2.366555690765380859e+00,1.782155990600585938e+00,-7.465200424194335938e-01,-1.622173428535461426e+00,-7.711762785911560059e-01,7.332097291946411133e-01,7.659853249788284302e-02,-4.697386026382446289e-01,-1.052150607109069824e+00,-3.108898103237152100e-01,-6.180648803710937500e-01,-1.445390820503234863e+00,-1.719624876976013184e+00,-2.165113687515258789e-01,-6.157698035240173340e-01,-2.255844593048095703e+00,-1.870868086814880371e+00,-6.727783679962158203e-01,-1.804351329803466797e+00,-3.089034795761108398e+00,-3.515970230102539062e+00
-1.683931112289428711e+00,5.715702056884765625e+00,8.470776557922363281e+00,7.927797317504882812e+00,5.566727161407470703e+00,4.098049640655517578e+00,4.069960117340087891e+00,4.036784172058105469e+00,4.396421432495117188e+00,2.829359292984008789e+00,2.030358076095581055e+00,1.649776816368103027e+00,2.944824457168579102e+00,2.339869260787963867e+00,1.693885684013366699e+00,2.605968236923217773e+00,2.312722682952880859e+00,2.462063312530517578e+00,4.644839763641357422e+00,7.926003932952880859e+00,9.740318298339843750e+00,6.343018531799316406e+00,4.845828056335449219e+00,6.123641014099121094e+00,9.942824363708496094e+00,8.835276603698730469e+00,6.959944248199462891e+00,4.540328502655029297e+00,2.621627807617187500e+00,2.170731782913208008e+00,5.489853382110595703e+00,8.024388313293457031e+00
5.501282691955566406e+00,5.891962051391601562e+00,6.392976760864257812e+00,7.789600849151611328e+00,8.782111167907714844e+00,6.858166217803955078e+00,6.667839050292968750e+00,6.616043567657470703e+00,6.670517921447753906e+00,4.915507316589355469e+00,5.658775329589843750e+00,4.456925868988037109e+00,4.382332324981689453e+00,2.538235187530517578e+00,1.540256261825561523e+00,1.528560876846313477e+00,1.763247370719909668e+00,4.314659118652343750e+00,5.327374935150146484e+00,6.140844345092773438e+00,5.647497653961181641e+00,5.688090324401855469e+00,5.380577564239501953e+00,3.297377586364746094e+00,2.345701932907104492e+00,4.919909954071044922e+00,7.807151317596435547e+00,7.325670719146728516e+00,4.669593334197998047e+00,4.167015075683593750e+00,6.181455135345458984e+00,8.923951148986816406e+00
5.241600513458251953e+00,1.160820484161376953e+00,2.703614711761474609e+00,4.087132930755615234e+00,3.306191444396972656e+00,2.570883989334106445e+00,3.862564563751220703e+00,4.519187450408935547e+00,4.473438262939453125e+00,5.168474197387695312e+00,6.926294326782226562e+00,4.824107646942138672e+00,2.760534763336181641e+00,-1.420447081327438354e-01,3.312977552413940430e-01,8.450433611869812012e-02,1.077991008758544922e+00,1.166486382484436035e+00,1.105688333511352539e+00,-6.729950755834579468e-02,-8.605301976203918457e-01,-7.540228366851806641e-01,-1.054918646812438965e+00,4.858302175998687744e-01,2.022778987884521484e+00,2.410037517547607422e+00,-7.320086956024169922e-01,5.551612973213195801e-01,7.350360155105590820e-01,-1.032711863517761230e+00,-3.353549480438232422e+00,-2.940252304077148438e+00
1.153586864471435547e+00,2.363682746887207031e+00,4.059677124023437500e+00,5.129279613494873047e+00,7.059418678283691406e+00,4.991792678833007812e+00,5.114007472991943359e+00,4.537049293518066406e+00,2.667564392089843750e+00,1.387041807174682617e+00,1.423934102058410645e+00,2.751243352890014648e+00,3.865858912467956543e-01,-3.673027038574218750e+00,-3.392532110214233398e+00,-3.349148109555244446e-02,1.755904197692871094e+00,5.468984246253967285e-01,9.420041441917419434e-01,1.186302781105041504e+00,2.171652078628540039e+00,-3.181195259094238281e-02,-1.480819344520568848e+00,2.366007119417190552e-01,4.712195873260498047e+00,2.876329660415649414e+00,-1.017063379287719727e+00,-1.078273653984069824e+00,-2.056795954704284668e-01,-2.737949848175048828e+00,-3.754792451858520508e+00,-1.600068569183349609e+00
1.241570091247558594e+01,1.895950126647949219e+01,1.616054344177246094e+01,1.646836090087890625e+01,2.262572097778320312e+01,2.110273742675781250e+01,1.914587974548339844e+01,1.440967178344726562e+01,7.430572032928466797e+00,2.724467277526855469e+00,6.650328159332275391e+00,1.155423641204833984e+01,9.146282196044921875e+00,2.243476390838623047e+00,-6.778512001037597656e-01,3.817033767700195312e+00,8.756022453308105469e+00,9.091423034667968750e+00,6.252355575561523438e+00,5.312237262725830078e+00,7.203001976013183594e+00,8.991725921630859375e+00,9.016807556152343750e+00,2.902574539184570312e+00,1.855854988098144531e+00,6.510015964508056641e+00,1.350192165374755859e+01,1.364615154266357422e+01,1.446450710296630859e+01,1.412204551696777344e+01,1.357932853698730469e+01,1.742041397094726562e+01
7.683188915252685547e+00,1.721027565002441406e+01,1.378744697570800781e+01,1.038942337036132812e+01,1.078146076202392578e+01,1.143551635742187500e+01,1.009198474884033203e+01,6.415629863739013672e+00,2.872201919555664062e+00,5.860258936882019043e-01,4.732842922210693359e+00,5.882327079772949219e+00,5.544359683990478516e+00,4.282948970794677734e+00,4.531131267547607422e+00,2.436684131622314453e+00,3.124118804931640625e+00,2.347743272781372070e+00,3.204464435577392578e+00,2.013004302978515625e+00,1.045130968093872070e+00,1.594653129577636719e+00,4.675807952880859375e+00,5.468011498451232910e-01,-1.512814402580261230e+00,4.858100414276123047e+00,1.186565780639648438e+01,1.176102256774902344e+01,1.262476348876953125e+01,1.344947433471679688e+01,1.198672485351562500e+01,1.532916259765625000e+01
-1.478016853332519531e+00,6.877893924713134766e+00,1.652685284614562988e+00,-3.723333835601806641e+00,-4.385522842407226562e+00,-2.140949487686157227e+00,-4.565197467803955078e+00,-6.265279769897460938e+00,-2.760136842727661133e+00,-2.645033121109008789e+00,-3.973554611206054688e+00,-6.674723148345947266e+00,-4.807969093322753906e+00,1.827983111143112183e-01,4.978744506835937500e+00,1.482849836349487305e+00,-5.532661437988281250e+00,-6.173998355865478516e+00,1.257023811340332031e-01,4.049863815307617188e+00,1.202761650085449219e+00,-2.285486221313476562e+00,-7.411687970161437988e-01,1.455815434455871582e+00,3.686912953853607178e-01,2.010072946548461914e+00,3.371194601058959961e+00,4.129373550415039062e+00,4.139811038970947266e+00,4.400147914886474609e+00,2.467685937881469727e+00,4.525082588195800781e+00
9.743947982788085938e+00,8.609117507934570312e+00,2.358233213424682617e+00,1.724096894264221191e+00,7.588232040405273438e+00,8.566794395446777344e+00,5.483960151672363281e+00,2.297455072402954102e+00,3.452664613723754883e+00,1.960393309593200684e+00,9.385517239570617676e-01,-2.564955353736877441e-01,1.255500435829162598e+00,3.550952911376953125e+00,6.286508560180664062e+00,5.390084743499755859e+00,1.128486037254333496e+00,3.410458087921142578e+00,4.786223888397216797e+00,7.472532272338867188e+00,6.344743728637695312e+00,6.549715995788574219e+00,5.950824737548828125e+00,7.351356506347656250e+00,4.044364452362060547e+00,5.118081092834472656e+00,8.688944816589355469e+00,1.188081073760986328e+01,1.090968608856201172e+01,1.069266510009765625e+01,7.539389133453369141e+00,1.014842510223388672e+01
1.577403926849365234e+01,1.051537036895751953e+01,8.634778022766113281e+00,9.988540649414062500e+00,1.375444984436035156e+01,1.355690288543701172e+01,1.312877368927001953e+01,9.298480033874511719e+00,5.867616176605224609e+00,4.732565879821777344e+00,6.770588397979736328e+00,7.094333648681640625e+00,6.153063774108886719e+00,4.479886531829833984e+00,6.635386466979980469e+00,5.632236480712890625e+00,7.184379100799560547e+00,7.564056396484375000e+00,6.477327346801757812e+00,3.134203672409057617e+00,2.543221712112426758e+00,4.357506275177001953e+00,6.453910827636718750e+00,7.235527515411376953e+00,4.127464294433593750e+00,3.860038280487060547e+00,8.378630638122558594e+00,1.313184642791748047e+01,1.413989543914794922e+01,1.309151554107666016e+01,7.843130588531494141e+00,1.058699989318847656e+01
1.673551559448242188e+00,4.737856388092041016e+00,3.945618629455566406e+00,3.389218568801879883e+00,2.421549558639526367e+00,3.531121969223022461e+00,2.888727426528930664e+00,8.050503134727478027e-01,-9.127464294433593750e-01,8.438677759841084480e-04,1.299104094505310059e-01,3.415485471487045288e-02,-1.554587364196777344e+00,-2.369154930114746094e+00,3.417023718357086182e-01,-1.384932875633239746e+00,-2.012664794921875000e+00,-4.921252727508544922e+00,3.938282132148742676e-01,7.117004394531250000e-01,-1.891301013529300690e-02,-3.778670549392700195e+00,-1.252701997756958008e+00,1.501309514045715332e+00,-5.047541856765747070e-01,-2.353355169296264648e+00,4.885717034339904785e-01,3.562800645828247070e+00,4.316150188446044922e+00,3.412942647933959961e+00,-6.436233520507812500e-01,-2.412511587142944336e+00
-7.771104812622070312e+00,-8.714802265167236328e-01,-2.020672321319580078e+00,-2.090076446533203125e+00,-3.862326145172119141e+00,-3.659167289733886719e+00,-4.675260543823242188e+00,-2.994685173034667969e+00,-6.767014265060424805e-01,-8.899510651826858521e-02,-3.273266315460205078e+00,-5.272218227386474609e+00,-4.149148941040039062e+00,-1.676777839660644531e+00,-1.704353690147399902e+00,-5.034025192260742188e+00,-8.498034477233886719e+00,-9.631968498229980469e+00,-4.508918762207031250e+00,2.037302255630493164e+00,3.723373174667358398e+00,-1.131426453590393066e+00,-1.580669164657592773e+00,2.459803581237792969e+00,1.608958989381790161e-01,-1.255470871925354004e+00,1.571326017379760742e+00,4.456025362014770508e-01,-2.485682010650634766e+00,-1.878500699996948242e+00,-2.295933812856674194e-01,-4.555806159973144531e+00
-1.774335026741027832e+00,3.286111593246459961e+00,4.668656826019287109e+00,2.534008026123046875e+00,-3.063826560974121094e+00,-1.918055295944213867e+00,-7.559819221496582031e-01,1.947796106338500977e+00,3.512728929519653320e+00,5.500458240509033203e+00,3.186537504196166992e+00,3.051543474197387695e+00,2.743531703948974609e+00,5.195352554321289062e+00,3.696676492691040039e+00,2.259736061096191406e+00,1.014672875404357910e+00,2.085151910781860352e+00,7.643132805824279785e-01,5.498685836791992188e+00,8.938130378723144531e+00,7.712089061737060547e+00,6.206264972686767578e+00,1.147297954559326172e+01,1.073406219482421875e+01,6.748435497283935547e+00,6.348210811614990234e+00,3.651717424392700195e+00,1.005857706069946289e+00,2.462079048156738281e+00,6.704520225524902344e+00,6.689931392669677734e+00
5.541793823242187500e+00,1.249510574340820312e+01,1.249997138977050781e+01,7.319799423217773438e+00,3.540546417236328125e+00,8.182308197021484375e+00,9.403771400451660156e+00,6.843735218048095703e+00,3.279556512832641602e+00,6.093333244323730469e+00,8.631025314331054688e+00,1.132668685913085938e+01,6.742265701293945312e+00,3.373607397079467773e+00,2.642864704132080078e+00,7.957422733306884766e+00,9.402026176452636719e+00,9.886887550354003906e+00,7.117875576019287109e+00,9.259619712829589844e+00,1.278189182281494141e+01,1.232007122039794922e+01,1.047515010833740234e+01,1.472329902648925781e+01,1.327748489379882812e+01,9.625565528869628906e+00,8.237955093383789062e+00,1.004673099517822266e+01,1.037868022918701172e+01,1.104768085479736328e+01,1.022448444366455078e+01,1.086574363708496094e+01
6.472491264343261719e+00,8.376168251037597656e+00,7.741516113281250000e+00,7.270392894744873047e+00,9.080052375793457031e+00,1.160632705688476562e+01,1.223942470550537109e+01,7.638902187347412109e+00,1.880113363265991211e+00,2.219670057296752930e+00,8.503364562988281250e+00,1.206678771972656250e+01,8.057806015014648438e+00,-9.236739873886108398e-01,-4.229351043701171875e+00,5.084385871887207031e+00,8.452908515930175781e+00,8.072016716003417969e+00,4.599081516265869141e+00,6.821208953857421875e+00,1.092095279693603516e+01,1.245633411407470703e+01,1.053989315032958984e+01,1.127051258087158203e+01,7.325123786926269531e+00,9.057322502136230469e+00,1.020896720886230469e+01,1.260412883758544922e+01,1.291440105438232422e+01,1.424825668334960938e+01,1.173957824707031250e+01,8.322085380554199219e+00
3.153225898742675781e+00,4.387091398239135742e-01,1.523691773414611816e+00,3.232919454574584961e+00,2.138704776763916016e+00,2.964484214782714844e+00,4.634574413299560547e+00,4.363641738891601562e+00,1.771233677864074707e+00,3.166520833969116211e+00,5.856908321380615234e+00,6.299920558929443359e+00,5.278087615966796875e+00,2.454010009765625000e+00,-3.443948507308959961e+00,2.503618955612182617e+00,3.597523450851440430e+00,3.167667627334594727e+00,-1.731678962707519531e+00,-2.579970061779022217e-01,4.056315422058105469e+00,7.016327381134033203e+00,8.322796821594238281e+00,1.138077735900878906e+01,8.324209213256835938e+00,8.348855972290039062e+00,6.787935256958007812e+00,8.104203224182128906e+00,7.754883766174316406e+00,7.565207958221435547e+00,5.798547267913818359e+00,4.083806037902832031e+00
-2.275882482528686523e+00,-2.551224708557128906e+00,-1.438651323318481445e+00,-1.827528953552246094e+00,-7.351253509521484375e+00,-4.480239868164062500e+00,-3.328235387802124023e+00,-1.194827631115913391e-01,1.122209668159484863e+00,4.851336479187011719e+00,1.319406867027282715e+00,-1.412930011749267578e+00,-8.139204978942871094e-01,4.713683128356933594e+00,8.765206933021545410e-01,2.360185623168945312e+00,-2.658233642578125000e-01,2.733954191207885742e-01,-3.023029565811157227e-01,3.055311739444732666e-01,3.375586509704589844e+00,1.680347204208374023e+00,4.302003383636474609e+00,7.990258693695068359e+00,4.891291618347167969e+00,2.027137756347656250e+00,1.278666019439697266e+00,3.548187971115112305e+00,1.860187172889709473e+00,-7.214262485504150391e-01,-3.073692083358764648e+00,-3.765047073364257812e+00
-5.578562736511230469e+00,-6.255531311035156250e+00,-5.742656230926513672e+00,-5.280483722686767578e+00,-8.808942794799804688e+00,-7.338929176330566406e+00,-7.092677593231201172e+00,-4.099964618682861328e+00,-1.749980568885803223e+00,3.847443759441375732e-01,-3.852737426757812500e+00,-6.689155578613281250e+00,-3.702470541000366211e+00,9.697747230529785156e-01,1.462835907936096191e+00,8.200349658727645874e-02,-1.060049295425415039e+00,3.755396902561187744e-01,4.172003269195556641e+00,3.854122638702392578e+00,3.966054916381835938e+00,-2.362581044435501099e-01,-4.219341278076171875e-01,-3.055706262588500977e+00,-8.166344642639160156e+00,-8.010225296020507812e+00,-1.720332264900207520e+00,-3.327349945902824402e-02,-3.244106292724609375e+00,-4.403314113616943359e+00,-5.354220390319824219e+00,-1.028006935119628906e+01
-8.697189331054687500e+00,-8.937368392944335938e+00,-9.398569107055664062e+00,-1.120155239105224609e+01,-1.308430576324462891e+01,-1.171555519104003906e+01,-1.086168003082275391e+01,-9.660916328430175781e+00,-9.922616958618164062e+00,-8.087100028991699219e+00,-1.082711505889892578e+01,-1.246362495422363281e+01,-8.110074996948242188e+00,-2.986242532730102539e+00,2.355818301439285278e-01,-4.214622020721435547e+00,-6.230648040771484375e+00,-5.535469055175781250e+00,-1.861057400703430176e+00,-2.473439455032348633e+00,-3.204537391662597656e+00,-5.511062622070312500e+00,-5.844279289245605469e+00,-6.147731781005859375e+00,-8.435186386108398438e+00,-8.587378501892089844e+00,-5.112374782562255859e+00,-5.023728847503662109e+00,-7.449578762054443359e+00,-6.908939838409423828e+00,-5.991319179534912109e+00,-7.845005512237548828e+00
-7.952733516693115234e+00,-2.799637556076049805e+00,-4.730314731597900391e+00,-1.104329490661621094e+01,-1.350553035736083984e+01,-8.678960800170898438e+00,-7.779857635498046875e+00,-8.989470481872558594e+00,-1.097510623931884766e+01,-7.773901939392089844e+00,-1.032016277313232422e+01,-1.048780441284179688e+01,-8.886878967285156250e+00,-3.596543550491333008e+00,-1.674951434135437012e+00,-7.112283229827880859e+00,-9.365478515625000000e+00,-9.748438835144042969e+00,-6.936259746551513672e+00,-6.056612014770507812e+00,-5.629762649536132812e+00,-7.149133682250976562e+00,-6.258549690246582031e+00,2.139581203460693359e+00,2.404284238815307617e+00,1.215640425682067871e+00,-2.931765794754028320e+00,-1.597762107849121094e+00,-3.724061727523803711e+00,-3.901089429855346680e+00,-4.684364795684814453e+00,2.821555852890014648e+00
-7.000495791435241699e-01,8.108450889587402344e+00,5.339530944824218750e+00,2.449565887451171875e+00,1.256990313529968262e+00,3.228115081787109375e+00,2.002389907836914062e+00,8.889251947402954102e-01,1.582976579666137695e+00,2.263210296630859375e+00,-1.199256300926208496e+00,-4.561955451965332031e+00,-4.731043815612792969e+00,-3.058616638183593750e+00,-4.296981334686279297e+00,-7.903254508972167969e+00,-6.740633964538574219e+00,-6.234608173370361328e+00,-2.852349042892456055e+00,-2.682401537895202637e-01,-8.411383032798767090e-01,-4.145591259002685547e+00,-2.978343009948730469e+00,5.257254123687744141e+00,3.457031250000000000e+00,4.127366065979003906e+00,2.524286031723022461e+00,5.952027320861816406e+00,5.235162734985351562e+00,5.178170204162597656e+00,2.710485219955444336e+00,8.498289108276367188e+00
