Fp1,Fp2,F7,F3,Fz,F4,F8,FT7,FC3,FCz,FC4,FT8,T3,C3,Cz,C4,T4,TP7,CP3,CPz,CP4,TP8,T5,P3,Pz,P4,T6,O1,Oz,O2,A1,A2
-3.063751459121704102e-01,-3.627730906009674072e-01,-2.031686902046203613e-01,-3.949284553527832031e-01,-7.389801144599914551e-01,2.322214841842651367e-01,3.126646876335144043e-01,9.255754947662353516e-02,4.851248487830162048e-02,-3.700967729091644287e-01,-1.025057956576347351e-01,-7.165057659149169922e-01,2.122885137796401978e-01,4.650247991085052490e-01,-7.794959843158721924e-02,-5.259967446327209473e-01,-4.968014657497406006e-01,7.750284075736999512e-01,1.022347807884216309e-01,4.972437322139739990e-01,-7.638147473335266113e-02,3.882598280906677246e-01,-5.806919932365417480e-01,-1.011657193303108215e-01,3.550510704517364502e-01,3.014557957649230957e-01,3.507970832288265228e-03,-4.585743546485900879e-01,-3.459539115428924561e-01,-3.807377815246582031e-01,-3.286951780319213867e-01,1.350666284561157227e-01
1.094704046845436096e-01,-2.833668291568756104e-01,-2.672787904739379883e-01,-3.298062086105346680e-01,-5.793830752372741699e-01,2.277481704950332642e-01,4.415349662303924561e-01,-1.431448664516210556e-02,2.118009626865386963e-01,-4.040656685829162598e-01,1.135356426239013672e-01,-2.553742527961730957e-01,1.044232621788978577e-01,9.108091592788696289e-01,1.632764786481857300e-01,-5.960364341735839844e-01,-5.613192319869995117e-01,7.471195459365844727e-01,-1.254669278860092163e-01,2.721295356750488281e-01,2.462512403726577759e-01,1.292178481817245483e-01,-5.797259807586669922e-01,-2.622220814228057861e-01,-2.244697064161300659e-01,5.901328921318054199e-01,9.952030330896377563e-02,-4.425062239170074463e-01,-3.916567862033843994e-01,-3.505716919898986816e-01,-3.862051665782928467e-01,1.157662048935890198e-01
2.864373624324798584e-01,-1.187662854790687561e-01,-4.092556536197662354e-01,-1.972626596689224243e-01,-1.274638622999191284e-01,2.841429412364959717e-01,5.367335081100463867e-01,2.109777480363845825e-01,3.806058466434478760e-01,-4.433540701866149902e-01,4.846294820308685303e-01,7.878083735704421997e-03,1.266725361347198486e-01,1.090857863426208496e+00,5.173441767692565918e-01,-6.583183407783508301e-01,-2.967452406883239746e-01,8.899971246719360352e-01,-2.598997354507446289e-01,2.442460060119628906e-01,4.306026995182037354e-01,-2.533504366874694824e-01,-5.058865547180175781e-01,-8.415344357490539551e-01,-8.021226525306701660e-02,4.962669909000396729e-01,3.076269626617431641e-01,-2.570084929466247559e-01,-5.991946458816528320e-01,-5.303452610969543457e-01,-4.181104153394699097e-02,5.461424216628074646e-02
4.930863976478576660e-01,-1.589753031730651855e-01,-1.527612358331680298e-01,-1.830386668443679810e-01,1.211434751749038696e-01,1.905994117259979248e-01,3.955267667770385742e-01,-1.574745625257492065e-01,3.788296282291412354e-01,-2.211569100618362427e-01,3.771956861019134521e-01,5.673606321215629578e-02,1.304627954959869385e-01,6.682839393615722656e-01,3.581370115280151367e-01,-4.532167017459869385e-01,6.704242527484893799e-02,8.265447616577148438e-01,-5.504195690155029297e-01,-1.563055068254470825e-02,3.133501410484313965e-01,-4.627126753330230713e-01,-2.869178354740142822e-01,-7.560489177703857422e-01,-4.065787792205810547e-01,6.633380055427551270e-01,2.852623462677001953e-01,8.061903715133666992e-02,-6.997473239898681641e-01,-4.035705626010894775e-01,3.071941435337066650e-01,1.938712038099765778e-02
3.763260543346405029e-01,4.174326360225677490e-02,-2.895360887050628662e-01,1.796644032001495361e-01,8.512348681688308716e-02,4.264489412307739258e-01,6.150209307670593262e-01,3.933349251747131348e-02,2.610863745212554932e-01,5.073055252432823181e-02,9.822616726160049438e-02,4.268883764743804932e-01,1.541936844587326050e-01,5.471847057342529297e-01,4.586482942104339600e-01,-2.903192937374114990e-01,2.533114254474639893e-01,5.974795222282409668e-01,-7.843565940856933594e-01,-4.276617616415023804e-02,4.522979259490966797e-01,-3.066148757934570312e-01,-7.181336730718612671e-02,-5.249510407447814941e-01,-5.679530501365661621e-01,6.333442330360412598e-01,2.964716553688049316e-01,-2.681061998009681702e-02,-8.677864670753479004e-01,-3.387703001499176025e-01,6.663616895675659180e-01,-4.813511967658996582e-01
7.198781967163085938e-01,3.233719766139984131e-01,-2.533015310764312744e-01,3.389299213886260986e-01,-6.316753476858139038e-02,6.039548516273498535e-01,3.364935815334320068e-01,4.366158545017242432e-01,3.504341840744018555e-01,1.264903247356414795e-01,2.008251696825027466e-01,2.417750358581542969e-01,-1.646754741668701172e-01,3.629452586174011230e-01,1.130066961050033569e-01,-1.764555126428604126e-01,5.750727057456970215e-01,8.327364921569824219e-02,-5.458677411079406738e-01,6.469991803169250488e-02,4.589740633964538574e-01,-5.842024087905883789e-01,2.226235121488571167e-01,-3.807925581932067871e-01,-3.541063964366912842e-01,7.897339463233947754e-01,1.984200775623321533e-01,8.180501312017440796e-02,-9.037944078445434570e-01,-2.781606465578079224e-02,7.680495977401733398e-01,-4.812501668930053711e-01
6.267277598381042480e-01,6.025476455688476562e-01,-1.589872837066650391e-01,-9.978025406599044800e-02,-1.890144348144531250e-01,7.320285439491271973e-01,5.898876190185546875e-01,7.421430349349975586e-01,-1.344361808151006699e-02,2.960195839405059814e-01,-3.853467479348182678e-02,1.465857494622468948e-02,-2.766176462173461914e-01,-1.094124987721443176e-01,-3.928792476654052734e-02,-1.529589146375656128e-01,3.422901034355163574e-01,-1.045674309134483337e-01,-3.670488595962524414e-01,7.891479134559631348e-02,4.277698695659637451e-01,-3.206721842288970947e-01,5.605345368385314941e-01,-1.452919989824295044e-01,-1.178582832217216492e-01,7.003597021102905273e-01,1.931374073028564453e-01,-2.633858323097229004e-01,-5.282015204429626465e-01,1.287291496992111206e-01,8.177093267440795898e-01,-8.981587290763854980e-01
7.221643924713134766e-01,8.416370153427124023e-01,1.132292672991752625e-01,-1.095318049192428589e-01,-1.974390074610710144e-02,5.343855619430541992e-01,5.644785761833190918e-01,1.021949291229248047e+00,-4.952120035886764526e-02,3.152250349521636963e-01,-1.354067027568817139e-01,8.439034968614578247e-02,-1.662555783987045288e-01,-3.328270912170410156e-01,-1.261943727731704712e-01,-5.305521190166473389e-02,4.206286668777465820e-01,-2.400082945823669434e-01,-3.305391073226928711e-01,2.529078722000122070e-01,6.095309853553771973e-01,-2.122376561164855957e-01,6.593529582023620605e-01,1.300306171178817749e-01,3.879188001155853271e-01,3.694317340850830078e-01,-9.072135202586650848e-03,-3.652204573154449463e-01,-3.250685930252075195e-01,1.113398596644401550e-01,6.886842250823974609e-01,-9.086706042289733887e-01
7.000341415405273438e-01,6.145650744438171387e-01,-2.505429089069366455e-01,-5.412346124649047852e-01,1.700849086046218872e-02,-2.458530664443969727e-02,3.301120102405548096e-01,1.065349578857421875e+00,-3.179067969322204590e-01,-5.226485058665275574e-02,5.685036256909370422e-02,1.358286738395690918e-01,2.591396868228912354e-01,-2.271166145801544189e-01,-2.104128599166870117e-01,-7.143385708332061768e-02,2.993004620075225830e-01,-3.018830157816410065e-02,-1.121107935905456543e-01,4.507051706314086914e-01,4.917905926704406738e-01,-3.861140906810760498e-01,8.045312166213989258e-01,-1.522374060004949570e-02,4.565940499305725098e-01,9.433785080909729004e-02,-2.806496918201446533e-01,-4.177923798561096191e-01,6.355715915560722351e-03,-1.877542585134506226e-01,7.029211521148681641e-01,-5.379293560981750488e-01
3.236736953258514404e-01,4.365646243095397949e-01,-4.148280024528503418e-01,-5.260929465293884277e-01,-3.831413090229034424e-01,-1.255565285682678223e-01,2.002563327550888062e-01,6.318785548210144043e-01,-1.134098470211029053e-01,-4.229752421379089355e-01,-1.389044970273971558e-01,-8.324374258518218994e-02,5.863890647888183594e-01,-1.911629140377044678e-01,-1.798718422651290894e-01,2.597775161266326904e-01,4.831113815307617188e-01,1.585686951875686646e-01,-2.064896821975708008e-01,5.977659821510314941e-01,2.118128389120101929e-01,-1.585848331451416016e-01,6.539692878723144531e-01,3.395234644412994385e-01,5.765229463577270508e-01,-2.613551914691925049e-01,-3.053223788738250732e-01,-1.605021059513092041e-01,1.692601740360260010e-01,-5.197186470031738281e-01,6.899133324623107910e-01,-4.088506698608398438e-01
2.840816974639892578e-02,-3.336501717567443848e-01,-7.023317217826843262e-01,-4.509917199611663818e-01,-5.064523220062255859e-01,-2.153605371713638306e-01,-4.683223664760589600e-01,3.984358310699462891e-01,2.544302940368652344e-01,-7.832984924316406250e-01,-3.450115025043487549e-01,-4.763107299804687500e-01,1.040493965148925781e+00,-4.579157233238220215e-01,-2.964251041412353516e-01,2.809038460254669189e-01,3.176626563072204590e-01,2.317534834146499634e-01,7.230679690837860107e-02,8.902023434638977051e-01,-2.350955605506896973e-01,-7.501229643821716309e-02,2.647252976894378662e-01,6.677139997482299805e-01,6.881105899810791016e-01,-4.842195510864257812e-01,-1.260897815227508545e-01,5.743793025612831116e-02,8.207984268665313721e-02,-7.054617404937744141e-01,4.289968609809875488e-01,-3.115014433860778809e-01
-6.223675236105918884e-02,-3.639955222606658936e-01,-7.004021406173706055e-01,-4.660872817039489746e-01,-5.556994080543518066e-01,-2.528809010982513428e-01,-4.589257538318634033e-01,2.614202797412872314e-01,3.509382009506225586e-01,-6.575323343276977539e-01,-4.211166203022003174e-01,-6.592661142349243164e-01,9.517000317573547363e-01,-3.659687340259552002e-01,-2.498684078454971313e-01,3.405273258686065674e-01,-1.429177671670913696e-01,2.680682241916656494e-01,-8.603779971599578857e-02,1.082591772079467773e+00,-8.723483681678771973e-01,2.179280072450637817e-01,2.640655934810638428e-01,7.411904335021972656e-01,7.511795759201049805e-01,-7.470781207084655762e-01,1.498889327049255371e-01,1.025589331984519958e-01,-1.066419258713722229e-01,-6.991629004478454590e-01,3.426103889942169189e-01,-2.387673258781433105e-01
1.119702402502298355e-02,-2.846312224864959717e-01,-4.406856298446655273e-01,-2.780994772911071777e-01,-7.040386795997619629e-01,-2.298359386622905731e-02,-5.177721381187438965e-01,8.595938980579376221e-02,5.682881474494934082e-01,-9.482198953628540039e-01,-2.846144437789916992e-01,-8.330475091934204102e-01,7.930434942245483398e-01,-2.452266961336135864e-01,-1.838278323411941528e-01,-1.067176610231399536e-01,-3.926267027854919434e-01,1.813759952783584595e-01,-8.501566946506500244e-02,8.462893366813659668e-01,-7.113975286483764648e-01,1.060016453266143799e-01,-1.428849250078201294e-01,7.249777913093566895e-01,7.078720927238464355e-01,-3.724387884140014648e-01,1.851663291454315186e-01,1.763805896043777466e-01,-3.802143037319183350e-02,-4.058250188827514648e-01,2.531931996345520020e-01,8.855677396059036255e-02
3.056282103061676025e-01,-3.466509580612182617e-01,-4.094514250755310059e-01,-2.127048373222351074e-01,-5.558528304100036621e-01,4.331828095018863678e-04,-1.490993648767471313e-01,-7.297883927822113037e-02,6.141771674156188965e-01,-9.572649002075195312e-01,3.628429472446441650e-01,-7.897574305534362793e-01,6.154285669326782227e-01,9.734657406806945801e-02,-2.371974885463714600e-01,-5.130421519279479980e-01,-4.333942532539367676e-01,4.634906947612762451e-01,-3.518736064434051514e-01,6.455758213996887207e-01,-5.238391757011413574e-01,-9.160023927688598633e-02,-1.091849058866500854e-01,5.698927044868469238e-01,6.483216881752014160e-01,-4.353915154933929443e-01,3.581535518169403076e-01,1.940781474113464355e-01,1.346200108528137207e-01,-3.666734695434570312e-01,-2.490046918392181396e-01,3.990412354469299316e-01
2.333993166685104370e-01,-4.370644688606262207e-01,-1.681568622589111328e-01,-3.068152368068695068e-01,-4.207000136375427246e-02,-9.046570956707000732e-02,-1.500816345214843750e-01,-1.678284257650375366e-01,4.767736792564392090e-01,-8.996556997299194336e-01,3.641268312931060791e-01,-5.308064818382263184e-01,4.632413387298583984e-01,-9.510958194732666016e-02,6.508914381265640259e-02,-5.714370012283325195e-01,-5.341593027114868164e-01,4.172637760639190674e-01,-3.401097059249877930e-01,3.668353557586669922e-01,-5.428687930107116699e-01,-3.808461427688598633e-01,-2.435229122638702393e-01,3.491364717483520508e-01,5.497608184814453125e-01,-5.384968966245651245e-02,3.925303518772125244e-01,4.799317419528961182e-01,-1.931029409170150757e-01,-3.819159269332885742e-01,-4.828597605228424072e-02,5.410534739494323730e-01
6.002599596977233887e-01,-5.611100196838378906e-01,8.019776642322540283e-02,-5.268809199333190918e-02,5.808509304188191891e-04,1.611611694097518921e-01,6.592662632465362549e-02,-3.562346994876861572e-01,1.036858782172203064e-01,-9.136487245559692383e-01,5.626736879348754883e-01,-3.451086580753326416e-01,5.391255617141723633e-01,3.537053242325782776e-02,4.758463203907012939e-01,-6.905032992362976074e-01,-6.077890396118164062e-01,4.043444991111755371e-01,-5.492308735847473145e-01,9.213953465223312378e-02,-4.676375389099121094e-01,-5.569790601730346680e-01,-1.185202673077583313e-01,1.710764616727828979e-01,3.521454632282257080e-01,-2.495862394571304321e-01,2.712882161140441895e-01,7.671961188316345215e-01,-3.120034337043762207e-01,-4.507065415382385254e-01,-1.697682142257690430e-01,8.549320697784423828e-01
4.120512306690216064e-01,-3.670061230659484863e-01,1.032136082649230957e-01,5.386556982994079590e-01,-2.377740480005741119e-02,5.270413160324096680e-01,2.746872305870056152e-01,-4.568607509136199951e-01,2.659046947956085205e-01,-6.694318056106567383e-01,6.323177814483642578e-01,7.261096686124801636e-02,2.895489335060119629e-01,7.683104276657104492e-02,2.325615137815475464e-01,-5.397993326187133789e-01,4.594363272190093994e-03,1.281036585569381714e-01,-7.124062180519104004e-01,-2.683340907096862793e-01,-2.668015360832214355e-01,-6.844195723533630371e-01,-4.204881787300109863e-01,1.701964065432548523e-02,-2.521640621125698090e-02,-1.822853237390518188e-01,2.019033133983612061e-01,7.123324275016784668e-01,-2.655648589134216309e-01,-1.142747625708580017e-01,9.553942829370498657e-02,6.813415288925170898e-01
4.231339395046234131e-01,-6.083987951278686523e-01,4.447683990001678467e-01,8.582330942153930664e-01,-1.426724642515182495e-01,7.430940866470336914e-01,1.622666716575622559e-01,-3.747881054878234863e-01,2.676440477371215820e-01,-2.133816927671432495e-01,3.195851147174835205e-01,-1.509837359189987183e-01,-9.274055249989032745e-03,-3.118256926536560059e-01,-2.313993275165557861e-01,-5.677955746650695801e-01,1.768021732568740845e-01,-1.509517282247543335e-01,-6.349000334739685059e-01,-3.441923260688781738e-01,-9.895756840705871582e-02,-5.758483409881591797e-01,-1.185861229896545410e-01,1.068303585052490234e-01,-3.241911232471466064e-01,-1.647849231958389282e-01,3.530249595642089844e-01,5.654858350753784180e-01,-4.680041670799255371e-01,1.304065734148025513e-01,2.810864448547363281e-01,3.264246582984924316e-01
5.722380280494689941e-01,-3.094685673713684082e-01,8.412813544273376465e-01,9.865751862525939941e-01,-3.497256934642791748e-01,1.023785948753356934e+00,4.125123023986816406e-01,4.011525958776473999e-02,4.906079173088073730e-02,3.001380562782287598e-01,9.565965831279754639e-02,-2.117804437875747681e-01,-9.676945209503173828e-02,-2.983054518699645996e-01,-3.008224666118621826e-01,-4.087923765182495117e-01,4.387109279632568359e-01,-2.772895991802215576e-01,-4.276356101036071777e-01,-3.885343372821807861e-01,-7.891938090324401855e-02,-2.666548788547515869e-01,2.476657032966613770e-01,2.121821492910385132e-01,-4.712474346160888672e-01,-2.081923037767410278e-01,-7.167807966470718384e-02,4.397031068801879883e-01,-4.970934391021728516e-01,3.702565133571624756e-01,2.300441116094589233e-01,6.902235746383666992e-02
4.962774515151977539e-01,-2.584198676049709320e-02,1.100979447364807129e+00,9.107357263565063477e-01,-3.173588216304779053e-01,7.942991256713867188e-01,4.887911975383758545e-01,7.544297724962234497e-02,-4.081879258155822754e-01,3.004821538925170898e-01,-1.300355494022369385e-01,1.704780734144151211e-03,-5.921135544776916504e-01,-4.488295018672943115e-01,-5.907014012336730957e-01,-3.249852359294891357e-01,6.087195873260498047e-01,-5.734975337982177734e-01,-4.699191451072692871e-02,-4.661801755428314209e-01,2.074404209852218628e-01,2.481868118047714233e-02,6.087635159492492676e-01,2.664493918418884277e-01,-9.420441091060638428e-02,-3.536411821842193604e-01,-2.372385263442993164e-01,-2.770222425460815430e-01,-1.127853244543075562e-01,4.529483914375305176e-01,9.563821554183959961e-02,-8.794142864644527435e-03
2.499285638332366943e-01,-2.832794561982154846e-02,7.189022302627563477e-01,5.541731119155883789e-01,-3.492839336395263672e-01,6.998224258422851562e-01,6.439812183380126953e-01,2.953098416328430176e-01,-3.934513032436370850e-01,1.878889352083206177e-01,-2.303743958473205566e-01,-1.456187218427658081e-01,-6.864092946052551270e-01,-3.994739055633544922e-01,-6.195647716522216797e-01,-1.106878742575645447e-01,6.031019091606140137e-01,-1.356550157070159912e-01,4.517433047294616699e-01,-6.566101312637329102e-01,2.950291931629180908e-01,3.446134924888610840e-02,4.111367166042327881e-01,1.576595008373260498e-01,4.652995243668556213e-02,-6.337633728981018066e-02,-2.360044717788696289e-01,-4.119395315647125244e-01,2.030569016933441162e-01,2.329919934272766113e-01,-5.097039975225925446e-03,2.365454882383346558e-01
1.887265592813491821e-01,-2.002756446599960327e-01,4.663832485675811768e-01,3.597969114780426025e-01,-6.023158431053161621e-01,1.638869941234588623e-01,4.135681986808776855e-01,2.664237022399902344e-01,-1.488654017448425293e-01,1.103267297148704529e-01,-4.814417958259582520e-01,-1.834411323070526123e-01,-2.396832704544067383e-01,-1.648026257753372192e-01,-8.644273877143859863e-01,3.003225028514862061e-01,6.850733160972595215e-01,-5.729032214730978012e-03,7.503736019134521484e-01,-1.589159071445465088e-01,1.502622514963150024e-01,-1.060927212238311768e-01,5.565675497055053711e-01,3.211665451526641846e-01,3.460524976253509521e-02,-3.233373463153839111e-01,-3.034778535366058350e-01,-4.622442126274108887e-01,2.729955017566680908e-01,-1.333865076303482056e-01,-3.474569022655487061e-01,5.255856364965438843e-02
-1.869924366474151611e-01,-6.717598438262939453e-01,8.813038468360900879e-02,-9.984370321035385132e-02,-4.259250462055206299e-01,-1.303258240222930908e-01,-8.617350459098815918e-02,1.347675472497940063e-01,-1.324800401926040649e-01,-5.879420321434736252e-03,-6.825516223907470703e-01,-8.609206974506378174e-02,1.204351112246513367e-01,-2.311464697122573853e-01,-8.507264256477355957e-01,5.501467585563659668e-01,5.667256712913513184e-01,3.155644237995147705e-01,7.855967283248901367e-01,-1.918436028063297272e-02,-2.317888587713241577e-01,1.309404671192169189e-01,1.919021010398864746e-01,3.591822385787963867e-01,1.184400096535682678e-01,-5.002788901329040527e-01,7.667399477213621140e-03,-3.875356316566467285e-01,3.151311576366424561e-01,-6.324534416198730469e-01,-2.290115207433700562e-01,-1.691808402538299561e-01
-4.331339597702026367e-01,-7.425378561019897461e-01,-7.919484376907348633e-02,2.620233595371246338e-01,-6.932953000068664551e-01,-2.299243509769439697e-01,-1.826526075601577759e-01,-1.029308885335922241e-01,4.408003091812133789e-01,-1.846953332424163818e-01,-1.176307916641235352e+00,-1.499857902526855469e-01,1.421639770269393921e-01,-1.705724447965621948e-01,-8.534407019615173340e-01,7.371636033058166504e-01,5.864358544349670410e-01,3.666534423828125000e-01,6.325567364692687988e-01,2.454881668090820312e-01,-4.952918291091918945e-01,2.266442477703094482e-01,3.769523277878761292e-02,4.554628133773803711e-01,-8.499225368723273277e-04,-4.757345318794250488e-01,1.286640465259552002e-01,-2.203151136636734009e-01,6.426098942756652832e-02,-8.148614764213562012e-01,-1.489027887582778931e-01,4.767392948269844055e-02
-2.638956904411315918e-01,-5.479422807693481445e-01,-1.667502075433731079e-01,-2.476614434272050858e-03,-6.449233889579772949e-01,-1.684473007917404175e-01,-4.011365771293640137e-01,-4.141820371150970459e-01,7.949500083923339844e-01,-2.137633971869945526e-02,-1.018327832221984863e+00,-2.277399301528930664e-01,-4.673652723431587219e-02,-1.606149226427078247e-01,-7.842581868171691895e-01,8.890810608863830566e-01,3.993086218833923340e-01,3.231744766235351562e-01,6.514039635658264160e-01,5.179325938224792480e-01,-3.990454673767089844e-01,4.334040582180023193e-01,2.505510151386260986e-01,7.398149967193603516e-01,-1.597972065210342407e-01,-4.049123525619506836e-01,5.556328892707824707e-01,-1.996499300003051758e-02,4.109086841344833374e-02,-7.605258226394653320e-01,-5.646772384643554688e-01,8.027738891541957855e-03
-8.699070662260055542e-02,-6.083833575248718262e-01,-3.235396742820739746e-01,-1.586752831935882568e-01,-3.376910984516143799e-01,-2.582852244377136230e-01,-5.358288288116455078e-01,-2.083289027214050293e-01,8.199601173400878906e-01,2.053726837038993835e-02,-9.662358760833740234e-01,-2.641693353652954102e-01,2.798316776752471924e-01,7.560659945011138916e-02,-4.144401848316192627e-01,4.906452298164367676e-01,2.171843200922012329e-01,5.506250858306884766e-01,7.199875116348266602e-01,4.650594294071197510e-01,-5.317898392677307129e-01,3.973616063594818115e-01,1.433040499687194824e-01,4.271744787693023682e-01,7.560980319976806641e-02,-4.143543243408203125e-01,5.075632333755493164e-01,2.926088124513626099e-02,-2.225104570388793945e-01,-8.354862332344055176e-01,-6.239657402038574219e-01,2.056279480457305908e-01
2.460673004388809204e-01,-4.650382697582244873e-01,-2.230179458856582642e-01,1.241541355848312378e-01,-7.887315750122070312e-02,-3.276659548282623291e-01,-3.567919433116912842e-01,-1.543776094913482666e-01,6.905270814895629883e-01,3.972610458731651306e-03,-6.416685581207275391e-01,-1.023319214582443237e-01,1.672003567218780518e-01,3.443693816661834717e-01,-2.223911285400390625e-01,3.254053592681884766e-01,-1.581639498472213745e-01,5.749644637107849121e-01,5.063427090644836426e-01,2.171275168657302856e-01,-4.166089594364166260e-01,-2.498178975656628609e-03,1.941648572683334351e-01,2.267409861087799072e-01,-1.967981308698654175e-01,-4.009614232927560806e-03,6.599851250648498535e-01,4.062790796160697937e-02,-4.299640953540802002e-01,-8.556954264640808105e-01,-8.509623408317565918e-01,3.552696704864501953e-01
3.728856146335601807e-01,-1.391844451427459717e-01,1.937466710805892944e-01,-5.293697118759155273e-02,4.379087686538696289e-01,-6.481593847274780273e-01,-3.448068797588348389e-01,-2.143374383449554443e-01,8.526333570480346680e-01,-9.426214545965194702e-02,-9.711162745952606201e-02,2.016594558954238892e-01,3.640439808368682861e-01,6.059992313385009766e-01,2.386652827262878418e-01,6.804250925779342651e-02,-5.718493834137916565e-02,3.228186070919036865e-01,2.531749010086059570e-01,1.011962145566940308e-01,-1.410908699035644531e-01,-6.064077615737915039e-01,2.600922062993049622e-02,-2.253673225641250610e-01,-2.636256217956542969e-01,9.431463479995727539e-02,6.623682379722595215e-01,5.321720838546752930e-01,-1.881704777479171753e-01,-7.536000609397888184e-01,-6.495990753173828125e-01,6.479462385177612305e-01
6.045919060707092285e-01,-6.309746205806732178e-02,-2.076033055782318115e-01,2.266775816679000854e-02,5.367248058319091797e-01,-2.710102498531341553e-01,-4.795664846897125244e-01,-3.711716830730438232e-01,6.395959854125976562e-01,2.319454550743103027e-01,9.197621606290340424e-03,6.090825796127319336e-01,3.211801946163177490e-01,5.518043041229248047e-01,6.118555665016174316e-01,2.086426019668579102e-01,1.173938363790512085e-01,2.678081989288330078e-01,-2.107817530632019043e-01,4.963066056370735168e-02,-7.696959655731916428e-03,-7.388234138488769531e-01,3.803782910108566284e-02,-3.807725012302398682e-01,-5.558047294616699219e-01,3.002713024616241455e-01,7.526895403861999512e-01,6.891283392906188965e-01,-3.514043390750885010e-01,-6.724398732185363770e-01,-1.175835058093070984e-01,4.402162432670593262e-01
6.341663599014282227e-01,6.053070724010467529e-02,1.655507273972034454e-02,1.439678519964218140e-01,6.364831328392028809e-01,-3.838429450988769531e-01,-6.649376749992370605e-01,-3.255184888839721680e-01,3.545700609683990479e-01,3.148307502269744873e-01,-9.729681909084320068e-02,8.968147039413452148e-01,1.579515188932418823e-01,3.181967139244079590e-01,4.630009233951568604e-01,3.672627508640289307e-01,2.882066369056701660e-01,-1.195093803107738495e-02,-1.981029063463211060e-01,-6.458054482936859131e-02,-2.630961835384368896e-01,-8.033992052078247070e-01,1.930499821901321411e-01,-2.141459286212921143e-01,-6.562516093254089355e-01,3.119843006134033203e-01,8.826405405998229980e-01,6.990854144096374512e-01,-5.671480298042297363e-01,-5.018869042396545410e-01,2.881819307804107666e-01,2.671934366226196289e-01
6.197769641876220703e-01,-2.321631833910942078e-02,4.957829415798187256e-02,5.817265510559082031e-01,6.826239824295043945e-01,-2.423773407936096191e-01,-4.452698230743408203e-01,-1.842311955988407135e-02,1.923016160726547241e-01,4.309791028499603271e-01,-3.002449870109558105e-01,8.109740018844604492e-01,-2.840500511229038239e-02,-2.083454877138137817e-01,2.626878321170806885e-01,2.591641545295715332e-01,3.151917457580566406e-01,-4.072881639003753662e-01,-7.085447311401367188e-01,8.093079552054405212e-03,-3.247657418251037598e-01,-6.510432958602905273e-01,1.710408776998519897e-01,-2.285126745700836182e-01,-7.938836812973022461e-01,4.821525514125823975e-01,5.956861376762390137e-01,5.467389822006225586e-01,-3.497378528118133545e-01,-6.215896084904670715e-02,3.614051043987274170e-01,-2.324360050261020660e-02
7.797020077705383301e-01,5.976928472518920898e-01,1.864938139915466309e-01,6.782665848731994629e-01,5.754774808883666992e-01,2.095092833042144775e-01,-2.366042584180831909e-01,-5.686651542782783508e-02,1.381633281707763672e-01,3.426016569137573242e-01,-9.035260975360870361e-02,5.999240279197692871e-01,-2.476496547460556030e-01,-1.732333898544311523e-01,1.186510175466537476e-01,3.341311514377593994e-01,3.406492471694946289e-01,-6.635985970497131348e-01,-4.482468962669372559e-01,-2.171981334686279297e-01,-2.642861939966678619e-02,-6.350457072257995605e-01,5.422874093055725098e-01,1.030049026012420654e-01,-2.788972258567810059e-01,3.303781151771545410e-01,2.254519760608673096e-01,6.116288900375366211e-01,-9.129355847835540771e-02,4.118612706661224365e-01,5.638166666030883789e-01,-1.732199341058731079e-01
6.383215188980102539e-01,4.565013647079467773e-01,6.503636240959167480e-01,3.239156603813171387e-01,4.569503366947174072e-01,-2.058312296867370605e-02,-2.031497955322265625e-01,1.688581109046936035e-01,-2.139748930931091309e-01,4.531457424163818359e-01,-3.583991900086402893e-02,5.725462436676025391e-01,-3.961956202983856201e-01,-4.302767217159271240e-01,-3.560077026486396790e-02,3.410597443580627441e-01,2.680681645870208740e-01,-9.136709570884704590e-01,-2.937831282615661621e-01,-3.278805613517761230e-01,1.189352720975875854e-01,-3.017971217632293701e-01,5.904087424278259277e-01,2.072228640317916870e-01,-1.639885604381561279e-01,2.656449675559997559e-01,2.910349518060684204e-02,4.099736809730529785e-01,5.259177088737487793e-01,3.178760111331939697e-01,8.869583904743194580e-02,-1.939024776220321655e-01
3.451937437057495117e-01,5.771906375885009766e-01,8.534952402114868164e-01,-1.163828447461128235e-01,2.912930846214294434e-01,-5.859852954745292664e-02,-1.440468728542327881e-01,2.828526198863983154e-01,-6.385471224784851074e-01,4.701721072196960449e-01,-1.960893124341964722e-01,3.975218534469604492e-01,-3.459346592426300049e-01,-4.442539215087890625e-01,-1.477820426225662231e-01,1.632615178823471069e-01,2.586302347481250763e-02,-8.407055735588073730e-01,3.187188804149627686e-01,-5.238428115844726562e-01,-1.853235810995101929e-01,-9.563019126653671265e-02,5.981888771057128906e-01,4.669470489025115967e-01,1.130522564053535461e-01,3.597108274698257446e-02,-2.763359546661376953e-01,-5.039901286363601685e-02,6.275970339775085449e-01,4.014390110969543457e-01,2.945807576179504395e-02,-2.489440515637397766e-02
4.488499462604522705e-02,4.315894544124603271e-01,4.718393385410308838e-01,1.497384011745452881e-01,5.223102122545242310e-02,-6.790072321891784668e-01,1.227044239640235901e-01,2.040787339210510254e-01,-4.735209047794342041e-01,5.654041096568107605e-02,-1.636171638965606689e-01,9.492572396993637085e-02,-9.859801083803176880e-02,-4.998662173748016357e-01,-7.597889006137847900e-02,6.180450916290283203e-01,1.767446994781494141e-01,-7.065901160240173340e-01,1.679696887731552124e-01,-3.629575371742248535e-01,-8.063513785600662231e-03,-5.784031376242637634e-02,4.849188923835754395e-01,4.171443581581115723e-01,1.317639946937561035e-01,-3.284969329833984375e-01,-7.309749722480773926e-01,-2.171184569597244263e-01,9.959835410118103027e-01,2.407174706459045410e-01,-5.171659216284751892e-02,3.228594362735748291e-01
-3.585466146469116211e-01,1.511616855859756470e-01,-5.019162222743034363e-02,-9.988281130790710449e-02,-1.707519292831420898e-01,-6.191015243530273438e-01,-3.316724002361297607e-01,-2.854325175285339355e-01,-4.657910168170928955e-01,-3.252041339874267578e-01,-2.991725504398345947e-01,2.000834560021758080e-03,1.691374182701110840e-01,-5.140346288681030273e-01,-2.613945603370666504e-01,5.202534198760986328e-01,-1.291348338127136230e-01,-4.538232386112213135e-01,3.080291748046875000e-01,1.374682635068893433e-01,-4.970804154872894287e-01,1.345733404159545898e-01,-6.307413429021835327e-02,6.397084593772888184e-01,4.613250195980072021e-01,-7.834692001342773438e-01,-4.782163202762603760e-01,2.113988250494003296e-02,9.204660058021545410e-01,1.001620385795831680e-02,1.362048685550689697e-01,3.883404135704040527e-01
-7.240529656410217285e-01,-3.279974460601806641e-01,5.507230758666992188e-02,-1.146793365478515625e-01,-2.740544974803924561e-01,-4.735613465309143066e-01,-5.034189820289611816e-01,-4.670685529708862305e-01,-1.370081007480621338e-01,-2.602056562900543213e-01,-4.504565298557281494e-01,-2.391966730356216431e-01,3.890787065029144287e-01,-4.501850306987762451e-01,-1.042570248246192932e-01,7.315102815628051758e-01,-5.501755699515342712e-02,-3.630670011043548584e-01,9.450437873601913452e-02,2.380842864513397217e-01,-6.035222411155700684e-01,4.309582412242889404e-01,-1.212206035852432251e-01,8.129329681396484375e-01,1.653851717710494995e-01,-8.165417313575744629e-01,-2.422162592411041260e-01,4.762188717722892761e-02,7.660360336303710938e-01,-3.436487615108489990e-01,-8.490955084562301636e-02,3.735538721084594727e-01
-6.814004182815551758e-01,-4.349378943443298340e-01,-6.676433235406875610e-02,1.007464807480573654e-02,-3.501453697681427002e-01,-4.550869464874267578e-01,-7.436580061912536621e-01,-4.561789035797119141e-01,6.979557871818542480e-02,-2.902475893497467041e-01,-5.413721203804016113e-01,-5.117597579956054688e-01,2.424356341361999512e-01,-2.525469660758972168e-01,-4.098839759826660156e-01,3.524277806282043457e-01,-2.997219264507293701e-01,-4.604448676109313965e-01,2.117258608341217041e-01,2.470963001251220703e-01,-8.444541692733764648e-01,8.843988776206970215e-01,-7.934759855270385742e-01,8.437312245368957520e-01,-8.916673064231872559e-02,-5.589554905891418457e-01,6.295386701822280884e-02,4.789276048541069031e-02,6.632713675498962402e-01,-2.725550234317779541e-01,-3.772747218608856201e-01,4.676424860954284668e-01
-6.902846097946166992e-01,-4.725635945796966553e-01,5.147168785333633423e-02,5.168941803276538849e-03,-4.350869655609130859e-01,-6.408492326736450195e-01,-5.443741679191589355e-01,-8.525993824005126953e-01,6.222058087587356567e-02,-3.151186704635620117e-01,-3.463780879974365234e-01,-4.481758773326873779e-01,-2.202594419941306114e-03,1.588828563690185547e-01,-2.263105362653732300e-01,1.078089028596878052e-01,-7.210964560508728027e-01,-1.162177026271820068e-01,3.527377247810363770e-01,3.506376594305038452e-02,-7.143530249595642090e-01,6.765414476394653320e-01,-6.419822573661804199e-01,3.544958531856536865e-01,6.747409701347351074e-02,-3.105004429817199707e-01,-2.347436100244522095e-01,-2.910101972520351410e-02,8.138287067413330078e-01,7.750119268894195557e-02,-6.277497410774230957e-01,6.068287491798400879e-01
-5.465894937515258789e-01,-5.515229105949401855e-01,2.822811305522918701e-01,1.639732569456100464e-01,-1.306000053882598877e-01,-3.396240174770355225e-01,-4.068129062652587891e-01,-9.677371978759765625e-01,-2.064199447631835938e-01,-2.487654387950897217e-01,-2.068637758493423462e-01,-2.936022281646728516e-01,-1.523090600967407227e-01,3.739031255245208740e-01,-1.326869726181030273e-01,-4.537318944931030273e-01,-7.546892762184143066e-01,3.580629453063011169e-02,2.120760083198547363e-01,-3.111409842967987061e-01,-3.253774642944335938e-01,3.391717672348022461e-01,-6.735506057739257812e-01,4.283742047846317291e-03,1.696551591157913208e-02,1.262880861759185791e-01,-1.059310361742973328e-01,1.271262858062982559e-02,4.746145308017730713e-01,1.012918055057525635e-01,-9.497268199920654297e-01,8.472850322723388672e-01
-3.183586001396179199e-01,-4.685645401477813721e-01,3.852744996547698975e-01,1.530876010656356812e-01,1.896798312664031982e-01,-4.591870009899139404e-01,-3.312921226024627686e-01,-7.026924490928649902e-01,-2.742024362087249756e-01,-2.241578400135040283e-01,3.718110173940658569e-02,3.245159983634948730e-02,-2.765978574752807617e-01,7.242505550384521484e-01,2.368002682924270630e-01,-1.981389969587326050e-01,-7.532353401184082031e-01,2.725536227226257324e-01,1.291534453630447388e-01,-5.001831054687500000e-01,-2.738323211669921875e-01,1.137697473168373108e-01,-7.679926156997680664e-01,-2.286003679037094116e-01,-4.013804793357849121e-01,4.824444055557250977e-01,4.996795579791069031e-02,7.817699760198593140e-02,9.008944779634475708e-02,1.110384985804557800e-01,-9.009634852409362793e-01,9.319490790367126465e-01
-1.974119395017623901e-01,-1.285544782876968384e-01,4.133347868919372559e-01,4.057166874408721924e-01,1.443529278039932251e-01,-1.856707334518432617e-01,9.719730168581008911e-02,-9.061499238014221191e-01,-1.445011049509048462e-01,-1.415771842002868652e-01,2.420053929090499878e-01,3.420873284339904785e-01,-3.744667768478393555e-01,7.452225685119628906e-01,4.785800278186798096e-01,-1.958394646644592285e-01,-2.748080193996429443e-01,1.429213434457778931e-01,-1.203934773802757263e-01,-7.438365221023559570e-01,-2.217651754617691040e-01,1.359090209007263184e-01,-8.461700081825256348e-01,-4.413336813449859619e-01,-8.424654603004455566e-01,2.894223034381866455e-01,1.109357029199600220e-01,8.509253710508346558e-02,2.267479002475738525e-01,-1.517676934599876404e-02,-2.452276647090911865e-01,8.408725857734680176e-01
-2.280741631984710693e-01,-1.146741434931755066e-01,4.580205380916595459e-01,8.630348443984985352e-01,4.219403266906738281e-01,1.018673926591873169e-01,5.974318832159042358e-02,-9.147011041641235352e-01,-1.964135095477104187e-02,8.683937788009643555e-02,3.083203136920928955e-01,7.665703296661376953e-01,-6.591495871543884277e-01,6.822574734687805176e-01,4.388406276702880859e-01,-6.415880285203456879e-03,1.030128523707389832e-01,-9.586442261934280396e-02,-4.001578688621520996e-01,-6.739379167556762695e-01,1.967503279447555542e-01,-1.195938214659690857e-01,-7.090362310409545898e-01,-5.363695025444030762e-01,-9.412690401077270508e-01,4.194965958595275879e-01,-1.967686414718627930e-02,2.070432156324386597e-01,1.130187977105379105e-02,2.127243876457214355e-01,-2.306001782417297363e-01,3.742227554321289062e-01
-3.510141968727111816e-01,2.361835241317749023e-01,4.908043444156646729e-01,6.206333637237548828e-01,2.647089958190917969e-01,3.206870853900909424e-01,1.262600719928741455e-01,-4.978427588939666748e-01,-2.061951607465744019e-01,5.829380154609680176e-01,-4.254290089011192322e-02,5.852590203285217285e-01,-8.952413201332092285e-01,4.472373425960540771e-01,1.892357766628265381e-01,-1.065694689750671387e-01,1.415438205003738403e-01,-3.820511698722839355e-01,-1.682930439710617065e-01,-6.628400087356567383e-01,5.307452082633972168e-01,1.316747516393661499e-01,-4.198710918426513672e-01,-2.005400210618972778e-01,-1.010244607925415039e+00,6.563525795936584473e-01,7.451126724481582642e-02,-6.861490011215209961e-02,-4.985434114933013916e-01,3.209525942802429199e-01,-5.105044320225715637e-02,-1.622176915407180786e-01
-2.055873163044452667e-02,3.291058242321014404e-01,5.951806902885437012e-01,7.149940729141235352e-01,3.541898727416992188e-01,3.464480340480804443e-01,3.279549777507781982e-01,-3.910404816269874573e-02,-5.637739896774291992e-01,7.750355005264282227e-01,-2.347302883863449097e-01,4.423055946826934814e-01,-9.067749381065368652e-01,2.080876976251602173e-01,-6.958147883415222168e-02,1.398753672838211060e-01,9.287460893392562866e-02,-3.206496536731719971e-01,-2.193597555160522461e-01,-6.069164872169494629e-01,4.892625212669372559e-01,2.925405204296112061e-01,1.430194266140460968e-02,-4.773650467395782471e-01,-8.942218422889709473e-01,5.367484688758850098e-01,-2.634941041469573975e-01,-2.459100335836410522e-01,-2.913713157176971436e-01,5.992284417152404785e-01,6.070176884531974792e-02,-3.583297431468963623e-01
1.679107993841171265e-01,7.997007369995117188e-01,6.677842736244201660e-01,1.263209730386734009e-01,2.990754544734954834e-01,1.061856001615524292e-01,5.601688623428344727e-01,1.991285830736160278e-01,-4.470715820789337158e-01,1.119026064872741699e+00,-3.048492968082427979e-01,6.207714676856994629e-01,-9.020996093750000000e-01,1.698056161403656006e-01,-1.477722637355327606e-02,3.747850656509399414e-01,1.884187161922454834e-01,-6.731598973274230957e-01,1.304086595773696899e-01,-5.989481806755065918e-01,6.602784395217895508e-01,4.194611012935638428e-01,1.523653268814086914e-01,-6.605668067932128906e-01,-5.137561559677124023e-01,5.374086499214172363e-01,-7.123041749000549316e-01,-5.929331183433532715e-01,1.560978740453720093e-01,5.398888587951660156e-01,2.111973166465759277e-01,-7.336099147796630859e-01
-1.210043802857398987e-01,7.547241449356079102e-01,1.760970503091812134e-01,4.750807303935289383e-03,1.093844249844551086e-01,-1.117757037281990051e-01,5.191978216171264648e-01,4.444156587123870850e-01,-4.711846709251403809e-01,7.570587396621704102e-01,-2.472909241914749146e-01,4.541336894035339355e-01,-9.196254611015319824e-01,1.914766281843185425e-01,-2.901832163333892822e-01,3.569826483726501465e-01,3.349050283432006836e-01,-2.624151408672332764e-01,3.712934255599975586e-01,-4.668340682983398438e-01,7.670226097106933594e-01,2.970739305019378662e-01,3.475017547607421875e-01,-3.336607515811920166e-01,-1.284756809473037720e-01,7.543455362319946289e-01,-6.787361502647399902e-01,-9.091665744781494141e-01,3.864879608154296875e-01,2.548908889293670654e-01,2.659043669700622559e-01,-3.462748825550079346e-01
-3.818188905715942383e-01,6.377938389778137207e-01,2.710921317338943481e-02,-2.136774957180023193e-01,1.627013683319091797e-01,-3.129669725894927979e-01,5.781573057174682617e-02,3.086236417293548584e-01,-5.308459997177124023e-01,5.040419101715087891e-01,-3.582882881164550781e-01,4.787234961986541748e-01,-3.830698430538177490e-01,3.645368516445159912e-01,-1.297621149569749832e-02,6.924502253532409668e-01,2.847175598144531250e-01,-1.632247120141983032e-02,5.257503390312194824e-01,-3.420159220695495605e-01,5.320400595664978027e-01,2.237241417169570923e-01,2.979680001735687256e-01,-2.380307167768478394e-01,-2.789645642042160034e-02,3.764286637306213379e-01,-4.524049460887908936e-01,-8.051559925079345703e-01,5.009046196937561035e-01,-8.257862925529479980e-02,1.167103797197341919e-01,-4.107929468154907227e-01
-5.192240476608276367e-01,2.926611900329589844e-01,-2.217235863208770752e-01,-6.696528792381286621e-01,-7.336405664682388306e-02,-7.641968131065368652e-01,-1.853848248720169067e-01,1.646830439567565918e-01,-2.563976049423217773e-01,1.033227443695068359e-01,-4.431580305099487305e-01,2.906948029994964600e-01,-1.418557614088058472e-01,3.284389972686767578e-01,1.104366965591907501e-02,9.507427215576171875e-01,8.359152078628540039e-02,3.739596530795097351e-02,2.247752100229263306e-01,6.145098060369491577e-02,3.930717408657073975e-01,6.213669180870056152e-01,-6.236581131815910339e-02,-5.041310191154479980e-02,-1.853195726871490479e-01,5.060538649559020996e-02,-4.373673796653747559e-01,-6.571779251098632812e-01,3.787985146045684814e-01,-3.065723180770874023e-01,1.395968198776245117e-01,-5.087558627128601074e-01
-6.193212866783142090e-01,2.006757110357284546e-01,-7.439628839492797852e-01,-4.079919159412384033e-01,-2.185260951519012451e-01,-7.859803438186645508e-01,-4.881623387336730957e-01,-1.570376306772232056e-01,-1.803574524819850922e-02,-1.103446036577224731e-01,-6.713329553604125977e-01,-6.527945399284362793e-02,2.237967252731323242e-01,4.501337707042694092e-01,5.348891764879226685e-02,6.255465149879455566e-01,-4.760402441024780273e-02,7.993385940790176392e-02,-1.763300746679306030e-01,6.201422810554504395e-01,-1.730944365262985229e-01,4.712252318859100342e-01,-1.890136301517486572e-01,1.089726686477661133e-01,-2.365510463714599609e-01,3.079521283507347107e-02,-1.327213086187839508e-02,-5.381758809089660645e-01,4.317725300788879395e-01,-1.737554967403411865e-01,1.639390140771865845e-01,-4.482505321502685547e-01
-4.326938390731811523e-01,2.684079706668853760e-01,-7.826669812202453613e-01,-8.225663900375366211e-01,-3.304140269756317139e-01,-5.201364755630493164e-01,-6.665521264076232910e-01,-2.813146710395812988e-01,-7.463470101356506348e-03,-2.347912043333053589e-01,-4.930484592914581299e-01,-3.095100224018096924e-01,2.316887378692626953e-01,4.221157729625701904e-01,2.069466561079025269e-01,3.998060524463653564e-01,-3.679101467132568359e-01,9.606698155403137207e-02,-6.032958626747131348e-03,6.921220421791076660e-01,-1.970771998167037964e-01,7.284382581710815430e-01,-2.759944200515747070e-01,-5.108793452382087708e-02,1.017804071307182312e-01,4.152149707078933716e-02,1.359965801239013672e-01,-1.927967369556427002e-01,2.844677567481994629e-01,-2.747240066528320312e-01,1.232933718711137772e-02,-1.679379492998123169e-01
-3.927126824855804443e-01,-1.074537076056003571e-02,-3.652905523777008057e-01,-5.899471640586853027e-01,-1.039656531065702438e-02,-7.634280323982238770e-01,-6.331846117973327637e-01,6.689199060201644897e-02,1.688778400421142578e-01,6.961739063262939453e-02,-1.430620998144149780e-01,-1.363585293292999268e-01,4.343449771404266357e-01,3.973614573478698730e-01,3.476077616214752197e-01,2.378357201814651489e-01,-8.214174509048461914e-01,1.165543422102928162e-01,-1.514866948127746582e-01,5.719580054283142090e-01,-3.330788314342498779e-01,4.125587344169616699e-01,-1.621270030736923218e-01,-8.915498852729797363e-02,-5.699444934725761414e-02,4.063544869422912598e-01,7.380530983209609985e-02,-7.194438576698303223e-02,-5.406838282942771912e-02,-2.305128574371337891e-01,-1.096597537398338318e-01,-2.985194325447082520e-01
-5.311440676450729370e-02,3.312573134899139404e-01,-4.275090098381042480e-01,-7.952806949615478516e-01,3.465975224971771240e-01,-4.963679611682891846e-01,-2.549502253532409668e-01,-1.245746687054634094e-01,1.467510908842086792e-01,-1.475701928138732910e-01,3.674443960189819336e-01,6.879143416881561279e-02,1.455068439245223999e-01,7.961053252220153809e-01,8.502268195152282715e-01,-3.861622810363769531e-01,-9.542018175125122070e-01,1.785021573305130005e-01,-3.480714261531829834e-01,3.824473023414611816e-01,-9.339172538602724671e-05,1.862626224756240845e-01,-4.029097855091094971e-01,-3.464816510677337646e-01,4.154360294342041016e-02,4.912899434566497803e-01,-7.746080309152603149e-02,3.148288652300834656e-02,3.104449510574340820e-01,-6.104947999119758606e-02,-1.494491994380950928e-01,9.616204351186752319e-02
-7.878344506025314331e-02,2.047110646963119507e-01,-4.290275871753692627e-01,-6.773530840873718262e-01,4.916501641273498535e-01,-3.279943466186523438e-01,-1.977786421775817871e-01,-1.700775921344757080e-01,2.134332358837127686e-01,-3.919141590595245361e-01,6.204429864883422852e-01,4.175299406051635742e-02,3.345409929752349854e-01,8.552972078323364258e-01,8.277847766876220703e-01,-3.170150220394134521e-01,-9.122707843780517578e-01,2.753382325172424316e-01,-6.634799838066101074e-01,1.621223837137222290e-01,1.994451135396957397e-01,-2.115765511989593506e-01,-5.738643407821655273e-01,-5.686674714088439941e-01,9.293591231107711792e-02,6.562848687171936035e-01,2.024882286787033081e-02,1.395371109247207642e-01,2.586022615432739258e-01,-4.614326357841491699e-02,3.457686901092529297e-01,4.424796402454376221e-01
2.162975668907165527e-01,2.764150202274322510e-01,-2.889325320720672607e-01,-4.502466320991516113e-01,2.274121642112731934e-01,-3.530501723289489746e-01,-1.753346025943756104e-01,-1.233574654906988144e-02,1.236912561580538750e-03,-4.078826010227203369e-01,6.742242574691772461e-01,4.104030132293701172e-01,3.076623380184173584e-01,6.246372461318969727e-01,1.057006359100341797e+00,-5.335114598274230957e-01,-4.821718931198120117e-01,9.068055450916290283e-02,-1.022779703140258789e+00,-1.690484583377838135e-02,1.029176265001296997e-01,-3.014777600765228271e-01,-7.541044950485229492e-01,-5.452439188957214355e-01,-5.870730429887771606e-02,4.031717181205749512e-01,1.692543476819992065e-01,3.654410839080810547e-01,-3.459495902061462402e-01,2.969886921346187592e-02,2.798929810523986816e-01,7.688974495977163315e-03
1.748099327087402344e-01,2.913713455200195312e-01,-1.851203590631484985e-01,-6.123295053839683533e-02,4.446911215782165527e-01,1.079526469111442566e-01,7.729230821132659912e-02,-5.405823886394500732e-02,-4.208845645189285278e-02,-2.138084620237350464e-01,8.587276935577392578e-01,4.037026464939117432e-01,3.053754009306430817e-02,6.080929040908813477e-01,1.102203369140625000e+00,-1.977662742137908936e-01,-4.790315330028533936e-01,-2.610527873039245605e-01,-1.289546132087707520e+00,-7.338511291891336441e-03,7.388426363468170166e-02,-2.418047189712524414e-01,-4.495856165885925293e-01,-3.209328353404998779e-01,-3.023042976856231689e-01,3.978429734706878662e-01,-2.685527801513671875e-01,1.207241043448448181e-01,-2.791821360588073730e-01,2.414660304784774780e-01,5.307378768920898438e-01,-1.046103686094284058e-01
6.491602957248687744e-02,6.124929785728454590e-01,2.228571623563766479e-01,2.139580994844436646e-01,-4.300694167613983154e-02,1.546507775783538818e-01,2.731162607669830322e-01,5.272176489233970642e-02,-2.800377309322357178e-01,4.262693598866462708e-02,6.820011138916015625e-01,1.199762821197509766e-01,-2.890270054340362549e-01,3.337661921977996826e-01,6.167929768562316895e-01,-4.131391346454620361e-01,-3.363160490989685059e-01,-6.295140385627746582e-01,-1.144718050956726074e+00,-6.295073777437210083e-02,1.276506185531616211e-01,9.120821207761764526e-02,-3.011791408061981201e-01,-1.544339358806610107e-01,-2.439900189638137817e-01,3.358435630798339844e-01,-4.306563735008239746e-01,-2.574353478848934174e-02,-1.927805840969085693e-01,6.577953100204467773e-01,8.276206851005554199e-01,-3.342500627040863037e-01
1.193063110113143921e-01,7.341368794441223145e-01,4.669064283370971680e-01,2.038088738918304443e-01,-2.511314153671264648e-01,6.469350457191467285e-01,4.012724161148071289e-01,3.143840432167053223e-01,-5.110422968864440918e-01,2.516789734363555908e-01,5.968263745307922363e-01,-9.806367754936218262e-02,-5.282805562019348145e-01,-5.034267157316207886e-02,1.756874024868011475e-01,-6.530622839927673340e-01,-3.877129554748535156e-01,-5.847933292388916016e-01,-6.221045851707458496e-01,-1.335211247205734253e-01,4.105567932128906250e-01,1.824775189161300659e-01,-1.730254590511322021e-01,-2.706357538700103760e-01,1.092415004968643188e-01,3.697863221168518066e-01,-4.454437494277954102e-01,-3.594484925270080566e-01,5.492068454623222351e-02,8.936963677406311035e-01,6.757889986038208008e-01,-2.689260542392730713e-01
1.192438974976539612e-01,6.314092874526977539e-01,4.456888735294342041e-01,-8.608981035649776459e-03,-4.746416509151458740e-01,4.695352911949157715e-01,7.017441391944885254e-01,7.393501996994018555e-01,-1.090383291244506836e+00,1.611064374446868896e-01,4.258553385734558105e-01,-5.000916719436645508e-01,-3.651134967803955078e-01,-2.930554449558258057e-01,1.528839617967605591e-01,-4.031254947185516357e-01,-2.947904467582702637e-01,-5.130940675735473633e-01,-4.304734468460083008e-01,-1.012351587414741516e-01,5.366600155830383301e-01,3.052306771278381348e-01,6.360348314046859741e-02,2.058334350585937500e-01,2.279083579778671265e-01,4.606968462467193604e-01,-1.092953562736511230e+00,-6.940557956695556641e-01,1.274835020303726196e-01,9.101154804229736328e-01,6.790399551391601562e-01,-5.608617663383483887e-01
-4.823935218155384064e-03,4.340265691280364990e-01,4.054375886917114258e-01,-1.974195241928100586e-01,-4.666288495063781738e-01,3.563570976257324219e-01,7.879761457443237305e-01,3.566808998584747314e-01,-9.788475632667541504e-01,-2.376308739185333252e-01,1.709620207548141479e-01,-3.674727380275726318e-01,-5.364307761192321777e-01,-1.295210272073745728e-01,1.071151271462440491e-01,-1.325385570526123047e-01,-2.562918961048126221e-01,-2.734829485416412354e-01,-2.249182015657424927e-01,-2.023469507694244385e-01,6.684117913246154785e-01,2.945752143859863281e-01,-1.741485893726348877e-01,-8.671663701534271240e-02,4.014527499675750732e-01,-1.699444651603698730e-02,-1.227306842803955078e+00,-8.747617602348327637e-01,6.221998333930969238e-01,4.677679240703582764e-01,4.176186323165893555e-01,-4.726571440696716309e-01
-3.038086593151092529e-01,2.422822415828704834e-01,8.556693047285079956e-02,-2.966521680355072021e-01,-5.390656590461730957e-01,1.765141040086746216e-01,4.002984464168548584e-01,2.646360397338867188e-01,-8.366430401802062988e-01,-5.395151376724243164e-01,3.120660185813903809e-01,-4.006218910217285156e-01,-1.519591212272644043e-01,1.963480748236179352e-02,-3.773633763194084167e-02,-3.731347247958183289e-02,-2.889388501644134521e-01,-1.081475242972373962e-02,-3.863826766610145569e-02,1.541661377996206284e-02,2.883114814758300781e-01,4.864367842674255371e-01,-2.324955314397811890e-01,1.630418300628662109e-01,6.197383999824523926e-01,7.048745453357696533e-02,-9.330968260765075684e-01,-8.445360660552978516e-01,6.101287007331848145e-01,2.591936588287353516e-01,4.419243633747100830e-01,-1.675468385219573975e-01
-9.288751482963562012e-01,-6.209094449877738953e-02,-2.197785526514053345e-01,-4.108340144157409668e-01,-9.141572713851928711e-01,7.327382266521453857e-02,3.499333858489990234e-01,1.663817912340164185e-01,-4.937579929828643799e-01,-5.558080077171325684e-01,7.433091104030609131e-02,-5.874637961387634277e-01,-5.296652764081954956e-02,1.620049476623535156e-01,-5.134804248809814453e-01,-2.979427576065063477e-02,6.662239879369735718e-02,2.684329152107238770e-01,1.137349829077720642e-01,4.987361133098602295e-01,3.773223608732223511e-02,6.459798812866210938e-01,-5.532258152961730957e-01,2.758869528770446777e-01,5.727295875549316406e-01,-2.838111519813537598e-01,-6.110426187515258789e-01,-6.491351127624511719e-01,5.177807211875915527e-01,-9.841898828744888306e-02,1.578160077333450317e-01,-2.845708727836608887e-01
-7.219026088714599609e-01,-5.520662665367126465e-01,-3.037635982036590576e-01,-3.256864845752716064e-01,-1.023554205894470215e+00,-3.984396532177925110e-02,-4.390276595950126648e-02,-3.594561293721199036e-02,-1.520428806543350220e-01,-6.230300664901733398e-01,-2.429822236299514771e-01,-8.143756389617919922e-01,1.469529271125793457e-01,1.554760485887527466e-01,-4.682038724422454834e-01,1.939371675252914429e-01,-3.070448637008666992e-01,4.615506231784820557e-01,-6.175103038549423218e-02,4.137956798076629639e-01,-1.187155917286872864e-01,8.064435720443725586e-01,-4.969834387302398682e-01,5.023846626281738281e-01,3.417232036590576172e-01,-3.961033225059509277e-01,-4.449124336242675781e-01,-4.642904102802276611e-01,3.456047773361206055e-01,-1.835494488477706909e-01,-1.729918420314788818e-01,-1.936630606651306152e-01
-7.879676818847656250e-01,-5.728049874305725098e-01,-5.953464508056640625e-01,-2.633458077907562256e-01,-7.883360981941223145e-01,2.009121179580688477e-01,1.270479261875152588e-01,1.468195393681526184e-02,2.181061543524265289e-02,-5.506022572517395020e-01,-4.300011396408081055e-01,-8.114328980445861816e-01,4.766203463077545166e-02,3.310549259185791016e-01,-4.056373238563537598e-01,-2.286548465490341187e-01,-4.021505713462829590e-01,5.800989866256713867e-01,3.085925988852977753e-02,6.928231716156005859e-01,2.630223520100116730e-02,9.184833168983459473e-01,-6.903496384620666504e-01,2.417263984680175781e-01,3.451502025127410889e-01,-1.195543333888053894e-01,-1.199952960014343262e-01,-5.242276787757873535e-01,7.222680747509002686e-02,-1.819777190685272217e-01,-1.676706671714782715e-01,-6.266373395919799805e-02
-2.699094116687774658e-01,-5.170641541481018066e-01,-3.793791234493255615e-01,-3.000981509685516357e-01,-8.565967082977294922e-01,2.013747096061706543e-01,1.636711061000823975e-01,-1.959404051303863525e-01,5.719636753201484680e-02,-3.700387179851531982e-01,-1.059920564293861389e-01,-8.389460444450378418e-01,1.943731307983398438e-02,8.727160692214965820e-01,-2.012641429901123047e-01,-3.605747520923614502e-01,-3.892523050308227539e-01,6.469734311103820801e-01,1.308042556047439575e-01,6.041721701622009277e-01,4.489199817180633545e-02,5.097486972808837891e-01,-6.967696547508239746e-01,-7.841624319553375244e-02,3.943198919296264648e-01,2.593323290348052979e-01,-1.591090559959411621e-01,-6.553699970245361328e-01,-2.767857909202575684e-01,-2.111842334270477295e-01,-2.690963447093963623e-01,-5.988184735178947449e-02
-1.847655139863491058e-02,-4.738605022430419922e-01,-2.119088917970657349e-01,-4.268051385879516602e-01,-3.705889880657196045e-01,1.168807223439216614e-01,3.097053170204162598e-01,-1.947603821754455566e-01,1.583481431007385254e-01,-4.936859607696533203e-01,-2.744008228182792664e-02,-4.570637941360473633e-01,5.990281235426664352e-03,8.234538435935974121e-01,-3.519165515899658203e-02,-8.601821064949035645e-01,-6.165304183959960938e-01,8.573619127273559570e-01,5.077353492379188538e-02,2.723832428455352783e-01,4.712488651275634766e-01,1.247548758983612061e-01,-4.056808948516845703e-01,-4.101624488830566406e-01,9.325829148292541504e-02,4.918171167373657227e-01,4.207679033279418945e-01,-2.911067008972167969e-01,-4.219449460506439209e-01,-2.529620826244354248e-01,-2.245000004768371582e-01,3.025925159454345703e-01
4.154777824878692627e-01,-2.533831596374511719e-01,-2.650365233421325684e-01,-3.897677958011627197e-01,1.010919213294982910e-01,6.673572212457656860e-02,3.690648376941680908e-01,1.862810105085372925e-01,1.289804875850677490e-01,-5.285868048667907715e-01,4.100584089756011963e-01,1.169809177517890930e-01,6.257685273885726929e-02,1.164632081985473633e+00,4.607465565204620361e-01,-5.064027309417724609e-01,-3.876405060291290283e-01,7.758225202560424805e-01,-1.985557973384857178e-01,5.822481587529182434e-02,2.746716141700744629e-01,-1.351597309112548828e-01,-5.664058327674865723e-01,-7.618492245674133301e-01,-3.823045268654823303e-02,7.120646834373474121e-01,3.101977705955505371e-01,-2.400592863559722900e-01,-5.610702037811279297e-01,-5.381569862365722656e-01,-1.578808128833770752e-01,5.769095197319984436e-02
2.949105799198150635e-01,-2.394265383481979370e-01,-2.358118742704391479e-01,-1.765367574989795685e-02,1.615871042013168335e-01,2.363284081220626831e-01,4.774954617023468018e-01,-6.249932339414954185e-04,4.850422143936157227e-01,1.485094428062438965e-02,5.914299488067626953e-01,3.314621448516845703e-01,1.143536437302827835e-02,1.036281704902648926e+00,5.322940945625305176e-01,-4.523065090179443359e-01,1.140427142381668091e-01,6.284276843070983887e-01,-4.076723158359527588e-01,2.038142383098602295e-01,3.403440415859222412e-01,-5.461651086807250977e-01,-3.676402270793914795e-01,-8.975380063056945801e-01,-4.316272735595703125e-01,4.574263691902160645e-01,3.828061819076538086e-01,1.282549835741519928e-02,-5.797883272171020508e-01,-3.691127002239227295e-01,3.240685164928436279e-01,-7.876320928335189819e-02
3.155034184455871582e-01,1.212237402796745300e-02,-3.517964780330657959e-01,1.447772979736328125e-01,3.912699222564697266e-02,5.120058059692382812e-01,5.049878358840942383e-01,2.112758159637451172e-01,5.200777053833007812e-01,8.227686583995819092e-02,2.379136085510253906e-01,3.183606266975402832e-01,6.785992067307233810e-03,6.359023451805114746e-01,4.986822307109832764e-01,-4.625910222530364990e-01,5.017475485801696777e-01,4.592892825603485107e-01,-6.993603706359863281e-01,1.697580367326736450e-01,4.639009535312652588e-01,-3.365325927734375000e-01,-2.420638501644134521e-01,-7.324004769325256348e-01,-6.235467195510864258e-01,6.612157225608825684e-01,6.431671380996704102e-01,2.339629083871841431e-01,-8.755784034729003906e-01,-2.339159399271011353e-01,7.553471922874450684e-01,-3.517195880413055420e-01
5.815533995628356934e-01,3.097335994243621826e-01,-7.532517611980438232e-02,-2.724850550293922424e-02,5.431797727942466736e-02,6.870644092559814453e-01,3.719659447669982910e-01,6.101486086845397949e-01,2.901632487773895264e-01,3.102004528045654297e-01,2.423300445079803467e-01,1.375994831323623657e-01,-1.298082917928695679e-01,6.097340956330299377e-02,1.306701451539993286e-01,-7.649420946836471558e-02,2.683463096618652344e-01,8.481428772211074829e-02,-7.049283981323242188e-01,2.571499049663543701e-01,4.209218323230743408e-01,-2.064213305711746216e-01,2.747221589088439941e-01,-3.923905193805694580e-01,-3.281528055667877197e-01,6.258708238601684570e-01,4.821722209453582764e-01,-8.141858875751495361e-02,-1.011031627655029297e+00,1.914306432008743286e-01,7.366124391555786133e-01,-6.162872314453125000e-01
7.958114147186279297e-01,3.661540150642395020e-01,5.696238204836845398e-02,1.818356513977050781e-01,2.950139157474040985e-02,6.831704974174499512e-01,5.527046918869018555e-01,1.031424641609191895e+00,1.630427986383438110e-01,4.277370870113372803e-01,2.418876253068447113e-02,1.290074735879898071e-01,-2.598921060562133789e-01,8.376324921846389771e-02,-9.883246570825576782e-02,-3.093488514423370361e-01,4.611250162124633789e-01,-2.472646906971931458e-02,-6.535528302192687988e-01,1.514444649219512939e-01,6.277806162834167480e-01,-3.901175558567047119e-01,7.400525808334350586e-01,-1.263231486082077026e-01,-5.183822941035032272e-04,5.601109862327575684e-01,1.492708623409271240e-01,-4.415558874607086182e-01,-5.433830022811889648e-01,1.605640947818756104e-01,7.268090248107910156e-01,-9.845923781394958496e-01
1.008300185203552246e+00,8.283851146697998047e-01,4.737908765673637390e-02,-1.239652410149574280e-01,-7.677764445543289185e-02,5.270165205001831055e-01,5.242056250572204590e-01,1.067851066589355469e+00,-7.736399769783020020e-02,2.601743442937731743e-03,-6.606812588870525360e-03,-4.324192926287651062e-02,5.830212682485580444e-02,6.340079754590988159e-02,-1.464443057775497437e-01,9.968084841966629028e-02,3.555931448936462402e-01,-6.475348025560379028e-02,-1.977381855249404907e-01,2.041036337614059448e-01,7.740904688835144043e-01,-1.534640192985534668e-01,7.744895219802856445e-01,-2.105811238288879395e-01,2.436510622501373291e-01,3.833030164241790771e-01,-2.176820188760757446e-01,-4.843049943447113037e-01,-2.893757522106170654e-01,1.268474012613296509e-01,6.143350005149841309e-01,-7.851720452308654785e-01
4.115494787693023682e-01,6.677886843681335449e-01,-1.072594523429870605e-01,-4.830123484134674072e-01,-3.468831181526184082e-01,1.193278804421424866e-01,3.791912198066711426e-01,1.027738928794860840e+00,-1.825237870216369629e-01,-1.237801760435104370e-01,-1.206702813506126404e-01,-2.050975561141967773e-01,9.173805266618728638e-02,-2.124301195144653320e-01,-2.877109870314598083e-02,-3.572934120893478394e-02,4.431272447109222412e-01,2.712365388870239258e-01,-2.012152411043643951e-02,2.614951133728027344e-01,5.462659597396850586e-01,-3.580367267131805420e-01,8.398518562316894531e-01,2.560905814170837402e-01,7.704077959060668945e-01,1.199859976768493652e-01,-3.871404230594635010e-01,-2.498039901256561279e-01,-2.168333157896995544e-02,-1.321434676647186279e-01,6.876591444015502930e-01,-5.349673032760620117e-01
2.261638790369033813e-01,3.617740571498870850e-01,-5.133334994316101074e-01,-5.943135023117065430e-01,-3.051835596561431885e-01,-1.528323143720626831e-01,1.184381917119026184e-02,8.772922158241271973e-01,-1.220020186156034470e-02,-4.219474196434020996e-01,-2.717458009719848633e-01,-1.914256960153579712e-01,3.666803240776062012e-01,-2.139231115579605103e-01,-3.445082902908325195e-01,4.931310415267944336e-01,3.217649757862091064e-01,3.735344707965850830e-01,2.121720649302005768e-02,6.593958139419555664e-01,1.031802296638488770e-01,-3.750062286853790283e-01,7.694776654243469238e-01,2.943011224269866943e-01,6.903007030487060547e-01,-8.080368489027023315e-02,-7.013744115829467773e-02,-1.947119645774364471e-02,2.461768835783004761e-01,-4.702668190002441406e-01,4.593268334865570068e-01,-5.470176935195922852e-01
-1.281010452657938004e-02,5.812525376677513123e-02,-6.278284192085266113e-01,-6.303277611732482910e-01,-4.168297350406646729e-01,-3.486042022705078125e-01,-2.481380254030227661e-01,4.433597326278686523e-01,2.877316176891326904e-01,-5.959222912788391113e-01,-2.860710620880126953e-01,-2.923061847686767578e-01,9.033725261688232422e-01,-3.491629660129547119e-01,-2.779037654399871826e-01,3.952494263648986816e-01,2.670652568340301514e-01,2.534175515174865723e-01,-2.189174443483352661e-01,7.676503658294677734e-01,-3.934239447116851807e-01,3.225502744317054749e-02,2.341236472129821777e-01,5.800703763961791992e-01,7.282149195671081543e-01,-6.967071294784545898e-01,6.873259693384170532e-02,-1.257931590080261230e-01,2.546465694904327393e-01,-4.895451962947845459e-01,6.192419528961181641e-01,-2.649416327476501465e-01
-1.190621592104434967e-02,-5.595582351088523865e-02,-7.284619808197021484e-01,-3.165317177772521973e-01,-8.088490366935729980e-01,-8.519315719604492188e-02,-6.445984840393066406e-01,3.027268350124359131e-01,4.155203104019165039e-01,-5.931747555732727051e-01,-2.937873005867004395e-01,-7.350668311119079590e-01,8.421172499656677246e-01,-2.277587801218032837e-01,-2.311946451663970947e-01,4.228455200791358948e-02,-6.395073980093002319e-02,8.902490139007568359e-02,-3.032357692718505859e-01,1.002637386322021484e+00,-6.008027195930480957e-01,2.499279379844665527e-01,1.806820631027221680e-01,8.218205571174621582e-01,7.729346752166748047e-01,-7.537829279899597168e-01,3.070333600044250488e-01,1.492081284523010254e-01,2.214546352624893188e-01,-5.368125438690185547e-01,4.310377836227416992e-01,-1.546627283096313477e-01
-4.148851335048675537e-02,-4.211142659187316895e-01,-5.873654484748840332e-01,-3.337037265300750732e-01,-7.450295090675354004e-01,-1.104076206684112549e-01,-5.722838044166564941e-01,3.371549397706985474e-02,5.674781799316406250e-01,-6.881118416786193848e-01,-3.336412608623504639e-01,-7.544976472854614258e-01,7.947427034378051758e-01,-4.543495774269104004e-01,-2.124299705028533936e-01,-1.438255310058593750e-01,-1.306944489479064941e-01,3.382021188735961914e-01,-1.680628955364227295e-01,1.107893943786621094e+00,-9.138355851173400879e-01,-5.709145218133926392e-02,8.571212738752365112e-02,9.092033505439758301e-01,7.374681234359741211e-01,-4.851115942001342773e-01,2.461082488298416138e-01,2.988493442535400391e-01,7.897147536277770996e-02,-2.696218490600585938e-01,-7.078663259744644165e-02,1.123733073472976685e-01
3.113700151443481445e-01,-3.560067713260650635e-01,-2.170818597078323364e-01,-4.977355897426605225e-01,-3.737189471721649170e-01,-8.330038189888000488e-02,-5.304440855979919434e-01,1.514893323183059692e-01,1.464564353227615356e-01,-5.262743830680847168e-01,1.471580564975738525e-01,-8.260013461112976074e-01,6.576619148254394531e-01,-4.004877433180809021e-02,-3.687514364719390869e-02,-3.217158317565917969e-01,-5.226075053215026855e-01,3.803184926509857178e-01,-4.035752117633819580e-01,6.106597185134887695e-01,-8.099247813224792480e-01,-2.656081318855285645e-01,6.009728647768497467e-03,5.025990605354309082e-01,8.379381299018859863e-01,-1.860200464725494385e-01,3.273326456546783447e-01,1.517369002103805542e-01,-4.642811045050621033e-02,-6.348122358322143555e-01,-2.882614433765411377e-01,2.749819755554199219e-01
5.008056163787841797e-01,-4.212419390678405762e-01,-2.017531394958496094e-01,-2.316393405199050903e-01,-3.441844508051872253e-02,-1.948431693017482758e-02,-7.103145867586135864e-02,-8.041882514953613281e-02,5.057044029235839844e-01,-9.781558513641357422e-01,5.212273001670837402e-01,-4.820693433284759521e-01,6.050101518630981445e-01,-9.292069822549819946e-02,2.017826139926910400e-01,-7.053591609001159668e-01,-6.177577376365661621e-01,3.844139277935028076e-01,-3.189832866191864014e-01,2.371156364679336548e-01,-3.982002735137939453e-01,-6.123992204666137695e-01,-2.524957656860351562e-01,2.393722832202911377e-01,6.051809787750244141e-01,-2.164227962493896484e-01,1.633176803588867188e-01,2.543535232543945312e-01,-1.147384643554687500e-01,-4.217450320720672607e-01,-1.958683282136917114e-01,7.706712484359741211e-01
4.471487700939178467e-01,-4.317964315414428711e-01,-9.961852431297302246e-02,1.501435339450836182e-01,-1.137544885277748108e-01,2.273278981447219849e-01,-1.187996566295623779e-01,-5.937754511833190918e-01,3.896419703960418701e-01,-9.705938696861267090e-01,4.519124031066894531e-01,-1.392504721879959106e-01,4.716909527778625488e-01,9.757369756698608398e-02,2.362412214279174805e-01,-6.829855442047119141e-01,-3.532723486423492432e-01,4.152288436889648438e-01,-4.589537978172302246e-01,1.376762390136718750e-01,-4.054829776287078857e-01,-6.650362014770507812e-01,-2.877216041088104248e-01,8.916036039590835571e-02,7.526689022779464722e-02,-1.362830996513366699e-01,4.582594633102416992e-01,6.703892946243286133e-01,-3.017314076423645020e-01,-1.499818265438079834e-01,-1.725665479898452759e-01,8.275492191314697266e-01
3.447448909282684326e-01,-5.739204287528991699e-01,1.447447240352630615e-01,4.233250617980957031e-01,-6.329698860645294189e-02,4.504933953285217285e-01,-7.434889208525419235e-03,-3.149884641170501709e-01,8.142179250717163086e-02,-4.035252630710601807e-01,5.135336518287658691e-01,-9.267362952232360840e-02,2.984443008899688721e-01,-8.435185998678207397e-02,1.220385879278182983e-01,-5.026573538780212402e-01,1.064234301447868347e-01,1.724272370338439941e-01,-4.279865026473999023e-01,9.964830428361892700e-02,-3.958641886711120605e-01,-6.678912639617919922e-01,-3.572485744953155518e-01,9.433706849813461304e-02,-2.908073365688323975e-01,-1.880199909210205078e-01,3.609792888164520264e-01,6.794734597206115723e-01,-4.020817279815673828e-01,-2.401295155286788940e-01,1.685186624526977539e-01,6.290487647056579590e-01
4.755854904651641846e-01,-6.095722913742065430e-01,3.209989368915557861e-01,7.824715375900268555e-01,-2.767568230628967285e-01,7.677693963050842285e-01,2.471068501472473145e-01,-2.637614905834197998e-01,2.186343371868133545e-01,-1.617329865694046021e-01,2.892168462276458740e-01,1.105595007538795471e-01,9.256646782159805298e-02,-1.860722303390502930e-01,-3.289436548948287964e-02,-2.567615807056427002e-01,2.668648362159729004e-01,-2.730334103107452393e-01,-4.932334125041961670e-01,1.574232056736946106e-02,-2.278873324394226074e-01,-2.635564506053924561e-01,-1.608930341899394989e-02,7.108261436223983765e-02,-3.120673000812530518e-01,-2.521622180938720703e-01,1.305687129497528076e-01,3.628859817981719971e-01,-4.973518550395965576e-01,1.154682189226150513e-01,2.265032380819320679e-01,2.672482132911682129e-01
4.377638101577758789e-01,-3.468867540359497070e-01,5.577733516693115234e-01,1.019463062286376953e+00,-3.843816518783569336e-01,1.018620848655700684e+00,3.078279793262481689e-01,1.619144901633262634e-02,1.096899136900901794e-01,1.484790593385696411e-01,1.888580024242401123e-01,4.532213136553764343e-02,-2.978229224681854248e-01,-4.442097842693328857e-01,-1.743705421686172485e-01,-3.731427490711212158e-01,5.643451809883117676e-01,-3.015829622745513916e-01,-3.717057406902313232e-01,-2.304894924163818359e-01,-2.036232948303222656e-01,-3.527291119098663330e-02,3.811696171760559082e-01,3.058718442916870117e-01,-5.361717939376831055e-01,-4.277232289314270020e-02,-5.759630003012716770e-04,2.504489123821258545e-01,-3.388770222663879395e-01,2.876600623130798340e-01,2.590345442295074463e-01,2.444867491722106934e-01
3.347636461257934570e-01,1.088143438100814819e-01,9.920536875724792480e-01,6.190599799156188965e-01,-3.133127391338348389e-01,9.377762675285339355e-01,4.246894717216491699e-01,3.276212215423583984e-01,-1.864805072546005249e-01,3.064029216766357422e-01,-3.341001570224761963e-01,-2.098759263753890991e-01,-4.799570739269256592e-01,-5.795103311538696289e-01,-9.073837995529174805e-01,-1.867877990007400513e-01,5.974127650260925293e-01,-3.806889355182647705e-01,-1.112708970904350281e-01,-3.096107542514801025e-01,2.374479323625564575e-01,-2.073969244956970215e-01,4.826305210590362549e-01,3.740292787551879883e-01,-7.614999264478683472e-02,-3.299484401941299438e-02,-1.724797189235687256e-01,-1.202154308557510376e-01,-1.200042888522148132e-01,3.669762909412384033e-01,3.484230041503906250e-01,-2.915858626365661621e-01
2.912233769893646240e-01,-4.365763440728187561e-02,7.399377822875976562e-01,4.196324050426483154e-01,-4.047419428825378418e-01,6.166622042655944824e-01,8.506008982658386230e-01,3.855223655700683594e-01,-4.133517742156982422e-01,3.680383563041687012e-01,-4.477851092815399170e-01,-1.752531528472900391e-01,-5.779846906661987305e-01,-4.784795343875885010e-01,-8.271139860153198242e-01,7.194891571998596191e-02,2.996243238449096680e-01,-2.244035154581069946e-01,3.022438883781433105e-01,-5.184763073921203613e-01,2.195875942707061768e-01,3.257397934794425964e-02,5.373040437698364258e-01,3.324818015098571777e-01,1.863453388214111328e-01,-7.798495888710021973e-02,-2.252755761146545410e-01,-4.146207571029663086e-01,6.517652422189712524e-02,7.452427409589290619e-03,-1.570362448692321777e-01,-1.425736844539642334e-01
1.429236680269241333e-01,-1.352558378130197525e-03,4.742130935192108154e-01,2.648984789848327637e-01,-4.609101414680480957e-01,2.114220559597015381e-01,5.014198422431945801e-01,3.308840394020080566e-01,-4.454135894775390625e-01,2.082153558731079102e-01,-6.484547853469848633e-01,1.311829239130020142e-01,-2.646062672138214111e-01,-2.855584621429443359e-01,-5.231205821037292480e-01,3.216716945171356201e-01,5.556825399398803711e-01,-8.786668628454208374e-02,5.916309356689453125e-01,-1.863902509212493896e-01,3.109054863452911377e-01,-2.407431788742542267e-02,5.918617844581604004e-01,3.240767717361450195e-01,1.746604740619659424e-01,-4.308316707611083984e-01,-3.934947550296783447e-01,-6.401654481887817383e-01,3.496827185153961182e-01,-1.412088871002197266e-01,-4.605373740196228027e-02,3.168029785156250000e-01
-3.079589828848838806e-02,-4.613526165485382080e-01,1.442938148975372314e-01,2.625007629394531250e-01,-5.616209506988525391e-01,9.420952200889587402e-02,1.925646960735321045e-01,-1.068521067500114441e-01,1.239836737513542175e-01,-5.376499146223068237e-02,-6.957752108573913574e-01,9.742411226034164429e-02,-1.604727655649185181e-01,-2.955608367919921875e-01,-6.845586299896240234e-01,6.919090151786804199e-01,7.292763590812683105e-01,4.745094180107116699e-01,6.179320812225341797e-01,-6.919034570455551147e-02,7.819383405148983002e-03,1.841696053743362427e-01,1.797131597995758057e-01,4.863397777080535889e-01,7.293544709682464600e-02,-4.575273394584655762e-01,-1.352939456701278687e-01,-5.391916036605834961e-01,2.168426513671875000e-01,-5.027462840080261230e-01,-5.221617966890335083e-02,1.069207414984703064e-01
-4.070753455162048340e-01,-7.825499773025512695e-01,-2.273213416337966919e-01,-1.561336070299148560e-01,-6.394176483154296875e-01,-1.544324606657028198e-01,-3.940370976924896240e-01,-1.603036075830459595e-01,1.725064069032669067e-01,-1.282654106616973877e-01,-1.002049207687377930e+00,-1.280197203159332275e-01,2.487350106239318848e-01,-3.548973798751831055e-01,-9.977334141731262207e-01,8.371487259864807129e-01,4.809809923171997070e-01,4.414441883563995361e-01,6.613350510597229004e-01,2.704920768737792969e-01,-4.391880035400390625e-01,2.525897324085235596e-01,8.973172307014465332e-02,4.467220604419708252e-01,1.548687070608139038e-01,-4.336468279361724854e-01,5.242520570755004883e-01,-2.203860729932785034e-01,1.121015474200248718e-01,-9.505971074104309082e-01,-1.758678704500198364e-01,1.270762234926223755e-01
-3.045905828475952148e-01,-7.305622100830078125e-01,-2.833974361419677734e-01,5.083778500556945801e-02,-4.264575242996215820e-01,-7.188913226127624512e-02,-5.268299579620361328e-01,-1.732590235769748688e-02,5.259706377983093262e-01,2.538530528545379639e-01,-1.190320134162902832e+00,-3.303472995758056641e-01,3.103740215301513672e-01,-2.269016355276107788e-01,-7.765818238258361816e-01,7.408236861228942871e-01,4.648769795894622803e-01,3.232815861701965332e-01,7.309688329696655273e-01,4.273170530796051025e-01,-5.700620412826538086e-01,2.948724329471588135e-01,1.006471067667007446e-01,5.274683237075805664e-01,-1.486698538064956665e-01,-5.683137774467468262e-01,4.270215034484863281e-01,-1.003049835562705994e-01,-2.921754419803619385e-01,-9.284539818763732910e-01,-5.852000713348388672e-01,7.637246698141098022e-02
-7.426523417234420776e-02,-4.600040614604949951e-01,-3.421636223793029785e-01,-1.397060789167881012e-02,-4.374401569366455078e-01,-3.518789410591125488e-01,-6.079221963882446289e-01,-2.363038063049316406e-01,6.144935488700866699e-01,1.885192468762397766e-02,-5.558167099952697754e-01,-9.720656275749206543e-02,2.376486361026763916e-01,2.085435092449188232e-01,-4.543381929397583008e-01,5.716616511344909668e-01,6.402982771396636963e-02,2.447434961795806885e-01,4.679188430309295654e-01,3.660794794559478760e-01,-5.833259820938110352e-01,2.848382592201232910e-01,-1.530580571852624416e-03,2.422732114791870117e-01,-1.522037535905838013e-01,-3.121383786201477051e-01,4.720706045627593994e-01,-1.123633459210395813e-01,-1.578976660966873169e-01,-8.627902269363403320e-01,-6.343728899955749512e-01,4.280314445495605469e-01
5.937109515070915222e-02,-2.685802280902862549e-01,-1.673769950866699219e-01,-3.261753171682357788e-02,-1.313218474388122559e-01,-2.081223875284194946e-01,-4.054297506809234619e-01,-1.686681509017944336e-01,7.774445414543151855e-01,-3.454301506280899048e-02,-6.680195331573486328e-01,-6.752202659845352173e-02,3.036926090717315674e-01,5.892788171768188477e-01,-1.414032429456710815e-01,2.210159152746200562e-01,-1.672839522361755371e-01,3.229600489139556885e-01,5.041452646255493164e-01,1.027047857642173767e-01,-1.972588896751403809e-01,-7.344367913901805878e-03,2.147373408079147339e-01,-1.167099457234144211e-02,-1.477828472852706909e-01,7.085941731929779053e-02,9.265161752700805664e-01,6.884426623582839966e-02,-2.534165382385253906e-01,-6.221857666969299316e-01,-5.528516769409179688e-01,3.932594954967498779e-01
2.280340492725372314e-01,-3.184241056442260742e-01,-6.702361255884170532e-02,-7.704627513885498047e-02,6.010499596595764160e-01,-3.266709148883819580e-01,-4.618935883045196533e-01,-2.310569137334823608e-01,5.989719033241271973e-01,-6.593416444957256317e-03,-3.339850902557373047e-01,1.588544547557830811e-01,2.510697841644287109e-01,5.856408476829528809e-01,5.444913357496261597e-02,1.788046360015869141e-01,-1.481533646583557129e-01,5.075648427009582520e-01,3.044320344924926758e-01,-2.979964390397071838e-02,-2.537758648395538330e-01,-3.879707753658294678e-01,-6.002079695463180542e-02,-2.487518936395645142e-01,-1.950344592332839966e-01,4.685629904270172119e-01,6.473641395568847656e-01,3.868257105350494385e-01,-2.649942338466644287e-01,-9.550828933715820312e-01,-6.162429451942443848e-01,5.202180147171020508e-01
6.022928953170776367e-01,-1.265072524547576904e-01,4.486323893070220947e-02,2.202049046754837036e-01,8.220839500427246094e-01,-3.676264286041259766e-01,-4.437836110591888428e-01,-2.815653681755065918e-01,4.969919025897979736e-01,9.620160609483718872e-02,6.085015088319778442e-02,6.271786093711853027e-01,3.128210604190826416e-01,4.308364689350128174e-01,4.190787971019744873e-01,3.923721015453338623e-01,-1.483539305627346039e-02,1.811144649982452393e-01,-2.113547325134277344e-01,-9.843215346336364746e-02,-1.334933340549468994e-01,-7.018919587135314941e-01,3.345499932765960693e-02,-2.459038347005844116e-01,-6.467471718788146973e-01,2.253026366233825684e-01,5.876602530479431152e-01,6.061357855796813965e-01,-1.946965157985687256e-01,-7.321270108222961426e-01,-3.269693851470947266e-01,6.095273494720458984e-01
4.757591485977172852e-01,-3.783870860934257507e-02,3.319593891501426697e-02,2.404879629611968994e-01,6.127235889434814453e-01,-3.316585719585418701e-01,-3.816789090633392334e-01,-2.791792154312133789e-01,8.521524071693420410e-01,1.285987347364425659e-01,5.638711154460906982e-02,8.333816528320312500e-01,1.100655570626258850e-01,3.142610192298889160e-01,3.984553515911102295e-01,1.437529325485229492e-01,3.313238024711608887e-01,-8.399349451065063477e-02,-4.447554945945739746e-01,-2.112067490816116333e-01,-9.220359474420547485e-02,-7.420701980590820312e-01,1.802159249782562256e-01,-2.548442482948303223e-01,-7.012916803359985352e-01,2.363795489072799683e-01,8.564693927764892578e-01,8.915840983390808105e-01,-5.568817257881164551e-01,-1.519115120172500610e-01,2.953183352947235107e-01,4.971097111701965332e-01
5.711494684219360352e-01,2.726621627807617188e-01,3.361419141292572021e-01,4.242052733898162842e-01,7.161356210708618164e-01,-3.199328482151031494e-02,-5.183492898941040039e-01,-4.753181040287017822e-01,2.881688177585601807e-01,2.215160727500915527e-01,-3.294567018747329712e-02,8.444833755493164062e-01,1.478430777788162231e-01,-1.502711772918701172e-01,2.484847009181976318e-01,2.520839273929595947e-01,5.385778546333312988e-01,-4.484946131706237793e-01,-4.640163183212280273e-01,-2.232983522117137909e-02,-2.583846151828765869e-01,-8.639867901802062988e-01,5.901185050606727600e-02,-1.108851805329322815e-01,-5.953240990638732910e-01,2.104987651109695435e-01,5.655266642570495605e-01,7.558002471923828125e-01,-3.589066565036773682e-01,9.832160174846649170e-02,3.869081735610961914e-01,-1.967190653085708618e-01
6.100490689277648926e-01,5.208091735839843750e-01,4.969998598098754883e-01,5.143704414367675781e-01,3.421959578990936279e-01,4.766796156764030457e-02,-4.007190465927124023e-01,1.864240467548370361e-01,6.244704872369766235e-02,6.572034358978271484e-01,-1.320054084062576294e-01,5.094240903854370117e-01,-1.737341731786727905e-01,-5.034957528114318848e-01,1.590567380189895630e-01,2.802183628082275391e-01,1.696842610836029053e-01,-9.043710827827453613e-01,-3.618369698524475098e-01,-2.122054249048233032e-01,-1.158173009753227234e-01,-4.476685225963592529e-01,7.554449439048767090e-01,2.226916849613189697e-01,-3.064227998256683350e-01,4.430479109287261963e-01,2.334863096475601196e-01,2.915510237216949463e-01,-1.059214398264884949e-01,1.465559303760528564e-01,4.928319454193115234e-01,-1.712580621242523193e-01
7.439638972282409668e-01,5.576223731040954590e-01,5.834618210792541504e-01,5.573999881744384766e-01,5.312910079956054688e-01,1.543713212013244629e-01,6.529856473207473755e-02,1.221142858266830444e-01,-2.474897056818008423e-01,5.274449586868286133e-01,-2.473540045320987701e-02,3.978716433048248291e-01,-5.784384608268737793e-01,-5.476675033569335938e-01,1.650176197290420532e-01,3.643070459365844727e-01,2.414455264806747437e-01,-1.004033923149108887e+00,-6.968752294778823853e-02,-2.885504364967346191e-01,7.508842647075653076e-02,-2.810873687267303467e-01,7.164538502693176270e-01,2.986188530921936035e-01,-1.498367786407470703e-01,8.160157501697540283e-02,-1.806142032146453857e-01,-1.379989534616470337e-01,2.826615273952484131e-01,3.225726187229156494e-01,3.571375906467437744e-01,-2.354991883039474487e-01
4.726316928863525391e-01,6.523831486701965332e-01,5.398125052452087402e-01,2.147380858659744263e-01,3.831124603748321533e-01,-1.784957796335220337e-01,-8.330262452363967896e-02,3.023523092269897461e-01,-5.490353107452392578e-01,3.883035778999328613e-01,-3.876555711030960083e-02,2.911331653594970703e-01,-5.241707563400268555e-01,-5.111346244812011719e-01,-1.997058987617492676e-01,2.520694732666015625e-01,3.962497413158416748e-02,-8.112170696258544922e-01,5.269793048501014709e-02,-3.677295446395874023e-01,1.565756946802139282e-01,-1.828409880399703979e-01,8.243322968482971191e-01,3.274410963058471680e-01,-4.732026532292366028e-02,1.417131125926971436e-01,-4.832117855548858643e-01,-3.259901404380798340e-01,7.727541327476501465e-01,2.665909230709075928e-01,2.023373097181320190e-01,-1.116041280329227448e-02
6.190654635429382324e-02,1.876730769872665405e-01,6.540461182594299316e-01,-8.104323595762252808e-02,2.821118235588073730e-01,-4.544910192489624023e-01,-2.089625447988510132e-01,7.337212562561035156e-02,-5.823781490325927734e-01,9.972678869962692261e-02,-3.180039227008819580e-01,1.555315703153610229e-01,-2.179370820522308350e-01,-7.281447052955627441e-01,-2.602440863847732544e-02,4.184263050556182861e-01,1.198414713144302368e-01,-6.859416961669921875e-01,3.218809664249420166e-01,-1.486199647188186646e-01,-9.190678596496582031e-02,-1.175633072853088379e-01,6.096121072769165039e-01,4.272587001323699951e-01,3.972741663455963135e-01,-2.786708176136016846e-01,-5.531660914421081543e-01,-2.339136973023414612e-02,9.482289552688598633e-01,1.178222596645355225e-01,-2.196795791387557983e-01,4.126978293061256409e-02
-4.359245300292968750e-01,2.927394583821296692e-02,6.049661710858345032e-02,1.930380589328706264e-03,-1.743470430374145508e-01,-5.594533681869506836e-01,-4.675664305686950684e-01,-2.286940068006515503e-01,-4.363829195499420166e-01,-1.814294606447219849e-01,-4.440309405326843262e-01,1.093896999955177307e-01,8.522388339042663574e-02,-5.598921179771423340e-01,-1.190208420157432556e-01,6.798709034919738770e-01,-1.992087811231613159e-01,-4.422453045845031738e-01,-5.284941196441650391e-02,-2.116711884737014771e-01,-5.385586619377136230e-01,1.418135911226272583e-01,-7.309038937091827393e-02,5.770059823989868164e-01,1.958205252885818481e-01,-6.707308888435363770e-01,-4.450048804283142090e-01,-1.496426314115524292e-01,1.072768807411193848e+00,-1.355952769517898560e-01,-9.974291175603866577e-02,1.171308755874633789e-02
-8.383817672729492188e-01,-3.186270296573638916e-01,1.437900364398956299e-01,-3.008569963276386261e-02,-3.486478626728057861e-01,-7.331509590148925781e-01,-5.948851704597473145e-01,-3.249425590038299561e-01,-1.650750190019607544e-01,-1.978891789913177490e-01,-3.990346491336822510e-01,-1.080690026283264160e-01,1.021007895469665527e-01,-3.744134604930877686e-01,-2.543279826641082764e-01,6.771702766418457031e-01,-7.771186530590057373e-02,-4.999174475669860840e-01,1.863547414541244507e-01,6.373462383635342121e-04,-6.231097579002380371e-01,4.716017246246337891e-01,-8.316180855035781860e-02,5.961167216300964355e-01,2.239176630973815918e-01,-6.918458342552185059e-01,-3.458615243434906006e-01,3.909054398536682129e-02,6.962862610816955566e-01,-2.142274752259254456e-02,-8.673606067895889282e-02,4.817165434360504150e-01
-6.513465642929077148e-01,-5.280323028564453125e-01,1.217631027102470398e-01,1.527398377656936646e-01,-6.451820135116577148e-01,-3.487244248390197754e-01,-9.469692111015319824e-01,-5.778172016143798828e-01,-1.662635505199432373e-01,-3.045786619186401367e-01,-5.392698049545288086e-01,-6.704328656196594238e-01,-1.961466856300830841e-02,-1.368777174502611160e-02,-1.041530519723892212e-01,2.881342172622680664e-01,-2.985863387584686279e-01,-2.854256927967071533e-01,3.036333322525024414e-01,1.900148689746856689e-01,-7.259408831596374512e-01,6.014567613601684570e-01,-5.353491902351379395e-01,9.814325571060180664e-01,-5.588392727077007294e-03,-5.670581459999084473e-01,-2.164007723331451416e-01,1.669082939624786377e-01,4.963735044002532959e-01,4.562275484204292297e-02,-4.735907316207885742e-01,3.042607307434082031e-01
-6.395153999328613281e-01,-6.927849650382995605e-01,2.386235892772674561e-01,1.594796329736709595e-01,-1.711024194955825806e-01,-4.808482527732849121e-01,-6.848496794700622559e-01,-7.257922887802124023e-01,-1.335723549127578735e-01,-2.197177559137344360e-01,-3.473889827728271484e-01,-5.389794707298278809e-01,1.449209451675415039e-02,3.791275620460510254e-02,-5.663255974650382996e-02,-2.201042473316192627e-01,-6.121490001678466797e-01,-1.227001845836639404e-01,3.070769906044006348e-01,1.171026602387428284e-01,-7.896044254302978516e-01,4.880036413669586182e-01,-4.293811321258544922e-01,3.666308224201202393e-01,-4.973166808485984802e-02,-8.599264174699783325e-02,-1.313971877098083496e-01,6.667827069759368896e-02,5.079762935638427734e-01,-1.027512270957231522e-02,-8.834152221679687500e-01,5.487680435180664062e-01
-3.999462425708770752e-01,-2.596435546875000000e-01,2.571078538894653320e-01,2.836484834551811218e-02,7.205667346715927124e-02,-4.143371582031250000e-01,-4.681662321090698242e-01,-4.778356552124023438e-01,-5.791788920760154724e-02,-2.061423659324645996e-01,-7.169559597969055176e-02,-2.180634588003158569e-01,-4.033333361148834229e-01,5.007982254028320312e-01,-7.478959113359451294e-02,-2.738347053527832031e-01,-7.651162743568420410e-01,-7.124908268451690674e-02,4.043831229209899902e-01,-3.574849069118499756e-01,-4.887514114379882812e-01,5.106046795845031738e-01,-8.801320195198059082e-01,-6.727744638919830322e-02,-1.754864901304244995e-01,8.406211622059345245e-03,-6.567437946796417236e-02,-8.618182688951492310e-02,5.420914292335510254e-01,2.590042538940906525e-03,-8.524020910263061523e-01,7.926860451698303223e-01
-3.173387646675109863e-01,-2.672421038150787354e-01,3.760581314563751221e-01,2.311402559280395508e-02,2.243727445602416992e-01,-1.534515470266342163e-01,7.142809778451919556e-02,-7.550227046012878418e-01,-1.493548452854156494e-01,-2.480147182941436768e-01,9.892123192548751831e-02,3.314118459820747375e-02,-1.958443224430084229e-01,7.199667692184448242e-01,5.228070616722106934e-01,-1.955853104591369629e-01,-6.720877289772033691e-01,-5.950697883963584900e-02,4.246317222714424133e-02,-4.316368401050567627e-01,-4.897896200418472290e-02,2.746799588203430176e-01,-7.276921868324279785e-01,-3.489822149276733398e-01,-3.720610141754150391e-01,2.121173441410064697e-01,-1.410790681838989258e-01,2.230155467987060547e-01,4.590410888195037842e-01,3.709656000137329102e-02,-7.843937873840332031e-01,8.275730609893798828e-01
-2.674413323402404785e-01,-2.869911193847656250e-01,2.556818425655364990e-01,3.357644677162170410e-01,2.622798979282379150e-01,-1.606405377388000488e-01,-2.539205178618431091e-02,-9.002861380577087402e-01,-1.801607012748718262e-01,1.171206496655941010e-02,2.992970943450927734e-01,3.006648421287536621e-01,-4.173178076744079590e-01,8.945763111114501953e-01,4.079146683216094971e-01,-1.396310180425643921e-01,-2.696461081504821777e-01,-1.181373298168182373e-01,-8.879835158586502075e-02,-5.235490798950195312e-01,2.240873686969280243e-02,-2.052222564816474915e-02,-7.387198209762573242e-01,-6.663970947265625000e-01,-5.407660603523254395e-01,3.980189561843872070e-01,1.638237833976745605e-01,1.546553075313568115e-01,3.704564273357391357e-02,-3.399689123034477234e-02,-6.006261110305786133e-01,7.392168641090393066e-01
-1.338063776493072510e-01,-1.178422346711158752e-01,3.965704143047332764e-01,7.091754674911499023e-01,3.631489872932434082e-01,8.106870204210281372e-02,5.544197931885719299e-02,-8.994336128234863281e-01,-2.008840590715408325e-01,2.419069707393646240e-01,6.141455098986625671e-02,6.416360139846801758e-01,-3.396672308444976807e-01,6.156284809112548828e-01,2.337540537118911743e-01,-1.310880184173583984e-01,-5.770017206668853760e-02,-1.314434129744768143e-02,-3.107694983482360840e-01,-6.720746159553527832e-01,1.153688281774520874e-01,6.034097075462341309e-02,-4.938051998615264893e-01,-6.210681200027465820e-01,-8.727380037307739258e-01,6.204237341880798340e-01,9.885824471712112427e-02,4.283320903778076172e-02,-3.035267889499664307e-01,1.959582976996898651e-02,-5.782026052474975586e-02,2.550289034843444824e-01
-1.788112968206405640e-01,6.113652512431144714e-02,5.419641733169555664e-01,8.010371327400207520e-01,2.689208090305328369e-01,3.854656815528869629e-01,1.925861239433288574e-01,-4.606720209121704102e-01,-1.709144860506057739e-01,6.378019452095031738e-01,-1.975596845149993896e-01,7.232581973075866699e-01,-8.794561028480529785e-01,5.133159160614013672e-01,3.357347548007965088e-01,2.200945764780044556e-01,3.610136210918426514e-01,-2.947953045368194580e-01,-2.939188182353973389e-01,-6.511396169662475586e-01,3.078944981098175049e-01,2.284221947193145752e-01,-3.828378319740295410e-01,-4.929149150848388672e-01,-1.155890822410583496e+00,5.601422190666198730e-01,-8.324046432971954346e-02,-1.157665252685546875e-01,-1.614381074905395508e-01,4.596143960952758789e-01,8.335250616073608398e-02,-1.295371502637863159e-01
-2.248404771089553833e-01,3.723573386669158936e-01,5.226243734359741211e-01,5.188806056976318359e-01,2.333864569664001465e-01,3.133066296577453613e-01,5.063976049423217773e-01,-1.806462556123733521e-01,-2.181118279695510864e-01,7.832149267196655273e-01,-2.424324452877044678e-01,5.227987766265869141e-01,-1.031363487243652344e+00,2.873397171497344971e-01,8.833574503660202026e-02,9.722582995891571045e-03,4.878952801227569580e-01,-4.215153455734252930e-01,8.414065837860107422e-02,-6.745685935020446777e-01,7.699601650238037109e-01,4.532778263092041016e-01,-2.086777091026306152e-01,-4.029362499713897705e-01,-6.750779151916503906e-01,6.218750476837158203e-01,-2.629650235176086426e-01,-3.657956719398498535e-01,1.512517873197793961e-02,5.577622652053833008e-01,2.426035255193710327e-01,-5.225322842597961426e-01
1.543193310499191284e-01,6.902481913566589355e-01,5.064628720283508301e-01,3.941445350646972656e-01,2.021148353815078735e-01,2.939463257789611816e-01,6.471310257911682129e-01,2.320016175508499146e-01,-5.880034565925598145e-01,8.576361536979675293e-01,-2.766625583171844482e-01,4.733851552009582520e-01,-9.033293128013610840e-01,2.151201814413070679e-01,-1.397555470466613770e-01,1.646893657743930817e-02,1.980573236942291260e-01,-4.425050616264343262e-01,3.134838938713073730e-01,-5.565536022186279297e-01,9.258514642715454102e-01,3.357229530811309814e-01,3.219790756702423096e-01,-3.062187731266021729e-01,-4.533607661724090576e-01,6.411066651344299316e-01,-4.340374171733856201e-01,-9.689918756484985352e-01,1.567868143320083618e-02,5.969651937484741211e-01,-8.982000872492790222e-03,-6.701846122741699219e-01
1.113395579159259796e-02,8.156224489212036133e-01,4.230096340179443359e-01,-2.529000118374824524e-02,1.567354947328567505e-01,-6.144959852099418640e-02,5.143358111381530762e-01,5.293141603469848633e-01,-6.417614221572875977e-01,8.042601346969604492e-01,-3.974583148956298828e-01,5.255976319313049316e-01,-6.174533367156982422e-01,1.829244196414947510e-01,9.395101107656955719e-03,4.206530451774597168e-01,4.024880826473236084e-01,-3.196763396263122559e-01,2.749328911304473877e-01,-5.733632445335388184e-01,7.280584573745727539e-01,4.120146632194519043e-01,2.114010900259017944e-01,-2.999059855937957764e-01,-3.608531057834625244e-01,6.211687922477722168e-01,-5.096119046211242676e-01,-7.971781492233276367e-01,3.254762291908264160e-01,9.268495440483093262e-02,-7.418612018227577209e-03,-4.985072314739227295e-01
-1.908043771982192993e-01,6.585170030593872070e-01,3.808980062603950500e-02,-2.446826845407485962e-01,-1.672523841261863708e-02,-5.961666107177734375e-01,2.604131996631622314e-01,3.021027445793151855e-01,-3.850177228450775146e-01,2.892429530620574951e-01,-3.017097115516662598e-01,3.648352622985839844e-01,-4.560935795307159424e-01,5.334870219230651855e-01,5.798197910189628601e-02,7.480257153511047363e-01,3.013901412487030029e-01,-5.832675099372863770e-02,1.807304769754409790e-01,-1.802811771631240845e-01,7.367705106735229492e-01,5.319581627845764160e-01,2.578072845935821533e-01,-3.266638219356536865e-01,-3.183059096336364746e-01,2.173693478107452393e-01,-6.137183904647827148e-01,-1.018100976943969727e+00,6.119724512100219727e-01,-5.583660304546356201e-02,1.972907930612564087e-01,-6.356266140937805176e-01
-8.112273216247558594e-01,4.849303662776947021e-01,-3.245680332183837891e-01,-4.340165853500366211e-01,-1.022738516330718994e-01,-7.211011648178100586e-01,-1.886061877012252808e-01,2.858360707759857178e-01,-1.542028635740280151e-01,1.650968343019485474e-01,-4.983871579170227051e-01,1.478663980960845947e-01,-2.293607592582702637e-01,2.546795308589935303e-01,-1.591601222753524780e-02,7.249486446380615234e-01,3.743489086627960205e-01,2.460445910692214966e-01,3.767170906066894531e-01,4.073261916637420654e-01,3.723524212837219238e-01,4.803275465965270996e-01,-6.287857145071029663e-02,-1.480644047260284424e-01,1.520292013883590698e-01,-3.139259666204452515e-02,-3.965773582458496094e-01,-7.951928973197937012e-01,4.965819120407104492e-01,-2.157599031925201416e-01,1.514516174793243408e-01,-3.068147897720336914e-01
-6.141601204872131348e-01,1.699927300214767456e-01,-5.482898354530334473e-01,-7.266083955764770508e-01,-1.395806670188903809e-01,-5.614365935325622559e-01,-5.802243947982788086e-01,2.553799748420715332e-02,-4.344845190644264221e-02,7.789158076047897339e-02,-3.697697520256042480e-01,-3.878044337034225464e-02,2.307283431291580200e-01,1.169835999608039856e-01,1.786119043827056885e-01,8.442355990409851074e-01,-2.139546722173690796e-01,1.906218379735946655e-01,1.149592623114585876e-01,4.869621098041534424e-01,-1.337123513221740723e-01,7.129150032997131348e-01,-2.264467477798461914e-01,1.636063456535339355e-01,-3.953519091010093689e-02,1.967719495296478271e-01,-1.483187675476074219e-01,-4.401731491088867188e-01,3.747245073318481445e-01,-2.285420149564743042e-01,-1.312442123889923096e-01,-5.299535989761352539e-01
-6.576673984527587891e-01,2.173300236463546753e-01,-4.965633451938629150e-01,-5.664677619934082031e-01,-7.946269214153289795e-02,-8.483266234397888184e-01,-5.846567153930664062e-01,-5.901581794023513794e-02,1.813645362854003906e-01,9.711597859859466553e-02,-5.173338055610656738e-01,-2.031738311052322388e-01,1.686514914035797119e-01,3.288115262985229492e-01,1.625125259160995483e-01,5.770121216773986816e-01,-5.914356708526611328e-01,1.587555557489395142e-01,-3.513992950320243835e-02,6.075614690780639648e-01,-2.608844935894012451e-01,5.748276710510253906e-01,-1.903862655162811279e-01,1.943642497062683105e-01,-5.633130669593811035e-02,1.561209466308355331e-02,7.040094584226608276e-02,-4.665066301822662354e-01,1.709238290786743164e-01,-3.125201165676116943e-01,-4.744165763258934021e-02,-4.391809105873107910e-01
-2.684119641780853271e-01,3.745461702346801758e-01,-6.063030362129211426e-01,-7.658675312995910645e-01,-1.524998545646667480e-01,-6.570798158645629883e-01,-6.909806132316589355e-01,3.600675985217094421e-02,2.518583834171295166e-01,-3.794528245925903320e-01,2.563237026333808899e-02,-2.485697567462921143e-01,2.926088869571685791e-01,7.108586430549621582e-01,5.422984957695007324e-01,6.337800621986389160e-02,-6.083692908287048340e-01,3.100548684597015381e-01,-3.172734081745147705e-01,5.537334084510803223e-01,-3.462520614266395569e-02,6.114968657493591309e-01,-3.541781306266784668e-01,-7.971391081809997559e-02,2.154666185379028320e-01,1.975310146808624268e-01,-2.662174403667449951e-02,-1.929064691066741943e-01,2.751958183944225311e-02,-1.156146526336669922e-01,-7.034841924905776978e-02,-4.270615428686141968e-02
1.753351837396621704e-02,2.751124501228332520e-01,-5.155869722366333008e-01,-9.076615571975708008e-01,1.775727421045303345e-01,-7.531846761703491211e-01,-5.074042081832885742e-01,-5.310901999473571777e-02,2.497406005859375000e-01,-2.113474309444427490e-01,2.862969636917114258e-01,-1.309807151556015015e-01,2.690614461898803711e-01,5.931781530380249023e-01,7.411252260208129883e-01,-1.927739530801773071e-01,-1.041184902191162109e+00,1.868275552988052368e-01,-3.632544875144958496e-01,5.056805014610290527e-01,-2.048642635345458984e-01,1.120164897292852402e-02,-1.860179752111434937e-01,-4.215618669986724854e-01,9.389267116785049438e-02,6.224549412727355957e-01,2.051016986370086670e-01,3.401166945695877075e-02,1.483971029520034790e-01,-7.131391763687133789e-02,-2.035608328878879547e-02,3.018284030258655548e-02
1.640480011701583862e-01,1.663341671228408813e-01,-1.672230213880538940e-01,-7.708184719085693359e-01,5.710775256156921387e-01,-6.136821508407592773e-01,-1.745198369026184082e-01,1.990785263478755951e-02,-1.843607127666473389e-01,-3.908666670322418213e-01,7.007381916046142578e-01,1.294820010662078857e-01,3.671087026596069336e-01,7.138815522193908691e-01,8.915973305702209473e-01,-2.477625757455825806e-01,-9.083206057548522949e-01,2.073956280946731567e-01,-7.119826674461364746e-01,3.239155709743499756e-01,-2.196935415267944336e-01,-3.186565041542053223e-01,-5.900728106498718262e-01,-4.723200798034667969e-01,4.063338506966829300e-03,6.247072815895080566e-01,9.561460465192794800e-02,2.073294222354888916e-01,-1.319974511861801147e-01,-4.338726401329040527e-02,4.556082934141159058e-02,2.782077789306640625e-01
2.676025032997131348e-01,3.520733118057250977e-01,-3.347264826297760010e-01,-2.623036205768585205e-01,4.488188028335571289e-01,-2.517548799514770508e-01,-7.276868075132369995e-02,-1.563029289245605469e-01,-5.271320790052413940e-02,-5.721151828765869141e-01,7.914196848869323730e-01,1.126122921705245972e-01,2.235024720430374146e-01,7.214083075523376465e-01,1.125904679298400879e+00,-3.845209181308746338e-01,-5.897204279899597168e-01,-3.704502061009407043e-02,-8.917698264122009277e-01,-7.753022015094757080e-02,2.028682231903076172e-01,-4.785040020942687988e-01,-6.790968179702758789e-01,-5.593729019165039062e-01,-2.390208840370178223e-01,4.291223585605621338e-01,-1.258469372987747192e-01,4.099333584308624268e-01,6.827607750892639160e-03,1.568730771541595459e-01,3.670948445796966553e-01,8.202607184648513794e-02
5.973128974437713623e-02,4.642516672611236572e-01,-1.040900871157646179e-01,-3.981174156069755554e-02,2.948773801326751709e-01,1.852255761623382568e-01,1.399532407522201538e-01,-3.379872739315032959e-01,-1.211938634514808655e-01,-3.401330411434173584e-01,1.125502467155456543e+00,3.180930316448211670e-01,4.004601389169692993e-02,2.812107503414154053e-01,9.037810564041137695e-01,-4.235830008983612061e-01,-2.671813368797302246e-01,-2.008490860462188721e-01,-1.301693081855773926e+00,9.642439335584640503e-02,1.572654545307159424e-01,-2.014426290988922119e-01,-4.415747821331024170e-01,-5.532248616218566895e-01,-2.427814751863479614e-01,4.934092164039611816e-01,-4.832008108496665955e-02,3.014920353889465332e-01,-1.255913078784942627e-01,6.455856561660766602e-01,6.912552714347839355e-01,-1.632239818572998047e-01
7.593891583383083344e-03,3.780614137649536133e-01,2.434099912643432617e-01,2.923794388771057129e-01,6.320866942405700684e-02,5.065395236015319824e-01,7.057961076498031616e-02,7.754288613796234131e-02,-4.968554079532623291e-01,6.992271542549133301e-02,5.639855265617370605e-01,5.847107246518135071e-02,-2.940567433834075928e-01,-1.188701614737510681e-01,5.095839500427246094e-01,-6.511564850807189941e-01,-1.791609972715377808e-01,-4.546675980091094971e-01,-1.172961354255676270e+00,7.035353034734725952e-02,2.442458122968673706e-01,-1.755061000585556030e-01,-2.850706577301025391e-01,-1.795531809329986572e-01,-1.149060353636741638e-01,4.518915414810180664e-01,-1.119225472211837769e-01,1.727928370237350464e-01,9.832912683486938477e-02,6.779002547264099121e-01,9.228782057762145996e-01,-3.406558930873870850e-01
1.634283661842346191e-01,5.133534073829650879e-01,1.730857342481613159e-01,2.797170877456665039e-01,-1.636203676462173462e-01,5.432698130607604980e-01,6.361253857612609863e-01,2.804487049579620361e-01,-7.396954298019409180e-01,1.747232079505920410e-01,4.771264195442199707e-01,-4.583704844117164612e-02,-4.345708191394805908e-01,-4.976520687341690063e-02,2.907090783119201660e-01,-3.403104543685913086e-01,-2.043362408876419067e-01,-7.597358822822570801e-01,-8.200549483299255371e-01,-4.596257954835891724e-02,6.176723241806030273e-01,1.346528530120849609e-01,6.707950681447982788e-02,-2.813157159835100174e-03,7.957071810960769653e-02,6.153891682624816895e-01,-6.821274161338806152e-01,-4.746023714542388916e-01,1.140792742371559143e-01,1.048926591873168945e+00,8.193462491035461426e-01,-3.853343725204467773e-01
1.447878032922744751e-01,6.854765415191650391e-01,4.403318464756011963e-01,1.234776973724365234e-01,-1.639914065599441528e-01,4.329890310764312744e-01,6.969727277755737305e-01,5.118541121482849121e-01,-9.616216421127319336e-01,1.780809313058853149e-01,5.653994083404541016e-01,-2.505899071693420410e-01,-5.048484206199645996e-01,-1.062629073858261108e-01,2.192355245351791382e-01,-5.331400632858276367e-01,-4.081463515758514404e-01,-7.404300570487976074e-01,-6.843163967132568359e-01,-3.345721960067749023e-01,6.227443814277648926e-01,3.126809000968933105e-01,8.906331658363342285e-02,6.474790722131729126e-02,3.667323887348175049e-01,2.432860136032104492e-01,-9.606567025184631348e-01,-5.712438225746154785e-01,5.715681314468383789e-01,9.513795375823974609e-01,4.581933021545410156e-01,-3.882732391357421875e-01
-1.999565660953521729e-01,6.684994101524353027e-01,1.690900176763534546e-01,-7.086263597011566162e-02,-5.039809942245483398e-01,4.459572732448577881e-01,6.448037624359130859e-01,3.939569592475891113e-01,-8.940565586090087891e-01,-2.358778417110443115e-01,2.993124127388000488e-01,-4.101830422878265381e-01,-5.205144286155700684e-01,-1.684709638357162476e-01,4.774492979049682617e-02,-4.618096351623535156e-01,-2.219644337892532349e-01,-3.542224168777465820e-01,-1.002517640590667725e-01,-6.051174923777580261e-02,6.352810263633728027e-01,2.675415873527526855e-01,-1.017597243189811707e-01,-5.901302210986614227e-03,7.293428182601928711e-01,-1.544712297618389130e-02,-9.350138306617736816e-01,-8.101388216018676758e-01,6.443443298339843750e-01,6.281155347824096680e-01,5.054284334182739258e-01,-3.126951754093170166e-01
-4.654721021652221680e-01,1.845098584890365601e-01,-6.305045634508132935e-02,-5.147555470466613770e-01,-7.184056043624877930e-01,1.017811894416809082e-01,4.706014692783355713e-01,3.109221458435058594e-01,-9.213836193084716797e-01,-3.904839158058166504e-01,2.375776916742324829e-01,-4.973982870578765869e-01,-2.123952060937881470e-01,-5.742986500263214111e-02,-7.915855944156646729e-02,-1.007210579700767994e-03,-3.722080588340759277e-02,1.219956278800964355e-01,-7.416577637195587158e-02,9.375903755426406860e-02,3.040828704833984375e-01,5.533290505409240723e-01,-1.735478639602661133e-01,5.058762803673744202e-02,5.346422791481018066e-01,-1.287877261638641357e-01,-7.968821525573730469e-01,-7.776483893394470215e-01,5.501221418380737305e-01,2.263994514942169189e-01,1.309349238872528076e-01,-3.742441534996032715e-01
-6.725084781646728516e-01,-1.807576119899749756e-01,-3.375443518161773682e-01,-2.541251480579376221e-01,-7.686018347740173340e-01,-1.589253097772598267e-01,2.629116177558898926e-01,9.916014224290847778e-02,-6.358838677406311035e-01,-5.676201581954956055e-01,1.537642478942871094e-01,-4.391490221023559570e-01,2.102464586496353149e-01,3.471957147121429443e-02,-2.024457901716232300e-01,7.383340597152709961e-02,-1.368204355239868164e-01,1.947289854288101196e-01,-3.382116854190826416e-01,4.678133428096771240e-01,3.184823691844940186e-02,7.626410722732543945e-01,-5.223801732063293457e-01,3.093755245208740234e-01,4.834197461605072021e-01,-3.932496607303619385e-01,-6.677398085594177246e-01,-7.659117579460144043e-01,4.873759448528289795e-01,6.155078858137130737e-02,2.735853195190429688e-01,-2.539515793323516846e-01
-7.789550423622131348e-01,-4.584745764732360840e-01,-6.825957894325256348e-01,-2.160635143518447876e-01,-9.319715499877929688e-01,1.005063131451606750e-01,1.797483861446380615e-01,-6.888459622859954834e-02,-3.014101386070251465e-01,-7.302454113960266113e-01,-3.270221650600433350e-01,-7.868549227714538574e-01,1.955960243940353394e-01,2.148016244173049927e-01,-4.129661619663238525e-01,-5.595150217413902283e-02,-2.570395469665527344e-01,4.360433518886566162e-01,7.444702088832855225e-02,7.655463218688964844e-01,-1.635639816522598267e-01,7.780842781066894531e-01,-7.235459685325622559e-01,2.740589678287506104e-01,3.283386230468750000e-01,-4.377836883068084717e-01,-3.676466047763824463e-01,-6.498360633850097656e-01,1.493060737848281860e-01,-1.634108871221542358e-01,1.189062818884849548e-01,-2.281973659992218018e-01
-5.024723410606384277e-01,-4.464817643165588379e-01,-4.086907207965850830e-01,-4.729859828948974609e-01,-1.046416521072387695e+00,3.269726037979125977e-01,-2.623365633189678192e-02,-2.146707326173782349e-01,6.263123359531164169e-03,-5.330240726470947266e-01,-2.573059797286987305e-01,-8.035237193107604980e-01,3.305603861808776855e-01,3.434146940708160400e-01,-4.633876979351043701e-01,-2.517881989479064941e-01,-2.309101521968841553e-01,6.325716376304626465e-01,-1.456272304058074951e-01,7.155216932296752930e-01,-3.350620716810226440e-02,6.369855403900146484e-01,-5.203828811645507812e-01,2.669128775596618652e-01,3.449321985244750977e-01,-2.566171288490295410e-01,-1.429350227117538452e-01,-5.810720920562744141e-01,-6.382285803556442261e-02,-1.879877299070358276e-01,-6.964332610368728638e-02,-3.105075098574161530e-02
-4.577103555202484131e-01,-3.914408087730407715e-01,-3.787468671798706055e-01,-4.869040846824645996e-01,-7.885656356811523438e-01,2.607393264770507812e-01,9.511150419712066650e-03,-3.210394382476806641e-01,2.071858197450637817e-01,-4.437514543533325195e-01,-1.381194293498992920e-01,-6.758342981338500977e-01,1.516341418027877808e-01,3.656174242496490479e-01,-1.544288992881774902e-01,-5.272624492645263672e-01,-5.939997434616088867e-01,8.027741909027099609e-01,6.845382601022720337e-02,4.074068069458007812e-01,2.451471425592899323e-02,6.319688558578491211e-01,-6.074743866920471191e-01,-6.182217970490455627e-02,2.243189215660095215e-01,3.718387484550476074e-01,-1.568076312541961670e-01,-7.480816245079040527e-01,-3.924925625324249268e-01,-3.707023561000823975e-01,-3.600462973117828369e-01,1.212605535984039307e-01
6.365864723920822144e-02,-2.005800902843475342e-01,-2.426323890686035156e-01,-3.737521171569824219e-01,-4.811433255672454834e-01,2.306712865829467773e-01,4.226630330085754395e-01,-1.384045779705047607e-01,1.350233852863311768e-01,-4.559937715530395508e-01,4.778470471501350403e-02,-4.247675538063049316e-01,8.975359797477722168e-02,1.063476562500000000e+00,2.465262115001678467e-01,-6.213821172714233398e-01,-5.215474963188171387e-01,7.990904450416564941e-01,-1.297405548393726349e-02,2.350685000419616699e-01,1.750787496566772461e-01,1.998874694108963013e-01,-5.751593112945556641e-01,-5.074163675308227539e-01,-6.319534778594970703e-02,2.979229092597961426e-01,2.402628771960735321e-02,-3.098351955413818359e-01,-2.108033150434494019e-01,-2.471549659967422485e-01,-5.204983949661254883e-01,2.471762448549270630e-01
1.442345231771469116e-01,5.319711565971374512e-02,-3.955085873603820801e-01,-2.774781882762908936e-01,-1.188660562038421631e-01,2.250651866197586060e-01,4.337461292743682861e-01,-9.068807214498519897e-02,1.829752027988433838e-01,-4.636171758174896240e-01,3.303853869438171387e-01,-9.993207454681396484e-02,4.853298142552375793e-02,1.052599906921386719e+00,5.306234359741210938e-01,-4.980933666229248047e-01,-1.917216032743453979e-01,9.737510681152343750e-01,-2.314496189355850220e-01,1.899757683277130127e-01,5.299706459045410156e-01,-1.261432468891143799e-01,-3.643745183944702148e-01,-7.795903682708740234e-01,-5.474579334259033203e-02,6.837042570114135742e-01,2.591811120510101318e-01,-2.070656716823577881e-01,-5.325994491577148438e-01,-5.082232356071472168e-01,-3.769540414214134216e-02,3.722842037677764893e-01
4.300132691860198975e-01,-1.399585306644439697e-01,-3.804540634155273438e-01,-1.160321086645126343e-01,2.942829132080078125e-01,2.051115632057189941e-01,3.432850539684295654e-01,1.121894940733909607e-01,3.818543255329132080e-01,-2.421601563692092896e-01,1.485431194305419922e-01,1.406448930501937866e-01,1.831143796443939209e-01,7.720656991004943848e-01,4.455473721027374268e-01,-3.242507278919219971e-01,1.306252032518386841e-01,7.101330757141113281e-01,-4.155679941177368164e-01,2.100858390331268311e-01,3.540030121803283691e-01,-4.787662029266357422e-01,-3.561878502368927002e-01,-6.091266870498657227e-01,-3.023581802845001221e-01,7.774141430854797363e-01,5.384401082992553711e-01,5.525136366486549377e-02,-8.927928805351257324e-01,-2.472639232873916626e-01,3.705800175666809082e-01,-5.847664549946784973e-02
3.639003634452819824e-01,-4.868182167410850525e-02,-3.417428731918334961e-01,7.434996962547302246e-02,1.255921274423599243e-01,4.886097013950347900e-01,4.278674721717834473e-01,2.572264969348907471e-01,3.356390595436096191e-01,7.246702909469604492e-02,2.142881751060485840e-01,3.271842300891876221e-01,2.833639681339263916e-01,6.174285411834716797e-01,4.187610149383544922e-01,-2.236413806676864624e-01,4.163352549076080322e-01,4.242406785488128662e-01,-9.095866084098815918e-01,1.780711710453033447e-01,4.317884445190429688e-01,-3.938188850879669189e-01,-1.954552680253982544e-01,-6.778450608253479004e-01,-5.102118849754333496e-01,5.440408587455749512e-01,4.304095804691314697e-01,3.773358464241027832e-02,-1.006433129310607910e+00,-3.015542626380920410e-01,7.006862759590148926e-01,-3.166951835155487061e-01
5.992491841316223145e-01,2.240005731582641602e-01,-1.934712380170822144e-01,4.247987568378448486e-01,-1.354702860116958618e-01,6.460055112838745117e-01,4.971550703048706055e-01,5.898002386093139648e-01,3.364435136318206787e-01,3.689160048961639404e-01,1.674656718969345093e-01,2.472144812345504761e-01,-1.085151545703411102e-02,1.311869919300079346e-01,-1.497771684080362320e-02,-2.585169970989227295e-01,5.478631258010864258e-01,1.505808625370264053e-02,-7.944955825805664062e-01,2.049939185380935669e-01,6.347600817680358887e-01,-2.391699850559234619e-01,4.295946657657623291e-02,-4.023694097995758057e-01,-4.268504083156585693e-01,6.332665681838989258e-01,3.264870941638946533e-01,-6.153659150004386902e-02,-7.220908403396606445e-01,-9.275230020284652710e-02,6.742606163024902344e-01,-7.020767927169799805e-01
6.616871953010559082e-01,5.229147076606750488e-01,1.792894862592220306e-02,-3.390569984912872314e-02,-1.779977232217788696e-01,6.613013148307800293e-01,5.890535712242126465e-01,8.297766447067260742e-01,3.101709783077239990e-01,2.582860589027404785e-01,1.001256257295608521e-01,1.847739666700363159e-01,-1.071352064609527588e-01,-9.369054436683654785e-02,-2.700613439083099365e-01,-1.532279103994369507e-01,4.156457483768463135e-01,-2.878473512828350067e-02,-3.024268448352813721e-01,3.093096017837524414e-01,6.962571740150451660e-01,-5.026409626007080078e-01,4.580195844173431396e-01,-1.505807936191558838e-01,-2.221975475549697876e-01,6.821354031562805176e-01,2.655930519104003906e-01,-3.224591910839080811e-01,-5.363481044769287109e-01,4.697022587060928345e-02,7.527220845222473145e-01,-8.754357695579528809e-01
5.356103181838989258e-01,5.851153731346130371e-01,3.199244663119316101e-02,-3.701958954334259033e-01,-1.876307725906372070e-01,4.849447906017303467e-01,6.809546351432800293e-01,1.117540121078491211e+00,-9.170434623956680298e-02,2.217207103967666626e-01,5.632486194372177124e-02,-5.235652998089790344e-02,-1.768886595964431763e-01,-3.555528521537780762e-01,-1.977934688329696655e-01,-2.154065966606140137e-01,3.947120010852813721e-01,-2.530942857265472412e-02,-4.326269775629043579e-02,4.215346872806549072e-01,5.860555171966552734e-01,-2.082008719444274902e-01,7.400373816490173340e-01,-3.906257823109626770e-02,3.555676937103271484e-01,3.283315300941467285e-01,-1.554081141948699951e-01,-3.221114277839660645e-01,-3.408916294574737549e-01,-1.355304867029190063e-01,7.772139906883239746e-01,-8.528920412063598633e-01
6.473830342292785645e-01,6.370862722396850586e-01,-1.836432665586471558e-01,-5.535940527915954590e-01,-1.100089922547340393e-01,8.940140157938003540e-02,3.195586800575256348e-01,1.042377471923828125e+00,-2.743685841560363770e-01,1.064651831984519958e-01,7.823320478200912476e-02,1.014559939503669739e-01,1.210819259285926819e-01,-1.466653048992156982e-01,1.086946693249046803e-03,3.308371603488922119e-01,2.991655766963958740e-01,2.249099314212799072e-02,1.055424585938453674e-01,9.617315977811813354e-02,3.060604333877563477e-01,-2.670744657516479492e-01,6.941812038421630859e-01,1.599059551954269409e-01,6.135711073875427246e-01,1.889686882495880127e-01,-3.840484917163848877e-01,-2.818585932254791260e-01,1.988174766302108765e-01,-1.073520034551620483e-01,6.199228167533874512e-01,-6.917560100555419922e-01
3.282198011875152588e-01,2.038380354642868042e-01,-4.815083742141723633e-01,-6.169332265853881836e-01,-5.303511023521423340e-01,-2.244784832000732422e-01,2.582902610301971436e-01,8.538475632667541504e-01,-7.933767884969711304e-02,-3.137755990028381348e-01,-7.253899425268173218e-02,-2.241251617670059204e-01,4.798460900783538818e-01,-1.237267106771469116e-01,-1.665541231632232666e-01,3.396730720996856689e-01,2.002273350954055786e-01,2.030074000358581543e-01,-1.210714057087898254e-01,7.265442609786987305e-01,1.487956643104553223e-01,-4.377984702587127686e-01,2.246526926755905151e-01,2.755138576030731201e-01,8.859787583351135254e-01,-2.982560396194458008e-01,-3.014112412929534912e-01,-9.147264063358306885e-02,2.515729367733001709e-01,-5.811990499496459961e-01,7.289031744003295898e-01,-4.450795352458953857e-01
-7.040285319089889526e-02,-2.441427260637283325e-01,-5.561530590057373047e-01,-6.752336621284484863e-01,-5.558930039405822754e-01,-3.065550923347473145e-01,-2.195308059453964233e-01,6.225671768188476562e-01,5.690741539001464844e-02,-6.016807556152343750e-01,-2.665604650974273682e-01,-6.058869361877441406e-01,7.865186929702758789e-01,-3.635783195495605469e-01,-4.807122647762298584e-01,2.856323421001434326e-01,3.269170224666595459e-01,3.778288066387176514e-01,-9.827043116092681885e-02,9.699322581291198730e-01,-2.527588903903961182e-01,-7.337947841733694077e-03,2.881491184234619141e-01,9.027652740478515625e-01,8.001306056976318359e-01,-7.628705501556396484e-01,3.542144224047660828e-02,5.890870094299316406e-02,1.554120332002639771e-01,-5.677217841148376465e-01,5.496250987052917480e-01,-3.063669502735137939e-01
-2.532045543193817139e-01,-3.174214363098144531e-01,-6.177793741226196289e-01,-3.635058104991912842e-01,-6.577116847038269043e-01,-3.806531727313995361e-01,-5.593376159667968750e-01,1.944108903408050537e-01,3.847582638263702393e-01,-4.537974298000335693e-01,-3.026206195354461670e-01,-8.559371232986450195e-01,1.055374383926391602e+00,-4.801623225212097168e-01,-2.950520515441894531e-01,4.522106647491455078e-01,1.501994132995605469e-01,2.207124680280685425e-01,-1.303429901599884033e-01,9.730721116065979004e-01,-8.219975829124450684e-01,1.286602020263671875e-01,2.107980288565158844e-02,8.527532219886779785e-01,9.453662633895874023e-01,-6.292113661766052246e-01,1.021252274513244629e-01,8.478054404258728027e-02,-1.184335723519325256e-01,-4.706458151340484619e-01,1.631288975477218628e-01,-2.447468489408493042e-01
1.904228329658508301e-01,-4.286194145679473877e-01,-4.160869121551513672e-01,-4.479928910732269287e-01,-4.739070236682891846e-01,-1.428534686565399170e-01,-4.488141238689422607e-01,1.355447769165039062e-01,6.158117055892944336e-01,-6.906288266181945801e-01,6.610070820897817612e-03,-8.288664817810058594e-01,9.042108058929443359e-01,-4.197308123111724854e-01,-1.654667593538761139e-02,-2.949480339884757996e-02,-2.254969477653503418e-01,1.662638932466506958e-01,-2.873622775077819824e-01,7.831239700317382812e-01,-8.657350540161132812e-01,6.353852152824401855e-02,-3.015993628650903702e-03,8.384338021278381348e-01,6.489284634590148926e-01,-6.315135955810546875e-01,1.691136062145233154e-01,1.113329902291297913e-01,-7.717993855476379395e-02,-1.931167691946029663e-01,1.123057752847671509e-01,1.981242001056671143e-01
3.995935618877410889e-01,-3.276630640029907227e-01,-5.662449002265930176e-01,-3.358778357505798340e-01,-4.236419498920440674e-01,7.509620487689971924e-02,-2.471046447753906250e-01,-1.780520975589752197e-01,3.181602954864501953e-01,-6.394789218902587891e-01,-3.272743895649909973e-02,-8.530770540237426758e-01,5.329276919364929199e-01,-1.214952841401100159e-01,5.349508672952651978e-02,-5.055778026580810547e-01,-4.389922916889190674e-01,2.155997157096862793e-01,-3.890102207660675049e-01,7.304370403289794922e-01,-4.652128517627716064e-01,-2.237564139068126678e-02,-6.497638672590255737e-02,6.026638150215148926e-01,7.097178697586059570e-01,-2.683887481689453125e-01,5.630103349685668945e-01,2.797597944736480713e-01,-3.831512480974197388e-02,-3.995117545127868652e-01,2.529728226363658905e-02,3.739124238491058350e-01
4.764844477176666260e-01,-5.731682777404785156e-01,-8.237808197736740112e-02,-3.838295042514801025e-01,-5.993328988552093506e-02,-2.810148522257804871e-02,-1.463108956813812256e-01,1.427975203841924667e-02,3.774934411048889160e-01,-6.565492153167724609e-01,2.308973520994186401e-01,-6.568883657455444336e-01,6.011618971824645996e-01,9.620875865221023560e-02,3.968319797422736883e-04,-4.504495859146118164e-01,-7.112296819686889648e-01,4.463028907775878906e-01,-1.545530110597610474e-01,3.899371623992919922e-01,-6.461727619171142578e-01,-5.512531995773315430e-01,-7.930551469326019287e-02,4.330022335052490234e-01,5.241563320159912109e-01,-1.858807802200317383e-01,2.564927637577056885e-01,4.098156690597534180e-01,-2.191438525915145874e-01,-4.359278082847595215e-01,-2.846520245075225830e-01,5.666014552116394043e-01
4.600393176078796387e-01,-5.694288611412048340e-01,7.039209455251693726e-02,4.087676759809255600e-03,1.417657285928726196e-01,-1.922997832298278809e-02,5.819183588027954102e-02,-2.583945989608764648e-01,3.069551289081573486e-01,-5.666246414184570312e-01,3.854847848415374756e-01,-1.041786670684814453e-01,3.632870316505432129e-01,1.190922483801841736e-01,3.459634184837341309e-01,-6.649876832962036133e-01,-3.869091272354125977e-01,2.992603480815887451e-01,-4.803740084171295166e-01,-5.453249812126159668e-02,-5.158383250236511230e-01,-6.317276954650878906e-01,-2.780272662639617920e-01,7.294097542762756348e-02,1.314480006694793701e-01,-2.247518151998519897e-01,2.886542379856109619e-01,6.293866038322448730e-01,-4.724545776844024658e-01,-5.159522294998168945e-01,-1.231198161840438843e-01,7.595728635787963867e-01
4.028878211975097656e-01,-5.463317036628723145e-01,6.942032277584075928e-02,5.572727322578430176e-01,1.714179292321205139e-02,4.172850549221038818e-01,2.194891124963760376e-01,-4.333513677120208740e-01,3.291645944118499756e-01,-7.041270136833190918e-01,3.936595022678375244e-01,-4.517176747322082520e-02,1.759862601757049561e-01,7.318329066038131714e-02,2.225156277418136597e-01,-4.852195382118225098e-01,1.514647006988525391e-01,9.726413339376449585e-02,-5.696183443069458008e-01,-1.047319620847702026e-01,-3.448064327239990234e-01,-3.606838583946228027e-01,-4.243824779987335205e-01,1.337344050407409668e-01,-7.048700004816055298e-02,-3.249356150627136230e-01,5.142875909805297852e-01,6.161655187606811523e-01,-1.712797880172729492e-01,-1.859017908573150635e-01,-4.533452913165092468e-02,4.565216302871704102e-01
4.444015324115753174e-01,-4.071893393993377686e-01,3.824450373649597168e-01,8.550091385841369629e-01,-1.294732540845870972e-01,8.869789242744445801e-01,8.408430963754653931e-03,-4.881466031074523926e-01,1.335493922233581543e-01,-1.742486357688903809e-01,1.102808862924575806e-01,-2.062961757183074951e-01,9.222569316625595093e-02,-2.901337742805480957e-01,-1.176011115312576294e-01,-4.366872906684875488e-01,5.019277334213256836e-01,-1.669768393039703369e-01,-4.535944461822509766e-01,-3.754881769418716431e-02,-1.266049593687057495e-01,-4.508994221687316895e-01,-2.235923707485198975e-01,3.531668782234191895e-01,-1.328692883253097534e-01,-1.227082833647727966e-01,2.476759999990463257e-01,5.744819641113281250e-01,-5.593608021736145020e-01,3.218955099582672119e-01,2.710380554199218750e-01,4.189963936805725098e-01
