Fp1,Fp2,F7,F3,Fz,F4,F8,FT7,FC3,FCz,FC4,FT8,T3,C3,Cz,C4,T4,TP7,CP3,CPz,CP4,TP8,T5,P3,Pz,P4,T6,O1,Oz,O2,A1,A2
-4.242883622646331787e-01,7.396079540252685547e+00,3.635649681091308594e+00,5.056966781616210938e+00,1.069870758056640625e+01,1.177108287811279297e+01,9.707279205322265625e+00,5.429707050323486328e+00,-7.364694118499755859e+00,-9.983648300170898438e+00,-2.358495950698852539e+00,3.127956390380859375e+00,-3.472197771072387695e+00,-6.498724460601806641e+00,-6.488541603088378906e+00,-7.709006309509277344e+00,-2.730548381805419922e+00,3.174190759658813477e+00,9.384141921997070312e+00,6.662412166595458984e+00,5.668260574340820312e+00,4.048265933990478516e+00,1.066005468368530273e+00,9.348775744438171387e-01,4.251021862030029297e+00,6.774650096893310547e+00,5.672541618347167969e+00,5.837616920471191406e+00,6.908297061920166016e+00,9.126066207885742188e+00,8.424909591674804688e+00,-8.033461570739746094e-01
6.109845161437988281e+00,6.725239753723144531e+00,-8.483759760856628418e-01,1.917801022529602051e+00,6.920258522033691406e+00,1.052864933013916016e+01,1.097766971588134766e+01,7.709925651550292969e+00,-2.676801919937133789e+00,-5.776451110839843750e+00,2.102061033248901367e+00,6.220033168792724609e+00,3.771543264389038086e+00,1.784797668457031250e+00,-4.716883003711700439e-01,-6.198172092437744141e+00,-3.749167919158935547e+00,2.446491241455078125e+00,6.739826202392578125e+00,3.675474405288696289e+00,2.332444429397583008e+00,3.589721918106079102e+00,1.267054557800292969e+00,1.853351444005966187e-01,3.339306116104125977e-01,2.178373098373413086e+00,5.275163650512695312e+00,9.336010932922363281e+00,1.114250469207763672e+01,8.710522651672363281e+00,4.584574699401855469e+00,2.513253927230834961e+00
-2.964010536670684814e-01,-4.723126411437988281e+00,-5.943102359771728516e+00,-6.263861179351806641e+00,-4.172456741333007812e+00,-3.882372856140136719e+00,-2.451934337615966797e+00,-2.636044502258300781e+00,7.180425167083740234e+00,9.909363746643066406e+00,4.969405651092529297e+00,-6.444983005523681641e+00,-2.888690233230590820e+00,-2.060133218765258789e+00,-2.984407901763916016e+00,-8.323049545288085938e+00,-8.543087005615234375e+00,-3.205570697784423828e+00,-7.630466222763061523e-01,1.423646807670593262e-01,-2.818694829940795898e+00,-2.503937244415283203e+00,-5.262886047363281250e+00,-4.923249721527099609e+00,-4.734663486480712891e+00,-5.096620917320251465e-01,3.986646831035614014e-01,2.316658735275268555e+00,3.073714494705200195e+00,-2.733355462551116943e-01,-7.445000171661376953e+00,-5.866182804107666016e+00
-1.590560150146484375e+01,-1.385150051116943359e+01,-9.525566101074218750e+00,-1.173233890533447266e+01,-1.276281261444091797e+01,-1.551896858215332031e+01,-1.382194423675537109e+01,-1.201304435729980469e+01,-4.221508026123046875e+00,2.298926591873168945e+00,-1.997369766235351562e+00,-1.354696655273437500e+01,-1.476593875885009766e+01,-1.203877735137939453e+01,-5.414983749389648438e+00,-8.860382080078125000e+00,-1.161934280395507812e+01,-1.204441356658935547e+01,-8.862573623657226562e+00,-5.776947975158691406e+00,-7.904785633087158203e+00,-1.150010013580322266e+01,-1.321356296539306641e+01,-9.263147354125976562e+00,-5.426156997680664062e+00,-7.369239330291748047e+00,-1.359157848358154297e+01,-1.549439716339111328e+01,-1.339489173889160156e+01,-1.226409149169921875e+01,-1.330109786987304688e+01,-1.716224288940429688e+01
-1.555140972137451172e+01,-1.478152751922607422e+01,-1.160233020782470703e+01,-1.038421154022216797e+01,-1.421108055114746094e+01,-1.639479255676269531e+01,-1.352107620239257812e+01,-8.624390602111816406e+00,-1.345896530151367188e+01,-1.141744518280029297e+01,-1.209180927276611328e+01,-1.116909980773925781e+01,-1.627149200439453125e+01,-1.268469047546386719e+01,-7.268287658691406250e+00,-1.190924453735351562e+01,-1.417605304718017578e+01,-1.280785179138183594e+01,-8.667443275451660156e+00,-5.756143569946289062e+00,-6.900319576263427734e+00,-1.366693592071533203e+01,-1.621058845520019531e+01,-1.042528724670410156e+01,-4.838039875030517578e+00,-1.156591415405273438e+01,-1.730297279357910156e+01,-1.784176445007324219e+01,-1.691510581970214844e+01,-1.498370552062988281e+01,-9.702103614807128906e+00,-1.308565330505371094e+01
-4.282457828521728516e+00,-6.343491077423095703e+00,-5.174537181854248047e+00,-2.469731807708740234e+00,-4.524743080139160156e+00,-5.407497882843017578e+00,-5.836229324340820312e+00,-2.903498649597167969e+00,-3.402350664138793945e+00,-3.277170658111572266e+00,-6.545033454895019531e+00,-7.792761325836181641e+00,-6.647102355957031250e+00,-4.041581630706787109e+00,-3.347985029220581055e+00,-7.484617233276367188e+00,-7.642889499664306641e+00,-2.592620849609375000e+00,2.818889379501342773e+00,7.751491069793701172e+00,4.545925617218017578e+00,-5.553558349609375000e+00,-1.042601490020751953e+01,-4.748461246490478516e+00,1.173722743988037109e+00,2.089805364608764648e+00,-1.361332654953002930e+00,-3.254775047302246094e+00,-7.202359199523925781e+00,-6.845121860504150391e+00,-4.414800167083740234e+00,-3.521619131788611412e-03
4.760434150695800781e+00,3.633388042449951172e+00,2.287216901779174805e+00,2.116597890853881836e+00,5.496476650238037109e+00,6.008788108825683594e+00,1.018172144889831543e+00,-2.088459491729736328e+00,1.013535022735595703e+01,1.062952327728271484e+01,6.239700794219970703e+00,-1.622376561164855957e+00,1.803812384605407715e+00,2.650213241577148438e+00,6.947201728820800781e+00,3.689225196838378906e+00,4.227079391479492188e+00,6.550669670104980469e+00,1.216045188903808594e+01,1.444872379302978516e+01,1.164485931396484375e+01,5.475806713104248047e+00,7.083043456077575684e-01,4.275649070739746094e+00,7.724248886108398438e+00,1.078668212890625000e+01,7.376222133636474609e+00,4.269116878509521484e+00,2.382803201675415039e+00,2.086045265197753906e+00,4.209545850753784180e-01,-1.279938578605651855e+00
8.290433883666992188e+00,1.009524583816528320e+00,1.519165396690368652e+00,1.571157813072204590e+00,2.970147132873535156e+00,3.234033823013305664e+00,2.411403179168701172e+00,8.491055369377136230e-01,2.866255998611450195e+00,2.770543575286865234e+00,1.280578255653381348e+00,2.675111770629882812e+00,3.477672040462493896e-01,3.504524469375610352e+00,1.111121749877929688e+01,7.381162643432617188e+00,5.184194087982177734e+00,6.359289646148681641e+00,1.068161392211914062e+01,6.810900211334228516e+00,3.438569784164428711e+00,3.220356464385986328e+00,1.161527395248413086e+00,9.498702287673950195e-01,1.376217961311340332e+00,9.010819196701049805e-01,-3.114069938659667969e+00,-2.290156364440917969e+00,1.593732476234436035e+00,1.928634881973266602e+00,2.071501016616821289e+00,-8.847495079040527344e+00
1.338070750236511230e+00,-1.181096649169921875e+01,-9.181098937988281250e+00,-5.978055953979492188e+00,-4.524832725524902344e+00,-5.518695354461669922e+00,-2.302604198455810547e+00,-5.408273935317993164e-01,-9.184039115905761719e+00,-1.094261455535888672e+01,-1.035396671295166016e+01,-2.032362937927246094e+00,-4.849544048309326172e+00,1.662927269935607910e+00,7.486576080322265625e+00,2.420107275247573853e-01,-4.442602634429931641e+00,-6.243902444839477539e-01,4.915981769561767578e+00,-1.401695162057876587e-01,-6.842798233032226562e+00,-8.503689765930175781e+00,-8.844417572021484375e+00,-8.484046936035156250e+00,-8.444327354431152344e+00,-1.041526889801025391e+01,-1.049051761627197266e+01,-9.364711761474609375e+00,-8.788644790649414062e+00,-8.022426605224609375e+00,-6.123839378356933594e+00,-1.113719081878662109e+01
-2.625718355178833008e+00,-5.123404502868652344e+00,-4.525595188140869141e+00,-4.190346717834472656e+00,-5.528185844421386719e+00,-6.545403003692626953e+00,-5.934500694274902344e+00,-4.055472373962402344e+00,-3.657391786575317383e+00,-5.242686748504638672e+00,-8.084448814392089844e+00,-4.342232704162597656e+00,-3.387945652008056641e+00,-1.071320176124572754e+00,4.626531124114990234e+00,-1.611965179443359375e+00,-4.642436504364013672e+00,-3.819620609283447266e+00,1.926249623298645020e+00,-3.117008686065673828e+00,-8.134623527526855469e+00,-9.781137466430664062e+00,-5.589543342590332031e+00,-3.612491130828857422e+00,-5.686392784118652344e+00,-5.583710670471191406e+00,-1.352406263351440430e+00,-2.391762256622314453e+00,-6.140097141265869141e+00,-6.423579216003417969e+00,-4.133723258972167969e+00,3.101163864135742188e+00
-2.827716469764709473e-01,4.520794391632080078e+00,6.437056541442871094e+00,3.012006759643554688e+00,-6.225991725921630859e+00,-6.654820919036865234e+00,-6.935435295104980469e+00,-3.519576072692871094e+00,5.378327846527099609e+00,4.377649784088134766e+00,-3.351923823356628418e-01,-4.034128505736589432e-03,1.734981179237365723e+00,-3.105394542217254639e-01,6.404773235321044922e+00,8.446269035339355469e+00,6.951922893524169922e+00,3.863294839859008789e+00,5.878569126129150391e+00,-1.990700125694274902e+00,-4.810489654541015625e+00,-2.763660192489624023e+00,3.962217807769775391e+00,1.592892885208129883e+00,3.959906399250030518e-01,-3.015688061714172363e-01,3.796631574630737305e+00,3.708441734313964844e+00,3.773829221725463867e+00,1.601034164428710938e+00,2.440619707107543945e+00,8.831628799438476562e+00
-1.109181880950927734e+00,-7.768679141998291016e+00,-2.067562341690063477e+00,-3.173246860504150391e+00,-1.025038719177246094e+01,-1.130550098419189453e+01,-1.134178829193115234e+01,-9.777173042297363281e+00,-3.584097623825073242e+00,2.467717826366424561e-01,-1.862444758415222168e+00,8.707168102264404297e-01,1.473339915275573730e+00,2.084387540817260742e+00,6.721625328063964844e+00,1.021474170684814453e+01,1.002272701263427734e+01,9.637195587158203125e+00,9.871739387512207031e+00,2.720187425613403320e+00,-1.048323273658752441e+00,1.371961951255798340e+00,4.728037357330322266e+00,-1.305970847606658936e-01,-9.221194982528686523e-01,-4.576701164245605469e+00,-3.323035240173339844e+00,-3.215556383132934570e+00,-7.759546041488647461e-01,-4.785202980041503906e+00,-5.904686450958251953e+00,-6.910166740417480469e+00
-6.720436096191406250e+00,-1.899700927734375000e+01,-1.494735050201416016e+01,-1.201828670501708984e+01,-1.040770912170410156e+01,-1.427232742309570312e+01,-1.434890651702880859e+01,-1.211772823333740234e+01,-1.162256622314453125e+01,-8.699214935302734375e+00,-9.337914466857910156e+00,-4.670494556427001953e+00,-3.934283971786499023e+00,3.304442167282104492e-01,2.860258579254150391e+00,3.842540025711059570e+00,5.232643604278564453e+00,4.764110565185546875e+00,3.865330696105957031e+00,3.234510183334350586e+00,3.131314754486083984e+00,2.989726305007934570e+00,2.432253360748291016e+00,1.543883085250854492e+00,-4.047412276268005371e-01,-6.950558662414550781e+00,-9.056733131408691406e+00,-1.074886322021484375e+01,-1.122494792938232422e+01,-1.413503646850585938e+01,-1.419678020477294922e+01,-2.149333190917968750e+01
-3.730907917022705078e+00,-9.696719169616699219e+00,-9.909716606140136719e+00,-9.237769126892089844e+00,-9.393877029418945312e+00,-1.091331672668457031e+01,-9.764937400817871094e+00,-5.180998325347900391e+00,-1.641537785530090332e+00,-3.603022813796997070e+00,-8.213364601135253906e+00,-8.627332687377929688e+00,-4.739671230316162109e+00,1.489042401313781738e+00,4.925007343292236328e+00,4.048027515411376953e+00,2.437146663665771484e+00,4.196550846099853516e-01,1.294753313064575195e+00,6.279424190521240234e+00,1.001982688903808594e+01,6.235723495483398438e+00,2.513642549514770508e+00,3.116023302078247070e+00,5.655797958374023438e+00,-1.610742509365081787e-01,-4.109945297241210938e+00,-6.331930160522460938e+00,-8.881842613220214844e+00,-1.026098728179931641e+01,-7.508194446563720703e+00,-9.750215530395507812e+00
2.073254585266113281e+00,-6.593166351318359375e+00,-5.684890270233154297e+00,-6.189934253692626953e+00,-7.212862968444824219e+00,-3.821389675140380859e+00,-3.012470722198486328e+00,-4.660507678985595703e+00,5.432417988777160645e-01,6.529019474983215332e-01,-1.999680995941162109e+00,-5.823379039764404297e+00,3.441275954246520996e-01,7.102174282073974609e+00,1.180837631225585938e+01,8.036316871643066406e+00,2.512807130813598633e+00,1.234935164451599121e+00,5.949774742126464844e+00,1.099924182891845703e+01,1.219343662261962891e+01,3.121803522109985352e+00,-1.186098933219909668e+00,-2.511287927627563477e-01,5.917213439941406250e+00,2.844447374343872070e+00,3.250302076339721680e-01,-2.487068891525268555e+00,-5.316370964050292969e+00,-8.405981063842773438e+00,-6.716032505035400391e+00,-5.067699909210205078e+00
3.416137933731079102e+00,-1.432125663757324219e+01,-8.942941665649414062e+00,-1.170471072196960449e+00,4.381159782409667969e+00,6.876938939094543457e-01,4.432267546653747559e-01,-1.847050189971923828e+00,-9.636056900024414062e+00,-1.116956996917724609e+01,-4.925128936767578125e+00,1.894037723541259766e-01,5.449317097663879395e-01,4.362819194793701172e+00,7.444449424743652344e+00,4.597066402435302734e+00,8.945105671882629395e-01,-2.109971523284912109e+00,1.171496883034706116e-01,4.463477611541748047e+00,5.250478267669677734e+00,-4.571574211120605469e+00,-6.753153324127197266e+00,-1.349747538566589355e+00,3.395988941192626953e+00,-1.034970402717590332e+00,-4.089466571807861328e+00,-6.075630664825439453e+00,-7.031173229217529297e+00,-1.037368488311767578e+01,-9.974812507629394531e+00,-1.030501079559326172e+01
9.414712905883789062e+00,-7.118264675140380859e+00,-3.738611459732055664e+00,3.994251966476440430e+00,8.109997749328613281e+00,1.358173489570617676e+00,2.726998567581176758e+00,7.068392753601074219e+00,-6.157455444335937500e+00,-1.223197269439697266e+01,-6.086122989654541016e+00,5.618201255798339844e+00,3.234402239322662354e-01,-2.328008174896240234e+00,-3.777664422988891602e+00,-1.389859795570373535e+00,-2.622106552124023438e+00,-5.755784034729003906e+00,-7.157615184783935547e+00,-4.386743545532226562e+00,-1.278811216354370117e+00,-4.260034084320068359e+00,-3.924864053726196289e+00,1.558997988700866699e+00,4.321360111236572266e+00,1.343354105949401855e+00,-2.648308992385864258e+00,-2.581085920333862305e+00,-7.283507585525512695e-01,2.913403213024139404e-01,2.878639936447143555e+00,-3.051364421844482422e-01
1.889050292968750000e+01,1.204661464691162109e+01,1.066893386840820312e+01,4.831730365753173828e+00,-1.785960674285888672e+00,1.978201150894165039e+00,1.702835083007812500e+00,1.404167890548706055e+00,4.719508647918701172e+00,4.043038368225097656e+00,6.234735488891601562e+00,8.259932518005371094e+00,8.471669197082519531e+00,1.240375787019729614e-01,-4.980105400085449219e+00,2.670320272445678711e-01,2.608271874487400055e-02,-3.893083333969116211e+00,-7.718468666076660156e+00,-8.651781082153320312e+00,-5.272773742675781250e+00,-1.355470776557922363e+00,3.655129909515380859e+00,9.795625805854797363e-01,-3.995774984359741211e-01,3.906848430633544922e+00,5.821691036224365234e+00,6.258089065551757812e+00,7.112833023071289062e+00,8.528559684753417969e+00,9.807553291320800781e+00,1.113344573974609375e+01
1.112320327758789062e+01,8.408420562744140625e+00,7.225605487823486328e+00,-2.084187269210815430e+00,-1.052214050292968750e+01,-4.044679641723632812e+00,-5.001255989074707031e+00,-8.826365470886230469e+00,-8.873497843742370605e-01,6.231566429138183594e+00,7.581551551818847656e+00,5.738298416137695312e+00,6.447857856750488281e+00,3.383349418640136719e+00,-1.254808306694030762e+00,1.011232256889343262e+00,1.916082948446273804e-01,-4.924885749816894531e+00,-1.204984092712402344e+01,-1.239571857452392578e+01,-1.113956260681152344e+01,-3.125134229660034180e+00,2.526490449905395508e+00,-2.303722620010375977e+00,-4.907409667968750000e+00,-3.763661682605743408e-01,9.255581498146057129e-01,1.408724784851074219e+00,4.722098708152770996e-01,-4.887698590755462646e-01,-2.259895563125610352e+00,1.013327956199645996e+00
7.258708953857421875e+00,4.502786636352539062e+00,2.403475761413574219e+00,1.199577927589416504e+00,1.446630477905273438e+00,-1.169021725654602051e+00,-1.180473089218139648e+00,1.418094515800476074e+00,-4.183854579925537109e+00,-7.138148307800292969e+00,-3.683687686920166016e+00,5.023953914642333984e+00,-9.680562615394592285e-01,3.114745914936065674e-01,-3.032181024551391602e+00,7.012799382209777832e-01,6.758583188056945801e-01,-2.759222745895385742e+00,-1.235661697387695312e+01,-1.296345996856689453e+01,-1.129942989349365234e+01,7.251464724540710449e-01,5.431408405303955078e+00,1.469477534294128418e+00,-1.054710626602172852e+00,-1.711481809616088867e+00,-3.544104576110839844e+00,8.871564269065856934e-01,1.887157082557678223e+00,2.117949277162551880e-01,-1.656006097793579102e+00,9.767998456954956055e-01
1.817599678039550781e+01,1.275561618804931641e+01,5.510710716247558594e+00,7.644132614135742188e+00,1.647520637512207031e+01,1.402338409423828125e+01,1.224773597717285156e+01,1.210918045043945312e+01,7.768273830413818359e+00,1.990813970565795898e+00,4.503820896148681641e+00,1.081710910797119141e+01,8.855579376220703125e+00,4.216520309448242188e+00,-9.713256359100341797e-01,9.183607101440429688e+00,1.229340553283691406e+01,1.086448097229003906e+01,-2.998161315917968750e+00,-6.289289951324462891e+00,-2.829828262329101562e+00,1.525285720825195312e+01,1.745834541320800781e+01,1.164716625213623047e+01,4.955816745758056641e+00,5.277429103851318359e+00,9.391656875610351562e+00,1.293912124633789062e+01,1.581498622894287109e+01,1.365289688110351562e+01,1.100295257568359375e+01,1.233313179016113281e+01
1.765497779846191406e+01,1.195272827148437500e+01,7.761162757873535156e+00,6.998084068298339844e+00,1.020590782165527344e+01,1.461377334594726562e+01,1.593904399871826172e+01,1.135055541992187500e+01,1.200224399566650391e+01,1.499857807159423828e+01,1.771411132812500000e+01,1.711423873901367188e+01,2.062203979492187500e+01,1.685902595520019531e+01,1.163559627532958984e+01,1.921539115905761719e+01,2.040462875366210938e+01,1.832911682128906250e+01,2.827066898345947266e+00,-3.965315520763397217e-01,1.422675371170043945e+00,1.866161346435546875e+01,1.463096141815185547e+01,1.197669029235839844e+01,7.794785022735595703e+00,1.237075805664062500e+01,1.617237281799316406e+01,1.281738853454589844e+01,1.404300689697265625e+01,1.220739173889160156e+01,9.073586463928222656e+00,6.988382339477539062e+00
1.019801712036132812e+01,6.406901359558105469e+00,3.169834613800048828e+00,2.470247507095336914e+00,5.514261722564697266e+00,1.041015434265136719e+01,1.313737964630126953e+01,8.749028205871582031e+00,3.306256294250488281e+00,5.993701457977294922e+00,1.076437568664550781e+01,1.450767707824707031e+01,1.393588256835937500e+01,1.221855163574218750e+01,8.177172660827636719e+00,1.299514484405517578e+01,1.094378089904785156e+01,7.322897434234619141e+00,-2.473937273025512695e+00,-5.092409610748291016e+00,-5.593451499938964844e+00,5.754686355590820312e+00,4.418654441833496094e+00,4.414010047912597656e+00,4.963200569152832031e+00,8.066168785095214844e+00,8.434713363647460938e+00,6.096619606018066406e+00,4.308120727539062500e+00,3.451085567474365234e+00,4.361389577388763428e-01,-2.818930864334106445e+00
-2.558238506317138672e+00,-4.755468368530273438e+00,-1.156667423248291016e+01,-1.057337188720703125e+01,1.126231431961059570e+00,2.487219095230102539e+00,2.751820802688598633e+00,2.125901699066162109e+00,-6.757444858551025391e+00,-8.033607482910156250e+00,-5.430695056915283203e+00,3.209048986434936523e+00,1.277979373931884766e+00,-8.098367452621459961e-01,-4.504850387573242188e+00,6.574772000312805176e-01,1.686305165290832520e+00,1.521555124782025814e-03,-2.807946205139160156e+00,-4.241166591644287109e+00,-5.436382770538330078e+00,-1.203473091125488281e+00,-1.429257988929748535e-01,1.096246242523193359e+00,3.885056495666503906e+00,2.127462625503540039e+00,1.016288638114929199e+00,-1.823190093040466309e+00,-4.259760379791259766e+00,-2.174631357192993164e+00,-1.442179203033447266e+00,-5.510977745056152344e+00
2.884377956390380859e+00,-1.009544730186462402e+00,-9.322775840759277344e+00,-1.006384658813476562e+01,1.240061998367309570e+00,1.504384875297546387e+00,2.230825662612915039e+00,1.271112203598022461e+00,4.003137588500976562e+00,3.783852577209472656e+00,5.250489711761474609e+00,2.504253625869750977e+00,5.408105373382568359e+00,3.723831176757812500e+00,-5.071657896041870117e-01,4.382566928863525391e+00,7.035833835601806641e+00,6.169876098632812500e+00,5.944969654083251953e+00,6.031863212585449219e+00,5.735805034637451172e+00,4.997190475463867188e+00,5.709377765655517578e+00,4.604385375976562500e+00,7.051220417022705078e+00,3.342481136322021484e+00,5.158659934997558594e+00,2.996881246566772461e+00,3.863154411315917969e+00,4.421772480010986328e+00,1.146023154258728027e+00,-3.609336614608764648e+00
1.134366321563720703e+01,1.190161037445068359e+01,4.649123668670654297e+00,2.460224151611328125e+00,5.279102325439453125e+00,7.025686740875244141e+00,7.182148933410644531e+00,4.968876361846923828e+00,6.337825298309326172e+00,6.494903564453125000e+00,1.147567176818847656e+01,7.228258609771728516e+00,8.856051445007324219e+00,6.968482017517089844e+00,1.045781850814819336e+00,6.765082836151123047e+00,7.297370910644531250e+00,5.677806377410888672e+00,4.538873672485351562e+00,5.861839771270751953e+00,5.217888832092285156e+00,5.756408214569091797e+00,5.978048324584960938e+00,2.437526941299438477e+00,2.480510711669921875e+00,-1.054021000862121582e+00,3.164323806762695312e+00,6.272138595581054688e+00,9.108801841735839844e+00,7.083376884460449219e+00,-1.694068551063537598e+00,-4.820891857147216797e+00
-2.911514520645141602e+00,3.723975896835327148e+00,2.641373872756958008e+00,3.012617349624633789e+00,-2.649649679660797119e-01,4.399726092815399170e-01,-2.140573859214782715e-01,1.914372801780700684e+00,-6.406807422637939453e+00,-3.239884376525878906e+00,-1.516266584396362305e+00,3.282632350921630859e+00,-5.344060063362121582e-01,-2.000476837158203125e+00,-6.015075206756591797e+00,-3.404869794845581055e+00,-9.012764096260070801e-01,-2.442227840423583984e+00,-3.985670089721679688e+00,-4.261396408081054688e+00,-5.078160762786865234e+00,1.459456562995910645e+00,2.406879425048828125e+00,-1.204709649085998535e+00,-2.734582901000976562e+00,-5.294106006622314453e+00,-5.574668884277343750e+00,-5.053205966949462891e+00,-5.329432010650634766e+00,-6.327448368072509766e+00,-7.366432189941406250e+00,-4.253646850585937500e+00
-7.488549709320068359e+00,-2.732486248016357422e+00,-1.921655893325805664e+00,-1.058783292770385742e+00,-1.570875883102416992e+00,-5.344768524169921875e+00,-4.241376876831054688e+00,1.356013774871826172e+00,-7.999105453491210938e+00,-6.896013736724853516e+00,-8.580191612243652344e+00,-6.032091379165649414e-01,-7.309916019439697266e+00,-6.801708221435546875e+00,-6.651177883148193359e+00,-6.098650455474853516e+00,-2.930710792541503906e+00,-2.666755199432373047e+00,-3.863759994506835938e+00,-7.530170440673828125e+00,-8.269138336181640625e+00,2.058938980102539062e+00,7.377329826354980469e+00,3.705045223236083984e+00,-8.449837565422058105e-01,-1.966103553771972656e+00,-1.386612415313720703e+00,-2.752862930297851562e+00,-3.962115287780761719e+00,-5.224465370178222656e+00,-5.006431102752685547e+00,-1.185722589492797852e+00
3.765189647674560547e-01,-8.743991851806640625e-01,4.930202662944793701e-01,7.721042633056640625e-01,-2.866154015064239502e-01,-4.315268039703369141e+00,-2.354463100433349609e+00,1.306013464927673340e+00,1.578670024871826172e+00,-7.565801143646240234e-01,-2.077550888061523438e+00,-1.248975038528442383e+00,-3.312389135360717773e+00,-4.597608566284179688e+00,-4.629569053649902344e+00,-1.474911212921142578e+00,-1.146183252334594727e+00,2.533541917800903320e+00,3.323059082031250000e-01,-4.086097717285156250e+00,-3.826046705245971680e+00,3.064736127853393555e+00,7.920275211334228516e+00,3.986077547073364258e+00,-3.967425823211669922e+00,-3.484948635101318359e+00,-7.656009197235107422e-01,4.193829059600830078e+00,3.817487955093383789e+00,4.582450389862060547e-01,-3.660371303558349609e+00,-3.885393619537353516e+00
1.246632456779479980e+00,-2.753831148147583008e+00,-2.509850978851318359e+00,-6.895915269851684570e-01,-5.567495822906494141e-01,-2.001911252737045288e-01,-3.801038026809692383e+00,-5.976395606994628906e+00,1.688213348388671875e+00,4.731310844421386719e+00,2.282654285430908203e+00,-3.081193923950195312e+00,2.455012083053588867e+00,2.490174770355224609e+00,4.359247684478759766e+00,5.265278339385986328e+00,4.675160884857177734e+00,9.728967666625976562e+00,1.157772445678710938e+01,6.673268795013427734e+00,5.610373497009277344e+00,3.238214969635009766e+00,4.302399635314941406e+00,6.739212870597839355e-01,-6.686553955078125000e+00,-6.498937129974365234e+00,-5.818085670471191406e+00,1.633808612823486328e+00,-9.373606443405151367e-01,-4.063868045806884766e+00,-5.858080387115478516e+00,-7.460142135620117188e+00
1.699751496315002441e+00,-5.629736900329589844e+00,-3.806772947311401367e+00,-2.064547538757324219e+00,1.322643876075744629e+00,8.153039216995239258e-01,-1.205307245254516602e+00,-5.131421089172363281e+00,1.230352520942687988e+00,5.795695781707763672e+00,4.116780757904052734e+00,2.180491685867309570e+00,4.799969673156738281e+00,7.677640438079833984e+00,1.353033161163330078e+01,1.168681621551513672e+01,1.095868206024169922e+01,1.437432289123535156e+01,1.919864845275878906e+01,1.420267200469970703e+01,1.216912841796875000e+01,5.574162960052490234e+00,5.980242252349853516e+00,4.304170131683349609e+00,5.178926587104797363e-01,-1.038479447364807129e+00,-2.809713840484619141e+00,-2.842500805854797363e-01,-1.544738650321960449e+00,-2.174009323120117188e+00,-1.662936449050903320e+00,-2.010528564453125000e+00
4.362512111663818359e+00,-2.738019943237304688e+00,5.787274837493896484e+00,7.622385978698730469e+00,5.763899326324462891e+00,2.392996311187744141e+00,1.270479869842529297e+01,1.312895393371582031e+01,1.079329204559326172e+01,8.891839027404785156e+00,1.145313835144042969e+01,1.428084850311279297e+01,9.906406402587890625e+00,8.665937423706054688e+00,1.091129970550537109e+01,9.102122306823730469e+00,9.135173797607421875e+00,9.369964599609375000e+00,1.298857116699218750e+01,1.070530128479003906e+01,9.083493232727050781e+00,2.594176292419433594e+00,3.754065275192260742e+00,4.166683197021484375e+00,5.659521579742431641e+00,5.994613647460937500e+00,1.996089339256286621e+00,-1.837232828140258789e+00,6.573826074600219727e-01,2.818710088729858398e+00,6.720941066741943359e+00,7.818446636199951172e+00
-9.293150901794433594e-01,1.671112060546875000e+00,1.112669944763183594e+01,1.515292263031005859e+01,7.520465850830078125e+00,7.234765529632568359e+00,1.466174030303955078e+01,1.281146240234375000e+01,1.514056015014648438e+01,1.325279235839843750e+01,1.538173961639404297e+01,1.387752246856689453e+01,1.304080677032470703e+01,9.976593017578125000e+00,9.282774925231933594e+00,2.978778123855590820e+00,2.121046543121337891e+00,7.425267696380615234e-01,7.411086082458496094e+00,6.700995922088623047e+00,4.413257598876953125e+00,-3.014651060104370117e+00,-2.717750787734985352e+00,-3.596053361892700195e+00,-3.693609684705734253e-02,2.098370313644409180e+00,2.112701177597045898e+00,-3.364556312561035156e+00,-3.025829076766967773e+00,-9.578814506530761719e-01,6.373364448547363281e+00,6.808188438415527344e+00
-8.173789978027343750e+00,6.637931466102600098e-01,5.465281486511230469e+00,6.439670562744140625e+00,-1.710167646408081055e+00,5.407397747039794922e-01,-3.492948532104492188e+00,-3.213858604431152344e+00,3.566642284393310547e+00,3.515949010848999023e+00,6.052875518798828125e-01,-4.670338034629821777e-01,2.271418571472167969e+00,2.128493309020996094e+00,6.519178867340087891e+00,-1.335970640182495117e+00,-4.276430130004882812e+00,-4.438050270080566406e+00,3.737315654754638672e+00,1.856319665908813477e+00,3.743327558040618896e-01,-5.959191322326660156e+00,-5.172853469848632812e+00,-5.038775444030761719e+00,-3.764358282089233398e+00,-3.191149234771728516e+00,-1.750195384025573730e+00,-5.029546737670898438e+00,-6.217263221740722656e+00,-5.322457790374755859e+00,-2.041902542114257812e-01,2.015821933746337891e+00
-4.005253314971923828e+00,6.104708194732666016e+00,8.685833930969238281e+00,2.753119230270385742e+00,-4.712831497192382812e+00,-3.762164592742919922e+00,-4.452084541320800781e+00,-2.630896568298339844e+00,-5.593007087707519531e+00,-7.124307632446289062e+00,-1.035960388183593750e+01,-7.437359809875488281e+00,-1.000689125061035156e+01,-8.373708724975585938e+00,-2.987441301345825195e+00,-3.534742116928100586e+00,-5.054520606994628906e+00,-4.268484592437744141e+00,-1.969859302043914795e-01,-6.748207807540893555e-01,-7.762264013290405273e-01,-3.104036808013916016e+00,-2.787705183029174805e+00,-8.491361737251281738e-01,1.014962196350097656e+00,1.391247272491455078e+00,-2.068155765533447266e+00,-3.326384305953979492e+00,-3.021540939807891846e-01,2.243559837341308594e+00,3.899586915969848633e+00,1.390898799896240234e+01
7.092702984809875488e-01,1.233694267272949219e+01,1.436884212493896484e+01,8.943638801574707031e+00,3.820817470550537109e+00,3.413094520568847656e+00,4.349450588226318359e+00,5.089416980743408203e+00,-3.131481409072875977e+00,-5.415618896484375000e+00,-7.538275241851806641e+00,-5.831965446472167969e+00,-8.145952224731445312e+00,-8.174682617187500000e+00,-5.970157623291015625e+00,-4.156267166137695312e+00,-2.180194616317749023e+00,-3.543483018875122070e+00,-1.588816404342651367e+00,3.408361971378326416e-02,3.071174144744873047e+00,2.609361171722412109e+00,3.467495441436767578e+00,1.993395566940307617e+00,3.275524616241455078e+00,1.785099864006042480e+00,3.555349111557006836e+00,4.607189655303955078e+00,8.358855247497558594e+00,9.025983810424804688e+00,1.117449760437011719e+01,1.898680686950683594e+01
-4.404910087585449219e+00,5.219270706176757812e+00,1.097982025146484375e+01,1.040168857574462891e+01,4.303458690643310547e+00,1.275179386138916016e+00,-5.137385845184326172e+00,-5.884795188903808594e+00,1.838604450225830078e+00,-5.717365145683288574e-01,-6.034489154815673828e+00,-1.058260154724121094e+01,-6.067812442779541016e+00,-5.868664741516113281e+00,-4.166030406951904297e+00,-5.070189476013183594e+00,-3.341473340988159180e+00,-4.461370944976806641e+00,-1.517384767532348633e+00,-1.552173137664794922e+00,1.737309813499450684e+00,2.245945453643798828e+00,4.736760139465332031e+00,1.384894728660583496e+00,-2.985966205596923828e-01,-2.414609193801879883e+00,3.555003404617309570e+00,6.179073333740234375e+00,6.778506755828857422e+00,5.219339847564697266e+00,5.891242027282714844e+00,9.275885581970214844e+00
-5.728628635406494141e+00,-5.981002330780029297e+00,3.880217790603637695e+00,6.177349567413330078e+00,-9.471038579940795898e-01,-5.415994644165039062e+00,-8.468746185302734375e+00,-7.240274429321289062e+00,2.389051437377929688e+00,-4.843547344207763672e-01,-4.590301990509033203e+00,-1.018384933471679688e+01,-6.335825920104980469e+00,-4.754763603210449219e+00,-5.565705299377441406e+00,-6.109025955200195312e+00,-5.229681015014648438e+00,-3.756532430648803711e+00,-2.686166524887084961e+00,-2.194107294082641602e+00,-1.813816666603088379e+00,-2.997577190399169922e-01,9.950141310691833496e-01,3.730458021163940430e-01,-2.168334960937500000e+00,-3.549604654312133789e+00,-4.379748344421386719e+00,-3.702712297439575195e+00,-4.571392059326171875e+00,-3.863561630249023438e+00,-4.036043643951416016e+00,8.081460952758789062e+00
2.481580972671508789e+00,-1.203065633773803711e+00,6.215441226959228516e+00,8.713965415954589844e+00,4.891398429870605469e+00,2.869050741195678711e+00,6.079020500183105469e+00,5.981985092163085938e+00,2.286992549896240234e+00,-4.581149816513061523e-01,3.228724956512451172e+00,3.824821710586547852e+00,2.382511138916015625e+00,1.405154705047607422e+00,-3.401452302932739258e+00,-1.534565925598144531e+00,1.209383606910705566e+00,2.176331520080566406e+00,-3.268974646925926208e-02,4.239007472991943359e+00,5.719417572021484375e+00,5.976276874542236328e+00,4.787172794342041016e+00,2.611617803573608398e+00,6.849465370178222656e-01,-1.247562289237976074e+00,-2.479080438613891602e+00,-3.731016874313354492e+00,-5.318977832794189453e+00,-5.855600357055664062e+00,-3.231655120849609375e+00,1.761863136291503906e+01
3.366285324096679688e+00,1.683770567178726196e-01,6.179104328155517578e+00,7.479550361633300781e+00,3.637176036834716797e+00,5.298315048217773438e+00,4.667243003845214844e+00,3.376871347427368164e+00,2.405193328857421875e+00,1.946200251579284668e+00,3.740409374237060547e+00,5.711967945098876953e+00,4.910277843475341797e+00,1.954445362091064453e+00,-1.295853018760681152e+00,1.506886363029479980e+00,3.950751781463623047e+00,3.901288032531738281e+00,2.333436250686645508e+00,3.974913358688354492e+00,4.443377494812011719e+00,3.696703910827636719e+00,3.949013948440551758e+00,1.206647753715515137e+00,-1.354272603988647461e+00,-1.894002676010131836e+00,1.738675832748413086e+00,1.946527361869812012e+00,-1.039586901664733887e+00,-4.933113098144531250e+00,-4.733716011047363281e+00,1.199641227722167969e+01
-8.126065254211425781e+00,-1.349125003814697266e+01,-4.756461620330810547e+00,-3.512924432754516602e+00,-1.010913467407226562e+01,-8.855134010314941406e+00,-1.045858955383300781e+01,-8.545382499694824219e+00,-2.755847215652465820e+00,1.188295125961303711e+00,-2.905592203140258789e+00,-6.995302200317382812e+00,-6.250563621520996094e+00,-7.973070144653320312e+00,-8.412095069885253906e+00,-6.890827655792236328e+00,-7.161377429962158203e+00,-6.884079456329345703e+00,-4.156017303466796875e+00,-5.974570751190185547e+00,-1.131757354736328125e+01,-1.241805458068847656e+01,-1.009725475311279297e+01,-8.243937492370605469e+00,-1.017317676544189453e+01,-8.490835189819335938e+00,-8.608960151672363281e+00,-9.365959167480468750e+00,-1.038912105560302734e+01,-1.109724521636962891e+01,-1.362815570831298828e+01,-9.124248623847961426e-01
-1.487030124664306641e+01,-1.322431087493896484e+01,-3.060177326202392578e+00,-3.796063184738159180e+00,-1.352065086364746094e+01,-1.427858066558837891e+01,-1.037017822265625000e+01,-7.264254570007324219e+00,-1.189913177490234375e+01,-7.302391529083251953e+00,-6.005781173706054688e+00,-7.392601966857910156e+00,-8.464014053344726562e+00,-5.934102058410644531e+00,-6.769988536834716797e+00,-9.321994781494140625e+00,-1.207034969329833984e+01,-1.253709697723388672e+01,-7.656620979309082031e+00,-6.871121406555175781e+00,-1.311408996582031250e+01,-1.727264404296875000e+01,-1.729060173034667969e+01,-1.236448764801025391e+01,-1.009839344024658203e+01,-9.403703689575195312e+00,-1.346273040771484375e+01,-1.728726005554199219e+01,-1.548194503784179688e+01,-1.166561412811279297e+01,-1.065272617340087891e+01,3.018410921096801758e+00
-1.588859367370605469e+01,-6.609774589538574219e+00,5.073311805725097656e+00,-6.437134742736816406e-01,-1.402974319458007812e+01,-1.543679141998291016e+01,-8.786016464233398438e+00,-4.832716941833496094e+00,-1.433066463470458984e+01,-1.456642723083496094e+01,-9.874489784240722656e+00,-5.521550178527832031e+00,-7.157862186431884766e+00,-1.349470734596252441e+00,-1.140340566635131836e+00,-6.575455665588378906e+00,-1.137876796722412109e+01,-1.193618297576904297e+01,-6.817716598510742188e+00,-5.133539676666259766e+00,-7.641748905181884766e+00,-1.419860458374023438e+01,-1.433079910278320312e+01,-8.696098327636718750e+00,-3.612957239151000977e+00,-4.776922702789306641e+00,-8.217681884765625000e+00,-1.093176937103271484e+01,-1.094369411468505859e+01,-6.873398780822753906e+00,-2.640532970428466797e+00,1.169011712074279785e+00
-1.624476242065429688e+01,-1.420626258850097656e+01,-2.564021825790405273e+00,-7.516164779663085938e+00,-1.625340843200683594e+01,-1.912864685058593750e+01,-1.796084403991699219e+01,-1.407306957244873047e+01,-1.223330688476562500e+01,-1.135975646972656250e+01,-1.381761264801025391e+01,-1.482827949523925781e+01,-1.353989505767822266e+01,-8.702674865722656250e+00,-6.461588382720947266e+00,-9.797558784484863281e+00,-1.321907329559326172e+01,-1.381275081634521484e+01,-7.366474151611328125e+00,-7.500161647796630859e+00,-1.082214927673339844e+01,-1.794914627075195312e+01,-1.487374401092529297e+01,-8.067553520202636719e+00,-2.536977052688598633e+00,-2.655401706695556641e+00,-6.733709335327148438e+00,-9.112854957580566406e+00,-1.139270591735839844e+01,-8.464269638061523438e+00,-6.147620677947998047e+00,-6.596799373626708984e+00
-1.429509830474853516e+01,-1.612664604187011719e+01,-9.713268280029296875e+00,-7.640850067138671875e+00,-1.186624336242675781e+01,-1.358300209045410156e+01,-1.717988777160644531e+01,-1.457644367218017578e+01,-9.799456596374511719e+00,-5.649917602539062500e+00,-9.584692955017089844e+00,-1.497318553924560547e+01,-1.179529762268066406e+01,-7.848429679870605469e+00,-4.635349273681640625e+00,-8.566355705261230469e+00,-1.015827846527099609e+01,-1.069551372528076172e+01,-1.990545034408569336e+00,3.215242624282836914e-01,-4.852123737335205078e+00,-1.452492904663085938e+01,-1.400100803375244141e+01,-9.070569992065429688e+00,-4.288331985473632812e+00,-5.160171985626220703e+00,-9.430567741394042969e+00,-1.199913692474365234e+01,-1.359742259979248047e+01,-1.258771228790283203e+01,-1.090467739105224609e+01,-2.853654623031616211e+00
-7.397634029388427734e+00,-3.300241708755493164e+00,6.639949679374694824e-01,3.465443611145019531e+00,-2.817244291305541992e+00,-3.576729297637939453e+00,-3.732152462005615234e+00,-2.077397704124450684e-01,-3.389478921890258789e+00,-3.705918550491333008e+00,-2.957193851470947266e+00,-2.070433139801025391e+00,-2.547983229160308838e-01,4.164134979248046875e+00,5.131753444671630859e+00,1.343500018119812012e+00,-9.224092364311218262e-01,-1.000199913978576660e+00,5.130723476409912109e+00,9.224759101867675781e+00,5.769925117492675781e+00,-2.738706350326538086e+00,-6.170359611511230469e+00,-5.177606105804443359e+00,-2.104946851730346680e+00,-5.247999191284179688e+00,-9.279129981994628906e+00,-8.491241455078125000e+00,-7.388751029968261719e+00,-8.399119377136230469e+00,-7.656758308410644531e+00,1.851916313171386719e-01
-3.437125205993652344e+00,-4.035366535186767578e+00,4.398731708526611328e+00,5.236899852752685547e+00,-1.445106863975524902e+00,-2.644874572753906250e+00,6.850456595420837402e-01,3.302798509597778320e+00,1.274069654755294323e-03,-3.280906915664672852e+00,-1.175321698188781738e+00,4.719495773315429688e+00,4.553481578826904297e+00,5.840410709381103516e+00,3.806027412414550781e+00,3.995730161666870117e+00,2.751010417938232422e+00,2.456644535064697266e+00,4.396661281585693359e+00,5.551662445068359375e+00,3.095373630523681641e+00,-1.094839453697204590e+00,-7.498530149459838867e-01,-1.067180991172790527e+00,1.704484373331069946e-01,-1.425006389617919922e+00,-5.720993995666503906e+00,-6.444105625152587891e+00,-5.734417915344238281e+00,-5.352597713470458984e+00,-5.822978496551513672e+00,-2.705528020858764648e+00
1.434080481529235840e+00,-3.763593912124633789e+00,4.287830829620361328e+00,5.466848850250244141e+00,-8.915532231330871582e-01,1.183552622795104980e+00,4.833446145057678223e-01,-1.832394003868103027e+00,3.123311281204223633e+00,4.033773899078369141e+00,4.901008129119873047e+00,4.584632873535156250e+00,5.262268543243408203e+00,2.030525922775268555e+00,1.728769421577453613e+00,2.352573394775390625e+00,2.317414045333862305e+00,3.115472793579101562e-01,2.635949850082397461e+00,5.045463562011718750e+00,3.042550563812255859e+00,5.330060794949531555e-02,2.053695201873779297e+00,1.180133819580078125e+00,1.252234578132629395e+00,2.233849048614501953e+00,1.668626070022583008e+00,-1.910458445549011230e+00,-3.189009428024291992e+00,-1.649618983268737793e+00,1.723781704902648926e+00,6.854045867919921875e+00
5.543904304504394531e+00,7.050543785095214844e+00,1.288782119750976562e+01,1.112617206573486328e+01,2.056204319000244141e+00,4.588114261627197266e+00,4.726014614105224609e+00,2.588460683822631836e+00,5.285912513732910156e+00,5.751572608947753906e+00,6.519982337951660156e+00,2.860978364944458008e+00,3.691523075103759766e+00,6.074491739273071289e-01,1.789855957031250000e+00,1.673057675361633301e+00,1.326491475105285645e+00,-3.605372607707977295e-01,3.562134742736816406e+00,9.303023338317871094e+00,8.414499282836914062e+00,6.234470367431640625e+00,5.165728569030761719e+00,3.943892955780029297e+00,2.932098865509033203e+00,2.605732917785644531e+00,5.525881290435791016e+00,4.208934783935546875e+00,4.054388046264648438e+00,4.371449470520019531e+00,1.091278362274169922e+01,1.459787082672119141e+01
2.148415088653564453e+00,3.799717426300048828e+00,8.460969924926757812e+00,5.586213111877441406e+00,-7.226176857948303223e-01,-9.903984665870666504e-01,1.199151277542114258e+00,1.692849397659301758e+00,-4.186961650848388672e+00,-6.529201030731201172e+00,-4.798847675323486328e+00,-2.724528789520263672e+00,-5.127101421356201172e+00,-6.796228408813476562e+00,-1.035280227661132812e+01,-8.205197334289550781e+00,-5.363431453704833984e+00,-3.745007276535034180e+00,-1.775266051292419434e+00,1.043259024620056152e+00,3.838024735450744629e-01,7.968133687973022461e-01,1.438234329223632812e+00,3.735509216785430908e-01,-1.768026113510131836e+00,-2.128952443599700928e-01,1.512505412101745605e+00,3.479764938354492188e+00,4.660525798797607422e+00,4.058873653411865234e+00,3.728507041931152344e+00,2.009709835052490234e+00
-5.714270591735839844e+00,-3.607373237609863281e+00,-3.514859199523925781e+00,-1.159502744674682617e+00,-1.587900280952453613e+00,-3.257431983947753906e+00,-8.361747741699218750e+00,-9.062943458557128906e+00,-8.873697280883789062e+00,-8.650811195373535156e+00,-9.152933120727539062e+00,-8.690224647521972656e+00,-1.067125988006591797e+01,-1.054477024078369141e+01,-1.410378265380859375e+01,-1.336139965057373047e+01,-1.008055496215820312e+01,-7.430511474609375000e+00,-6.017567157745361328e+00,-6.822762489318847656e+00,-9.139323234558105469e+00,-9.848508834838867188e+00,-7.419238090515136719e+00,-7.151847839355468750e+00,-9.235624313354492188e+00,-4.827716827392578125e+00,-1.632023096084594727e+00,7.199820280075073242e-01,2.888473570346832275e-01,-1.242952466011047363e+00,-8.164694786071777344e+00,-4.093616008758544922e+00
9.190384745597839355e-01,6.097743511199951172e+00,5.950994014739990234e+00,1.029874229431152344e+01,7.880656242370605469e+00,5.078333854675292969e+00,-6.400648951530456543e-01,-5.924158096313476562e-01,5.031165599822998047e+00,6.726005554199218750e+00,1.893446207046508789e+00,-4.679895401000976562e+00,-3.848186969757080078e+00,-2.198267936706542969e+00,4.188487827777862549e-01,6.897061467170715332e-01,-2.720843814313411713e-02,8.454235792160034180e-01,4.721704483032226562e+00,4.910932064056396484e+00,3.050722360610961914e+00,7.867629528045654297e-01,-6.040121912956237793e-01,-7.861759662628173828e-01,-1.580314874649047852e+00,-1.119775652885437012e+00,2.506089448928833008e+00,3.109410047531127930e+00,2.135308742523193359e+00,9.517453908920288086e-01,-3.808216154575347900e-01,8.445824623107910156e+00
1.419430828094482422e+01,1.409695625305175781e+01,1.740399169921875000e+01,1.706246376037597656e+01,1.358256626129150391e+01,1.153130149841308594e+01,1.276973152160644531e+01,1.317056751251220703e+01,1.551100063323974609e+01,1.071702575683593750e+01,6.499894618988037109e+00,2.682273149490356445e+00,1.388971567153930664e+00,3.387835502624511719e+00,1.074021339416503906e+01,1.342306900024414062e+01,1.404973316192626953e+01,1.437140178680419922e+01,1.638685989379882812e+01,1.815035057067871094e+01,1.851633834838867188e+01,1.715970993041992188e+01,1.325072002410888672e+01,1.177544212341308594e+01,1.195226478576660156e+01,8.917680740356445312e+00,8.195544242858886719e+00,8.428632736206054688e+00,1.099473476409912109e+01,1.193306255340576172e+01,1.063819789886474609e+01,1.042115783691406250e+01
1.480673313140869141e+01,2.663348436355590820e+00,2.999465703964233398e+00,2.301355600357055664e+00,5.332476139068603516e+00,1.040145874023437500e+01,1.362857723236083984e+01,8.887065887451171875e+00,7.034527301788330078e+00,5.788624763488769531e+00,8.624291419982910156e+00,9.977796554565429688e+00,8.013441085815429688e+00,7.063866615295410156e+00,1.003241729736328125e+01,1.301412963867187500e+01,1.568636798858642578e+01,1.505387592315673828e+01,1.237647438049316406e+01,1.346431541442871094e+01,1.237087821960449219e+01,1.319272136688232422e+01,1.133463287353515625e+01,9.376600265502929688e+00,6.763282775878906250e+00,5.081909179687500000e+00,8.358636856079101562e+00,1.132111263275146484e+01,1.201297569274902344e+01,1.067594814300537109e+01,1.318323493003845215e+00,-4.565513610839843750e+00
4.289276123046875000e+00,-8.161781311035156250e+00,-9.527871131896972656e+00,-6.474652767181396484e+00,1.082282066345214844e+00,5.338198661804199219e+00,6.083335876464843750e+00,1.964045643806457520e+00,1.148969769477844238e+00,2.387754678726196289e+00,7.226708889007568359e+00,7.487745761871337891e+00,9.210925102233886719e+00,6.284610748291015625e+00,4.366595745086669922e+00,4.516694545745849609e+00,4.167541503906250000e+00,4.351663112640380859e+00,1.813843488693237305e+00,1.681567788124084473e+00,-1.413028478622436523e+00,4.795948565006256104e-01,-1.152387380599975586e+00,-1.112148761749267578e+00,-7.030006885528564453e+00,-5.527071475982666016e+00,-1.759828031063079834e-01,5.275653362274169922e+00,2.540875434875488281e+00,-1.756735324859619141e+00,-9.852413177490234375e+00,-9.954082489013671875e+00
-9.736807823181152344e+00,-1.106061840057373047e+01,-6.499525070190429688e+00,-5.587638854980468750e+00,-4.470613956451416016e+00,-8.227564811706542969e+00,-8.519956588745117188e+00,-5.319251537322998047e+00,-1.892071723937988281e+00,-2.699295282363891602e+00,-3.681083202362060547e+00,-5.332201480865478516e+00,-2.607899665832519531e+00,-1.637273907661437988e+00,-3.536396980285644531e+00,-4.611007213592529297e+00,-5.869219779968261719e+00,-4.912085533142089844e+00,-5.381350994110107422e+00,-4.770628929138183594e+00,-5.810103893280029297e+00,-7.101941585540771484e+00,-1.038443946838378906e+01,-5.263165473937988281e+00,-1.969137907028198242e+00,-3.449833869934082031e+00,-9.027741432189941406e+00,-9.169929504394531250e+00,-9.060973167419433594e+00,-7.254982471466064453e+00,-7.706733226776123047e+00,-8.229320526123046875e+00
-7.914276123046875000e+00,-1.047658443450927734e+01,-5.951592445373535156e+00,-7.351233959197998047e+00,-4.962231636047363281e+00,-7.945977687835693359e+00,-8.126503944396972656e+00,-6.938102245330810547e+00,-2.498591661453247070e+00,5.805871486663818359e-01,-1.648857474327087402e+00,-3.314655780792236328e+00,-2.114940643310546875e+00,1.294044256210327148e+00,1.135497808456420898e+00,1.579626649618148804e-02,5.515778809785842896e-02,1.037769317626953125e+00,-5.166305303573608398e-01,-1.584542542695999146e-01,-7.672903593629598618e-03,-1.956867337226867676e+00,-5.527378082275390625e+00,-1.298980474472045898e+00,4.032633304595947266e+00,1.698719263076782227e+00,-5.534542560577392578e+00,-6.143227100372314453e+00,-5.556086063385009766e+00,-2.662051677703857422e+00,-2.244590282440185547e+00,-5.711028575897216797e+00
9.604084968566894531e+00,5.609135627746582031e-01,5.709750056266784668e-01,7.868481278419494629e-01,8.523804664611816406e+00,9.951438903808593750e+00,9.486469268798828125e+00,6.519361972808837891e+00,8.300794601440429688e+00,9.513277053833007812e+00,9.592257499694824219e+00,9.279907226562500000e+00,9.678560256958007812e+00,9.931736946105957031e+00,1.050963497161865234e+01,1.086874103546142578e+01,1.000692367553710938e+01,1.093076133728027344e+01,7.461857318878173828e+00,6.694748878479003906e+00,5.611402988433837891e+00,8.600054740905761719e+00,5.442919254302978516e+00,4.766170501708984375e+00,3.217261791229248047e+00,5.002987861633300781e+00,4.350423812866210938e+00,9.266923904418945312e+00,8.394831657409667969e+00,5.789426803588867188e+00,3.211033344268798828e+00,6.920094490051269531e+00
1.097686004638671875e+01,4.575440406799316406e+00,4.436474800109863281e+00,5.302867889404296875e+00,9.112385749816894531e+00,9.722375869750976562e+00,1.045630073547363281e+01,9.862442970275878906e+00,1.022832107543945312e+01,7.068075180053710938e+00,6.504830837249755859e+00,5.711805820465087891e+00,7.065716266632080078e+00,6.120319366455078125e+00,5.027280330657958984e+00,7.005753040313720703e+00,6.997878074645996094e+00,5.685417652130126953e+00,2.515198588371276855e-01,8.145374655723571777e-01,-3.334359228610992432e-01,6.050324440002441406e+00,2.968673467636108398e+00,3.907714605331420898e+00,2.666701793670654297e+00,5.048988819122314453e+00,3.749489545822143555e+00,5.492080688476562500e+00,6.347791671752929688e+00,4.503103256225585938e+00,3.042287349700927734e+00,7.476006984710693359e+00
1.979951024055480957e+00,-5.537359237670898438e+00,-8.467432022094726562e+00,-8.272090911865234375e+00,-3.117759227752685547e+00,-1.399991750717163086e+00,5.569437146186828613e-01,-3.880638182163238525e-01,-9.710288643836975098e-01,-1.734954953193664551e+00,-4.098359346389770508e-01,-8.445529341697692871e-01,-1.291041374206542969e+00,-4.357065200805664062e+00,-8.768570899963378906e+00,-3.545663118362426758e+00,-1.689089298248291016e+00,-5.651203632354736328e+00,-1.547297382354736328e+01,-1.374204540252685547e+01,-1.245627307891845703e+01,-3.833343267440795898e+00,-4.382613182067871094e+00,-2.329512596130371094e+00,-3.053715467453002930e+00,-4.656038761138916016e+00,-4.531779289245605469e+00,-4.816482067108154297e+00,-3.024405717849731445e+00,-3.951469182968139648e+00,-5.158938407897949219e+00,-1.083323764801025391e+01
2.424390792846679688e+00,-1.040441751480102539e+00,-6.938520908355712891e+00,-6.403001308441162109e+00,-2.803292274475097656e+00,-6.676492840051651001e-02,8.893543481826782227e-01,-6.055976152420043945e-01,-1.296933412551879883e+00,1.467268347740173340e+00,4.034768581390380859e+00,4.065683364868164062e+00,1.998693466186523438e+00,-2.030088186264038086e+00,-7.993381500244140625e+00,6.863824725151062012e-01,1.541969060897827148e+00,-2.949131965637207031e+00,-1.671716308593750000e+01,-1.480807304382324219e+01,-1.201788330078125000e+01,1.874061584472656250e+00,3.269238233566284180e+00,1.331185221672058105e+00,-3.212978124618530273e+00,-4.818222045898437500e+00,-6.805993318557739258e-01,1.687527060508728027e+00,2.242468118667602539e+00,1.430238246917724609e+00,-1.214771986007690430e+00,-9.070854187011718750e+00
1.406356048583984375e+01,1.804595184326171875e+01,1.604410743713378906e+01,1.472040939331054688e+01,1.492334747314453125e+01,1.363248634338378906e+01,1.221191501617431641e+01,1.291482067108154297e+01,1.276352024078369141e+01,1.235967350006103516e+01,1.220958995819091797e+01,1.297596263885498047e+01,1.234289646148681641e+01,9.622031211853027344e+00,5.067817687988281250e+00,1.537565422058105469e+01,1.668961143493652344e+01,1.384591102600097656e+01,2.167897969484329224e-01,1.965027689933776855e+00,4.484838962554931641e+00,2.071614837646484375e+01,2.060734939575195312e+01,1.513798809051513672e+01,1.049021434783935547e+01,1.237379264831542969e+01,1.762963294982910156e+01,1.872342300415039062e+01,1.789410591125488281e+01,1.882681846618652344e+01,1.741003417968750000e+01,1.849629211425781250e+01
1.914271354675292969e+01,2.016705894470214844e+01,1.828241348266601562e+01,1.750638961791992188e+01,1.592057895660400391e+01,1.817391204833984375e+01,1.550579071044921875e+01,1.345694541931152344e+01,9.589828491210937500e+00,9.872799873352050781e+00,9.358046531677246094e+00,1.862571907043457031e+01,1.633897018432617188e+01,9.927005767822265625e+00,8.286278724670410156e+00,1.604085540771484375e+01,1.741114616394042969e+01,1.391239070892333984e+01,2.734582185745239258e+00,2.447246789932250977e+00,3.493294477462768555e+00,1.698460769653320312e+01,1.889534950256347656e+01,1.020424938201904297e+01,8.050572395324707031e+00,1.116284942626953125e+01,1.709046936035156250e+01,1.887631607055664062e+01,2.012807083129882812e+01,1.863440132141113281e+01,1.852238464355468750e+01,2.370310974121093750e+01
-5.947503089904785156e+00,-8.012704849243164062e-01,2.748956978321075439e-01,1.813328742980957031e+00,-2.875872135162353516e+00,-3.169773101806640625e+00,-6.235010623931884766e+00,-3.209161520004272461e+00,-8.840028762817382812e+00,-9.249672889709472656e+00,-1.198684024810791016e+01,-1.018204450607299805e+00,-3.625682353973388672e+00,-6.183166503906250000e+00,-5.309698104858398438e+00,-3.585780858993530273e+00,-4.445558071136474609e+00,-8.095721244812011719e+00,-1.611665153503417969e+01,-1.785563468933105469e+01,-1.923838806152343750e+01,-1.029510784149169922e+01,-7.385684490203857422e+00,-1.013404846191406250e+01,-7.210363388061523438e+00,-5.028232097625732422e+00,-3.301148414611816406e+00,-4.709167480468750000e+00,-3.726648330688476562e+00,-3.706775665283203125e+00,-1.408937931060791016e+00,2.605107784271240234e+00
-1.753339576721191406e+01,-1.101031112670898438e+01,-6.820710659027099609e+00,-5.960494518280029297e+00,-1.261620521545410156e+01,-1.676831817626953125e+01,-1.633680152893066406e+01,-1.060775852203369141e+01,-8.815954208374023438e+00,-9.148351669311523438e+00,-1.302713203430175781e+01,-1.362085628509521484e+01,-1.437994766235351562e+01,-1.116382408142089844e+01,-9.888301849365234375e+00,-1.361968135833740234e+01,-1.362137794494628906e+01,-1.336070060729980469e+01,-1.587246704101562500e+01,-1.611209869384765625e+01,-1.877357482910156250e+01,-1.482703685760498047e+01,-1.298385429382324219e+01,-9.957294464111328125e+00,-6.131290912628173828e+00,-6.049873352050781250e+00,-1.061853885650634766e+01,-1.350428581237792969e+01,-1.400119304656982422e+01,-1.121397972106933594e+01,-7.160882472991943359e+00,-7.238165855407714844e+00
-8.106389641761779785e-01,5.758598327636718750e+00,8.964094161987304688e+00,7.536270141601562500e+00,-5.068031549453735352e-01,-4.103223800659179688e+00,-2.371297836303710938e+00,1.961771100759506226e-01,6.137444496154785156e+00,6.022535800933837891e+00,1.939825296401977539e+00,1.073835883289575577e-02,-1.940428376197814941e+00,3.289797902107238770e-01,3.639051437377929688e+00,-2.174371242523193359e+00,2.486729472875595093e-01,3.445008516311645508e+00,5.283498764038085938e+00,4.874345302581787109e+00,1.903469324111938477e+00,4.142542362213134766e+00,5.549514293670654297e+00,5.148540496826171875e+00,7.716241836547851562e+00,8.775041580200195312e+00,3.463977813720703125e+00,1.999693512916564941e+00,1.976712822914123535e+00,3.183967590332031250e+00,9.023941040039062500e+00,1.219911575317382812e+01
1.731074905395507812e+01,1.718309783935546875e+01,1.491924762725830078e+01,1.466206073760986328e+01,1.430772113800048828e+01,1.593702125549316406e+01,1.708515167236328125e+01,1.259195709228515625e+01,1.310225200653076172e+01,1.296187400817871094e+01,1.506243133544921875e+01,1.078339004516601562e+01,1.395173168182373047e+01,1.280127620697021484e+01,1.403086948394775391e+01,1.202204322814941406e+01,1.111732864379882812e+01,1.339478683471679688e+01,8.823248863220214844e+00,8.742667198181152344e+00,9.431380271911621094e+00,1.659329605102539062e+01,1.630526733398437500e+01,1.039840412139892578e+01,9.898891448974609375e+00,9.424278259277343750e+00,1.207306480407714844e+01,1.145738983154296875e+01,1.056796169281005859e+01,8.560646057128906250e+00,1.225231075286865234e+01,1.710312652587890625e+01
6.372642993927001953e+00,7.544080257415771484e+00,4.735206604003906250e+00,3.334419965744018555e+00,4.121096134185791016e+00,7.014636516571044922e+00,7.884348392486572266e+00,3.875449180603027344e+00,2.333554983139038086e+00,1.886282444000244141e+00,7.231381416320800781e+00,1.144201636314392090e+00,3.257059097290039062e+00,5.555513381958007812e+00,4.740696430206298828e+00,1.431725025177001953e+00,-6.734361052513122559e-01,-1.308628439903259277e+00,-5.242011070251464844e+00,-6.837718009948730469e+00,-5.222139835357666016e+00,2.181263685226440430e+00,2.833154439926147461e+00,-1.693101823329925537e-01,8.880354762077331543e-01,-2.314486205577850342e-01,1.675644993782043457e+00,1.284790318459272385e-02,2.842390537261962891e+00,1.118329524993896484e+00,-2.321531623601913452e-01,-3.185247898101806641e+00
5.176338195800781250e+00,6.389689445495605469e+00,1.251191496849060059e+00,-2.587707042694091797e+00,-1.088063716888427734e+00,3.079337835311889648e+00,3.923741102218627930e+00,-2.310817837715148926e-01,-1.129052448272705078e+01,-1.293936824798583984e+01,-5.024114608764648438e+00,4.043301582336425781e+00,-1.658282279968261719e-01,-3.171889543533325195e+00,-6.287450313568115234e+00,-2.978151082992553711e+00,8.579786121845245361e-02,-9.653022885322570801e-01,-3.936794757843017578e+00,-4.606812477111816406e+00,-3.200673341751098633e+00,2.466646909713745117e+00,4.289492130279541016e+00,3.634409904479980469e+00,1.590111136436462402e+00,1.159020662307739258e+00,6.058045864105224609e+00,5.024797439575195312e+00,5.077311992645263672e+00,2.303833723068237305e+00,1.874461412429809570e+00,1.739306449890136719e+00
1.036994743347167969e+01,9.962425231933593750e+00,-4.139720275998115540e-02,-4.478374481201171875e+00,8.294246196746826172e-01,9.827602386474609375e+00,9.542169570922851562e+00,2.534826993942260742e-01,-4.489251613616943359e+00,-6.539627075195312500e+00,5.353764533996582031e+00,1.277621555328369141e+01,1.112527656555175781e+01,7.953316688537597656e+00,3.672246932983398438e+00,7.461094856262207031e+00,8.055559158325195312e+00,9.519364356994628906e+00,4.231094360351562500e+00,2.164680719375610352e+00,3.855753421783447266e+00,1.002368354797363281e+01,1.158875370025634766e+01,8.512034416198730469e+00,5.727472901344299316e-01,-1.007746100425720215e+00,9.217244148254394531e+00,1.092369842529296875e+01,9.890496253967285156e+00,5.169096946716308594e+00,4.722890853881835938e+00,7.831367492675781250e+00
-2.145972013473510742e+00,-3.966535329818725586e-01,-6.665179252624511719e+00,-9.345718383789062500e+00,-4.574228286743164062e+00,1.817252516746520996e+00,1.431270122528076172e+00,-5.986683368682861328e+00,-3.332114934921264648e+00,1.247910857200622559e+00,6.216790676116943359e+00,9.704307317733764648e-01,5.121227741241455078e+00,7.195439338684082031e+00,5.173991680145263672e+00,1.300439715385437012e+00,-1.293735027313232422e+00,1.119789958000183105e+00,-2.733554124832153320e+00,-4.926109790802001953e+00,-4.747203350067138672e+00,-1.694442510604858398e+00,-3.773411810398101807e-01,-9.790403842926025391e-01,-4.954218864440917969e+00,-7.061184406280517578e+00,-3.412537336349487305e+00,-1.540911436080932617e+00,-6.584724783897399902e-01,-2.295855522155761719e+00,-5.111540317535400391e+00,-9.048407554626464844e+00
-1.428306007385253906e+01,-5.219934940338134766e+00,-5.387687683105468750e-01,-1.576762080192565918e+00,-5.013269424438476562e+00,-8.615866661071777344e+00,-1.016900730133056641e+01,-5.985500812530517578e+00,-6.943260192871093750e+00,-9.805510520935058594e+00,-1.181853485107421875e+01,-1.443430233001708984e+01,-1.314370822906494141e+01,-9.833980560302734375e+00,-1.158011627197265625e+01,-1.591338825225830078e+01,-1.729922866821289062e+01,-1.604968070983886719e+01,-1.541292476654052734e+01,-1.356054592132568359e+01,-1.389378643035888672e+01,-1.587731361389160156e+01,-1.484805870056152344e+01,-9.827732086181640625e+00,-4.609804153442382812e+00,-4.375542163848876953e+00,-1.030609416961669922e+01,-1.474271106719970703e+01,-1.563418483734130859e+01,-1.021987724304199219e+01,-5.474945068359375000e+00,-1.613559246063232422e+00
-9.547385215759277344e+00,3.206945657730102539e+00,1.432075786590576172e+01,1.321926116943359375e+01,2.348319739103317261e-01,-4.885325431823730469e+00,-5.329667568206787109e+00,2.351732730865478516e+00,-8.499447107315063477e-01,-5.585943222045898438e+00,-1.150512218475341797e+01,-1.001815986633300781e+01,-1.242485904693603516e+01,-1.025792217254638672e+01,-1.172872066497802734e+01,-1.505155658721923828e+01,-1.688463211059570312e+01,-1.540674591064453125e+01,-1.270463848114013672e+01,-9.906295776367187500e+00,-9.306507110595703125e+00,-1.306524562835693359e+01,-1.075159931182861328e+01,-7.185641765594482422e+00,8.306068368256092072e-03,6.670110821723937988e-01,-6.825084209442138672e+00,-1.331739044189453125e+01,-1.557270717620849609e+01,-7.949575901031494141e+00,3.869529008865356445e+00,2.103562545776367188e+01
3.576310276985168457e-01,1.035065937042236328e+01,1.458368778228759766e+01,9.151464462280273438e+00,-2.992286980152130127e-01,7.286376953125000000e-01,3.302054405212402344e+00,4.430342197418212891e+00,7.200401782989501953e+00,7.939604282379150391e+00,3.280702352523803711e+00,5.954452157020568848e-01,2.843091249465942383e+00,4.324317455291748047e+00,4.172603130340576172e+00,-1.501991868019104004e+00,-3.390624284744262695e+00,-8.744032382965087891e-01,4.958928227424621582e-01,1.548299312591552734e+00,1.314101219177246094e+00,-1.593830466270446777e+00,1.401404738426208496e-01,2.665072083473205566e-01,3.935556650161743164e+00,5.781526088714599609e+00,5.023126602172851562e-01,-9.014596343040466309e-01,-3.326016068458557129e-01,4.978245258331298828e+00,8.576211929321289062e+00,1.650095176696777344e+01
-2.965523600578308105e-01,6.437464714050292969e+00,1.999886751174926758e+00,-4.612577438354492188e+00,-3.796483278274536133e+00,-3.271373510360717773e+00,-1.585756540298461914e+00,-9.870444536209106445e-01,8.153628349304199219e+00,7.628665447235107422e+00,3.256137609481811523e+00,-3.458745002746582031e+00,9.420120120048522949e-01,2.004292964935302734e+00,-1.033611893653869629e-01,-3.170996189117431641e+00,-3.378804922103881836e+00,-1.743740797042846680e+00,-2.045085906982421875e+00,4.217493236064910889e-01,1.652507662773132324e+00,3.004502654075622559e-01,-1.078100204467773438e+00,-1.164759621024131775e-01,-3.454738557338714600e-01,2.380700111389160156e+00,-1.172401830554008484e-01,2.272843599319458008e+00,2.798223257064819336e+00,5.423039436340332031e+00,2.331899851560592651e-01,-2.170334577560424805e+00
-4.546859264373779297e+00,2.197316646575927734e+00,3.841997146606445312e+00,1.298670291900634766e+00,-1.510261416435241699e+00,-6.347187042236328125e+00,-6.800084590911865234e+00,-3.554228246212005615e-01,-1.154602408409118652e+00,-4.837446212768554688e+00,-7.830557823181152344e+00,-6.381246089935302734e+00,-8.564719200134277344e+00,-7.811066150665283203e+00,-8.941236495971679688e+00,-8.123430252075195312e+00,-9.160208702087402344e+00,-1.086155700683593750e+01,-1.206131458282470703e+01,-9.478778839111328125e+00,-4.630939483642578125e+00,-2.915305852890014648e+00,-3.267269730567932129e-01,3.594187498092651367e-01,-2.548266649246215820e+00,-2.060252428054809570e+00,-5.697523355484008789e-01,1.390610218048095703e+00,-5.725163221359252930e-01,-1.354540348052978516e+00,-3.703083515167236328e+00,4.150459766387939453e+00
-3.980078220367431641e+00,6.638235569000244141e+00,1.478350830078125000e+01,1.258357238769531250e+01,1.579838037490844727e+00,-4.565209388732910156e+00,-5.634195327758789062e+00,-7.573594897985458374e-02,5.967835783958435059e-01,-1.368183732032775879e+00,-4.122256755828857422e+00,-5.991975784301757812e+00,-7.618638992309570312e+00,-4.070838928222656250e+00,-1.929740428924560547e+00,-1.715159893035888672e+00,-4.736441135406494141e+00,-6.789084434509277344e+00,-5.980805873870849609e+00,-4.277421474456787109e+00,-1.062617301940917969e+00,-4.937682747840881348e-01,3.293864011764526367e+00,4.739533424377441406e+00,4.567087650299072266e+00,4.825846195220947266e+00,7.119045257568359375e+00,5.829891204833984375e+00,6.633353233337402344e+00,5.963564872741699219e+00,7.786342144012451172e+00,1.892157936096191406e+01
-2.486969470977783203e+00,7.514629364013671875e+00,7.109593868255615234e+00,3.304612874984741211e+00,-1.432656764984130859e+00,-3.403538942337036133e+00,-7.106718540191650391e+00,-7.473711013793945312e+00,1.916299581527709961e+00,2.260164737701416016e+00,-5.687559843063354492e-01,-9.104840278625488281e+00,-7.478798866271972656e+00,-5.478947162628173828e+00,-6.040345668792724609e+00,-4.077089786529541016e+00,-5.319993019104003906e+00,-4.444293975830078125e+00,-3.546821832656860352e+00,-9.366542100906372070e-01,6.356059908866882324e-01,-3.539111316204071045e-01,7.731987237930297852e-01,7.243664860725402832e-01,1.259320378303527832e+00,1.748215913772583008e+00,4.292551994323730469e+00,3.343428611755371094e+00,6.799538612365722656e+00,6.880239486694335938e+00,6.862024307250976562e+00,9.564069747924804688e+00
2.993767261505126953e-01,1.227261424064636230e+00,-3.374143123626708984e+00,-5.046437263488769531e+00,-2.673587799072265625e+00,-2.209773778915405273e+00,-5.724705219268798828e+00,-5.162317752838134766e+00,-1.135742664337158203e+01,-1.258085250854492188e+01,-9.342540740966796875e+00,-4.883135795593261719e+00,-8.442676544189453125e+00,-8.811241149902343750e+00,-1.176529407501220703e+01,-7.860184669494628906e+00,-8.525546073913574219e+00,-8.409648895263671875e+00,-9.918099403381347656e+00,-5.925347328186035156e+00,-2.023635625839233398e+00,-1.621284008026123047e+00,1.283916592597961426e+00,-2.815314769744873047e+00,-6.023444652557373047e+00,-7.877555847167968750e+00,-3.681320190429687500e+00,-1.009607076644897461e+00,-1.132793784141540527e+00,-3.918648004531860352e+00,-7.048365592956542969e+00,-6.104753494262695312e+00
6.686040878295898438e+00,3.475190639495849609e+00,6.246069431304931641e+00,6.882626533508300781e+00,5.542407989501953125e+00,4.813132286071777344e+00,6.045300006866455078e+00,8.063616752624511719e+00,-3.817448377609252930e+00,-5.976611137390136719e+00,4.864836335182189941e-01,6.750129699707031250e+00,1.388916015625000000e+00,-5.755115151405334473e-01,-9.434385299682617188e-01,2.883150815963745117e+00,3.670941352844238281e+00,3.484636545181274414e+00,2.508213520050048828e+00,4.790773391723632812e+00,6.099058628082275391e+00,4.685219287872314453e+00,6.408082962036132812e+00,3.190943717956542969e+00,5.052015781402587891e-01,2.129466056823730469e+00,5.479650020599365234e+00,6.434407711029052734e+00,2.675050258636474609e+00,-7.978224158287048340e-01,-5.141353607177734375e+00,-2.055674314498901367e+00
4.705080986022949219e+00,2.211235284805297852e+00,7.447405338287353516e+00,7.710319995880126953e+00,5.099876403808593750e+00,3.182626485824584961e+00,6.219952583312988281e+00,8.405276298522949219e+00,1.128963851928710938e+01,8.793809890747070312e+00,8.682225227355957031e+00,6.357227802276611328e+00,6.109481811523437500e+00,1.402853012084960938e+00,-3.075141906738281250e-01,4.028707027435302734e+00,8.185884475708007812e+00,1.261548137664794922e+01,1.221487617492675781e+01,1.286855125427246094e+01,9.113435745239257812e+00,2.281069755554199219e+00,1.133124306797981262e-01,-1.595928817987442017e-01,3.688729107379913330e-01,2.466709613800048828e+00,5.700822830200195312e+00,4.210741043090820312e+00,1.996481537818908691e+00,1.794532537460327148e+00,1.764327168464660645e+00,4.527249336242675781e+00
-1.432292556762695312e+01,-1.715278053283691406e+01,-1.389282131195068359e+01,-1.187992477416992188e+01,-1.139775562286376953e+01,-1.419064235687255859e+01,-1.287878704071044922e+01,-7.626816749572753906e+00,4.495084285736083984e+00,1.722906351089477539e+00,-4.132244586944580078e+00,-1.154889297485351562e+01,-8.017835617065429688e+00,-6.822291374206542969e+00,-7.875380516052246094e+00,-7.343656063079833984e+00,-5.269807815551757812e+00,8.932677507400512695e-01,2.319573879241943359e+00,1.689074397087097168e+00,-2.248610496520996094e+00,-1.259027481079101562e+01,-1.602292633056640625e+01,-1.546644783020019531e+01,-1.271364593505859375e+01,-1.451623344421386719e+01,-1.658572769165039062e+01,-1.732586860656738281e+01,-1.449689960479736328e+01,-1.146353912353515625e+01,-7.001254558563232422e+00,-8.916656494140625000e+00
-1.670322608947753906e+01,-1.692814636230468750e+01,-1.580230808258056641e+01,-1.295946502685546875e+01,-1.151946449279785156e+01,-1.377972888946533203e+01,-1.233104228973388672e+01,-7.112868785858154297e+00,-1.036082458496093750e+01,-1.174519538879394531e+01,-1.242418956756591797e+01,-1.196623039245605469e+01,-1.213503170013427734e+01,-6.267594814300537109e+00,-1.455098539590835571e-01,-3.480824708938598633e+00,-3.990462779998779297e+00,-1.034514427185058594e+00,4.498132705688476562e+00,2.069992065429687500e+00,-1.096863031387329102e+00,-8.838504791259765625e+00,-1.401393127441406250e+01,-1.135625934600830078e+01,-8.216154098510742188e+00,-1.284491252899169922e+01,-1.830457115173339844e+01,-1.759942245483398438e+01,-1.313643646240234375e+01,-1.115486717224121094e+01,-1.136922073364257812e+01,-1.512117290496826172e+01
4.716737866401672363e-01,2.725924015045166016e+00,9.900344014167785645e-01,1.902092814445495605e+00,4.207839965820312500e+00,3.936504602432250977e+00,4.475998878479003906e+00,4.178592205047607422e+00,-4.915098190307617188e+00,-7.538961410522460938e+00,-1.751525640487670898e+00,2.959217071533203125e+00,1.509801626205444336e+00,3.771337270736694336e+00,1.067815876007080078e+01,7.160108566284179688e+00,8.277957916259765625e+00,1.178893661499023438e+01,1.819293975830078125e+01,1.591335582733154297e+01,1.185401821136474609e+01,6.613331794738769531e+00,-5.020074248313903809e-01,2.910742044448852539e+00,4.644432544708251953e+00,3.739208221435546875e+00,-6.313775777816772461e-01,8.474929332733154297e-01,1.876680016517639160e+00,9.346578735858201981e-04,-4.646922588348388672e+00,-5.501975059509277344e+00
4.609581232070922852e-01,6.995510458946228027e-01,1.556254744529724121e+00,7.138808965682983398e-01,8.826925158500671387e-01,-5.682862401008605957e-01,-8.874446153640747070e-01,-2.048010587692260742e+00,3.852200269699096680e+00,5.218038558959960938e+00,4.325774669647216797e+00,-5.072890520095825195e-01,3.860926866531372070e+00,2.894697904586791992e+00,5.807679176330566406e+00,-4.092306196689605713e-01,6.034602522850036621e-01,4.408644199371337891e+00,1.102453994750976562e+01,8.566045761108398438e+00,5.670898914337158203e+00,3.432001829147338867e+00,-1.573552727699279785e+00,-3.336215913295745850e-01,8.876462578773498535e-01,-1.109365820884704590e+00,-2.699868202209472656e+00,-2.082851409912109375e+00,-1.794524312019348145e+00,-3.967998504638671875e+00,-4.683702945709228516e+00,-3.738045454025268555e+00
-2.095321083068847656e+01,-1.896781158447265625e+01,-1.376760768890380859e+01,-1.471368408203125000e+01,-1.940903663635253906e+01,-2.290104484558105469e+01,-2.129633331298828125e+01,-1.583788394927978516e+01,-7.447621822357177734e+00,-1.865703105926513672e+00,-6.509128093719482422e+00,-1.358491802215576172e+01,-8.518632888793945312e+00,-6.474607944488525391e+00,1.313121914863586426e+00,-7.037740230560302734e+00,-8.155897140502929688e+00,-8.641175270080566406e+00,7.494144886732101440e-02,-2.847502708435058594e+00,-5.625688076019287109e+00,-8.122252464294433594e+00,-1.371550846099853516e+01,-1.115389347076416016e+01,-7.332517147064208984e+00,-9.509626388549804688e+00,-1.442735767364501953e+01,-1.724678993225097656e+01,-1.903715896606445312e+01,-1.595021247863769531e+01,-9.826680183410644531e+00,-1.475742149353027344e+01
-2.973821258544921875e+01,-2.501895904541015625e+01,-1.994627952575683594e+01,-2.013084411621093750e+01,-2.372531509399414062e+01,-2.810062599182128906e+01,-2.644118118286132812e+01,-1.901819038391113281e+01,-1.637380409240722656e+01,-1.293958663940429688e+01,-1.560645389556884766e+01,-1.809769821166992188e+01,-1.532533645629882812e+01,-7.914929866790771484e+00,1.809690356254577637e+00,-3.037114858627319336e+00,-5.739470958709716797e+00,-5.704135894775390625e+00,8.973987698554992676e-01,-4.075914621353149414e-01,-3.783531665802001953e+00,-1.049324703216552734e+01,-2.063026046752929688e+01,-1.359905052185058594e+01,-6.715820312500000000e+00,-7.260648727416992188e+00,-1.459884738922119141e+01,-1.921739006042480469e+01,-2.462903594970703125e+01,-2.142599487304687500e+01,-1.510312175750732422e+01,-2.391247177124023438e+01
-1.202560710906982422e+01,-1.123365783691406250e+01,-9.313911437988281250e+00,-8.904760360717773438e+00,-8.808127403259277344e+00,-1.135872840881347656e+01,-1.009209728240966797e+01,-8.361489295959472656e+00,-6.061959743499755859e+00,-2.723749399185180664e+00,-3.721513032913208008e+00,-7.509621620178222656e+00,-2.865809679031372070e+00,2.671987563371658325e-02,1.171178445219993591e-01,-1.326521873474121094e+00,-1.961753368377685547e+00,3.346483707427978516e-01,1.365308523178100586e+00,1.213225960731506348e+00,8.514828234910964966e-02,-1.732448935508728027e+00,-1.055868148803710938e+01,-6.235517978668212891e+00,-1.953508019447326660e+00,-5.252482414245605469e+00,-1.217899227142333984e+01,-1.285267925262451172e+01,-1.271906948089599609e+01,-1.206748008728027344e+01,-1.028030967712402344e+01,-1.433982372283935547e+01
-2.592634201049804688e+00,-3.857921123504638672e+00,-2.712680339813232422e+00,-3.493846893310546875e+00,-3.860836505889892578e+00,-3.823252677917480469e+00,-1.058473825454711914e+00,-2.972209453582763672e+00,1.592379689216613770e+00,7.639749526977539062e+00,7.506942272186279297e+00,3.695944547653198242e+00,8.989422798156738281e+00,8.376543045043945312e+00,4.445072174072265625e+00,6.477600097656250000e+00,7.995689392089843750e+00,1.016176319122314453e+01,6.856846809387207031e+00,7.198953151702880859e+00,1.012514972686767578e+01,1.051976680755615234e+01,6.855179667472839355e-01,1.811632990837097168e+00,5.330554962158203125e+00,5.141360312700271606e-02,-8.712314605712890625e+00,-8.208640098571777344e+00,-3.970342874526977539e+00,-1.336054682731628418e+00,1.440601468086242676e+00,-4.131637573242187500e+00
2.480617165565490723e-02,1.817768692970275879e+00,2.637439012527465820e+00,8.268797993659973145e-01,-6.073703989386558533e-02,-7.322965860366821289e-01,3.226608633995056152e-01,-3.121877610683441162e-01,1.685760378837585449e+00,6.796110630035400391e+00,5.431931018829345703e+00,6.946107387542724609e+00,1.001911163330078125e+01,1.159281158447265625e+01,7.698530673980712891e+00,1.472465133666992188e+01,1.637645149230957031e+01,1.769605445861816406e+01,9.540836334228515625e+00,1.162987995147705078e+01,1.752135086059570312e+01,1.655665397644042969e+01,4.209408760070800781e+00,4.635780334472656250e+00,9.449654579162597656e+00,8.840657234191894531e+00,2.976051568984985352e+00,2.438741922378540039e+00,6.325960159301757812e-01,9.136958718299865723e-01,5.427861213684082031e+00,1.171305894851684570e+00
3.449082136154174805e+00,2.335029125213623047e+00,1.043799072504043579e-01,2.064317941665649414e+00,3.478265523910522461e+00,3.862307786941528320e+00,1.885335326194763184e+00,2.753724336624145508e+00,3.405072927474975586e+00,5.360644340515136719e+00,5.484865665435791016e+00,7.151064395904541016e+00,9.332098007202148438e+00,1.022712039947509766e+01,7.259397506713867188e+00,1.248358058929443359e+01,1.180757999420166016e+01,1.131071662902832031e+01,5.598993778228759766e+00,9.056073188781738281e+00,1.127698326110839844e+01,1.067047214508056641e+01,4.715284347534179688e+00,2.859253883361816406e+00,4.051799774169921875e+00,4.661833286285400391e+00,4.753529548645019531e+00,4.450942993164062500e+00,1.936783552169799805e+00,-1.876673102378845215e+00,-1.730082273483276367e+00,3.971644878387451172e+00
-6.006176471710205078e+00,-4.518795967102050781e+00,-6.368057727813720703e+00,-3.486845493316650391e+00,-3.215461015701293945e+00,-3.716775178909301758e-01,-2.311521768569946289e+00,-2.310295104980468750e+00,-9.199461340904235840e-02,8.873273134231567383e-01,1.769366502761840820e+00,-3.468489646911621094e-01,2.411384582519531250e+00,1.942775368690490723e+00,2.181165456771850586e+00,2.654793500900268555e+00,9.389774203300476074e-01,6.957256793975830078e-01,1.068455815315246582e+00,4.249455928802490234e+00,3.276703596115112305e+00,7.356222867965698242e-01,-2.050496101379394531e+00,-1.405013442039489746e+00,-1.592473387718200684e+00,-5.733498573303222656e+00,-6.289401531219482422e+00,-5.888899326324462891e+00,-3.472141981124877930e+00,-5.769095897674560547e+00,-7.520394802093505859e+00,-6.733100414276123047e+00
-1.140542030334472656e+01,-7.742441654205322266e+00,-5.317622661590576172e+00,-2.744870901107788086e+00,-5.251624107360839844e+00,-3.806864738464355469e+00,-3.365215063095092773e+00,-1.723580241203308105e+00,-6.094992756843566895e-01,-5.235556140542030334e-02,-1.075504899024963379e+00,-5.107163906097412109e+00,-4.986102104187011719e+00,-1.735821843147277832e+00,8.454967141151428223e-01,-1.641642093658447266e+00,-2.346096754074096680e+00,5.957552790641784668e-01,4.756105899810791016e+00,6.541351795196533203e+00,6.251848697662353516e+00,-1.317791938781738281e+00,-6.262539863586425781e+00,-2.744240283966064453e+00,2.411333173513412476e-01,-3.884046077728271484e+00,-7.721519947052001953e+00,-1.044299316406250000e+01,-1.180653381347656250e+01,-8.348037719726562500e+00,-2.719952821731567383e+00,-6.574969768524169922e+00
-7.720094680786132812e+00,-7.544186592102050781e+00,-5.490903377532958984e+00,-1.730305671691894531e+00,-5.251421332359313965e-01,-3.566355705261230469e+00,-2.030951976776123047e+00,2.872607707977294922e+00,-8.540028333663940430e-01,-2.405641317367553711e+00,-4.698223114013671875e+00,-6.097606658935546875e+00,-8.240753173828125000e+00,-4.046216011047363281e-01,1.397888660430908203e+00,-3.354802608489990234e+00,-5.944301605224609375e+00,-3.202218770980834961e+00,2.014779806137084961e+00,4.268341541290283203e+00,3.042260646820068359e+00,-6.644774436950683594e+00,-8.354219436645507812e+00,-4.774177074432373047e+00,2.390429144725203514e-03,-1.599792599678039551e+00,-4.761702537536621094e+00,-9.386531829833984375e+00,-1.170546245574951172e+01,-5.431561470031738281e+00,1.805614709854125977e+00,4.574851036071777344e+00
-2.649399280548095703e+00,2.521422505378723145e-01,-1.592973589897155762e+00,-8.437915444374084473e-01,3.598652124404907227e+00,2.903434038162231445e-01,-8.781580328941345215e-01,1.335789799690246582e+00,-6.163456916809082031e+00,-6.480597496032714844e+00,-7.584331512451171875e+00,-6.578091144561767578e+00,-9.568591117858886719e+00,-4.169445037841796875e+00,-1.191585421562194824e+00,-5.898137569427490234e+00,-8.920179367065429688e+00,-7.681347370147705078e+00,-4.020763397216796875e+00,-2.623722553253173828e+00,-5.703617572784423828e+00,-1.095160198211669922e+01,-8.458058357238769531e+00,-4.805679798126220703e+00,-2.766282558441162109e+00,-1.558393716812133789e+00,-1.571321964263916016e+00,-3.848487854003906250e+00,8.408928513526916504e-01,5.391467571258544922e+00,4.307404994964599609e+00,6.164980888366699219e+00
2.099678516387939453e+00,9.139620780944824219e+00,6.720801353454589844e+00,2.652506828308105469e+00,3.617591619491577148e+00,4.605226993560791016e+00,2.481823682785034180e+00,5.319435000419616699e-01,-3.969187021255493164e+00,-9.999778866767883301e-01,-1.561334609985351562e+00,-3.910248279571533203e+00,-7.323923587799072266e+00,-5.943368911743164062e+00,-3.202511787414550781e+00,-6.847972869873046875e+00,-6.902016162872314453e+00,-3.775928020477294922e+00,-2.529964447021484375e+00,-3.130726575851440430e+00,-3.344565153121948242e+00,-4.969276428222656250e+00,-2.374925374984741211e+00,-1.852890253067016602e+00,-4.284716606140136719e+00,-3.413086757063865662e-02,4.011343002319335938e+00,3.412454366683959961e+00,4.734531402587890625e+00,6.355570316314697266e+00,2.591228246688842773e+00,2.719208478927612305e+00
1.290951848030090332e+00,-3.453418612480163574e-01,-7.705054283142089844e-01,-3.183366060256958008e+00,-4.428535938262939453e+00,-2.199618816375732422e+00,-7.739668488502502441e-01,-3.273360252380371094e+00,4.525885105133056641e+00,8.762103080749511719e+00,6.588634490966796875e+00,-3.851729154586791992e+00,-2.801749706268310547e+00,-4.910588264465332031e-01,-1.417510271072387695e+00,-4.333385944366455078e+00,-4.085163593292236328e+00,-2.393139123916625977e+00,-3.882650852203369141e+00,-3.876316547393798828e+00,-1.376630306243896484e+00,-2.474713325500488281e+00,5.024795532226562500e-01,-2.061004400253295898e+00,-6.795129776000976562e+00,-7.107016563415527344e+00,-1.781927943229675293e+00,-9.937392175197601318e-02,-4.289047718048095703e+00,-5.567877292633056641e+00,-8.453197479248046875e+00,-3.734970808029174805e+00
5.180658102035522461e-01,-8.895516395568847656e+00,-7.999391555786132812e+00,-6.547006607055664062e+00,-5.963821411132812500e+00,-5.659092426300048828e+00,-1.989902853965759277e+00,-6.192053318023681641e+00,7.975966930389404297e+00,1.161316776275634766e+01,1.160932540893554688e+01,-1.464967489242553711e+00,3.119015932083129883e+00,4.249808788299560547e+00,5.795298099517822266e+00,4.574694156646728516e+00,4.841531753540039062e+00,3.337707996368408203e+00,2.290255069732666016e+00,7.526049017906188965e-01,5.860214233398437500e-01,-4.829019010066986084e-01,3.709012746810913086e+00,8.116466999053955078e-01,-5.073775291442871094e+00,-1.210983180999755859e+01,-7.512293338775634766e+00,-3.807250022888183594e+00,-2.400963783264160156e+00,-6.169340610504150391e+00,-1.323530864715576172e+01,-1.017691802978515625e+01
2.143831729888916016e+00,-1.670334339141845703e+00,1.366807222366333008e+00,3.117076635360717773e+00,1.824611425399780273e+00,2.428493350744247437e-01,2.754086017608642578e+00,9.498787522315979004e-01,6.256845474243164062e+00,6.659173965454101562e+00,9.070223808288574219e+00,4.605015277862548828e+00,3.715178012847900391e+00,3.176147699356079102e+00,7.604506492614746094e+00,1.008439445495605469e+01,1.053462505340576172e+01,1.146425151824951172e+01,1.121084308624267578e+01,7.691315650939941406e+00,7.458208084106445312e+00,7.954790115356445312e+00,9.535426139831542969e+00,7.095647811889648438e+00,2.309510707855224609e+00,-1.214222192764282227e+00,2.008544683456420898e+00,3.106035232543945312e+00,5.410105228424072266e+00,1.296195507049560547e+00,-4.134406566619873047e+00,-6.767381668090820312e+00
2.819350004196166992e+00,3.588416576385498047e+00,6.837617397308349609e+00,6.758751869201660156e+00,4.308192729949951172e+00,1.515100359916687012e+00,2.571262121200561523e+00,5.784993648529052734e+00,6.690254688262939453e+00,5.431136608123779297e+00,4.435395240783691406e+00,6.315002441406250000e+00,2.615108251571655273e+00,4.737783432006835938e+00,7.234484672546386719e+00,1.127848911285400391e+01,9.483242034912109375e+00,1.192622375488281250e+01,1.143417739868164062e+01,9.850087165832519531e+00,1.131368255615234375e+01,1.158493804931640625e+01,1.133800315856933594e+01,7.689670085906982422e+00,4.467296600341796875e+00,7.051546096801757812e+00,1.222692394256591797e+01,1.070443725585937500e+01,6.807005405426025391e+00,5.509127616882324219e+00,6.654113769531250000e+00,6.443285942077636719e-01
-4.184486865997314453e-01,-1.799453616142272949e+00,-1.217596411705017090e+00,-1.917556047439575195e+00,-2.951476871967315674e-01,-3.164189577102661133e+00,-4.037755489349365234e+00,-2.220099210739135742e+00,5.242394924163818359e+00,6.666516304016113281e+00,2.946879386901855469e+00,9.443479180335998535e-01,2.185875654220581055e+00,4.261453628540039062e+00,4.205285072326660156e+00,9.199193954467773438e+00,7.812863349914550781e+00,8.213790893554687500e+00,5.738877773284912109e+00,4.746073722839355469e+00,4.630489349365234375e+00,6.902394294738769531e+00,6.717962741851806641e+00,2.849017143249511719e+00,-1.765647888183593750e+00,1.051910877227783203e+00,5.366740703582763672e+00,5.248341560363769531e+00,2.357824087142944336e+00,2.747268199920654297e+00,4.091928005218505859e+00,-1.723280668258666992e+00
-1.660368323326110840e+00,-5.515666961669921875e+00,-7.500505924224853516e+00,-6.417956352233886719e+00,-1.106772661209106445e+00,-1.785676598548889160e+00,-5.002989768981933594e+00,-6.948235511779785156e+00,-4.593241691589355469e+00,-5.215883731842041016e+00,-4.045315265655517578e+00,-3.330198526382446289e+00,-1.908533811569213867e+00,-2.815853834152221680e+00,-3.653832912445068359e+00,2.255045652389526367e+00,3.833319425582885742e+00,5.348455905914306641e+00,4.755088686943054199e-01,-2.393970966339111328e+00,-2.094793081283569336e+00,2.732322454452514648e+00,1.380325317382812500e+00,-4.985867738723754883e-01,-3.520803451538085938e+00,-1.963084220886230469e+00,-2.469264507293701172e+00,-2.404219150543212891e+00,-2.039393424987792969e+00,-2.666755437850952148e+00,-1.880880713462829590e+00,-5.429413914680480957e-01
1.610592901706695557e-01,-2.157590389251708984e-01,-3.363126993179321289e+00,-2.858721256256103516e+00,7.958505153656005859e-01,2.940298557281494141e+00,-4.644490033388137817e-02,-1.551363229751586914e+00,-1.000388717651367188e+01,-1.076898670196533203e+01,-1.100834178924560547e+01,-2.769320726394653320e+00,-5.345046520233154297e+00,-6.104322433471679688e+00,-9.419496536254882812e+00,-4.106220245361328125e+00,-3.582087278366088867e+00,-1.041225075721740723e+00,-7.205534934997558594e+00,-8.264280319213867188e+00,-5.981808662414550781e+00,-1.907166719436645508e+00,-1.405719995498657227e+00,9.817439317703247070e-01,1.777245163917541504e+00,3.597376585006713867e+00,2.964434862136840820e+00,2.157010078430175781e+00,1.428095221519470215e+00,7.415612339973449707e-01,4.314920425415039062e+00,6.364059448242187500e+00
2.440258979797363281e+00,8.090822219848632812e+00,6.185369491577148438e+00,4.226294517517089844e+00,3.220978021621704102e+00,5.470653057098388672e+00,4.483538150787353516e+00,3.906465768814086914e+00,3.170980453491210938e+00,2.202546119689941406e+00,1.856835484504699707e+00,2.347396373748779297e+00,1.564879179000854492e+00,-1.053685903549194336e+00,-6.018788337707519531e+00,-2.036229848861694336e+00,-2.559050083160400391e+00,-4.319957733154296875e+00,-1.070417499542236328e+01,-9.007535934448242188e+00,-6.977190017700195312e+00,-3.211549043655395508e+00,-3.410058915615081787e-01,2.808316230773925781e+00,1.293811440467834473e+00,5.629378318786621094e+00,8.262733459472656250e+00,7.833985328674316406e+00,6.750103950500488281e+00,8.842588424682617188e+00,1.270176219940185547e+01,5.938739776611328125e+00
1.080972003936767578e+01,1.202002525329589844e+01,1.273419761657714844e+01,1.162574481964111328e+01,9.291323661804199219e+00,9.878854751586914062e+00,1.002084827423095703e+01,9.450425148010253906e+00,1.384620761871337891e+01,1.425084400177001953e+01,1.510575103759765625e+01,1.094100379943847656e+01,1.255870914459228516e+01,8.308959960937500000e+00,2.416302204132080078e+00,5.970785140991210938e+00,7.415153980255126953e+00,4.925360202789306641e+00,-1.290980577468872070e+00,-1.156126856803894043e+00,1.687548398971557617e+00,6.783840656280517578e+00,7.398055076599121094e+00,5.122316837310791016e+00,3.868188261985778809e-01,7.509625911712646484e+00,8.245124816894531250e+00,7.015738487243652344e+00,6.725088596343994141e+00,8.873963356018066406e+00,1.024537277221679688e+01,1.005835342407226562e+01
1.297789287567138672e+01,9.035201072692871094e+00,1.192054271697998047e+01,1.266332530975341797e+01,9.157521247863769531e+00,8.808009147644042969e+00,9.102272033691406250e+00,1.027929019927978516e+01,1.202355384826660156e+01,1.056989479064941406e+01,1.171105575561523438e+01,9.601988792419433594e+00,1.023265743255615234e+01,9.030033111572265625e+00,2.018708229064941406e+00,8.412400245666503906e+00,8.826486587524414062e+00,8.165148735046386719e+00,-5.511061549186706543e-01,-2.720268666744232178e-01,5.182410240173339844e+00,1.196475887298583984e+01,1.009437847137451172e+01,7.025140285491943359e+00,4.868900299072265625e+00,9.931071281433105469e+00,6.860004901885986328e+00,5.689412117004394531e+00,7.531507968902587891e+00,5.633153915405273438e+00,5.717475414276123047e+00,1.572421836853027344e+01
1.176318264007568359e+01,1.217043018341064453e+01,9.342955589294433594e+00,8.296235084533691406e+00,8.705662727355957031e+00,8.399350166320800781e+00,5.335995197296142578e+00,5.675999164581298828e+00,4.025017738342285156e+00,5.013650059700012207e-01,-1.388042569160461426e+00,2.511664628982543945e+00,1.169888615608215332e+00,-1.486747622489929199e+00,-4.554323196411132812e+00,4.880403578281402588e-01,-2.010098457336425781e+00,-3.456109285354614258e+00,-9.150875091552734375e+00,-8.483953475952148438e+00,-6.830995082855224609e+00,5.230854749679565430e-01,1.628707528114318848e+00,7.884413599967956543e-01,1.793037772178649902e+00,2.725908279418945312e+00,4.402130603790283203e+00,8.531785964965820312e+00,1.297302436828613281e+01,9.594429016113281250e+00,5.553073406219482422e+00,1.148937225341796875e+01
4.427520275115966797e+00,1.135894298553466797e+01,4.784430503845214844e+00,2.775907516479492188e+00,7.544016361236572266e+00,6.719630718231201172e+00,2.230020523071289062e+00,1.045535281300544739e-01,-1.461313962936401367e+00,-6.589572906494140625e+00,-8.265458106994628906e+00,-5.118481636047363281e+00,-6.279821872711181641e+00,-7.249025821685791016e+00,-5.271517276763916016e+00,-8.707060813903808594e+00,-1.363735961914062500e+01,-1.430774688720703125e+01,-1.192715930938720703e+01,-1.435154056549072266e+01,-1.823513221740722656e+01,-1.500496292114257812e+01,-1.196537685394287109e+01,-1.181256961822509766e+01,-1.053180408477783203e+01,-7.444614410400390625e+00,-3.120900154113769531e+00,2.876804113388061523e+00,5.879208564758300781e+00,6.568025112152099609e+00,4.867002367973327637e-01,3.665773153305053711e+00
3.217496395111083984e+00,7.517417430877685547e+00,1.909016489982604980e+00,-1.549430377781391144e-02,5.380274772644042969e+00,8.273967742919921875e+00,8.135502815246582031e+00,4.213342189788818359e+00,-2.229614019393920898e+00,-5.839286804199218750e+00,-6.605727195739746094e+00,-2.301729917526245117e+00,-5.715262413024902344e+00,-3.092140853404998779e-01,2.803375005722045898e+00,-3.877418518066406250e+00,-1.007937145233154297e+01,-9.449000358581542969e+00,-5.021386146545410156e+00,-1.032603168487548828e+01,-1.473806571960449219e+01,-1.541830253601074219e+01,-1.218823432922363281e+01,-9.956005096435546875e+00,-9.296576499938964844e+00,-6.385312080383300781e+00,-5.994064331054687500e+00,7.997115254402160645e-01,4.111716270446777344e+00,5.542425155639648438e+00,-2.335387229919433594e+00,7.927937805652618408e-02
4.428829669952392578e+00,6.060414314270019531e+00,2.316015481948852539e+00,-7.076628208160400391e-01,2.648127317428588867e+00,9.056183815002441406e+00,1.096071052551269531e+01,7.099214076995849609e+00,-6.036689281463623047e+00,-7.047825813293457031e+00,-6.916164875030517578e+00,4.082090377807617188e+00,-3.100444316864013672e+00,2.421198844909667969e+00,8.912140846252441406e+00,6.583152294158935547e+00,6.394638419151306152e-01,-1.595439314842224121e-01,4.559252262115478516e+00,1.104835391044616699e+00,-4.295901298522949219e+00,-7.825277328491210938e+00,-5.732412815093994141e+00,-5.564451217651367188e-01,1.207343339920043945e+00,-7.913665771484375000e-01,-3.560718059539794922e+00,2.686517953872680664e+00,5.812911987304687500e+00,5.730710506439208984e+00,-1.244097352027893066e+00,-5.340350627899169922e+00
1.662489771842956543e+00,4.477455139160156250e+00,5.307244777679443359e+00,3.624579668045043945e+00,3.840171813964843750e+00,5.213248252868652344e+00,3.564234733581542969e+00,3.621739864349365234e+00,-5.679614543914794922e+00,-8.831821441650390625e+00,-4.383875846862792969e+00,3.538470983505249023e+00,-1.901536226272583008e+00,-9.561451673507690430e-01,5.527812480926513672e+00,5.219301223754882812e+00,1.193616509437561035e+00,-4.487629234790802002e-01,5.426833152770996094e+00,4.310647964477539062e+00,1.065795660018920898e+00,-2.988029241561889648e+00,-3.087211370468139648e+00,-7.553469538688659668e-01,1.160620212554931641e+00,2.830083131790161133e+00,1.454866647720336914e+00,9.454958438873291016e-01,-1.898319363594055176e+00,-1.207670092582702637e+00,-9.298207759857177734e-01,-7.467685937881469727e-01
1.413429617881774902e+00,4.822963237762451172e+00,1.028167152404785156e+01,1.073689651489257812e+01,6.317756652832031250e+00,3.419794321060180664e+00,1.041207075119018555e+00,5.673157215118408203e+00,9.332878112792968750e+00,5.623560428619384766e+00,4.900814533233642578e+00,1.246248960494995117e+00,2.334040164947509766e+00,3.299878835678100586e+00,4.312183856964111328e+00,1.544189572334289551e+00,-1.633849620819091797e+00,-3.223541498184204102e+00,2.743494510650634766e+00,2.832370758056640625e+00,2.718965053558349609e+00,-3.194004297256469727e-01,-4.158280491828918457e-01,-1.434772253036499023e+00,3.424574375152587891e+00,6.488307476043701172e+00,6.073223114013671875e+00,1.411029219627380371e+00,-2.736942768096923828e+00,-2.266553640365600586e+00,2.654797077178955078e+00,1.208763790130615234e+01
-2.618630170822143555e+00,1.655758619308471680e-01,4.353973388671875000e+00,5.474884510040283203e+00,4.512035548686981201e-01,-1.143735170364379883e+00,-2.026223659515380859e+00,3.639786005020141602e+00,9.475747108459472656e+00,5.999860286712646484e+00,1.822486877441406250e+00,-4.397532939910888672e+00,-1.009126156568527222e-01,2.431492567062377930e+00,2.428602695465087891e+00,-3.620817184448242188e+00,-5.600739479064941406e+00,-6.898442268371582031e+00,-9.091605544090270996e-01,6.070328950881958008e-01,-1.798167705535888672e+00,-6.147089958190917969e+00,-3.313729286193847656e+00,-1.796426415443420410e+00,4.150860309600830078e+00,2.554840087890625000e+00,1.153252959251403809e+00,-1.692684412002563477e+00,-2.162680625915527344e-01,-3.068084418773651123e-01,3.240757942199707031e+00,5.633435726165771484e+00
-3.329675197601318359e-01,-4.857849597930908203e+00,-6.101777553558349609e+00,-5.269110202789306641e+00,-3.185487031936645508e+00,-5.847871303558349609e+00,-8.555891990661621094e+00,-6.766709804534912109e+00,-6.271122455596923828e+00,-1.007192707061767578e+01,-9.042727470397949219e+00,-8.183058738708496094e+00,-7.121524333953857422e+00,-1.102076435089111328e+01,-9.325142860412597656e+00,-1.353774070739746094e+01,-1.205897808074951172e+01,-1.407016468048095703e+01,-1.091283416748046875e+01,-8.186500549316406250e+00,-8.586873054504394531e+00,-1.031797313690185547e+01,-4.792245388031005859e+00,-3.084327459335327148e+00,-2.515399694442749023e+00,-2.671337842941284180e+00,-9.485321640968322754e-01,-3.821008503437042236e-01,1.476733922958374023e+00,1.991794824600219727e+00,2.418239116668701172e+00,-4.445124626159667969e+00
4.298904895782470703e+00,6.589394211769104004e-01,-7.367498874664306641e-01,-1.143126487731933594e+00,5.719752907752990723e-01,-3.150297641754150391e+00,-5.264608860015869141e+00,-6.012098789215087891e+00,-3.336629629135131836e+00,-8.376183509826660156e+00,-4.635559558868408203e+00,-2.737191677093505859e+00,-3.972185134887695312e+00,-8.625410079956054688e+00,-7.051089763641357422e+00,-7.025487899780273438e+00,-5.771974086761474609e+00,-8.056240081787109375e+00,-7.200850486755371094e+00,-3.446148633956909180e+00,-2.693099677562713623e-01,1.048003435134887695e+00,4.201729774475097656e+00,2.552249670028686523e+00,2.832953929901123047e+00,4.501653671264648438e+00,7.424413681030273438e+00,7.150905609130859375e+00,6.154737949371337891e+00,5.422432422637939453e+00,6.697622299194335938e+00,3.939254522323608398e+00
3.386993885040283203e+00,5.901526927947998047e+00,6.220989704132080078e+00,5.031051158905029297e+00,3.366020917892456055e+00,3.311970472335815430e+00,3.372801780700683594e+00,4.055054664611816406e+00,6.762403488159179688e+00,5.012836933135986328e+00,3.488181352615356445e+00,5.886665344238281250e+00,5.577187538146972656e+00,5.681756496429443359e+00,6.967978000640869141e+00,7.393206596374511719e+00,7.372729301452636719e+00,6.276986598968505859e+00,7.462819099426269531e+00,1.129756546020507812e+01,1.180022525787353516e+01,1.161591529846191406e+01,1.136165714263916016e+01,8.557366371154785156e+00,1.016328716278076172e+01,9.935956954956054688e+00,1.197145652770996094e+01,9.548004150390625000e+00,8.805065155029296875e+00,6.729571342468261719e+00,9.930956840515136719e+00,8.767269134521484375e+00
-9.654827117919921875e+00,-8.342520713806152344e+00,-7.777683734893798828e+00,-7.273242473602294922e+00,-6.453378677368164062e+00,-6.945890903472900391e+00,-8.186141014099121094e+00,-3.721918821334838867e+00,-3.424265146255493164e+00,-1.854870438575744629e+00,-5.783882141113281250e+00,-3.712679386138916016e+00,-3.010337591171264648e+00,-6.584720313549041748e-02,2.077309846878051758e+00,5.896684527397155762e-01,3.639434874057769775e-01,1.065364360809326172e+00,2.670301675796508789e+00,4.301861286163330078e+00,4.394320011138916016e+00,3.866569042205810547e+00,2.424086093902587891e+00,2.525194883346557617e+00,4.656157493591308594e+00,2.923047542572021484e+00,5.293487071990966797e+00,9.391880631446838379e-01,-7.710312008857727051e-01,-2.157159805297851562e+00,1.931195020675659180e+00,-6.324942588806152344e+00
-1.898095512390136719e+01,-1.732830429077148438e+01,-1.622739028930664062e+01,-1.540605354309082031e+01,-1.397931289672851562e+01,-1.696716499328613281e+01,-1.928910064697265625e+01,-1.610797309875488281e+01,-1.181267929077148438e+01,-7.964800834655761719e+00,-1.164234828948974609e+01,-1.449371814727783203e+01,-1.486845493316650391e+01,-1.228088855743408203e+01,-9.197163581848144531e+00,-9.266159057617187500e+00,-9.907876968383789062e+00,-9.791737556457519531e+00,-7.891960144042968750e+00,-7.329759120941162109e+00,-5.758230209350585938e+00,-5.121583461761474609e+00,-5.732872962951660156e+00,-3.401488065719604492e+00,-3.530780375003814697e-01,-2.994925737380981445e+00,-2.675408124923706055e+00,-6.949226856231689453e+00,-9.564441680908203125e+00,-1.044910144805908203e+01,-7.178274154663085938e+00,-1.592841625213623047e+01
-8.513710021972656250e+00,-2.983930349349975586e+00,-2.696293830871582031e+00,-3.115251541137695312e+00,-4.739701747894287109e+00,-5.323110580444335938e+00,-6.301331996917724609e+00,-5.693940162658691406e+00,-3.707122325897216797e+00,-1.763909816741943359e+00,-2.489473581314086914e+00,-5.302335739135742188e+00,-5.047984600067138672e+00,-4.430255413055419922e+00,-2.176407575607299805e+00,-7.585283517837524414e-01,-8.359900116920471191e-01,-2.699197292327880859e+00,-2.218102455139160156e+00,1.411775052547454834e-01,1.995427846908569336e+00,2.832874059677124023e+00,1.336878776550292969e+00,1.778755903244018555e+00,3.167917490005493164e+00,6.621362566947937012e-01,7.357946783304214478e-02,-1.363798379898071289e+00,-3.289297342300415039e+00,-4.578129291534423828e+00,-2.925246000289916992e+00,-3.779498815536499023e+00
2.952973127365112305e+00,4.826112747192382812e+00,3.673096895217895508e+00,4.212828159332275391e+00,4.024389743804931641e+00,3.563666105270385742e+00,3.087561368942260742e+00,4.938510894775390625e+00,2.026007413864135742e+00,-3.923336267471313477e-01,-4.561337530612945557e-01,6.120969057083129883e-01,5.402495861053466797e+00,4.525043010711669922e+00,3.607086658477783203e+00,3.166999101638793945e+00,6.146317958831787109e+00,4.903385162353515625e+00,2.939666986465454102e+00,4.175809860229492188e+00,5.992486000061035156e+00,7.859203338623046875e+00,5.961531639099121094e+00,5.051265716552734375e+00,4.076534748077392578e+00,3.646178245544433594e+00,4.812134742736816406e+00,6.581734657287597656e+00,5.742565155029296875e+00,2.893869161605834961e+00,7.094002515077590942e-02,3.729527711868286133e+00
-1.287959814071655273e+00,-8.881742358207702637e-01,-4.063233435153961182e-01,-3.038729906082153320e+00,-3.537348508834838867e+00,-4.952070236206054688e+00,-3.371040105819702148e+00,-2.229461908340454102e+00,-2.354317665100097656e+00,-5.267388820648193359e+00,-6.730419635772705078e+00,-4.720157623291015625e+00,-1.438487648963928223e+00,-2.788101196289062500e+00,-4.347598075866699219e+00,-4.933981895446777344e+00,-2.528745174407958984e+00,-4.308943271636962891e+00,-6.858481407165527344e+00,-7.118866443634033203e+00,-4.270398139953613281e+00,-2.502880811691284180e+00,-2.068960428237915039e+00,-1.036853313446044922e+00,3.019816242158412933e-02,-1.899665236473083496e+00,-1.747015833854675293e+00,3.009365797042846680e+00,5.399806499481201172e+00,1.231579542160034180e+00,-6.535197734832763672e+00,-7.811781406402587891e+00
-1.183254146575927734e+01,-5.086309432983398438e+00,-2.270880222320556641e+00,-9.024838447570800781e+00,-1.286563491821289062e+01,-1.190841293334960938e+01,-6.080241680145263672e+00,-6.982223033905029297e+00,-1.184519481658935547e+01,-1.420422363281250000e+01,-1.248179912567138672e+01,-6.329615116119384766e+00,-8.816087722778320312e+00,-9.284305572509765625e+00,-1.101057052612304688e+01,-1.130545997619628906e+01,-1.219402122497558594e+01,-1.482219505310058594e+01,-1.741840934753417969e+01,-1.550717449188232422e+01,-1.228148460388183594e+01,-1.180659294128417969e+01,-1.099700450897216797e+01,-7.124165534973144531e+00,-4.779176712036132812e+00,-9.139128684997558594e+00,-1.092135715484619141e+01,-6.688472747802734375e+00,-2.846102237701416016e+00,-4.180469989776611328e+00,-9.452397346496582031e+00,-1.540122413635253906e+01
-6.316279411315917969e+00,-7.363369941711425781e+00,-6.284641742706298828e+00,-6.191264152526855469e+00,-3.566605091094970703e+00,-4.270917892456054688e+00,1.436165720224380493e-01,-7.840415239334106445e-01,-9.754354476928710938e+00,-1.223214530944824219e+01,-6.106395244598388672e+00,-1.632304906845092773e+00,-2.444865465164184570e+00,-3.321257829666137695e+00,-7.688443183898925781e+00,-1.150200557708740234e+01,-1.079469776153564453e+01,-1.125577163696289062e+01,-1.343522644042968750e+01,-1.210342884063720703e+01,-9.794262886047363281e+00,-9.398212432861328125e+00,-9.249580383300781250e+00,-5.166501045227050781e+00,-4.781707763671875000e+00,-7.580612659454345703e+00,-9.027770042419433594e+00,-7.792725563049316406e+00,-7.188894748687744141e+00,-6.267006874084472656e+00,-7.050915241241455078e+00,-8.224514961242675781e+00
2.049315162003040314e-02,-5.402555465698242188e+00,-6.135283470153808594e+00,-1.542412757873535156e+00,7.316994667053222656e+00,4.348017692565917969e+00,4.336330890655517578e+00,2.923178434371948242e+00,3.813898801803588867e+00,3.821233987808227539e+00,5.302683830261230469e+00,5.680868029594421387e-01,3.427722692489624023e+00,2.208342075347900391e+00,-1.143542885780334473e+00,-3.560848712921142578e+00,-2.358229398727416992e+00,-2.410766124725341797e+00,-1.617250680923461914e+00,-2.887299060821533203e+00,-2.740153789520263672e+00,-4.128794670104980469e+00,-3.830930948257446289e+00,-8.304007649421691895e-01,6.764575242996215820e-01,-1.313195109367370605e+00,-4.061152935028076172e+00,-3.864485263824462891e+00,-5.527040958404541016e+00,-5.840482234954833984e+00,-6.585113048553466797e+00,-9.484103918075561523e-01
-1.077873611450195312e+01,-9.835485816001892090e-01,-1.841300368309020996e+00,-3.738980531692504883e+00,-1.664757847785949707e+00,8.190225958824157715e-01,4.606179296970367432e-01,-1.005645394325256348e+00,9.145008325576782227e-01,2.470955371856689453e+00,-7.605156898498535156e-01,-1.965583920478820801e+00,-3.462039947509765625e+00,-2.710983037948608398e+00,-1.861065268516540527e+00,8.944761008024215698e-02,-3.177716255187988281e+00,-5.126531124114990234e+00,-3.107515096664428711e+00,-3.138092756271362305e+00,-4.427067756652832031e+00,-5.968023777008056641e+00,-6.087889671325683594e+00,-4.386680126190185547e+00,-1.325687408447265625e+00,-3.834399938583374023e+00,-7.037955284118652344e+00,-7.920554161071777344e+00,-1.011782932281494141e+01,-1.054314327239990234e+01,-9.743176460266113281e+00,-4.550000190734863281e+00
-1.060856151580810547e+01,-1.111701011657714844e+00,-4.843318939208984375e+00,-6.896988391876220703e+00,-8.228284835815429688e+00,-3.869648933410644531e+00,-3.767206192016601562e+00,-4.129590511322021484e+00,-1.355518817901611328e+01,-1.377258586883544922e+01,-9.964305877685546875e+00,-7.289659380912780762e-01,-4.861384391784667969e+00,-3.995221376419067383e+00,-3.724465608596801758e+00,-4.776694774627685547e+00,-6.338724136352539062e+00,-6.940691471099853516e+00,-7.875238418579101562e+00,-7.698646545410156250e+00,-7.046776771545410156e+00,-5.379002094268798828e+00,-6.471674442291259766e+00,-5.322094917297363281e+00,-4.017188072204589844e+00,-4.989473342895507812e+00,-5.692933559417724609e+00,-8.240575790405273438e+00,-1.230606746673583984e+01,-1.286187076568603516e+01,-1.144206619262695312e+01,-1.039703464508056641e+01
9.982548713684082031e+00,5.739098072052001953e+00,-2.329639196395874023e+00,-2.707640528678894043e-01,4.771335124969482422e+00,5.602347373962402344e+00,3.469018459320068359e+00,1.787657260894775391e+00,-4.973561286926269531e+00,-5.265205383300781250e+00,2.057721853256225586e+00,7.498838901519775391e+00,8.166109085083007812e+00,6.350601673126220703e+00,5.133280754089355469e+00,1.479892253875732422e+00,4.510193347930908203e+00,5.989208221435546875e+00,5.026134967803955078e+00,2.359173297882080078e+00,2.998356580734252930e+00,6.840567111968994141e+00,6.869426250457763672e+00,6.088066101074218750e+00,4.404241085052490234e+00,4.583994388580322266e+00,6.748178005218505859e+00,7.038140296936035156e+00,4.010093688964843750e+00,2.007613420486450195e+00,2.279962152242660522e-01,7.289409041404724121e-01
9.646229743957519531e+00,9.351359367370605469e+00,8.250685691833496094e+00,7.162316322326660156e+00,8.572510719299316406e+00,9.233431816101074219e+00,7.418793201446533203e+00,4.813299655914306641e+00,7.540416240692138672e+00,7.921975135803222656e+00,7.646275520324707031e+00,5.605926036834716797e+00,6.292881488800048828e+00,3.363879203796386719e+00,5.036158084869384766e+00,6.143974781036376953e+00,6.368027210235595703e+00,6.202926635742187500e+00,7.151067733764648438e+00,5.115153789520263672e+00,3.610402822494506836e+00,6.947698593139648438e+00,7.246142864227294922e+00,4.324376106262207031e+00,3.957675933837890625e+00,3.627544164657592773e+00,5.816548824310302734e+00,7.517769336700439453e+00,9.574548721313476562e+00,9.355715751647949219e+00,8.976097106933593750e+00,1.194018459320068359e+01
-9.353736877441406250e+00,-5.223182678222656250e+00,1.335950732231140137e+00,-5.171667933464050293e-01,-5.686895847320556641e+00,-5.602916240692138672e+00,-5.093915939331054688e+00,-6.191162586212158203e+00,-3.676424264907836914e+00,-2.758732795715332031e+00,-4.726513385772705078e+00,-8.282893180847167969e+00,-1.126794052124023438e+01,-1.309954452514648438e+01,-1.062800502777099609e+01,-9.698753356933593750e+00,-1.100950622558593750e+01,-1.178775882720947266e+01,-1.089146137237548828e+01,-1.074118518829345703e+01,-1.137826061248779297e+01,-9.986645698547363281e+00,-9.692321777343750000e+00,-1.024330043792724609e+01,-7.509178161621093750e+00,-9.565954208374023438e+00,-9.181367874145507812e+00,-1.120399665832519531e+01,-7.468288421630859375e+00,-4.894349098205566406e+00,-9.006710052490234375e-01,2.166154146194458008e+00
-3.801994800567626953e+00,-8.682245254516601562e+00,-9.773226737976074219e+00,-7.656628608703613281e+00,-6.132729053497314453e+00,-8.584585189819335938e+00,-8.706696510314941406e+00,-7.640962123870849609e+00,-7.737616539001464844e+00,-7.729810714721679688e+00,-5.677497386932373047e+00,-7.049170494079589844e+00,-8.090180397033691406e+00,-7.524323463439941406e+00,-6.554876804351806641e+00,-1.015693855285644531e+01,-9.041213035583496094e+00,-7.653921604156494141e+00,-5.692541599273681641e+00,-6.988953590393066406e+00,-6.721193790435791016e+00,-6.666194438934326172e+00,-6.536652565002441406e+00,-5.948441982269287109e+00,-5.598935604095458984e+00,-6.929779529571533203e+00,-5.970626831054687500e+00,-6.110091686248779297e+00,-4.601342678070068359e+00,-3.268065452575683594e+00,-3.922565460205078125e+00,-7.282976627349853516e+00
7.521951198577880859e+00,-6.676059365272521973e-01,-2.219629049301147461e+00,1.478974461555480957e+00,2.974319934844970703e+00,-1.118764638900756836e+00,-3.065188646316528320e+00,1.145465493202209473e+00,9.587611198425292969e+00,9.377501487731933594e+00,5.329688549041748047e+00,5.933514833450317383e-01,3.696695804595947266e+00,4.071784019470214844e+00,4.086501121520996094e+00,6.318418025970458984e+00,7.346533298492431641e+00,7.790031909942626953e+00,7.410240173339843750e+00,7.715790748596191406e+00,7.021884918212890625e+00,4.445936203002929688e+00,4.390126228332519531e+00,3.637619972229003906e+00,2.027205944061279297e+00,4.165621280670166016e+00,6.560588836669921875e+00,7.508203506469726562e+00,5.403610706329345703e+00,7.023406982421875000e+00,4.947910308837890625e+00,-4.449558258056640625e+00
-6.183803558349609375e+00,-8.835801124572753906e+00,-7.754366993904113770e-01,2.292922735214233398e+00,-5.677223682403564453e+00,-7.843284606933593750e+00,-9.916245460510253906e+00,-3.907451629638671875e+00,6.125900268554687500e+00,6.736380577087402344e+00,-1.645962834358215332e+00,-7.773489475250244141e+00,-6.847238540649414062e+00,-5.401005268096923828e+00,-7.554232597351074219e+00,-4.103303909301757812e+00,-4.054251194000244141e+00,-4.532948970794677734e+00,-6.342128276824951172e+00,-4.022332191467285156e+00,-5.365339756011962891e+00,-1.040202999114990234e+01,-1.039039230346679688e+01,-7.774015903472900391e+00,-3.948932409286499023e+00,-2.875536680221557617e+00,-4.948003292083740234e+00,-8.774699211120605469e+00,-9.782246589660644531e+00,-5.762431144714355469e+00,-2.434346675872802734e+00,-7.863749980926513672e+00
-1.385226917266845703e+01,-1.540732002258300781e+01,-9.460004806518554688e+00,-7.502047061920166016e+00,-1.548718929290771484e+01,-1.408528518676757812e+01,-1.297725009918212891e+01,-7.555884361267089844e+00,-7.469851493835449219e+00,-6.153869152069091797e+00,-9.224497795104980469e+00,-8.409162521362304688e+00,-1.271542167663574219e+01,-9.311129570007324219e+00,-1.006074333190917969e+01,-1.034616374969482422e+01,-1.238018512725830078e+01,-1.234491252899169922e+01,-1.206798744201660156e+01,-1.167407798767089844e+01,-1.414075469970703125e+01,-1.924472999572753906e+01,-1.864810562133789062e+01,-1.311589717864990234e+01,-7.141654491424560547e+00,-1.065528011322021484e+01,-1.717214584350585938e+01,-2.047183799743652344e+01,-1.937714767456054688e+01,-1.713876342773437500e+01,-1.496675205230712891e+01,-1.018840599060058594e+01
2.644915342330932617e+00,-2.413497686386108398e+00,-2.941813170909881592e-01,1.947194933891296387e+00,-7.104427218437194824e-01,6.723266094923019409e-02,2.488080978393554688e+00,4.636626720428466797e+00,1.523845672607421875e+00,3.922692537307739258e+00,4.806357860565185547e+00,5.455614566802978516e+00,2.816783905029296875e+00,4.743839740753173828e+00,5.507392883300781250e+00,6.340830802917480469e+00,4.913681507110595703e+00,5.191397666931152344e+00,6.083839893341064453e+00,4.729463100433349609e+00,2.543761730194091797e+00,-4.092407524585723877e-01,-2.993517518043518066e-01,7.765715010464191437e-03,6.169750094413757324e-01,1.206716671586036682e-01,-4.301422119140625000e+00,-5.135562896728515625e+00,-2.660655021667480469e+00,-2.031051397323608398e+00,-2.309234142303466797e+00,1.267680644989013672e+00
1.271169567108154297e+01,5.532671451568603516e+00,1.123378562927246094e+01,1.293554878234863281e+01,1.064471149444580078e+01,9.087787628173828125e+00,1.064136791229248047e+01,9.236232757568359375e+00,1.485959053039550781e+01,1.634083747863769531e+01,1.461291027069091797e+01,8.230757713317871094e+00,1.034644985198974609e+01,1.427484321594238281e+01,1.402813529968261719e+01,1.654689979553222656e+01,1.596426200866699219e+01,1.825282859802246094e+01,1.733311462402343750e+01,1.529202651977539062e+01,1.188674354553222656e+01,8.949836730957031250e+00,9.747743606567382812e+00,5.297919750213623047e+00,3.433137416839599609e+00,6.946750640869140625e+00,7.404947757720947266e+00,5.934315681457519531e+00,4.881738662719726562e+00,9.452400207519531250e+00,1.091544818878173828e+01,9.751891136169433594e+00
8.430546760559082031e+00,3.613764047622680664e+00,5.501584053039550781e+00,4.085236549377441406e+00,2.234650850296020508e+00,3.150636196136474609e+00,5.390837192535400391e+00,3.838013648986816406e+00,7.157846450805664062e+00,7.910990238189697266e+00,4.103512287139892578e+00,4.115303516387939453e+00,3.551791429519653320e+00,5.562434196472167969e+00,3.915065765380859375e+00,4.439949512481689453e+00,5.104862689971923828e+00,9.089426040649414062e+00,9.295639038085937500e+00,8.389960289001464844e+00,4.998164653778076172e+00,2.468635082244873047e+00,3.906652688980102539e+00,2.319441318511962891e+00,2.734920501708984375e+00,1.357913017272949219e+00,-1.489328503608703613e+00,-2.067740917205810547e+00,3.640962541103363037e-01,3.609815359115600586e+00,5.694205284118652344e+00,9.782957077026367188e+00
3.440041065216064453e+00,2.341370105743408203e+00,-2.416101455688476562e+00,-2.903949975967407227e+00,-4.431979358196258545e-01,2.005307435989379883e+00,1.942191958427429199e+00,3.494915962219238281e+00,-5.865166187286376953e+00,-6.531775951385498047e+00,-5.439647197723388672e+00,1.301657319068908691e+00,-2.982706546783447266e+00,3.216629266738891602e+00,5.369333267211914062e+00,4.685034751892089844e+00,1.744934797286987305e+00,3.446565628051757812e+00,4.609416484832763672e+00,4.994410991668701172e+00,2.325536489486694336e+00,-1.563637256622314453e+00,-1.106678605079650879e+00,1.843560218811035156e+00,2.735504150390625000e+00,-7.290327548980712891e-01,-4.735839366912841797e+00,-1.043559312820434570e+00,1.684530496597290039e+00,1.528499603271484375e+00,1.924081563949584961e+00,4.692405223846435547e+00
-5.036602973937988281e+00,-2.506737232208251953e+00,-4.845726966857910156e+00,-8.084631562232971191e-01,2.501474857330322266e+00,7.634233832359313965e-01,-4.380303382873535156e+00,1.704791784286499023e-01,2.411691665649414062e+00,8.571803569793701172e-01,-3.429548263549804688e+00,-7.870256900787353516e+00,-7.075250625610351562e+00,1.482822775840759277e+00,4.167500972747802734e+00,4.100551128387451172e+00,8.025039732456207275e-02,2.104529619216918945e+00,1.863790512084960938e+00,2.235087633132934570e+00,4.903026819229125977e-01,-6.267520427703857422e+00,-6.526292324066162109e+00,-2.154915571212768555e+00,-6.419558525085449219e-01,3.169067621231079102e+00,1.467717885971069336e+00,1.439931750297546387e+00,-2.005104064941406250e+00,3.143253326416015625e+00,4.682364940643310547e+00,-4.033434391021728516e+00
-5.407719135284423828e+00,-2.072675466537475586e+00,-7.987532615661621094e-01,2.949990749359130859e+00,2.529573678970336914e+00,-1.603604674339294434e+00,-5.109813690185546875e+00,-2.817034006118774414e+00,9.002230644226074219e+00,9.676429748535156250e+00,2.682048082351684570e+00,-6.575834274291992188e+00,-1.701759219169616699e+00,2.829590320587158203e+00,4.219926834106445312e+00,1.903403282165527344e+00,1.138499021530151367e+00,5.899321079254150391e+00,8.793927192687988281e+00,6.715261936187744141e+00,3.767257452011108398e+00,-2.267108201980590820e+00,-4.164769649505615234e+00,-1.676949620246887207e+00,1.123414874076843262e+00,6.267157554626464844e+00,3.776325702667236328e+00,-5.257754325866699219e-01,-1.875713229179382324e+00,5.735609054565429688e+00,6.920864582061767578e+00,-4.142687320709228516e+00
1.946817994117736816e+00,-4.755159616470336914e-01,3.653409242630004883e+00,4.202812194824218750e+00,-5.763943865895271301e-02,-1.829235553741455078e+00,1.712171912193298340e+00,1.822517037391662598e+00,-1.227385997772216797e+00,-7.187155485153198242e-01,3.081319808959960938e+00,6.879147529602050781e+00,6.806739807128906250e+00,8.409863471984863281e+00,1.027412128448486328e+01,1.117732048034667969e+01,1.091142463684082031e+01,1.291666984558105469e+01,1.505789279937744141e+01,1.491180801391601562e+01,1.405309677124023438e+01,1.079650306701660156e+01,6.224793910980224609e+00,5.190238952636718750e+00,7.229119300842285156e+00,6.382538318634033203e+00,4.415893077850341797e+00,2.961463451385498047e+00,4.522557258605957031e+00,5.125455856323242188e+00,6.176435947418212891e+00,2.630019664764404297e+00
-2.506077289581298828e+00,-6.746282577514648438e+00,-2.215338706970214844e+00,-2.148295164108276367e+00,-5.178766250610351562e+00,-4.588080406188964844e+00,-1.526353955268859863e+00,1.136259555816650391e+00,-9.154089927673339844e+00,-9.829290390014648438e+00,-8.094042778015136719e+00,3.918727397918701172e+00,2.740035057067871094e+00,4.329390048980712891e+00,5.601163387298583984e+00,7.570828914642333984e+00,7.104019165039062500e+00,6.161383628845214844e+00,6.312044143676757812e+00,8.359400749206542969e+00,1.093331623077392578e+01,8.075635910034179688e+00,4.852449417114257812e+00,3.550969839096069336e+00,4.359923362731933594e+00,3.024805784225463867e+00,3.272752523422241211e+00,2.510352134704589844e+00,-4.535519182682037354e-01,-1.217633962631225586e+00,1.960356473922729492e+00,3.198048353195190430e+00
-4.280171394348144531e+00,-2.071960926055908203e+00,-4.997704505920410156e+00,-5.537671566009521484e+00,-2.663744211196899414e+00,-2.269685506820678711e+00,-5.044326305389404297e+00,-3.430882215499877930e+00,1.571752429008483887e+00,9.365014433860778809e-01,-5.048264980316162109e+00,-5.807502269744873047e+00,-6.416404843330383301e-01,-7.875254377722740173e-03,-1.117983102798461914e+00,-3.936129570007324219e+00,-3.078573226928710938e+00,-2.570477485656738281e+00,-2.066119432449340820e+00,-9.675539135932922363e-01,2.754997014999389648e+00,2.789216995239257812e+00,2.452689170837402344e+00,8.619458079338073730e-01,2.507786452770233154e-01,1.347068428993225098e+00,3.540205478668212891e+00,2.480056285858154297e+00,-7.446593642234802246e-01,-3.008395433425903320e-01,2.511461973190307617e+00,6.772090435028076172e+00
9.565747261047363281e+00,1.057355976104736328e+01,4.118681907653808594e+00,3.735617637634277344e+00,8.582474708557128906e+00,8.891367912292480469e+00,6.598533630371093750e+00,2.953849077224731445e+00,1.211286830902099609e+01,1.142111682891845703e+01,1.170747470855712891e+01,3.916915178298950195e+00,7.329249858856201172e+00,4.496541500091552734e+00,2.081842184066772461e+00,1.296557068824768066e+00,1.339687585830688477e+00,2.060958147048950195e+00,1.394918203353881836e+00,3.903107643127441406e+00,7.612215995788574219e+00,1.344464206695556641e+01,1.328692531585693359e+01,8.560564041137695312e+00,4.182531356811523438e+00,5.614647388458251953e+00,1.054934024810791016e+01,1.275207519531250000e+01,1.248918342590332031e+01,7.638365745544433594e+00,7.668944358825683594e+00,1.621386718750000000e+01
1.550746822357177734e+01,1.024487113952636719e+01,8.193964958190917969e+00,7.407794952392578125e+00,8.513602256774902344e+00,1.265518760681152344e+01,1.478687095642089844e+01,9.077712059020996094e+00,2.829439878463745117e+00,1.760506987571716309e+00,8.063403129577636719e+00,1.337835788726806641e+01,7.797338008880615234e+00,9.530830383300781250e-01,2.995027601718902588e-01,4.886959075927734375e+00,5.945035934448242188e+00,4.792135715484619141e+00,3.271286487579345703e+00,5.991133689880371094e+00,1.024012660980224609e+01,1.714521026611328125e+01,1.698209571838378906e+01,1.147947788238525391e+01,4.955443382263183594e+00,5.976698875427246094e+00,1.102394390106201172e+01,1.424111557006835938e+01,1.492609214782714844e+01,8.394739151000976562e+00,5.001414299011230469e+00,1.149478816986083984e+01
9.727559089660644531e+00,1.006642341613769531e+01,8.023268699645996094e+00,4.389730453491210938e+00,3.067870378494262695e+00,7.420978069305419922e+00,8.643953323364257812e+00,6.555735111236572266e+00,-7.075865268707275391e+00,-9.294967651367187500e+00,-4.983587265014648438e+00,9.851261138916015625e+00,2.276841878890991211e+00,-5.815847396850585938e+00,-3.760263919830322266e+00,8.371637463569641113e-01,3.723975896835327148e+00,1.548184275627136230e+00,1.853923678398132324e+00,5.876904726028442383e-01,2.953997373580932617e+00,7.369667053222656250e+00,9.469614028930664062e+00,6.939967632293701172e+00,1.949384093284606934e+00,1.848579406738281250e+00,4.564912796020507812e+00,6.943033695220947266e+00,1.072273159027099609e+01,7.092489719390869141e+00,5.445132851600646973e-01,2.372545003890991211e+00
1.067776298522949219e+01,1.542907428741455078e+01,1.282626724243164062e+01,9.824004173278808594e+00,1.039509582519531250e+01,1.056579589843750000e+01,9.027449607849121094e+00,7.313114166259765625e+00,3.059502363204956055e+00,2.438766509294509888e-01,3.356008052825927734e+00,1.076351928710937500e+01,8.336755752563476562e+00,1.444773435592651367e+00,3.550750255584716797e+00,4.020851135253906250e+00,5.328719615936279297e+00,2.288331747055053711e+00,4.742501258850097656e+00,1.082487463951110840e+00,1.137642741203308105e+00,4.623598098754882812e+00,7.458410263061523438e+00,6.195169448852539062e+00,3.122397184371948242e+00,4.565256118774414062e+00,7.802435398101806641e+00,9.625246047973632812e+00,1.297121429443359375e+01,9.322211265563964844e+00,4.506401538848876953e+00,6.021818637847900391e+00
