Fp1,Fp2,F7,F3,Fz,F4,F8,FT7,FC3,FCz,FC4,FT8,T3,C3,Cz,C4,T4,TP7,CP3,CPz,CP4,TP8,T5,P3,Pz,P4,T6,O1,Oz,O2,A1,A2
-6.396018981933593750e+00,-3.960760116577148438e+00,-3.180665493011474609e+00,-4.468179225921630859e+00,-4.644816398620605469e+00,-7.471578598022460938e+00,-6.356688976287841797e+00,-6.146002292633056641e+00,-3.945874929428100586e+00,-5.935582160949707031e+00,-6.384161472320556641e+00,-6.337956905364990234e+00,-4.997421264648437500e+00,-5.903041362762451172e+00,-7.425281524658203125e+00,-6.992354869842529297e+00,-6.498697280883789062e+00,-7.583392143249511719e+00,-9.539182662963867188e+00,-8.699213981628417969e+00,-8.194727897644042969e+00,-9.065813064575195312e+00,-1.089045333862304688e+01,-1.122918605804443359e+01,-1.005817985534667969e+01,-9.347902297973632812e+00,-9.549610137939453125e+00,-9.850887298583984375e+00,-1.130770301818847656e+01,-9.304543495178222656e+00,-7.321369647979736328e+00,-6.438450813293457031e+00
-1.501881980895996094e+01,-1.070267772674560547e+01,-1.093277835845947266e+01,-1.286717605590820312e+01,-1.212201881408691406e+01,-1.465884304046630859e+01,-1.274527645111083984e+01,-1.121680164337158203e+01,-7.821210384368896484e+00,-7.775966644287109375e+00,-9.095430374145507812e+00,-9.089329719543457031e+00,-8.097634315490722656e+00,-9.883141517639160156e+00,-1.238521671295166016e+01,-1.304094791412353516e+01,-1.359379196166992188e+01,-1.446661567687988281e+01,-1.462891864776611328e+01,-1.306365299224853516e+01,-1.220802116394042969e+01,-1.203905773162841797e+01,-1.349286746978759766e+01,-1.342802906036376953e+01,-1.301216888427734375e+01,-1.402533340454101562e+01,-1.448046970367431641e+01,-1.500048732757568359e+01,-1.516869831085205078e+01,-1.538218021392822266e+01,-1.357611656188964844e+01,-1.138441562652587891e+01
-8.876782417297363281e+00,-1.095498085021972656e+00,5.139713883399963379e-01,-6.223735213279724121e-01,-3.306390523910522461e+00,-3.438889980316162109e+00,-2.052511215209960938e+00,-9.361525177955627441e-01,-1.934948444366455078e+00,-5.444990634918212891e+00,-5.440297603607177734e+00,-3.262832641601562500e+00,-2.488835811614990234e+00,-4.354977130889892578e+00,-6.093488216400146484e+00,-5.613471984863281250e+00,-3.882689952850341797e+00,-2.951713323593139648e+00,-4.725206375122070312e+00,-3.176774501800537109e+00,-1.059945464134216309e+00,-4.866626262664794922e-01,-3.468413591384887695e+00,-2.839689970016479492e+00,-7.602854967117309570e-01,-9.268333315849304199e-01,-4.047224998474121094e+00,-7.525435447692871094e+00,-5.994491100311279297e+00,-3.781458854675292969e+00,-3.418394327163696289e-01,1.957568764686584473e+00
4.092962265014648438e+00,7.446103096008300781e+00,8.659666061401367188e+00,1.007319068908691406e+01,7.741319179534912109e+00,6.716228961944580078e+00,5.855568408966064453e+00,5.127069950103759766e+00,4.575833797454833984e+00,1.277879834175109863e+00,3.034500837326049805e+00,4.805150985717773438e+00,4.343319892883300781e+00,3.606871604919433594e+00,3.319851636886596680e+00,5.505072116851806641e+00,6.130192756652832031e+00,6.800098419189453125e+00,5.718983173370361328e+00,6.215617656707763672e+00,6.832203865051269531e+00,5.584012031555175781e+00,3.849992275238037109e+00,2.696204662322998047e+00,3.581395626068115234e+00,4.758378028869628906e+00,4.751915931701660156e+00,2.906537294387817383e+00,3.292987585067749023e+00,4.656949996948242188e+00,7.421854972839355469e+00,1.336351108551025391e+01
3.638168573379516602e+00,3.586025476455688477e+00,5.461853504180908203e+00,7.030077934265136719e+00,4.844694137573242188e+00,1.849248886108398438e+00,1.220846295356750488e+00,1.042628526687622070e+00,4.221347332000732422e+00,4.728381156921386719e+00,5.828577041625976562e+00,5.131215572357177734e+00,3.527448892593383789e+00,2.356612682342529297e+00,3.215955495834350586e+00,3.860347509384155273e+00,2.847035408020019531e+00,2.314046621322631836e+00,4.957776069641113281e+00,3.705485343933105469e+00,1.148396492004394531e+00,8.095757961273193359e-01,2.471747636795043945e+00,3.663116097450256348e-01,-2.588453054428100586e+00,-2.119717836380004883e+00,1.125950068235397339e-01,2.938407897949218750e+00,3.460922718048095703e+00,2.180712699890136719e+00,2.520123422145843506e-01,8.865821838378906250e+00
3.476469516754150391e+00,6.171050071716308594e+00,9.096078872680664062e+00,8.388611793518066406e+00,4.661956310272216797e+00,3.313930511474609375e+00,3.698779344558715820e+00,3.914837121963500977e+00,4.917531967163085938e+00,4.114511013031005859e+00,3.500957250595092773e+00,3.122885465621948242e+00,2.938044548034667969e+00,2.444102764129638672e+00,3.085199594497680664e+00,2.731008052825927734e+00,2.737755298614501953e+00,1.877874732017517090e+00,2.028538227081298828e+00,1.397894501686096191e+00,1.716927886009216309e+00,3.367862701416015625e+00,4.787163734436035156e+00,2.985281944274902344e+00,1.318795680999755859e+00,1.234524130821228027e+00,1.206674814224243164e+00,4.086981296539306641e+00,5.443641185760498047e+00,4.949432373046875000e+00,1.436236739158630371e+00,7.497370719909667969e+00
1.131878852844238281e+01,1.494340133666992188e+01,1.467083835601806641e+01,1.467161560058593750e+01,1.251443290710449219e+01,1.177659606933593750e+01,1.073438930511474609e+01,1.089427661895751953e+01,8.991287231445312500e+00,5.499397754669189453e+00,5.071050643920898438e+00,6.794551372528076172e+00,7.277863502502441406e+00,7.877945423126220703e+00,7.992237091064453125e+00,8.970805168151855469e+00,9.086289405822753906e+00,8.965703964233398438e+00,7.217435359954833984e+00,8.507982254028320312e+00,1.128720664978027344e+01,1.215647315979003906e+01,1.166542720794677734e+01,9.373392105102539062e+00,9.569957733154296875e+00,8.887304306030273438e+00,8.941884040832519531e+00,9.689580917358398438e+00,1.091721630096435547e+01,1.108809852600097656e+01,1.073033332824707031e+01,1.495602226257324219e+01
7.407486438751220703e+00,8.518079757690429688e+00,9.306171417236328125e+00,1.113088798522949219e+01,9.017285346984863281e+00,6.706399440765380859e+00,6.238244533538818359e+00,6.305275440216064453e+00,7.474574565887451172e+00,6.780372619628906250e+00,7.064149379730224609e+00,6.797523021697998047e+00,5.600883007049560547e+00,4.505773544311523438e+00,5.533637046813964844e+00,6.130370616912841797e+00,6.028800010681152344e+00,6.226413726806640625e+00,7.934941291809082031e+00,7.232697963714599609e+00,6.139465332031250000e+00,6.105557441711425781e+00,7.035649299621582031e+00,4.599000930786132812e+00,2.198807239532470703e+00,1.965414404869079590e+00,4.137261867523193359e+00,5.639198780059814453e+00,7.375475406646728516e+00,6.839422702789306641e+00,5.133529186248779297e+00,9.425598144531250000e+00
-1.708038568496704102e+00,-1.082562088966369629e+00,1.141269564628601074e+00,1.989111185073852539e+00,4.486325383186340332e-01,-2.806608974933624268e-01,-3.727020025253295898e-01,-1.371618986129760742e+00,9.101523756980895996e-01,2.151741981506347656e+00,1.669936656951904297e+00,-3.781160712242126465e-01,-1.220701575279235840e+00,-2.185503005981445312e+00,-9.198055863380432129e-01,-9.225714802742004395e-01,-4.693962335586547852e-01,-1.575965881347656250e+00,-6.542944908142089844e-01,-1.614102602005004883e+00,-2.368583679199218750e+00,-2.375585556030273438e+00,-1.619565129280090332e+00,-3.429488182067871094e+00,-6.007687568664550781e+00,-5.482523918151855469e+00,-5.330851554870605469e+00,-3.602994441986083984e+00,-1.140023350715637207e+00,-2.618069410324096680e+00,-7.904902458190917969e+00,-3.487090587615966797e+00
-1.414892911911010742e+00,-7.052316069602966309e-01,-8.296116590499877930e-01,-7.635278105735778809e-01,-8.909522294998168945e-01,-9.179736375808715820e-01,-1.821724891662597656e+00,-1.546911358833312988e+00,-2.019764900207519531e+00,-2.661923885345458984e+00,-4.098528861999511719e+00,-3.298555374145507812e+00,-2.265182256698608398e+00,-1.081065297126770020e+00,-1.991820454597473145e+00,-2.389035463333129883e+00,-3.074623584747314453e+00,-3.799965381622314453e+00,-4.135243892669677734e+00,-2.782187223434448242e+00,-1.148399949073791504e+00,-1.397120237350463867e+00,-1.721872091293334961e+00,-3.843684673309326172e+00,-5.026864051818847656e+00,-5.001658916473388672e+00,-6.229485034942626953e+00,-4.902696609497070312e+00,-3.148469924926757812e+00,-4.221589565277099609e+00,-7.685473442077636719e+00,-3.538914918899536133e+00
5.406492710113525391e+00,1.683659553527832031e+00,8.887985348701477051e-01,2.421463966369628906e+00,1.845138072967529297e+00,1.340130209922790527e+00,2.180094242095947266e+00,3.974543571472167969e+00,3.693918228149414062e+00,3.113346576690673828e+00,4.238820075988769531e+00,5.153696537017822266e+00,5.686180114746093750e+00,5.269719123840332031e+00,5.129210948944091797e+00,3.688780784606933594e+00,2.810954809188842773e+00,4.178519725799560547e+00,4.279111862182617188e+00,3.211770534515380859e+00,2.730845689773559570e+00,3.847275257110595703e+00,4.358272552490234375e+00,1.707565546035766602e+00,-1.395836830139160156e+00,-1.440027117729187012e+00,2.259907275438308716e-01,2.589506864547729492e+00,3.751652717590332031e+00,3.535390853881835938e+00,1.427201032638549805e+00,2.889627456665039062e+00
1.058697319030761719e+01,3.952747821807861328e+00,3.268735647201538086e+00,5.789987087249755859e+00,5.543567657470703125e+00,6.859950542449951172e+00,7.449902057647705078e+00,7.207104206085205078e+00,7.259620189666748047e+00,8.640209197998046875e+00,1.146449947357177734e+01,9.829413414001464844e+00,7.582022666931152344e+00,6.731843471527099609e+00,9.839034080505371094e+00,1.015179061889648438e+01,9.831564903259277344e+00,1.195739936828613281e+01,1.096529197692871094e+01,8.660035133361816406e+00,7.040451526641845703e+00,8.912578582763671875e+00,9.778707504272460938e+00,7.430204391479492188e+00,3.570466756820678711e+00,4.205186843872070312e+00,6.801063060760498047e+00,9.034248352050781250e+00,9.327393531799316406e+00,8.398417472839355469e+00,4.762955188751220703e+00,5.546994686126708984e+00
1.094897460937500000e+01,7.020187854766845703e+00,6.045778751373291016e+00,8.070810317993164062e+00,8.371681213378906250e+00,9.154753684997558594e+00,9.576375961303710938e+00,8.176184654235839844e+00,6.409173488616943359e+00,6.593268394470214844e+00,8.927663803100585938e+00,6.763390541076660156e+00,3.075073957443237305e+00,3.790231704711914062e+00,6.808871746063232422e+00,9.151180267333984375e+00,7.700887680053710938e+00,8.784872055053710938e+00,7.974373340606689453e+00,6.635937213897705078e+00,6.504310131072998047e+00,7.506674766540527344e+00,8.053788185119628906e+00,4.035879611968994141e+00,3.042084693908691406e+00,4.096178054809570312e+00,5.431506633758544922e+00,6.113257408142089844e+00,5.987653732299804688e+00,5.432985782623291016e+00,2.234225034713745117e+00,7.349543094635009766e+00
4.850829124450683594e+00,4.586501598358154297e+00,4.333106517791748047e+00,4.658923625946044922e+00,4.040569305419921875e+00,3.315811634063720703e+00,5.100548267364501953e+00,5.291882514953613281e+00,3.967761993408203125e+00,1.641127586364746094e+00,2.878028154373168945e+00,1.824961900711059570e+00,1.152896046638488770e+00,1.068938374519348145e+00,2.178234815597534180e+00,1.798147797584533691e+00,1.523813962936401367e+00,1.655619144439697266e+00,2.002146720886230469e+00,-3.763448819518089294e-02,1.185183785855770111e-02,1.543931365013122559e+00,1.830819725990295410e+00,-1.063081622123718262e+00,-8.295940160751342773e-01,-2.955934703350067139e-01,-9.728990793228149414e-01,-8.900160789489746094e-01,1.440844774246215820e+00,2.786147117614746094e+00,4.454870223999023438e-01,4.812606334686279297e+00
-2.805292308330535889e-01,8.376816511154174805e-01,-4.038740396499633789e-01,-3.009831905364990234e+00,-3.787276268005371094e+00,-1.618987321853637695e+00,-5.761937499046325684e-01,-1.540007591247558594e+00,-1.705154895782470703e+00,-1.868794798851013184e+00,-2.158873081207275391e+00,-3.052754640579223633e+00,-1.793331384658813477e+00,-1.749960422515869141e+00,-1.541090846061706543e+00,-2.833084583282470703e+00,-7.658460736274719238e-01,-1.114554882049560547e+00,-2.116283416748046875e+00,-2.267436504364013672e+00,-1.839543819427490234e+00,-8.361353874206542969e-01,-1.891748785972595215e+00,9.729716777801513672e-01,8.405102491378784180e-01,-9.978708624839782715e-02,-1.911713004112243652e+00,5.330963730812072754e-01,2.619897365570068359e+00,2.225249767303466797e+00,-1.472077846527099609e+00,-1.361800789833068848e+00
2.107912063598632812e+00,4.522394657135009766e+00,1.448143005371093750e+00,-1.261647939682006836e+00,-1.424607634544372559e+00,2.153566360473632812e+00,1.144491553306579590e+00,-1.083544969558715820e+00,-1.500029087066650391e+00,1.961759686470031738e+00,1.585505962371826172e+00,6.367833614349365234e-01,-1.002588748931884766e+00,-4.398637413978576660e-01,-9.079681038856506348e-01,1.489408254623413086e+00,5.309742689132690430e-01,-2.226297259330749512e-01,-1.346299052238464355e+00,2.348844766616821289e+00,3.310516119003295898e+00,3.977064609527587891e+00,3.145952463150024414e+00,5.581678390502929688e+00,5.976901054382324219e+00,5.023160457611083984e+00,4.828690052032470703e+00,7.339972019195556641e+00,6.365172863006591797e+00,4.017306804656982422e+00,1.108238220214843750e+00,7.587627172470092773e-01
3.867127180099487305e+00,4.489942073822021484e+00,5.722722053527832031e+00,7.684943675994873047e+00,5.724626064300537109e+00,5.352679729461669922e+00,4.117938041687011719e+00,4.793191909790039062e+00,5.007244586944580078e+00,7.011360168457031250e+00,7.264925956726074219e+00,7.501469612121582031e+00,6.327134609222412109e+00,4.355149269104003906e+00,2.987520694732666016e+00,4.736474514007568359e+00,2.455632448196411133e+00,1.334970951080322266e+00,2.619838714599609375e+00,5.219307899475097656e+00,5.694745063781738281e+00,6.391325950622558594e+00,8.058463096618652344e+00,7.821380615234375000e+00,9.342316627502441406e+00,1.005132770538330078e+01,1.065281963348388672e+01,8.329009056091308594e+00,6.044564247131347656e+00,7.244674205780029297e+00,8.500321388244628906e+00,5.527768611907958984e+00
-2.390820533037185669e-01,-2.828487634658813477e+00,-1.457170695066452026e-01,2.846358060836791992e+00,3.170438528060913086e+00,9.302132129669189453e-01,-4.572502970695495605e-01,1.283750057220458984e+00,2.113993167877197266e+00,-3.106849193572998047e-01,-1.722631692886352539e+00,8.708246350288391113e-01,3.327131509780883789e+00,1.976716756820678711e+00,1.067214846611022949e+00,-7.102499008178710938e-01,5.896964073181152344e-01,-3.755829930305480957e-01,3.907026052474975586e-01,-4.785860478878021240e-01,-2.343228012323379517e-01,-1.595456957817077637e+00,-1.257838010787963867e+00,2.693739891052246094e+00,6.822480678558349609e+00,7.741458892822265625e+00,5.458643436431884766e+00,8.376117944717407227e-01,-7.917512059211730957e-01,3.168041706085205078e+00,7.222922801971435547e+00,3.323830842971801758e+00
-4.350888252258300781e+00,-4.885512351989746094e+00,-6.016561985015869141e+00,-6.630682945251464844e+00,-3.525738477706909180e+00,-3.269431114196777344e+00,-3.874896287918090820e+00,-4.366575241088867188e+00,-5.519266605377197266e+00,-6.823888778686523438e+00,-7.535492897033691406e+00,-4.969231128692626953e+00,-4.832150459289550781e+00,-3.106675386428833008e+00,-1.838862061500549316e+00,-2.403948068618774414e+00,-1.426498889923095703e+00,-1.282084703445434570e+00,-1.943950891494750977e+00,-3.565282821655273438e+00,-4.210659503936767578e+00,-5.308594703674316406e+00,-6.033733844757080078e+00,-2.548627853393554688e+00,1.287015378475189209e-01,5.402320995926856995e-02,-4.394344687461853027e-01,-3.185955286026000977e+00,-5.187086105346679688e+00,-3.957740545272827148e+00,9.307550787925720215e-01,-4.343592822551727295e-01
-5.770074367523193359e+00,-1.449050545692443848e+00,-6.332826614379882812e-01,-2.355042457580566406e+00,-3.281644582748413086e+00,-3.344681978225708008e+00,-1.510470986366271973e+00,-1.314253091812133789e+00,-1.728554129600524902e+00,-1.080510973930358887e+00,-1.501512765884399414e+00,-2.850180864334106445e+00,-3.151412248611450195e+00,-1.486584067344665527e+00,-8.378303050994873047e-01,-1.580281972885131836e+00,-3.239097833633422852e+00,-3.227964401245117188e+00,-2.521539926528930664e+00,-2.745815753936767578e+00,-3.670786380767822266e+00,-2.236156940460205078e+00,-1.275257349014282227e+00,-2.484582662582397461e+00,-1.225502729415893555e+00,-5.624834299087524414e-01,8.358705043792724609e-01,-1.816015124320983887e+00,-3.353272199630737305e+00,-4.214097976684570312e+00,-1.270824074745178223e+00,-3.806680440902709961e-01
-5.452087879180908203e+00,-3.957278966903686523e+00,3.228092491626739502e-01,1.432383954524993896e-01,-3.190829753875732422e+00,-3.947056531906127930e+00,-1.802232265472412109e+00,-2.357376515865325928e-01,6.341468691825866699e-01,7.874717116355895996e-01,-3.662154674530029297e-01,-2.859678983688354492e+00,-8.548311591148376465e-01,-5.420976281166076660e-01,-2.341212272644042969e+00,-4.005081176757812500e+00,-3.012972831726074219e+00,-3.038607597351074219e+00,-2.945518255233764648e+00,-2.447500944137573242e+00,-2.275132894515991211e+00,-3.234810352325439453e+00,-3.330000638961791992e+00,-1.501460909843444824e+00,2.082146167755126953e+00,2.480315685272216797e+00,7.774860858917236328e-01,-1.520324945449829102e+00,-2.726861000061035156e+00,-4.114428043365478516e+00,-3.384903430938720703e+00,-2.800143003463745117e+00
-5.568580627441406250e+00,-8.676792144775390625e+00,-7.998778343200683594e+00,-7.838674068450927734e+00,-5.913782596588134766e+00,-7.047487735748291016e+00,-7.468467712402343750e+00,-7.528501987457275391e+00,-8.344011306762695312e+00,-7.771249294281005859e+00,-7.337317466735839844e+00,-5.092943668365478516e+00,-4.879026889801025391e+00,-5.620074272155761719e+00,-7.784854412078857422e+00,-6.938355445861816406e+00,-2.914800882339477539e+00,-2.496146440505981445e+00,-2.977066993713378906e+00,-3.957445621490478516e+00,-4.068355560302734375e+00,-7.592173576354980469e+00,-8.396779060363769531e+00,-5.378476142883300781e+00,-2.837853908538818359e+00,-3.779220581054687500e+00,-5.182846546173095703e+00,-5.847799301147460938e+00,-6.755600452423095703e+00,-7.251225471496582031e+00,-5.507737159729003906e+00,-6.811075687408447266e+00
-4.085718154907226562e+00,-3.715444087982177734e+00,-6.194314002990722656e+00,-6.549741744995117188e+00,-3.633403062820434570e+00,-5.981247901916503906e+00,-9.149788856506347656e+00,-1.073590946197509766e+01,-1.083893299102783203e+01,-9.134388923645019531e+00,-8.122828483581542969e+00,-5.952698707580566406e+00,-6.758669853210449219e+00,-7.836819171905517578e+00,-8.786715507507324219e+00,-7.606365203857421875e+00,-4.983166217803955078e+00,-5.103433609008789062e+00,-3.629455089569091797e+00,-3.737367391586303711e+00,-4.164881706237792969e+00,-6.255005359649658203e+00,-6.030582904815673828e+00,-5.644059658050537109e+00,-5.711113452911376953e+00,-6.724836349487304688e+00,-4.985849380493164062e+00,-5.172673702239990234e+00,-5.900325775146484375e+00,-5.556538105010986328e+00,-4.123708724975585938e+00,-6.882864952087402344e+00
9.942784905433654785e-01,3.106298446655273438e+00,3.165718317031860352e+00,2.165585517883300781e+00,1.201567888259887695e+00,3.674774467945098877e-01,-3.727844059467315674e-01,-1.173814773559570312e+00,1.164241075515747070e+00,1.771685838699340820e+00,1.029857754707336426e+00,-1.463791966438293457e+00,6.778898648917675018e-03,1.014185667037963867e+00,7.182021737098693848e-01,-5.018829554319381714e-02,1.183139324188232422e+00,2.224872112274169922e+00,3.424236774444580078e+00,4.444852352142333984e+00,4.511514663696289062e+00,2.421479225158691406e+00,2.020709037780761719e+00,3.762017011642456055e+00,5.202531337738037109e+00,2.753107786178588867e+00,4.099143028259277344e+00,3.610759496688842773e+00,2.623710393905639648e+00,8.821691870689392090e-01,1.657101750373840332e+00,-1.096702933311462402e+00
1.545108556747436523e+00,1.068129062652587891e+00,2.507106542587280273e+00,1.246792674064636230e+00,1.410360783338546753e-01,4.115462899208068848e-01,2.309599399566650391e+00,2.491948843002319336e+00,3.896320343017578125e+00,3.249430656433105469e+00,3.021940469741821289e+00,1.969530820846557617e+00,2.035131216049194336e+00,3.074325561523437500e+00,2.997211933135986328e+00,2.882376432418823242e+00,4.469058990478515625e+00,6.234321594238281250e+00,6.940130710601806641e+00,6.720238685607910156e+00,5.729141712188720703e+00,2.040267705917358398e+00,1.354849457740783691e+00,5.131136894226074219e+00,7.002882480621337891e+00,4.753667831420898438e+00,5.680660247802734375e+00,4.633452892303466797e+00,3.292199134826660156e+00,2.318842649459838867e+00,4.611222743988037109e+00,3.275801897048950195e+00
-4.683161735534667969e+00,-3.367650508880615234e+00,-2.694428682327270508e+00,-3.652709722518920898e+00,-4.578536033630371094e+00,-4.511520385742187500e+00,-3.723326921463012695e+00,-3.924312114715576172e+00,-5.873298645019531250e+00,-5.703714370727539062e+00,-4.355964660644531250e+00,-1.996722698211669922e+00,-2.916482448577880859e+00,-3.689694643020629883e+00,-4.492186069488525391e+00,-4.105830192565917969e+00,1.253957003355026245e-01,7.840083241462707520e-01,1.873982429504394531e+00,-7.279924750328063965e-01,-2.804712533950805664e+00,-5.726172924041748047e+00,-5.056354045867919922e+00,-3.866765022277832031e+00,-3.827333450317382812e+00,-3.733383178710937500e+00,-1.599461793899536133e+00,-2.907710790634155273e+00,-4.122529029846191406e+00,-4.363824844360351562e+00,-3.519128561019897461e+00,-7.291049957275390625e-01
-5.929802417755126953e+00,-2.468494415283203125e+00,-2.500944852828979492e+00,-2.640523910522460938e+00,-4.088569641113281250e+00,-3.705446720123291016e+00,-4.112702369689941406e+00,-2.256946563720703125e+00,-4.744149208068847656e+00,-5.222220420837402344e+00,-6.704270839691162109e+00,-5.483640670776367188e+00,-3.457610845565795898e+00,-3.259656906127929688e+00,-4.478375911712646484e+00,-3.919821262359619141e+00,1.420049428939819336e+00,2.075058698654174805e+00,9.806816577911376953e-01,-9.747953414916992188e-01,-1.530362010002136230e+00,-2.907187461853027344e+00,-3.787150144577026367e+00,-3.976842403411865234e+00,-4.119693756103515625e+00,-4.835558891296386719e+00,-3.789819717407226562e+00,-3.810682773590087891e+00,-4.709433555603027344e+00,-7.441891193389892578e+00,-7.507676124572753906e+00,-6.703153133392333984e+00
-2.148673295974731445e+00,-2.604052543640136719e+00,-4.093473911285400391e+00,-3.442738056182861328e+00,-1.866748690605163574e+00,-1.962031245231628418e+00,-2.399938344955444336e+00,-1.982376538217067719e-02,1.712728619575500488e+00,1.719501137733459473e+00,-8.136084079742431641e-01,-2.515425205230712891e+00,-1.169473767280578613e+00,1.398210674524307251e-01,1.868341922760009766e+00,3.769137620925903320e+00,5.187078952789306641e+00,5.754617691040039062e+00,5.543025016784667969e+00,5.204482555389404297e+00,5.020156860351562500e+00,3.807088136672973633e+00,1.966115355491638184e+00,2.611390590667724609e+00,9.753994345664978027e-01,-2.528817653656005859e+00,-2.520230293273925781e+00,-5.867508053779602051e-01,-1.298911929130554199e+00,-3.917764902114868164e+00,-2.484261274337768555e+00,-6.874300479888916016e+00
-5.038871765136718750e+00,-8.643106460571289062e+00,-1.152148723602294922e+01,-1.124142837524414062e+01,-6.874361038208007812e+00,-6.767490863800048828e+00,-7.789784431457519531e+00,-8.450158119201660156e+00,-5.977256774902343750e+00,-3.082755804061889648e+00,-2.942334413528442383e+00,-2.506038665771484375e+00,-1.913153886795043945e+00,-9.123037010431289673e-02,2.279273033142089844e+00,3.216754436492919922e+00,2.037236452102661133e+00,1.889955163002014160e+00,2.825725078582763672e+00,2.124639987945556641e+00,5.998101234436035156e-01,-3.057741522789001465e-01,-1.515320539474487305e+00,-3.086922883987426758e+00,-6.203292369842529297e+00,-6.851629257202148438e+00,-6.951839447021484375e+00,-6.512327671051025391e+00,-6.295249938964843750e+00,-6.577945709228515625e+00,-7.249406337738037109e+00,-9.678566932678222656e+00
-1.092226886749267578e+01,-1.112637710571289062e+01,-1.376958179473876953e+01,-1.570101165771484375e+01,-1.200624561309814453e+01,-1.034376716613769531e+01,-9.363494873046875000e+00,-1.016088104248046875e+01,-1.231845092773437500e+01,-1.125754547119140625e+01,-1.066004085540771484e+01,-6.957434654235839844e+00,-3.701567173004150391e+00,-1.285189390182495117e+00,-1.032850742340087891e+00,-2.614156246185302734e+00,-1.132658839225769043e+00,-8.459780216217041016e-01,-1.808302879333496094e+00,-1.663709878921508789e+00,-2.777691364288330078e+00,-5.205410003662109375e+00,-8.275143623352050781e+00,-9.499534606933593750e+00,-1.022142124176025391e+01,-9.407111167907714844e+00,-1.108300209045410156e+01,-1.235620403289794922e+01,-1.148156929016113281e+01,-1.159766292572021484e+01,-1.346148872375488281e+01,-1.426026439666748047e+01
-6.045542240142822266e+00,-4.295110225677490234e+00,-5.853374481201171875e+00,-8.396811485290527344e+00,-6.126526832580566406e+00,-4.545358180999755859e+00,-2.615806579589843750e+00,-2.392410039901733398e+00,-3.170210123062133789e+00,-5.370043754577636719e+00,-5.397009849548339844e+00,-2.138353109359741211e+00,-5.587804317474365234e-01,7.082768082618713379e-01,1.432651758193969727e+00,8.791133165359497070e-01,2.579030513763427734e+00,3.208329200744628906e+00,3.148049831390380859e+00,4.038317203521728516e+00,2.990458726882934570e+00,6.329200863838195801e-01,-1.658874273300170898e+00,-1.485829591751098633e+00,-1.459398984909057617e+00,-4.279688835144042969e+00,-4.644998550415039062e+00,-4.650426387786865234e+00,-3.344951629638671875e+00,-3.625888824462890625e+00,-2.901264667510986328e+00,-9.580922126770019531e+00
4.506497859954833984e+00,3.607218742370605469e+00,1.919981837272644043e+00,8.952120542526245117e-01,2.062720537185668945e+00,3.377383470535278320e+00,3.794631481170654297e+00,2.356069087982177734e+00,5.841773509979248047e+00,6.455742359161376953e+00,6.862338542938232422e+00,5.378036022186279297e+00,3.210162878036499023e+00,3.889044523239135742e+00,5.317703723907470703e+00,6.001260757446289062e+00,5.815697669982910156e+00,3.444836139678955078e+00,3.538262367248535156e+00,2.992443323135375977e+00,4.439011573791503906e+00,6.485130310058593750e+00,7.480985164642333984e+00,5.618442535400390625e+00,5.517147541046142578e+00,5.617687702178955078e+00,5.661122798919677734e+00,6.208522319793701172e+00,7.189676284790039062e+00,7.095360279083251953e+00,6.292251586914062500e+00,2.347186326980590820e+00
4.895118236541748047e+00,1.136418104171752930e+00,-7.580503821372985840e-01,2.518753707408905029e-01,1.391542315483093262e+00,3.079101085662841797e+00,2.633626222610473633e+00,1.950695872306823730e+00,1.859654188156127930e+00,5.188397407531738281e+00,5.764614105224609375e+00,2.906560897827148438e+00,7.409180998802185059e-01,1.850502610206604004e+00,1.222388386726379395e+00,8.163365721702575684e-01,1.849437952041625977e+00,-5.697557926177978516e-01,-3.469427824020385742e+00,-5.934981822967529297e+00,-2.231798171997070312e+00,1.406609535217285156e+00,2.253811359405517578e+00,6.766893863677978516e-01,2.849036455154418945e+00,5.400739669799804688e+00,3.358757495880126953e+00,3.689648866653442383e+00,4.598801136016845703e+00,3.131256341934204102e+00,-1.224086284637451172e-01,4.631011962890625000e+00
-2.218780040740966797e+00,-3.703126430511474609e+00,-4.397045135498046875e+00,-3.721612930297851562e+00,-1.928318262100219727e+00,-1.619080662727355957e+00,-1.874358534812927246e+00,-3.675895631313323975e-01,-2.989253282546997070e+00,-3.403841018676757812e+00,-3.384993314743041992e+00,-2.086379528045654297e+00,-1.915009975433349609e+00,-2.877157926559448242e+00,-4.078508853912353516e+00,-5.177842140197753906e+00,-6.307943344116210938e+00,-9.114472389221191406e+00,-1.079168987274169922e+01,-9.541291236877441406e+00,-6.876055240631103516e+00,-5.034439563751220703e+00,-4.700708866119384766e+00,-4.817393302917480469e+00,-3.815690517425537109e+00,-5.606535434722900391e+00,-6.310717582702636719e+00,-5.626977443695068359e+00,-3.499767541885375977e+00,-4.241750240325927734e+00,-3.866486310958862305e+00,-2.622143030166625977e+00
-2.172511339187622070e+00,-9.160771965980529785e-01,-8.438552021980285645e-01,-2.176307201385498047e+00,-2.230738639831542969e+00,-3.014503002166748047e+00,-3.172674179077148438e+00,-3.082634449005126953e+00,-1.310448527336120605e+00,-3.107141733169555664e+00,-4.646391868591308594e+00,-4.858220100402832031e+00,-2.957284450531005859e+00,-4.599526882171630859e+00,-6.507417201995849609e+00,-8.678146362304687500e+00,-1.144833469390869141e+01,-1.481295394897460938e+01,-1.365915393829345703e+01,-1.028953552246093750e+01,-7.501796245574951172e+00,-5.281460762023925781e+00,-2.470831394195556641e+00,-3.716392993927001953e+00,-5.388488292694091797e+00,-6.810133457183837891e+00,-6.281030654907226562e+00,-4.051103115081787109e+00,-2.857969284057617188e+00,-2.019064664840698242e+00,-1.400045514106750488e+00,-5.883167266845703125e+00
3.512203931808471680e+00,2.383367300033569336e+00,3.360285997390747070e+00,4.454793453216552734e+00,3.157325744628906250e+00,2.091305255889892578e+00,1.614456415176391602e+00,5.054842829704284668e-01,1.961337447166442871e+00,1.153197050094604492e+00,6.457451581954956055e-01,-2.204682826995849609e+00,-2.168758869171142578e+00,-3.989296674728393555e+00,-7.075000286102294922e+00,-7.501134872436523438e+00,-9.035351753234863281e+00,-1.044065284729003906e+01,-1.218624877929687500e+01,-9.930369377136230469e+00,-7.831460952758789062e+00,-4.512140274047851562e+00,-1.427740693092346191e+00,-3.371277749538421631e-01,-1.188288450241088867e+00,-4.350533187389373779e-01,-1.066302180290222168e+00,3.449594020843505859e+00,2.409396171569824219e+00,1.668527424335479736e-01,-2.581790447235107422e+00,-1.619625985622406006e-01
5.146832466125488281e+00,5.540970563888549805e-01,2.527444362640380859e+00,6.434428691864013672e+00,6.637837409973144531e+00,4.865700721740722656e+00,4.856311798095703125e+00,5.671608924865722656e+00,3.234664201736450195e+00,4.220981597900390625e-01,2.693101406097412109e+00,3.333659410476684570e+00,6.734903454780578613e-01,-2.815012693405151367e+00,-3.858398914337158203e+00,-2.670981168746948242e+00,-2.918815851211547852e+00,-3.541874647140502930e+00,-6.028859138488769531e+00,-5.300343513488769531e+00,-5.737435817718505859e+00,-6.371428489685058594e+00,-5.444942474365234375e+00,-3.857738733291625977e+00,-3.104802131652832031e+00,-2.201913118362426758e+00,-8.156008720397949219e-01,2.397111892700195312e+00,3.124078273773193359e+00,1.614749670028686523e+00,5.139797329902648926e-01,2.712422847747802734e+00
8.370274305343627930e-01,-4.130708217620849609e+00,-1.386117219924926758e+00,7.368022799491882324e-01,5.461698770523071289e-01,-1.685019433498382568e-01,1.829296164214611053e-02,5.197139978408813477e-01,-7.413750290870666504e-01,-2.676887512207031250e+00,-2.452816724777221680e+00,-1.014484167098999023e+00,-1.239500045776367188e+00,-3.297611951828002930e+00,-2.608103036880493164e+00,-4.019347667694091797e+00,-3.211140871047973633e+00,-4.093423366546630859e+00,-3.357222795486450195e+00,-4.465670108795166016e+00,-4.502254009246826172e+00,-6.750825881958007812e+00,-6.190324306488037109e+00,-8.213055610656738281e+00,-8.156728744506835938e+00,-7.321231842041015625e+00,-5.097331523895263672e+00,-4.645061016082763672e+00,-2.948738813400268555e+00,-7.011636495590209961e-01,9.924853444099426270e-01,-3.059921264648437500e+00
-1.760529756546020508e+00,-5.860236644744873047e+00,-4.442304134368896484e+00,-3.268388748168945312e+00,-5.084811210632324219e+00,-5.009263515472412109e+00,-4.901788711547851562e+00,-5.265811443328857422e+00,-4.961693763732910156e+00,-4.375190258026123047e+00,-6.236297607421875000e+00,-7.057298183441162109e+00,-5.133010864257812500e+00,-4.889162063598632812e+00,-7.003123283386230469e+00,-8.523089408874511719e+00,-8.783890724182128906e+00,-9.568242073059082031e+00,-9.871679306030273438e+00,-9.738594055175781250e+00,-7.598526477813720703e+00,-5.349504470825195312e+00,-5.937208175659179688e+00,-7.098224163055419922e+00,-6.701949596405029297e+00,-4.704333782196044922e+00,-6.949486732482910156e+00,-5.388118267059326172e+00,-5.348166942596435547e+00,-4.439859390258789062e+00,-4.863631725311279297e+00,-4.963404178619384766e+00
-2.698440253734588623e-01,-1.950957894325256348e+00,-2.143026590347290039e+00,-8.536964654922485352e-01,-2.652446508407592773e+00,-4.628458023071289062e+00,-4.187356472015380859e+00,-3.315852403640747070e+00,-3.970858097076416016e+00,-3.692393541336059570e+00,-2.611955165863037109e+00,-2.877114057540893555e+00,-3.534614086151123047e+00,-3.183317661285400391e+00,-5.060615539550781250e+00,-5.111452102661132812e+00,-5.802025318145751953e+00,-5.437249183654785156e+00,-7.136487483978271484e+00,-6.918389320373535156e+00,-7.220594882965087891e+00,-5.933154582977294922e+00,-8.058997154235839844e+00,-5.472233772277832031e+00,-4.499026775360107422e+00,-2.336430072784423828e+00,-6.105453491210937500e+00,-3.195652008056640625e+00,-1.932022213935852051e+00,-1.782523036003112793e+00,-3.076003551483154297e+00,8.920150399208068848e-01
-1.465224981307983398e+00,3.186640262603759766e+00,3.732114315032958984e+00,2.274796724319458008e+00,7.001725435256958008e-01,-1.522235274314880371e+00,-1.219135999679565430e+00,-1.076568007469177246e+00,-5.942168831825256348e-01,1.042358756065368652e+00,1.168184638023376465e+00,-1.044746279716491699e+00,-1.503525018692016602e+00,2.603995501995086670e-01,1.628844141960144043e-01,-9.631949067115783691e-01,-2.241138935089111328e+00,-2.889777660369873047e+00,-2.598685026168823242e+00,-2.495425462722778320e+00,-4.171172142028808594e+00,-5.026510238647460938e+00,-4.978764533996582031e+00,-3.381239652633666992e+00,-4.324311733245849609e+00,-3.749924659729003906e+00,-4.725284099578857422e+00,-2.247749328613281250e+00,2.790985405445098877e-01,2.205485343933105469e+00,2.361643075942993164e+00,2.896895170211791992e+00
-1.634065747261047363e+00,5.894144058227539062e+00,7.838030815124511719e+00,5.330945968627929688e+00,4.084274768829345703e+00,2.794386386871337891e+00,3.258209943771362305e+00,2.799427032470703125e+00,4.014079570770263672e+00,5.555192470550537109e+00,2.415056467056274414e+00,-1.600734710693359375e+00,-1.475711941719055176e+00,-6.482951045036315918e-01,-1.362564802169799805e+00,-1.447070479393005371e+00,-1.753538608551025391e+00,-2.712357044219970703e+00,-2.458782196044921875e+00,-1.469410538673400879e+00,-6.572614312171936035e-01,-2.791867554187774658e-01,1.769540011882781982e-01,3.229513406753540039e+00,3.176622629165649414e+00,3.052060842514038086e+00,1.452517032623291016e+00,3.787363767623901367e+00,3.443689346313476562e+00,5.067367553710937500e+00,5.429666042327880859e+00,9.579986929893493652e-01
3.720676422119140625e+00,6.197907924652099609e+00,8.696004867553710938e+00,8.796105384826660156e+00,7.333348751068115234e+00,5.678190231323242188e+00,6.029424667358398438e+00,5.871397495269775391e+00,5.859339714050292969e+00,4.025079250335693359e+00,2.944594860076904297e+00,2.118314266204833984e+00,1.114482760429382324e+00,-4.624025821685791016e-01,-9.496026039123535156e-01,-3.221185505390167236e-01,6.371251344680786133e-01,1.345606684684753418e+00,1.611773371696472168e+00,2.190043687820434570e+00,2.804151535034179688e+00,2.301636934280395508e+00,1.005834937095642090e+00,5.461108684539794922e+00,7.227818489074707031e+00,7.698048114776611328e+00,5.688979148864746094e+00,7.314824104309082031e+00,6.440712451934814453e+00,7.886983871459960938e+00,9.546567916870117188e+00,6.058949470520019531e+00
1.318658590316772461e+00,2.571690797805786133e+00,4.497262954711914062e+00,3.825512170791625977e+00,1.390805244445800781e+00,1.263942956924438477e+00,2.260668128728866577e-01,-2.133436441421508789e+00,-1.937323570251464844e+00,-1.696586608886718750e+00,-1.458213090896606445e+00,-1.439229607582092285e+00,-9.691182971000671387e-01,-1.365873217582702637e-01,-5.802233815193176270e-01,-1.231023311614990234e+00,-1.621857404708862305e+00,-1.135495543479919434e+00,-7.699748277664184570e-01,-5.311141610145568848e-01,-2.026092529296875000e+00,-2.220344066619873047e+00,-2.077600240707397461e+00,-2.460646629333496094e+00,-2.448960542678833008e+00,-1.679939508438110352e+00,-1.355295181274414062e+00,-1.813309192657470703e+00,-3.119053542613983154e-01,1.788565874099731445e+00,5.597816467285156250e+00,8.713316917419433594e+00
-8.785293579101562500e+00,-4.514355659484863281e+00,-4.004553794860839844e+00,-5.521999835968017578e+00,-5.983783721923828125e+00,-4.651159763336181641e+00,-6.928745746612548828e+00,-1.081457233428955078e+01,-1.076455402374267578e+01,-7.566903114318847656e+00,-8.623547554016113281e+00,-9.439775466918945312e+00,-7.851902961730957031e+00,-4.094594478607177734e+00,-5.678500652313232422e+00,-7.010010719299316406e+00,-8.336803436279296875e+00,-7.859903335571289062e+00,-9.156943321228027344e+00,-8.376578330993652344e+00,-9.750979423522949219e+00,-8.918054580688476562e+00,-8.618577003479003906e+00,-1.016388607025146484e+01,-1.008988380432128906e+01,-9.822969436645507812e+00,-9.817396163940429688e+00,-1.203181362152099609e+01,-1.127252960205078125e+01,-9.923686027526855469e+00,-5.975054740905761719e+00,-2.102644681930541992e+00
-1.087107658386230469e+01,-9.224841117858886719e+00,-9.865831375122070312e+00,-1.016105556488037109e+01,-7.885485172271728516e+00,-8.190675735473632812e+00,-9.163365364074707031e+00,-1.146534729003906250e+01,-1.152200603485107422e+01,-1.206627082824707031e+01,-1.258015823364257812e+01,-1.077166080474853516e+01,-9.197953224182128906e+00,-8.455630302429199219e+00,-1.055140304565429688e+01,-1.184160709381103516e+01,-1.194330024719238281e+01,-1.144449234008789062e+01,-1.173590564727783203e+01,-1.029716014862060547e+01,-1.079842567443847656e+01,-1.216287136077880859e+01,-1.355315685272216797e+01,-1.168643856048583984e+01,-1.060260391235351562e+01,-1.084790802001953125e+01,-1.119813919067382812e+01,-1.284717273712158203e+01,-1.281990337371826172e+01,-1.106019592285156250e+01,-7.162308216094970703e+00,-9.935907363891601562e+00
-3.654151916503906250e+00,-5.278622627258300781e+00,-4.731741428375244141e+00,-6.128598690032958984e+00,-4.553421497344970703e+00,-4.696122169494628906e+00,-3.762125968933105469e+00,-5.766202926635742188e+00,-5.922300815582275391e+00,-6.873968601226806641e+00,-6.805881977081298828e+00,-5.156716823577880859e+00,-3.057794332504272461e+00,-4.102434635162353516e+00,-5.498092174530029297e+00,-6.558290004730224609e+00,-5.324208736419677734e+00,-5.144030094146728516e+00,-3.321619987487792969e+00,-3.367667913436889648e+00,-3.839680671691894531e+00,-5.099726676940917969e+00,-5.040593147277832031e+00,-5.319136142730712891e+00,-6.316376209259033203e+00,-6.935380458831787109e+00,-4.981639385223388672e+00,-5.377143383026123047e+00,-4.993549823760986328e+00,-2.901288270950317383e+00,2.103897333145141602e+00,5.740944743156433105e-01
6.023429036140441895e-01,1.800141930580139160e+00,4.821476936340332031e+00,3.304884910583496094e+00,1.810300946235656738e+00,1.532541155815124512e+00,2.113557100296020508e+00,2.303528070449829102e+00,7.742447853088378906e-01,2.638172864913940430e+00,2.914003133773803711e+00,3.029203414916992188e+00,2.858228683471679688e+00,4.650457859039306641e+00,5.413446903228759766e+00,5.602404594421386719e+00,5.312444686889648438e+00,5.746444702148437500e+00,6.243362426757812500e+00,6.246580123901367188e+00,5.343590259552001953e+00,5.659746646881103516e+00,5.949998378753662109e+00,4.541455745697021484e+00,4.487450122833251953e+00,3.854902267456054688e+00,4.568994522094726562e+00,3.650858640670776367e+00,1.613765001296997070e+00,1.429521679878234863e+00,5.761129379272460938e+00,9.405636787414550781e+00
-6.143140316009521484e+00,-1.147369146347045898e+00,1.630252242088317871e+00,1.772492408752441406e+00,-3.957358598709106445e-01,-3.351833105087280273e+00,-4.073090553283691406e+00,-8.172312378883361816e-01,-2.893464803695678711e+00,-3.152167081832885742e+00,-2.711877822875976562e+00,4.637723565101623535e-01,-4.262076020240783691e-01,8.290082216262817383e-01,1.010407805442810059e+00,1.902728796005249023e+00,2.297500610351562500e+00,1.844282150268554688e+00,1.779686093330383301e+00,2.596239805221557617e+00,1.631606221199035645e+00,8.474000692367553711e-01,1.769264414906501770e-02,2.045876502990722656e+00,3.859721660614013672e+00,2.849752187728881836e+00,7.761875540018081665e-02,-1.988391160964965820e+00,-3.637500524520874023e+00,-3.356147766113281250e+00,2.108117043972015381e-01,5.089455097913742065e-02
-1.014895439147949219e+01,-6.781209945678710938e+00,-5.655309677124023438e+00,-7.242971420288085938e+00,-7.389226913452148438e+00,-1.101501274108886719e+01,-1.017640495300292969e+01,-8.676892280578613281e+00,-7.128574848175048828e+00,-8.548871994018554688e+00,-8.743106842041015625e+00,-7.073402881622314453e+00,-5.007738590240478516e+00,-3.724384784698486328e+00,-4.864013671875000000e+00,-5.772513866424560547e+00,-4.637459754943847656e+00,-5.806346416473388672e+00,-5.080098628997802734e+00,-4.773141384124755859e+00,-4.649132728576660156e+00,-5.294623851776123047e+00,-5.464072704315185547e+00,-6.345223426818847656e+00,-7.794979095458984375e+00,-9.272967338562011719e+00,-8.814320564270019531e+00,-9.264407157897949219e+00,-7.289926528930664062e+00,-6.225362777709960938e+00,-2.793586492538452148e+00,-4.416501998901367188e+00
-2.383282035589218140e-01,-7.975751161575317383e-01,4.415922164916992188e-01,-1.604166388511657715e+00,-2.073151350021362305e+00,-3.293762683868408203e+00,-1.261319398880004883e+00,-2.361655235290527344e+00,1.221002340316772461e+00,3.151329517364501953e+00,3.322591543197631836e+00,1.795236468315124512e+00,2.942649841308593750e+00,4.617575168609619141e+00,5.334771633148193359e+00,4.625161170959472656e+00,3.398360490798950195e+00,3.349902629852294922e+00,1.956871867179870605e+00,2.157640218734741211e+00,4.433006286621093750e+00,5.632762432098388672e+00,5.573031425476074219e+00,7.192446589469909668e-01,-1.685084700584411621e+00,-3.065487146377563477e+00,6.431086659431457520e-01,9.925421476364135742e-01,2.035955905914306641e+00,1.439818143844604492e+00,5.051324367523193359e+00,6.278467178344726562e+00
6.689328670501708984e+00,1.775063753128051758e+00,4.216464042663574219e+00,6.562529563903808594e+00,4.843575000762939453e+00,5.075198650360107422e+00,5.746525764465332031e+00,5.336166381835937500e+00,6.099840164184570312e+00,8.017549514770507812e+00,9.150164604187011719e+00,9.881084442138671875e+00,7.670741081237792969e+00,5.731224060058593750e+00,7.426578998565673828e+00,1.010325050354003906e+01,9.479249954223632812e+00,9.862539291381835938e+00,6.853185653686523438e+00,7.511428356170654297e+00,9.518418312072753906e+00,1.076938152313232422e+01,9.373556137084960938e+00,9.217138290405273438e+00,8.688861846923828125e+00,7.922636985778808594e+00,7.533515930175781250e+00,7.071835994720458984e+00,4.711997032165527344e+00,2.945079088211059570e+00,5.688328266143798828e+00,5.676594734191894531e+00
-2.089026451110839844e+00,-2.219835519790649414e+00,1.543089985847473145e+00,3.289194822311401367e+00,-4.299249649047851562e-01,-1.652479648590087891e+00,-1.806685447692871094e+00,-6.877300739288330078e-01,-1.605455160140991211e+00,-2.391948699951171875e+00,-2.384717226028442383e+00,-1.278768062591552734e+00,-2.548372983932495117e+00,-4.666009426116943359e+00,-4.583775043487548828e+00,-1.866695165634155273e+00,8.284900337457656860e-03,-6.904918700456619263e-02,-2.571111917495727539e-02,-1.878263950347900391e+00,-1.935524940490722656e+00,-2.343009471893310547e+00,-2.532011270523071289e+00,-3.181177675724029541e-01,-3.648077249526977539e-01,-1.140015006065368652e+00,-2.898258686065673828e+00,-3.638198375701904297e+00,-4.935821056365966797e+00,-4.954626560211181641e+00,-2.027752161026000977e+00,-8.660786151885986328e-01
6.008933186531066895e-01,8.436697959899902344e+00,1.392539691925048828e+01,1.253571796417236328e+01,4.799205780029296875e+00,1.430304050445556641e+00,1.709171414375305176e+00,4.619488239288330078e+00,4.461774826049804688e+00,2.872463226318359375e+00,2.064026117324829102e+00,9.387977123260498047e-01,5.969925522804260254e-01,-1.444968283176422119e-01,4.260268509387969971e-01,1.628710031509399414e+00,2.058202981948852539e+00,3.008692979812622070e+00,3.931776523590087891e+00,1.824711918830871582e+00,2.570381879806518555e+00,1.722669959068298340e+00,2.935759067535400391e+00,4.486134648323059082e-01,1.498446345329284668e+00,1.452533721923828125e+00,4.173833847045898438e+00,2.416392564773559570e+00,2.294871091842651367e+00,3.277078390121459961e+00,8.044015884399414062e+00,1.548927879333496094e+01
1.426241874694824219e+01,1.659980010986328125e+01,2.211166572570800781e+01,2.428799629211425781e+01,1.574135017395019531e+01,1.301256084442138672e+01,1.250967025756835938e+01,1.408644580841064453e+01,1.255428123474121094e+01,1.085797882080078125e+01,1.335873222351074219e+01,1.260522842407226562e+01,1.031794071197509766e+01,8.787450790405273438e+00,1.100527095794677734e+01,1.294664192199707031e+01,1.411488628387451172e+01,1.538873004913330078e+01,1.559894657135009766e+01,1.370374298095703125e+01,1.385951805114746094e+01,1.406842708587646484e+01,1.515366935729980469e+01,1.315402603149414062e+01,1.366245841979980469e+01,1.436348819732666016e+01,1.597424507141113281e+01,1.443596744537353516e+01,1.358960914611816406e+01,1.341885471343994141e+01,1.839401435852050781e+01,2.724927520751953125e+01
5.726706504821777344e+00,5.375250816345214844e+00,5.936984539031982422e+00,8.475538253784179688e+00,5.505483627319335938e+00,4.741517543792724609e+00,4.340815067291259766e+00,5.840507030487060547e+00,3.785355806350708008e+00,3.195363759994506836e+00,6.593093872070312500e+00,6.071689128875732422e+00,4.962380409240722656e+00,4.703211784362792969e+00,5.524947166442871094e+00,5.808989524841308594e+00,6.438324451446533203e+00,6.986822605133056641e+00,7.475047588348388672e+00,5.270992755889892578e+00,6.385371208190917969e+00,6.689569473266601562e+00,6.942415237426757812e+00,5.270787239074707031e+00,5.287717342376708984e+00,5.796769618988037109e+00,6.773085594177246094e+00,5.078017234802246094e+00,3.726402759552001953e+00,2.510599136352539062e+00,6.065084934234619141e+00,9.014167785644531250e+00
-8.506555557250976562e+00,-5.317645072937011719e+00,-6.444290161132812500e+00,-7.521702289581298828e+00,-8.991787910461425781e+00,-8.137759208679199219e+00,-8.340679168701171875e+00,-5.949280738830566406e+00,-6.239770889282226562e+00,-5.651882171630859375e+00,-5.732215881347656250e+00,-5.956154346466064453e+00,-5.225419521331787109e+00,-4.112534999847412109e+00,-5.366748809814453125e+00,-6.974383354187011719e+00,-6.536119937896728516e+00,-6.622200489044189453e+00,-5.290111541748046875e+00,-8.457952499389648438e+00,-6.725542545318603516e+00,-6.941801071166992188e+00,-7.384451866149902344e+00,-8.247151374816894531e+00,-8.268163681030273438e+00,-7.929879188537597656e+00,-7.716305255889892578e+00,-9.628344535827636719e+00,-1.119283485412597656e+01,-1.052308940887451172e+01,-7.181302547454833984e+00,-6.774215221405029297e+00
-1.955759882926940918e+00,3.343730926513671875e+00,4.509013652801513672e+00,3.423888921737670898e+00,-2.700006246566772461e+00,-2.206391334533691406e+00,-2.795575857162475586e+00,-1.911990642547607422e-01,3.904614746570587158e-01,7.373059988021850586e-01,-3.418429493904113770e-01,-8.436492085456848145e-01,-8.038383126258850098e-01,1.739361584186553955e-01,-2.412326931953430176e-01,-1.885445237159729004e+00,-1.039060950279235840e+00,-6.057529449462890625e-01,-4.757929444313049316e-01,-2.646773815155029297e+00,-1.380366325378417969e+00,-1.391841292381286621e+00,-1.452174305915832520e+00,-2.865585803985595703e+00,-2.657089471817016602e+00,-1.561064839363098145e+00,-1.054096817970275879e+00,-3.122390747070312500e+00,-4.688325881958007812e+00,-2.449040174484252930e+00,2.422519922256469727e+00,3.663039922714233398e+00
7.951494216918945312e+00,5.888097763061523438e+00,7.517108917236328125e+00,9.733660697937011719e+00,6.627814292907714844e+00,6.839043140411376953e+00,5.919580936431884766e+00,8.848431587219238281e+00,1.062374973297119141e+01,1.054559421539306641e+01,9.691232681274414062e+00,8.259935379028320312e+00,7.403130531311035156e+00,8.446660995483398438e+00,9.064914703369140625e+00,9.947367668151855469e+00,8.848217010498046875e+00,7.869398117065429688e+00,7.960855007171630859e+00,8.113812446594238281e+00,9.105939865112304688e+00,9.033864974975585938e+00,9.951725006103515625e+00,1.007618331909179688e+01,8.868545532226562500e+00,8.591170310974121094e+00,7.610817909240722656e+00,7.048430919647216797e+00,5.323139667510986328e+00,6.234443664550781250e+00,8.061351776123046875e+00,8.752556800842285156e+00
1.223259925842285156e+00,-6.794412136077880859e-01,9.054648876190185547e-02,1.860118031501770020e+00,-2.221065759658813477e-01,4.539198875427246094e-01,7.057469487190246582e-01,1.945597887039184570e+00,3.572840452194213867e+00,4.518724441528320312e+00,2.254325866699218750e+00,6.259588599205017090e-01,1.294549465179443359e+00,3.816858530044555664e+00,4.942287921905517578e+00,4.546296596527099609e+00,4.283635139465332031e+00,5.075548648834228516e+00,4.764838695526123047e+00,3.197248458862304688e+00,1.268961071968078613e+00,6.471442580223083496e-01,1.361331105232238770e+00,3.602511167526245117e+00,1.935112953186035156e+00,4.979790747165679932e-01,7.269726395606994629e-01,3.341013908386230469e+00,2.937031745910644531e+00,3.693040907382965088e-01,-2.313585758209228516e+00,-4.202687442302703857e-01
-3.919645547866821289e+00,-3.212872743606567383e+00,-1.568804025650024414e+00,-1.807996392250061035e+00,-4.441993236541748047e+00,-5.120039463043212891e+00,-4.268430233001708984e+00,-2.172917604446411133e+00,-1.352192282676696777e+00,-1.133064746856689453e+00,-2.926298141479492188e+00,-1.978710651397705078e+00,3.594023883342742920e-01,8.635877966880798340e-01,-6.514237821102142334e-02,-2.461301326751708984e+00,-1.203370690345764160e+00,-1.509991526603698730e+00,-1.082410812377929688e+00,-1.174346804618835449e+00,-1.018246531486511230e+00,-2.395083904266357422e+00,-2.781339406967163086e+00,-3.261170148849487305e+00,-1.638059496879577637e+00,-3.225933909416198730e-01,4.843939244747161865e-01,-1.259610503911972046e-01,-5.665474534034729004e-01,-2.086267948150634766e+00,-5.149110317230224609e+00,-5.825171470642089844e+00
2.601264715194702148e+00,-1.250713348388671875e+00,-1.103193044662475586e+00,-1.984021067619323730e+00,-1.199775815010070801e+00,-8.937317132949829102e-01,-2.845652699470520020e-01,-4.507019221782684326e-01,-1.807050704956054688e+00,5.039589405059814453e-01,8.922096490859985352e-01,2.681336641311645508e+00,2.315295457839965820e+00,2.184458732604980469e+00,2.684336900711059570e+00,2.977701127529144287e-01,7.511896491050720215e-01,-1.142962694168090820e+00,1.528115034103393555e+00,3.240288972854614258e+00,4.246519565582275391e+00,3.694996118545532227e+00,4.749707698822021484e+00,4.050158500671386719e+00,3.558351993560791016e+00,3.055624008178710938e+00,2.863843679428100586e+00,2.941920042037963867e+00,2.328175067901611328e+00,2.221824169158935547e+00,9.300521612167358398e-01,-2.022227287292480469e+00
9.887617111206054688e+00,4.239737033843994141e+00,1.558722019195556641e+00,1.003193855285644531e+00,4.962451457977294922e+00,6.860846519470214844e+00,6.431756019592285156e+00,3.629436731338500977e+00,7.352126836776733398e-01,2.024345636367797852e+00,5.890075683593750000e+00,7.118179321289062500e+00,4.260488510131835938e+00,3.544494152069091797e+00,5.244770050048828125e+00,5.377183914184570312e+00,5.101513862609863281e+00,5.496302604675292969e+00,7.667219161987304688e+00,8.725062370300292969e+00,6.788092613220214844e+00,6.914803981781005859e+00,8.733447074890136719e+00,1.061350154876708984e+01,9.304634094238281250e+00,6.515241146087646484e+00,5.925787925720214844e+00,8.624879837036132812e+00,9.048706054687500000e+00,8.550107002258300781e+00,8.267685890197753906e+00,5.517289161682128906e+00
8.620615959167480469e+00,5.611672878265380859e+00,4.740008831024169922e+00,4.501705169677734375e+00,7.654791831970214844e+00,8.731687545776367188e+00,8.714884757995605469e+00,6.366722106933593750e+00,5.468834877014160156e+00,4.314992427825927734e+00,6.602875709533691406e+00,5.854728698730468750e+00,5.339499473571777344e+00,4.512941360473632812e+00,5.463813781738281250e+00,6.165052413940429688e+00,7.224319934844970703e+00,8.097306251525878906e+00,7.857330322265625000e+00,8.453139305114746094e+00,6.764352321624755859e+00,6.882387161254882812e+00,7.017617702484130859e+00,6.531115055084228516e+00,7.573888778686523438e+00,8.547817230224609375e+00,9.393562316894531250e+00,9.608682632446289062e+00,1.093376731872558594e+01,1.106434059143066406e+01,9.345480918884277344e+00,8.815736770629882812e+00
3.531480133533477783e-01,-9.498845338821411133e-01,-6.430746912956237793e-01,-1.361344218254089355e+00,1.285069465637207031e+00,1.541873216629028320e+00,2.975847244262695312e+00,4.643994867801666260e-01,1.349271297454833984e+00,7.924258708953857422e-01,-4.093335941433906555e-02,-1.736236333847045898e+00,-4.894098639488220215e-01,5.328818410634994507e-02,1.919927358627319336e+00,1.480266690254211426e+00,1.994443416595458984e+00,1.609305143356323242e+00,1.479597568511962891e+00,2.836112022399902344e+00,2.379262208938598633e+00,2.546064853668212891e+00,1.604485988616943359e+00,-1.207541108131408691e+00,-9.573038220405578613e-01,8.993158340454101562e-01,2.146916151046752930e+00,1.189598679542541504e+00,2.904594182968139648e+00,4.402250289916992188e+00,1.618133902549743652e+00,1.957084655761718750e+00
-1.036006808280944824e+00,-4.003716707229614258e-01,-1.482893109321594238e+00,-2.347630262374877930e+00,2.552685886621475220e-02,2.618423476815223694e-02,8.849050849676132202e-02,-3.749525070190429688e+00,-4.025071144104003906e+00,-3.132450342178344727e+00,-3.420570850372314453e+00,-3.517957210540771484e+00,-4.453069210052490234e+00,-4.939957618713378906e+00,-4.704117298126220703e+00,-4.149485111236572266e+00,-4.131724357604980469e+00,-3.484375238418579102e+00,-3.930195331573486328e+00,-1.846606492996215820e+00,-4.149556636810302734e+00,-3.963682651519775391e+00,-3.979052066802978516e+00,-2.727179765701293945e+00,-2.470700740814208984e+00,-3.767937898635864258e+00,-4.127317428588867188e+00,-2.673841238021850586e+00,-5.196087956428527832e-01,-1.944763213396072388e-02,-2.312152862548828125e+00,-1.237732052803039551e+00
7.491153717041015625e+00,1.072906684875488281e+01,1.091592979431152344e+01,1.167124462127685547e+01,1.147015666961669922e+01,1.002834796905517578e+01,8.119509696960449219e+00,5.380883216857910156e+00,5.143504142761230469e+00,2.638819694519042969e+00,3.632012128829956055e+00,5.703268051147460938e+00,4.980754375457763672e+00,2.350282073020935059e-01,-4.008479595184326172e+00,-1.866764068603515625e+00,7.570139169692993164e-01,2.563743352890014648e+00,5.885475277900695801e-01,1.838152289390563965e+00,1.002157449722290039e+00,3.024404764175415039e+00,2.424124002456665039e+00,4.933319568634033203e+00,5.375876903533935547e+00,6.404702186584472656e+00,5.925780773162841797e+00,8.320695877075195312e+00,9.900982856750488281e+00,8.387628555297851562e+00,6.411740779876708984e+00,9.244961738586425781e+00
5.635998725891113281e+00,8.265781402587890625e+00,1.127034282684326172e+01,1.241437053680419922e+01,1.012047386169433594e+01,7.820183277130126953e+00,7.435090065002441406e+00,7.844454765319824219e+00,8.996872901916503906e+00,3.800899982452392578e+00,2.886308431625366211e+00,4.613622188568115234e+00,5.042635917663574219e+00,1.644272446632385254e+00,-1.063831001520156860e-01,1.164952158927917480e+00,3.238177299499511719e+00,3.084396839141845703e+00,2.575930118560791016e+00,2.126698017120361328e+00,3.786548376083374023e+00,5.490883827209472656e+00,4.565386295318603516e+00,3.675161600112915039e+00,3.107657909393310547e+00,6.016646385192871094e+00,5.189882755279541016e+00,5.946922779083251953e+00,6.915957450866699219e+00,7.252000808715820312e+00,7.531414031982421875e+00,1.216554641723632812e+01
1.012061595916748047e+00,1.297416567802429199e+00,1.891460895538330078e+00,2.405002593994140625e+00,1.849360823631286621e+00,-9.063855409622192383e-01,-1.613748431205749512e+00,8.348310589790344238e-01,2.534624814987182617e+00,-3.115337789058685303e-01,-2.681817054748535156e+00,-2.601912736892700195e+00,-2.898550748825073242e+00,-2.329232454299926758e+00,-1.109277248382568359e+00,-7.831229567527770996e-01,-1.785691976547241211e+00,-2.927962064743041992e+00,-3.317463636398315430e+00,-4.770376682281494141e+00,-4.724483966827392578e+00,-3.673753976821899414e+00,-3.500056266784667969e+00,-4.193600177764892578e+00,-3.433931350708007812e+00,-2.941869497299194336e+00,-5.340469837188720703e+00,-5.636571884155273438e+00,-4.496200561523437500e+00,-2.591924905776977539e+00,-4.222079217433929443e-01,2.112045288085937500e+00
-6.256471872329711914e-01,-1.225033521652221680e+00,-1.615508317947387695e+00,-5.031290054321289062e-01,3.824084103107452393e-01,-2.061706304550170898e+00,-3.674520730972290039e+00,-1.500416874885559082e+00,8.217254877090454102e-01,9.515825510025024414e-01,-1.803130865097045898e+00,-3.171316146850585938e+00,-2.145223379135131836e+00,3.522632718086242676e-01,-8.839580416679382324e-02,-6.574486494064331055e-01,-2.580513954162597656e+00,-4.348805904388427734e+00,-7.417994499206542969e+00,-8.675596237182617188e+00,-9.250973701477050781e+00,-6.531911373138427734e+00,-6.634974479675292969e+00,-5.837684631347656250e+00,-4.470260620117187500e+00,-4.450917243957519531e+00,-6.345525264739990234e+00,-6.483591556549072266e+00,-5.953964710235595703e+00,-7.341759204864501953e+00,-6.206035137176513672e+00,-4.568103790283203125e+00
-4.447374343872070312e+00,-5.304420948028564453e+00,-5.478104114532470703e+00,-4.703022480010986328e+00,-2.156322479248046875e+00,-1.994058609008789062e+00,-1.657559156417846680e+00,-9.219987392425537109e-01,1.560541987419128418e+00,1.565307140350341797e+00,-8.060575127601623535e-01,-3.901473522186279297e+00,-1.434331059455871582e+00,5.230230093002319336e-01,-2.081491500139236450e-01,-3.603801965713500977e+00,-3.000217914581298828e+00,-5.255317211151123047e+00,-8.145281791687011719e+00,-9.014889717102050781e+00,-7.565862178802490234e+00,-4.678098201751708984e+00,-5.249014377593994141e+00,-5.151242733001708984e+00,-5.536979198455810547e+00,-4.236662387847900391e+00,-4.917478084564208984e+00,-4.424952507019042969e+00,-3.853892803192138672e+00,-5.912612438201904297e+00,-7.217599391937255859e+00,-8.126002311706542969e+00
-5.260897636413574219e+00,-9.630101203918457031e+00,-1.330655002593994141e+01,-1.411351394653320312e+01,-9.243163108825683594e+00,-7.705502510070800781e+00,-7.018551349639892578e+00,-7.048186779022216797e+00,-7.829853057861328125e+00,-7.898738861083984375e+00,-7.574409008026123047e+00,-6.656027793884277344e+00,-6.024380207061767578e+00,-5.449984550476074219e+00,-5.786104679107666016e+00,-8.443772315979003906e+00,-7.395863056182861328e+00,-8.388234138488769531e+00,-8.738883018493652344e+00,-7.629386901855468750e+00,-6.723948001861572266e+00,-6.190021038055419922e+00,-6.032704353332519531e+00,-6.476333618164062500e+00,-7.675215244293212891e+00,-8.431951522827148438e+00,-8.618795394897460938e+00,-7.953788757324218750e+00,-7.422983646392822266e+00,-8.312584877014160156e+00,-9.787767410278320312e+00,-1.535170269012451172e+01
-3.905244112014770508e+00,-9.022342681884765625e+00,-1.319287395477294922e+01,-1.493470573425292969e+01,-1.086910915374755859e+01,-9.823337554931640625e+00,-1.006128883361816406e+01,-1.041589355468750000e+01,-1.064959049224853516e+01,-9.458112716674804688e+00,-9.648343086242675781e+00,-5.491417884826660156e+00,-4.591353893280029297e+00,-4.083344459533691406e+00,-5.232316970825195312e+00,-4.984762668609619141e+00,-5.594650268554687500e+00,-6.107431888580322266e+00,-5.412267208099365234e+00,-4.197404861450195312e+00,-4.322407722473144531e+00,-4.136766433715820312e+00,-3.681159257888793945e+00,-4.367448329925537109e+00,-5.940475463867187500e+00,-9.220781326293945312e+00,-8.851081848144531250e+00,-7.987138271331787109e+00,-7.914561271667480469e+00,-1.071562862396240234e+01,-1.139135074615478516e+01,-1.644207572937011719e+01
4.452389240264892578e+00,-1.328398704528808594e+00,-2.467779397964477539e+00,-2.634992599487304688e+00,-2.581701576709747314e-01,1.791464924812316895e+00,2.991803646087646484e+00,2.075565099716186523e+00,1.088830828666687012e+00,1.783475399017333984e+00,3.245830774307250977e+00,1.935161232948303223e+00,2.291057825088500977e+00,-2.252781540155410767e-01,-9.008357524871826172e-01,1.288491010665893555e+00,3.457015037536621094e+00,2.558503866195678711e+00,2.488684415817260742e+00,2.813831567764282227e+00,3.809010267257690430e+00,5.419130325317382812e+00,6.281644821166992188e+00,4.725566864013671875e+00,2.488136529922485352e+00,2.083765029907226562e+00,3.520627260208129883e+00,4.811110496520996094e+00,5.232611179351806641e+00,2.997494220733642578e+00,1.196517586708068848e+00,-1.407126545906066895e+00
2.673623800277709961e+00,-3.774605512619018555e+00,-1.361313939094543457e+00,4.626621007919311523e-01,-1.012145876884460449e+00,5.536195039749145508e-01,3.204675674438476562e+00,3.950813770294189453e+00,3.387569665908813477e+00,2.504442214965820312e+00,2.373736619949340820e+00,1.510740667581558228e-01,-2.244901806116104126e-01,-3.559343338012695312e+00,-3.579360008239746094e+00,-3.315989017486572266e+00,-1.087940812110900879e+00,-1.486676931381225586e+00,1.134041622281074524e-01,1.343083858489990234e+00,1.154541730880737305e+00,-2.472580596804618835e-02,-3.987494409084320068e-01,-1.899317145347595215e+00,-8.042265772819519043e-01,1.273075342178344727e+00,2.658078193664550781e+00,1.913438916206359863e+00,2.668293476104736328e+00,2.194558858871459961e+00,2.519917488098144531e+00,1.752564191818237305e+00
-6.262315750122070312e+00,-1.214734840393066406e+01,-1.283485412597656250e+01,-1.127582359313964844e+01,-9.559297561645507812e+00,-1.028002643585205078e+01,-1.015936565399169922e+01,-7.927630424499511719e+00,-8.103096961975097656e+00,-8.874611854553222656e+00,-1.103567028045654297e+01,-9.961442947387695312e+00,-8.006477355957031250e+00,-7.297157764434814453e+00,-7.586570262908935547e+00,-9.758831977844238281e+00,-1.079939651489257812e+01,-1.025568008422851562e+01,-7.559045314788818359e+00,-6.382061481475830078e+00,-7.753281593322753906e+00,-8.653223037719726562e+00,-1.121660327911376953e+01,-1.131936645507812500e+01,-1.089182853698730469e+01,-1.156391048431396484e+01,-1.133571720123291016e+01,-9.623897552490234375e+00,-9.259393692016601562e+00,-1.259075355529785156e+01,-1.228540897369384766e+01,-1.435883998870849609e+01
-8.191136360168457031e+00,-1.034730625152587891e+01,-1.496887302398681641e+01,-1.563688087463378906e+01,-9.010122299194335938e+00,-8.865058898925781250e+00,-1.067661762237548828e+01,-1.094540691375732422e+01,-1.004868602752685547e+01,-1.007451915740966797e+01,-1.169826316833496094e+01,-1.104859542846679688e+01,-8.261708259582519531e+00,-6.262886047363281250e+00,-5.202839374542236328e+00,-7.537755012512207031e+00,-8.206798553466796875e+00,-8.188394546508789062e+00,-5.141715049743652344e+00,-5.350203990936279297e+00,-5.943879127502441406e+00,-6.460162162780761719e+00,-8.660300254821777344e+00,-6.978878021240234375e+00,-8.421865463256835938e+00,-1.122324180603027344e+01,-1.287772846221923828e+01,-9.672455787658691406e+00,-9.513263702392578125e+00,-1.298319149017333984e+01,-1.428188896179199219e+01,-2.029743003845214844e+01
1.718511223793029785e+00,-1.449759483337402344e+00,-3.313575506210327148e+00,-4.156643867492675781e+00,-1.261467814445495605e+00,-7.360554337501525879e-01,2.489735633134841919e-01,2.609062492847442627e-01,1.766889214515686035e+00,9.170929789543151855e-01,4.496185779571533203e-01,3.939789533615112305e-01,7.047579288482666016e-01,-9.039656519889831543e-01,-7.063213586807250977e-01,-1.542077779769897461e+00,-6.241444349288940430e-01,-2.190889358520507812e+00,-1.250153928995132446e-01,6.463332772254943848e-01,1.105725288391113281e+00,5.802651047706604004e-01,5.686092972755432129e-01,1.136136204004287720e-01,6.369512677192687988e-01,-8.929336667060852051e-01,-2.395922422409057617e+00,-2.967545270919799805e+00,-1.415251493453979492e+00,-2.445683240890502930e+00,-1.592166304588317871e+00,-5.927733421325683594e+00
2.373116731643676758e+00,-3.820586919784545898e+00,-3.607399225234985352e+00,-2.730841159820556641e+00,-1.696185111999511719e+00,-2.311589956283569336e+00,-6.412109136581420898e-01,1.727036952972412109e+00,2.325000524520874023e+00,3.533523678779602051e-01,-1.080297231674194336e+00,-6.667544841766357422e-01,4.916071891784667969e-01,-7.489604353904724121e-01,-2.442977190017700195e+00,-3.081129550933837891e+00,-2.737333059310913086e+00,-4.021968841552734375e+00,-4.079614162445068359e+00,-2.336653709411621094e+00,-1.281047105789184570e+00,1.611451655626296997e-01,-8.322144746780395508e-01,-3.226708650588989258e+00,-2.278377532958984375e+00,-2.096161603927612305e+00,-8.673619031906127930e-01,-1.448332786560058594e+00,-9.950942397117614746e-01,-3.038034200668334961e+00,-1.015078783035278320e+00,-3.310244798660278320e+00
-5.142954826354980469e+00,-1.031106662750244141e+01,-1.082086658477783203e+01,-9.478712081909179688e+00,-6.084080696105957031e+00,-6.612596988677978516e+00,-7.671458244323730469e+00,-7.453891277313232422e+00,-6.764236450195312500e+00,-7.660823822021484375e+00,-9.366146087646484375e+00,-9.032234191894531250e+00,-6.685925006866455078e+00,-6.427946090698242188e+00,-6.873898983001708984e+00,-7.887349128723144531e+00,-6.513650417327880859e+00,-7.258373260498046875e+00,-7.877037525177001953e+00,-8.854502677917480469e+00,-7.551559925079345703e+00,-6.038593292236328125e+00,-6.939231872558593750e+00,-7.401813983917236328e+00,-8.359012603759765625e+00,-8.750981330871582031e+00,-8.442785263061523438e+00,-5.776284694671630859e+00,-6.435176372528076172e+00,-8.745272636413574219e+00,-9.265484809875488281e+00,-1.161982345581054688e+01
2.483164310455322266e+00,-1.876478672027587891e+00,-2.545767784118652344e+00,-2.132439136505126953e+00,-4.400278031826019287e-01,-3.058558404445648193e-01,-1.457409977912902832e+00,-1.987063407897949219e+00,8.117408156394958496e-01,1.230575084686279297e+00,2.129090763628482819e-02,-1.658219456672668457e+00,-7.350307703018188477e-01,-2.301666975021362305e+00,-2.712563753128051758e+00,-2.071187257766723633e+00,6.728072166442871094e-01,-6.462644338607788086e-01,-1.957010746002197266e+00,-3.628720283508300781e+00,-2.678832054138183594e+00,-2.020766139030456543e-01,1.315986752510070801e+00,1.276697278022766113e+00,-4.397153556346893311e-01,-6.772739887237548828e-01,-2.372696638107299805e+00,-7.764653563499450684e-01,-3.287519216537475586e-01,-1.671900749206542969e+00,-2.816702842712402344e+00,-3.432696342468261719e+00
1.185113811492919922e+01,6.716665744781494141e+00,7.741968631744384766e+00,8.502115249633789062e+00,6.797127246856689453e+00,5.972956180572509766e+00,7.512276649475097656e+00,9.237473487854003906e+00,1.007763957977294922e+01,7.478785991668701172e+00,6.346070289611816406e+00,6.127781867980957031e+00,6.678872585296630859e+00,5.257091522216796875e+00,4.133620262145996094e+00,4.916927337646484375e+00,5.505136966705322266e+00,4.019296169281005859e+00,2.239391088485717773e+00,2.880344629287719727e+00,3.484717369079589844e+00,7.320785999298095703e+00,8.147490501403808594e+00,7.434712409973144531e+00,7.283756256103515625e+00,8.015645980834960938e+00,7.610899925231933594e+00,7.359783172607421875e+00,9.185853004455566406e+00,6.410676479339599609e+00,6.906917572021484375e+00,8.610083580017089844e+00
7.519072055816650391e+00,3.726459503173828125e+00,5.534228324890136719e+00,7.416090011596679688e+00,7.610555171966552734e+00,5.981427192687988281e+00,6.123768329620361328e+00,6.129602432250976562e+00,2.945916175842285156e+00,5.676235258579254150e-02,1.459552884101867676e+00,3.703720331192016602e+00,2.701430320739746094e+00,1.756599783897399902e+00,2.584182024002075195e+00,3.385205268859863281e+00,2.849511623382568359e+00,1.711027622222900391e+00,3.300820589065551758e-01,4.628968834877014160e-01,3.874909877777099609e-01,2.911516427993774414e+00,2.981011867523193359e+00,1.486536264419555664e+00,-1.378531903028488159e-01,6.655974984169006348e-01,2.780564785003662109e+00,4.787886619567871094e+00,6.282556533813476562e+00,3.841594457626342773e+00,3.000762224197387695e+00,5.259451389312744141e+00
3.835754156112670898e+00,2.357905864715576172e+00,2.540299654006958008e+00,2.716192245483398438e+00,4.085259437561035156e+00,3.909738063812255859e+00,2.304709911346435547e+00,6.456713080406188965e-01,1.688510738313198090e-02,1.851765632629394531e+00,3.295273780822753906e+00,3.152624130249023438e+00,8.610745668411254883e-01,-2.353629767894744873e-01,1.528619408607482910e+00,2.968801021575927734e+00,3.221328735351562500e+00,2.881673097610473633e+00,3.456189155578613281e+00,2.167087316513061523e+00,2.190133482217788696e-01,2.265233993530273438e-01,2.030970335006713867e+00,-1.882101655006408691e+00,-4.305454730987548828e+00,-4.052449703216552734e+00,-1.729893088340759277e+00,-2.265751063823699951e-01,1.210970401763916016e+00,-2.678078785538673401e-02,-2.172881841659545898e+00,2.616171598434448242e+00
9.745408058166503906e+00,6.890614032745361328e+00,5.045901775360107422e+00,4.237071514129638672e+00,6.069378376007080078e+00,7.525859355926513672e+00,8.118824005126953125e+00,6.910345554351806641e+00,8.197977066040039062e+00,9.594353675842285156e+00,1.011100196838378906e+01,7.659034252166748047e+00,7.035649776458740234e+00,5.542434215545654297e+00,5.152995109558105469e+00,6.470559597015380859e+00,6.178808689117431641e+00,5.381161212921142578e+00,4.251273155212402344e+00,5.788518905639648438e+00,4.442074298858642578e+00,7.367974281311035156e+00,7.626563072204589844e+00,2.953542232513427734e+00,1.228137969970703125e+00,1.710868120193481445e+00,3.228700876235961914e+00,4.332672119140625000e+00,7.292352199554443359e+00,5.661820888519287109e+00,3.768506288528442383e+00,6.824866294860839844e+00
8.009151458740234375e+00,3.669541358947753906e+00,3.019175767898559570e+00,4.581679821014404297e+00,6.421478271484375000e+00,7.495663166046142578e+00,8.188833236694335938e+00,7.462692737579345703e+00,6.271682262420654297e+00,5.149856090545654297e+00,6.057656764984130859e+00,5.602818489074707031e+00,6.806386470794677734e+00,5.452795982360839844e+00,4.697309494018554688e+00,5.605552673339843750e+00,5.354219436645507812e+00,4.794508457183837891e+00,1.301823735237121582e+00,2.370709657669067383e+00,2.759644269943237305e+00,6.926666259765625000e+00,4.919288635253906250e+00,5.059347152709960938e+00,5.174913883209228516e+00,5.408998012542724609e+00,4.632097721099853516e+00,5.427556037902832031e+00,7.057397365570068359e+00,8.214433670043945312e+00,9.864904403686523438e+00,4.510545253753662109e+00
-4.053306952118873596e-02,3.873217701911926270e-01,2.646744549274444580e-01,1.582075595855712891e+00,1.490242600440979004e+00,2.700173377990722656e+00,9.761064648628234863e-01,-6.043637394905090332e-01,-1.674146533012390137e+00,1.603154093027114868e-01,1.459760069847106934e+00,2.948987722396850586e+00,2.115863084793090820e+00,1.583264827728271484e+00,1.769348144531250000e+00,3.408726215362548828e+00,3.964011192321777344e+00,3.600434541702270508e+00,2.616667747497558594e+00,4.951908290386199951e-01,3.881443142890930176e-01,1.310360312461853027e+00,1.974670529365539551e+00,4.959591388702392578e+00,6.162411689758300781e+00,5.205864906311035156e+00,2.804837703704833984e+00,1.716255426406860352e+00,1.878635138273239136e-01,2.177685260772705078e+00,5.051258563995361328e+00,4.266141951084136963e-01
-1.275114655494689941e+00,2.808491706848144531e+00,9.992758631706237793e-01,-1.377223432064056396e-02,-2.656061649322509766e-01,1.031723260879516602e+00,4.740387201309204102e-02,-2.082303047180175781e+00,-2.729702711105346680e+00,-1.524376869201660156e+00,-1.094789057970046997e-01,6.055736541748046875e-01,-1.550233840942382812e+00,-2.007441043853759766e+00,-2.300805091857910156e+00,-1.858575701713562012e+00,-8.880668282508850098e-01,-1.741320967674255371e+00,-4.201192557811737061e-01,-2.792830467224121094e-01,5.371612682938575745e-02,5.260832980275154114e-02,1.545607447624206543e+00,3.081242561340332031e+00,3.297176361083984375e+00,2.264861583709716797e+00,1.448840498924255371e+00,2.295465946197509766e+00,2.284262895584106445e+00,4.873237013816833496e-01,-1.479891657829284668e+00,1.986676096916198730e+00
-2.927630841732025146e-01,1.712122917175292969e+00,2.089296102523803711e+00,1.900630474090576172e+00,1.773140788078308105e+00,1.722561001777648926e+00,1.724824309349060059e+00,-6.692957282066345215e-01,-1.928277850151062012e+00,-2.820402622222900391e+00,-1.547299861907958984e+00,-1.915978670120239258e+00,-2.438536643981933594e+00,-3.261442422866821289e+00,-3.276141166687011719e+00,-4.055822849273681641e+00,-4.206043243408203125e+00,-3.931277751922607422e+00,-3.757950544357299805e+00,-1.978209972381591797e+00,-1.392694115638732910e-01,2.549550533294677734e-01,-6.190776228904724121e-01,5.201520919799804688e-01,1.286904573440551758e+00,3.058894872665405273e-01,9.109245538711547852e-01,2.521224975585937500e+00,3.842726469039916992e+00,3.130611419677734375e+00,2.438168287277221680e+00,5.493005752563476562e+00
2.323621988296508789e+00,3.476617813110351562e+00,8.292236328125000000e+00,9.343091964721679688e+00,5.777186870574951172e+00,4.039357662200927734e+00,4.208831787109375000e+00,3.484386682510375977e+00,3.758280992507934570e+00,5.532751083374023438e+00,6.155368804931640625e+00,5.545139789581298828e+00,5.438038349151611328e+00,4.620244026184082031e+00,5.805224418640136719e+00,6.321481704711914062e+00,5.329141616821289062e+00,6.111852169036865234e+00,7.617170333862304688e+00,6.638946533203125000e+00,6.539434909820556641e+00,5.511213779449462891e+00,6.636876583099365234e+00,5.959218025207519531e+00,6.205416679382324219e+00,4.979074478149414062e+00,7.205094814300537109e+00,5.636017799377441406e+00,3.868242740631103516e+00,5.177358627319335938e+00,8.709402084350585938e+00,7.882951259613037109e+00
5.259419441223144531e+00,5.334672927856445312e+00,8.994414329528808594e+00,1.206959533691406250e+01,9.915470123291015625e+00,6.310381412506103516e+00,6.364143371582031250e+00,9.366649627685546875e+00,1.073438072204589844e+01,9.325604438781738281e+00,8.363037109375000000e+00,6.943734169006347656e+00,7.501628875732421875e+00,6.713442325592041016e+00,8.634641647338867188e+00,8.127744674682617188e+00,9.521596908569335938e+00,1.017013835906982422e+01,1.224218654632568359e+01,1.084751892089843750e+01,1.038047122955322266e+01,8.782181739807128906e+00,1.038676643371582031e+01,8.148436546325683594e+00,6.586799144744873047e+00,5.534907817840576172e+00,9.155108451843261719e+00,9.623316764831542969e+00,7.852443218231201172e+00,6.278234004974365234e+00,5.268508434295654297e+00,3.553404808044433594e+00
-3.255530834197998047e+00,-2.854288339614868164e+00,-1.301464319229125977e+00,2.255383968353271484e+00,2.385884523391723633e+00,-6.439866423606872559e-01,-8.131871819496154785e-01,1.800049781799316406e+00,1.301485180854797363e+00,-5.786272287368774414e-01,-4.156336307525634766e+00,-4.848904609680175781e+00,-2.191782474517822266e+00,-1.476753115653991699e+00,-1.427976846694946289e+00,-4.128934383392333984e+00,-1.906307935714721680e+00,-2.457343578338623047e+00,-6.955788135528564453e-01,-1.883645892143249512e+00,-1.963864088058471680e+00,-2.844383478164672852e+00,-3.417794704437255859e+00,-1.634212851524353027e+00,-1.073654294013977051e+00,-2.447646141052246094e+00,-3.179302692413330078e+00,-2.799799919128417969e+00,-2.931789159774780273e+00,-1.329337000846862793e+00,-1.666585326194763184e+00,-3.011667728424072266e+00
-5.325659751892089844e+00,9.231541752815246582e-01,3.342944622039794922e+00,4.004454135894775391e+00,1.155537962913513184e+00,-2.753345727920532227e+00,-3.852281808853149414e+00,-2.472313165664672852e+00,-2.974391460418701172e+00,-2.708214521408081055e+00,-3.588396310806274414e+00,-3.789157390594482422e+00,-3.391523599624633789e+00,-2.641393423080444336e+00,-3.313511133193969727e+00,-3.549914836883544922e+00,-3.425875902175903320e+00,-2.064401388168334961e+00,-1.834733963012695312e+00,-2.010841131210327148e+00,-1.451797127723693848e+00,-1.569364786148071289e+00,-9.273408651351928711e-01,2.417967081069946289e+00,4.500077247619628906e+00,1.709008932113647461e+00,-1.133350610733032227e+00,-1.997202634811401367e+00,-2.827658891677856445e+00,3.281176835298538208e-02,5.041645526885986328e+00,8.704206466674804688e+00
4.763879776000976562e+00,1.412172603607177734e+01,1.541146755218505859e+01,1.440238189697265625e+01,1.019337368011474609e+01,7.310074329376220703e+00,6.333789348602294922e+00,7.713180065155029297e+00,7.553184509277343750e+00,7.998001575469970703e+00,8.350065231323242188e+00,7.669183254241943359e+00,6.447450160980224609e+00,6.145889282226562500e+00,7.177151203155517578e+00,9.949334144592285156e+00,9.451564788818359375e+00,1.126071643829345703e+01,1.195705318450927734e+01,1.260575294494628906e+01,1.256112957000732422e+01,1.375465965270996094e+01,1.519702339172363281e+01,1.441578006744384766e+01,1.390880966186523438e+01,1.288177871704101562e+01,1.456388282775878906e+01,1.504078865051269531e+01,1.442792987823486328e+01,1.574266815185546875e+01,1.606717300415039062e+01,2.023780059814453125e+01
2.478455066680908203e+00,7.544195652008056641e+00,6.198146343231201172e+00,6.427015304565429688e+00,5.206429481506347656e+00,7.723367214202880859e+00,5.840631008148193359e+00,4.648494720458984375e+00,3.489789724349975586e+00,3.283260822296142578e+00,3.878619194030761719e+00,4.688640117645263672e+00,5.663924694061279297e+00,4.881747245788574219e+00,6.165697574615478516e+00,8.050671577453613281e+00,6.621376991271972656e+00,7.627094745635986328e+00,7.646834373474121094e+00,7.385476589202880859e+00,7.433603763580322266e+00,8.714959144592285156e+00,7.814182758331298828e+00,4.998120307922363281e+00,4.384812355041503906e+00,6.629237651824951172e+00,1.123177337646484375e+01,1.224676036834716797e+01,1.110878849029541016e+01,1.155420017242431641e+01,8.827219009399414062e+00,4.711393833160400391e+00
-7.648642063140869141e+00,-3.896234750747680664e+00,-4.640897750854492188e+00,-4.424035072326660156e+00,-4.115702152252197266e+00,-1.978212475776672363e+00,-4.097259044647216797e+00,-7.247661113739013672e+00,-8.196439743041992188e+00,-5.276007652282714844e+00,-2.621259212493896484e+00,-9.005900621414184570e-01,-1.638011574745178223e+00,-5.361767292022705078e+00,-6.282678604125976562e+00,-3.859721183776855469e+00,-3.586671829223632812e+00,-2.305987119674682617e+00,-2.213883876800537109e+00,-3.448960781097412109e+00,-5.803724765777587891e+00,-5.244021415710449219e+00,-3.990073204040527344e+00,-5.143415451049804688e+00,-5.606140136718750000e+00,-5.672853946685791016e+00,-2.254562854766845703e+00,-5.012506961822509766e+00,-6.766357898712158203e+00,-5.635591983795166016e+00,-2.755439043045043945e+00,-8.423516273498535156e+00
-5.924755573272705078e+00,-1.269507169723510742e+00,-1.286051630973815918e+00,-1.485210299491882324e+00,-1.830020993947982788e-01,-5.248092412948608398e-01,-3.505626022815704346e-01,-3.561346292495727539e+00,-3.743013143539428711e+00,6.790776252746582031e-01,4.030487537384033203e+00,2.566579103469848633e+00,-3.244762718677520752e-01,-2.666550874710083008e+00,-3.434684753417968750e+00,-9.114915728569030762e-01,-3.574512302875518799e-01,-9.697738289833068848e-01,-6.099324822425842285e-01,2.390258312225341797e-01,-1.976423561573028564e-01,-5.641988515853881836e-01,1.864708781242370605e+00,2.909900426864624023e+00,2.497932910919189453e+00,-1.802840471267700195e+00,-1.123908281326293945e+00,-2.635587215423583984e+00,-3.622329711914062500e+00,-2.657025337219238281e+00,1.035874247550964355e+00,1.175109148025512695e+00
-1.574105262756347656e+00,-1.595878362655639648e+00,-2.167056560516357422e+00,-1.525310993194580078e+00,1.504029035568237305e+00,2.281210899353027344e+00,2.794757843017578125e+00,4.044420421123504639e-01,-1.455036699771881104e-01,1.177643775939941406e+00,1.775443077087402344e+00,6.131003051996231079e-02,-6.598526835441589355e-01,6.702894568443298340e-01,8.730243444442749023e-01,4.322780668735504150e-01,-2.537530064582824707e-01,-1.177434206008911133e+00,-1.425306797027587891e+00,-6.565849781036376953e-01,1.759706854820251465e+00,4.784804582595825195e-01,-3.709960877895355225e-01,2.319588184356689453e+00,3.498611211776733398e+00,8.635375499725341797e-01,-6.900103092193603516e-01,9.871141910552978516e-01,2.035620927810668945e+00,2.156574964523315430e+00,-2.471392750740051270e-01,-1.553214311599731445e+00
-8.095714569091796875e+00,-8.095763206481933594e+00,-8.070427894592285156e+00,-7.713751792907714844e+00,-6.606028556823730469e+00,-5.258689880371093750e+00,-4.971890926361083984e+00,-5.790781974792480469e+00,-9.076569557189941406e+00,-8.541316032409667969e+00,-7.810656547546386719e+00,-4.899404525756835938e+00,-3.273820877075195312e+00,-8.745540976524353027e-01,-1.045939445495605469e+00,-4.832175731658935547e+00,-6.556477069854736328e+00,-6.488442420959472656e+00,-7.109960079193115234e+00,-8.314871788024902344e+00,-8.414153099060058594e+00,-8.929332733154296875e+00,-1.026251888275146484e+01,-8.830684661865234375e+00,-8.613856315612792969e+00,-7.837332725524902344e+00,-9.011018753051757812e+00,-8.628151893615722656e+00,-9.518128395080566406e+00,-7.444537162780761719e+00,-8.266407966613769531e+00,-1.361690425872802734e+01
-3.673801898956298828e+00,-1.663259267807006836e+00,-2.451243400573730469e-01,1.560272932052612305e+00,1.372006654739379883e+00,-5.479029417037963867e-01,-7.222762703895568848e-01,4.313006699085235596e-01,-2.197149991989135742e+00,-1.583725333213806152e+00,-6.990232467651367188e-01,1.177522778511047363e+00,2.684363126754760742e+00,5.022223949432373047e+00,5.597091674804687500e+00,1.764295816421508789e+00,8.606138825416564941e-01,-2.048196196556091309e-01,-8.600014448165893555e-01,4.421859085559844971e-01,6.262598633766174316e-01,-4.680906534194946289e-01,-7.985752820968627930e-01,-1.920363903045654297e+00,-2.554221868515014648e+00,-2.038018703460693359e+00,-7.825191617012023926e-01,-2.316385746002197266e+00,-3.250574827194213867e+00,-9.709200859069824219e-01,1.153543829917907715e+00,-1.551915884017944336e+00
5.930407524108886719e+00,3.309757471084594727e+00,5.083952426910400391e+00,8.027215003967285156e+00,8.568461418151855469e+00,8.182654380798339844e+00,8.059496879577636719e+00,7.057192802429199219e+00,6.736185073852539062e+00,1.014293479919433594e+01,9.974885940551757812e+00,6.648650646209716797e+00,6.362131118774414062e+00,8.659600257873535156e+00,9.707613945007324219e+00,7.596898078918457031e+00,7.205513477325439453e+00,5.423929214477539062e+00,5.360060214996337891e+00,8.998567581176757812e+00,7.981014251708984375e+00,7.123127460479736328e+00,6.375597476959228516e+00,5.079504489898681641e+00,5.828990459442138672e+00,6.235680103302001953e+00,6.958902359008789062e+00,5.616699695587158203e+00,6.470982551574707031e+00,6.041025638580322266e+00,4.832282543182373047e+00,6.220147013664245605e-01
-3.498080253601074219e+00,-6.110809326171875000e+00,-4.918844699859619141e+00,-4.734778881072998047e+00,-3.613797664642333984e+00,-1.169567942619323730e+00,6.054801940917968750e-01,-2.414715051651000977e+00,-1.199585676193237305e+00,5.672713756561279297e+00,4.615770816802978516e+00,1.753979563713073730e+00,-2.732020914554595947e-01,1.067965865135192871e+00,-7.052005827426910400e-02,-8.801382780075073242e-01,-3.966466188430786133e-01,-1.433233767747879028e-01,1.634332388639450073e-01,-4.813193082809448242e-01,-1.158283114433288574e+00,-2.558506727218627930e+00,-3.529906272888183594e+00,-4.615657329559326172e+00,-4.189071178436279297e+00,-3.673459768295288086e+00,-4.367320537567138672e+00,-4.163259029388427734e+00,-3.928839683532714844e+00,-4.750067710876464844e+00,-7.298898696899414062e+00,-1.406628704071044922e+01
-9.424399375915527344e+00,-7.844009876251220703e+00,-1.027591991424560547e+01,-1.208584880828857422e+01,-9.215882301330566406e+00,-6.581119060516357422e+00,-3.424944877624511719e+00,-5.187258720397949219e+00,-7.754818916320800781e+00,-3.920123577117919922e+00,-2.080548763275146484e+00,-1.145996212959289551e+00,-2.674169778823852539e+00,-3.848084211349487305e+00,-4.436873435974121094e+00,-4.210834980010986328e+00,-1.892427206039428711e+00,-3.584015965461730957e-01,-2.123422145843505859e+00,-6.198079109191894531e+00,-7.589329719543457031e+00,-6.477942466735839844e+00,-6.632035732269287109e+00,-8.045703887939453125e+00,-9.373722076416015625e+00,-9.868264198303222656e+00,-1.098973560333251953e+01,-8.874850273132324219e+00,-7.420619964599609375e+00,-7.235684871673583984e+00,-8.874252319335937500e+00,-1.199516296386718750e+01
-1.714755892753601074e-01,1.649753689765930176e+00,-3.429384469985961914e+00,-4.510850429534912109e+00,-1.392965078353881836e+00,1.087122678756713867e+00,2.080577850341796875e+00,1.869685649871826172e+00,-2.013658046722412109e+00,-2.489217996597290039e+00,-1.273573994636535645e+00,1.519677639007568359e+00,1.032575130462646484e+00,1.357497572898864746e+00,2.664649963378906250e+00,4.073405265808105469e+00,6.223590373992919922e+00,7.958274364471435547e+00,6.196405410766601562e+00,3.447747468948364258e+00,2.199672460556030273e+00,4.561542987823486328e+00,2.240221738815307617e+00,1.365667879581451416e-01,5.814098715782165527e-01,-5.391641855239868164e-01,-1.264634370803833008e+00,-6.484053730964660645e-01,1.991925716400146484e+00,5.974361896514892578e-01,-6.688478589057922363e-01,-2.199864149093627930e+00
-1.579224109649658203e+00,-8.244607448577880859e-01,-2.552233457565307617e+00,-2.307332515716552734e+00,-1.168112039566040039e+00,-1.236511349678039551e+00,-2.347523689270019531e+00,-9.955826997756958008e-01,-1.809781432151794434e+00,-1.498024106025695801e+00,-2.570487499237060547e+00,-5.876260995864868164e-01,-9.521875977516174316e-01,1.891423821449279785e+00,3.612693786621093750e+00,5.052739143371582031e+00,5.747581481933593750e+00,8.041794776916503906e+00,1.016493892669677734e+01,9.515610694885253906e+00,7.141803264617919922e+00,5.058527946472167969e+00,3.832568168640136719e+00,1.371561169624328613e+00,2.475374937057495117e+00,2.086210012435913086e+00,3.159918308258056641e+00,3.804673254489898682e-01,-1.508538872003555298e-01,-6.947160959243774414e-01,2.353518009185791016e+00,-2.433972120285034180e+00
-9.291091918945312500e+00,-8.028377532958984375e+00,-7.888683319091796875e+00,-7.669255733489990234e+00,-7.449540615081787109e+00,-1.011558628082275391e+01,-1.067074489593505859e+01,-7.275231838226318359e+00,-5.923862934112548828e+00,-5.055854797363281250e+00,-7.174516677856445312e+00,-5.982377052307128906e+00,-3.425130367279052734e+00,-5.753349661827087402e-01,-2.757574617862701416e-01,-1.016741275787353516e+00,-1.157717943191528320e+00,-1.474556446075439453e+00,1.282236814498901367e+00,3.917772531509399414e+00,1.102466583251953125e+00,-1.748833298683166504e+00,-3.281655550003051758e+00,-4.106810092926025391e+00,-3.920354366302490234e+00,-3.714866161346435547e+00,-3.889276981353759766e+00,-6.570322990417480469e+00,-9.400936126708984375e+00,-6.849449634552001953e+00,-7.959668636322021484e-01,-5.449500083923339844e+00
-3.544108629226684570e+00,-1.086080431938171387e+00,-3.019139528274536133e+00,-3.411961317062377930e+00,-3.684852838516235352e+00,-3.720170497894287109e+00,-3.631789445877075195e+00,-6.927046179771423340e-01,-8.238384127616882324e-01,-1.726910710334777832e+00,-3.742442846298217773e+00,-2.517111778259277344e+00,1.066882729530334473e+00,1.978452920913696289e+00,1.657734632492065430e+00,8.017498254776000977e-02,5.627516508102416992e-01,-9.418643712997436523e-01,1.942474208772182465e-02,2.058474779129028320e+00,2.592405557632446289e+00,1.806729793548583984e+00,-1.902107119560241699e+00,-2.563282728195190430e+00,-1.267932415008544922e+00,6.302033066749572754e-01,-2.667590856552124023e+00,-3.123568058013916016e+00,-4.131926536560058594e+00,-3.022525310516357422e+00,-1.289180874824523926e+00,-2.208557605743408203e+00
1.222273349761962891e+00,2.017385959625244141e+00,2.340375661849975586e+00,3.861628055572509766e+00,2.591979742050170898e+00,2.556211948394775391e+00,1.540031671524047852e+00,2.168182134628295898e+00,1.612866759300231934e+00,2.073828935623168945e+00,2.760962724685668945e+00,2.723488807678222656e+00,1.629206538200378418e+00,1.569885492324829102e+00,2.666692018508911133e+00,4.108330249786376953e+00,4.631828784942626953e+00,3.459681987762451172e+00,3.235948085784912109e+00,3.295957565307617188e+00,3.127902984619140625e+00,3.647054433822631836e+00,3.534280776977539062e+00,3.943723440170288086e-01,5.187388062477111816e-01,3.570171117782592773e+00,3.330941915512084961e+00,2.939171075820922852e+00,1.964176893234252930e+00,1.135612487792968750e+00,1.076171994209289551e+00,1.887843370437622070e+00
-6.968928337097167969e+00,-8.674414634704589844e+00,-6.063304901123046875e+00,-3.785440206527709961e+00,-2.531846284866333008e+00,-4.129052162170410156e+00,-5.793845176696777344e+00,-6.565094470977783203e+00,-4.802885055541992188e+00,-3.386142492294311523e+00,-2.707266330718994141e+00,-4.122219085693359375e+00,-5.711885929107666016e+00,-5.234049797058105469e+00,-3.347790002822875977e+00,-1.724775195121765137e+00,-1.902633190155029297e+00,-4.400732994079589844e+00,-5.604740142822265625e+00,-4.866960048675537109e+00,-5.765818119049072266e+00,-5.368200302124023438e+00,-2.721597433090209961e+00,-4.007239818572998047e+00,-6.391648292541503906e+00,-5.500616550445556641e+00,-3.606505155563354492e+00,-4.081390857696533203e+00,-5.245664119720458984e+00,-4.709753513336181641e+00,-4.398590087890625000e+00,-4.317131042480468750e+00
-9.946472167968750000e+00,-9.479908943176269531e+00,-1.138302326202392578e+01,-1.381663131713867188e+01,-1.091141510009765625e+01,-8.685631752014160156e+00,-7.861592769622802734e+00,-8.841964721679687500e+00,-7.071868419647216797e+00,-7.560795307159423828e+00,-9.389842033386230469e+00,-9.756836891174316406e+00,-7.232131958007812500e+00,-6.877665519714355469e+00,-7.826068401336669922e+00,-8.519966125488281250e+00,-9.089934349060058594e+00,-1.142740058898925781e+01,-1.254921627044677734e+01,-1.159569072723388672e+01,-1.032037162780761719e+01,-9.950656890869140625e+00,-1.091999912261962891e+01,-8.126976013183593750e+00,-7.970037937164306641e+00,-8.823946952819824219e+00,-1.195756816864013672e+01,-1.155690860748291016e+01,-9.739620208740234375e+00,-1.007997608184814453e+01,-1.236087322235107422e+01,-1.302181625366210938e+01
-9.889168739318847656e-01,7.233261317014694214e-02,-2.653405904769897461e+00,-6.445806503295898438e+00,-8.244005203247070312e+00,-4.938266754150390625e+00,-1.474154353141784668e+00,-1.391377925872802734e+00,-3.609071731567382812e+00,-3.790062665939331055e+00,-2.338185787200927734e+00,-1.017472624778747559e+00,-1.258661866188049316e+00,-2.035298347473144531e+00,-4.507020950317382812e+00,-4.405397415161132812e+00,-4.495884895324707031e+00,-3.454691410064697266e+00,-3.960764408111572266e+00,-4.587354183197021484e+00,-3.758689880371093750e+00,-2.992226600646972656e+00,-4.892683982849121094e+00,-3.137494802474975586e+00,-1.517578840255737305e+00,-9.906706213951110840e-01,-5.352046012878417969e+00,-4.876752853393554688e+00,-3.443364620208740234e+00,-5.585815906524658203e+00,-7.951805591583251953e+00,-5.900004863739013672e+00
5.619477272033691406e+00,5.278776288032531738e-01,1.976948022842407227e+00,3.873248815536499023e+00,2.345524549484252930e+00,1.787502884864807129e+00,2.705099821090698242e+00,3.203494310379028320e+00,1.544339209794998169e-01,-1.182031273841857910e+00,1.849288463592529297e+00,2.668099641799926758e+00,-1.201535835862159729e-01,-6.965176463127136230e-01,-1.081142663955688477e+00,-2.668060660362243652e-01,-6.192103028297424316e-01,1.141977906227111816e+00,3.168391287326812744e-01,1.317468881607055664e-01,-6.006850004196166992e-01,-3.916484415531158447e-01,1.407954454421997070e+00,2.226386547088623047e+00,8.985291123390197754e-01,2.757799148559570312e+00,1.974664211273193359e+00,2.981163024902343750e+00,1.977676391601562500e+00,8.712279796600341797e-01,-1.520577669143676758e+00,3.363185167312622070e+00
1.587043285369873047e+00,-1.127921342849731445e+00,-9.903081059455871582e-01,7.421516180038452148e-01,3.588930368423461914e+00,3.056612968444824219e+00,1.179279312491416931e-01,-4.303097426891326904e-01,1.507117271423339844e+00,-9.238932132720947266e-01,-2.517874956130981445e+00,-4.047014236450195312e+00,-2.964833021163940430e+00,-4.425454616546630859e+00,-4.878171443939208984e+00,-6.133790016174316406e+00,-6.805532932281494141e+00,-7.020821094512939453e+00,-6.323751449584960938e+00,-5.298189163208007812e+00,-4.958719253540039062e+00,-5.533958435058593750e+00,-3.014708280563354492e+00,2.999476492404937744e-01,-1.226268887519836426e+00,-1.776070445775985718e-01,-1.877058982849121094e+00,-2.872214019298553467e-01,-1.112361907958984375e+00,-1.660315155982971191e+00,-3.961225509643554688e+00,-1.478341579437255859e+00
-4.802374839782714844e-01,4.143329143524169922e+00,3.263940334320068359e+00,1.033675149083137512e-01,7.526783347129821777e-01,1.296166658401489258e+00,6.701375842094421387e-01,-4.836562275886535645e-01,3.246390819549560547e+00,1.873726129531860352e+00,4.494319856166839600e-01,-1.403164625167846680e+00,2.463599145412445068e-01,-1.626651525497436523e+00,-3.600010871887207031e+00,-4.179673671722412109e+00,-5.223876953125000000e+00,-5.232481956481933594e+00,-3.484680891036987305e+00,-3.208268880844116211e+00,-2.649380683898925781e+00,-2.685399770736694336e+00,-1.493532538414001465e+00,4.525286257266998291e-01,7.511145472526550293e-01,2.730834007263183594e+00,4.397021532058715820e-01,1.419902563095092773e+00,2.644126892089843750e+00,2.231246232986450195e+00,1.162378549575805664e+00,1.410260558128356934e+00
6.868999481201171875e+00,7.089977264404296875e+00,8.973589897155761719e+00,8.533839225769042969e+00,6.643633842468261719e+00,4.786296844482421875e+00,6.403174400329589844e+00,6.331019878387451172e+00,7.057805061340332031e+00,5.882261276245117188e+00,6.777418136596679688e+00,6.014683723449707031e+00,4.424669742584228516e+00,4.222109317779541016e+00,4.184937477111816406e+00,5.184257030487060547e+00,4.081880092620849609e+00,4.527522087097167969e+00,4.238646030426025391e+00,4.240158557891845703e+00,4.307030677795410156e+00,5.864147663116455078e+00,6.405079841613769531e+00,5.120927333831787109e+00,5.742999076843261719e+00,9.932803153991699219e+00,1.003873920440673828e+01,9.578491210937500000e+00,1.088690090179443359e+01,1.197355079650878906e+01,1.194674587249755859e+01,1.117249393463134766e+01
5.716886043548583984e+00,1.691834807395935059e+00,1.215920686721801758e+00,4.161419391632080078e+00,4.592286109924316406e+00,3.624760150909423828e+00,2.335400819778442383e+00,1.943440198898315430e+00,1.705853343009948730e+00,5.060660243034362793e-01,4.864379763603210449e-01,7.079141736030578613e-01,9.456675052642822266e-01,-4.924716055393218994e-01,-8.601706624031066895e-01,-7.065734267234802246e-01,-3.209076523780822754e-01,-6.539844870567321777e-01,-2.262345790863037109e+00,-2.419844627380371094e+00,-1.731137990951538086e+00,8.140499591827392578e-01,2.446966171264648438e+00,3.335167646408081055e+00,2.426823139190673828e+00,3.899141311645507812e+00,3.135477066040039062e+00,3.425345659255981445e+00,2.300129413604736328e+00,2.579725742340087891e+00,3.577209949493408203e+00,2.838334083557128906e+00
-4.733881473541259766e+00,-5.869696140289306641e+00,-9.554641723632812500e+00,-9.466776847839355469e+00,-6.630286693572998047e+00,-5.779795169830322266e+00,-7.813553333282470703e+00,-8.086919784545898438e+00,-7.777018070220947266e+00,-7.789216518402099609e+00,-7.755773544311523438e+00,-6.510087490081787109e+00,-4.575146198272705078e+00,-7.453508377075195312e+00,-1.114812278747558594e+01,-1.156756305694580078e+01,-1.047927093505859375e+01,-1.127647972106933594e+01,-1.222548103332519531e+01,-1.092627620697021484e+01,-9.580311775207519531e+00,-7.538922786712646484e+00,-6.949674606323242188e+00,-4.743257045745849609e+00,-6.083584308624267578e+00,-7.032293319702148438e+00,-8.547554016113281250e+00,-7.054718017578125000e+00,-8.307310104370117188e+00,-9.009568214416503906e+00,-8.103395462036132812e+00,-1.002787113189697266e+01
-6.169594764709472656e+00,-7.956738471984863281e+00,-8.812932968139648438e+00,-1.031572151184082031e+01,-7.477458953857421875e+00,-8.312970161437988281e+00,-7.962680339813232422e+00,-7.626951217651367188e+00,-8.190883636474609375e+00,-7.783598423004150391e+00,-7.975171089172363281e+00,-7.050710678100585938e+00,-6.209788799285888672e+00,-5.849925994873046875e+00,-7.773238658905029297e+00,-8.085586547851562500e+00,-8.340968132019042969e+00,-9.885514259338378906e+00,-1.079506015777587891e+01,-8.688400268554687500e+00,-8.025139808654785156e+00,-5.940410137176513672e+00,-7.131861209869384766e+00,-7.482278347015380859e+00,-8.171326637268066406e+00,-6.091238498687744141e+00,-6.143438339233398438e+00,-6.712521076202392578e+00,-7.423780918121337891e+00,-6.272475242614746094e+00,-5.475896835327148438e+00,-8.269341468811035156e+00
-3.542605161666870117e+00,-6.907170295715332031e+00,-4.417700767517089844e+00,-3.678302764892578125e+00,-2.116455078125000000e+00,-3.663797140121459961e+00,-4.066585063934326172e+00,-4.117210388183593750e+00,-2.765601158142089844e+00,-2.548266649246215820e+00,-4.321123123168945312e+00,-4.696058750152587891e+00,-4.006398200988769531e+00,-4.234850883483886719e+00,-4.486596584320068359e+00,-4.789131164550781250e+00,-4.597148895263671875e+00,-6.271525382995605469e+00,-7.094866752624511719e+00,-6.891067981719970703e+00,-7.349797725677490234e+00,-4.896696090698242188e+00,-5.319178581237792969e+00,-6.060485363006591797e+00,-5.973659038543701172e+00,-2.830818653106689453e+00,-2.771847724914550781e+00,-5.123276233673095703e+00,-6.254379749298095703e+00,-4.181138038635253906e+00,-1.429970502853393555e+00,-3.961526155471801758e+00
-5.981527328491210938e+00,-6.162352085113525391e+00,-4.882758617401123047e+00,-3.424599647521972656e+00,-3.379029273986816406e+00,-3.840966463088989258e+00,-4.700023174285888672e+00,-4.630365848541259766e+00,-2.517434835433959961e+00,-5.693539381027221680e-01,-6.138364076614379883e-01,-1.030689597129821777e+00,-1.674085736274719238e+00,-4.849509239196777344e+00,-7.661906719207763672e+00,-7.479629039764404297e+00,-6.379313468933105469e+00,-8.003317832946777344e+00,-8.310852050781250000e+00,-8.377824783325195312e+00,-8.561066627502441406e+00,-7.098679542541503906e+00,-6.808300495147705078e+00,-6.178924083709716797e+00,-5.797051906585693359e+00,-6.204391002655029297e+00,-7.148448467254638672e+00,-6.834862709045410156e+00,-6.359171867370605469e+00,-6.021139144897460938e+00,-4.059039592742919922e+00,-5.748865127563476562e+00
-2.418292522430419922e+00,-2.722058534622192383e+00,-3.499671220779418945e+00,-2.568593740463256836e+00,-2.261013031005859375e+00,-2.034922838211059570e+00,-9.115013480186462402e-01,-1.659527271986007690e-01,-2.169113397598266602e+00,-1.966932058334350586e+00,5.586089491844177246e-01,2.157663583755493164e+00,4.518313705921173096e-01,-1.158088803291320801e+00,-3.245439052581787109e+00,-2.093535423278808594e+00,-1.239320993423461914e+00,-2.469747066497802734e+00,-3.513293981552124023e+00,-4.044197559356689453e+00,-3.964820384979248047e+00,-2.490270853042602539e+00,-2.975500106811523438e+00,-2.143396377563476562e+00,-2.456354856491088867e+00,-2.619621276855468750e+00,-4.263321876525878906e+00,-2.345670700073242188e+00,-1.378522157669067383e+00,-2.705866813659667969e+00,-5.627803325653076172e+00,-4.026821613311767578e+00
4.699893951416015625e+00,3.800703048706054688e+00,3.094083547592163086e+00,3.710254430770874023e+00,4.888219833374023438e+00,6.758519172668457031e+00,6.997946262359619141e+00,6.690207004547119141e+00,5.591816902160644531e+00,3.668983221054077148e+00,3.752479553222656250e+00,3.754527568817138672e+00,4.366070747375488281e+00,4.431314468383789062e+00,4.809059619903564453e+00,6.104124069213867188e+00,7.284931182861328125e+00,6.877481460571289062e+00,4.984519004821777344e+00,2.664794921875000000e+00,2.215481519699096680e+00,5.843968868255615234e+00,6.616227149963378906e+00,5.589319229125976562e+00,3.115553379058837891e+00,5.277715682983398438e+00,6.431238651275634766e+00,6.174448013305664062e+00,5.386069297790527344e+00,3.525963306427001953e+00,-7.227827608585357666e-02,1.422888875007629395e+00
-1.728895545005798340e+00,2.061818122863769531e+00,1.732035517692565918e+00,5.634534358978271484e-01,-1.504763066768646240e-01,1.285188913345336914e+00,1.163418412208557129e+00,7.030510902404785156e-01,3.035551071166992188e+00,3.389719009399414062e+00,4.962762594223022461e-01,-2.228219509124755859e+00,-2.088389098644256592e-01,6.567343324422836304e-02,-1.559395909309387207e+00,-2.687362432479858398e+00,-2.246050357818603516e+00,-2.779583215713500977e+00,-2.499573945999145508e+00,-2.481510639190673828e+00,-2.828886270523071289e+00,-8.260590434074401855e-01,4.670204520225524902e-01,-5.407600998878479004e-01,-3.009099960327148438e+00,-2.794455528259277344e+00,4.455458745360374451e-02,-3.548683524131774902e-01,-3.480536118149757385e-02,-1.366901874542236328e+00,-2.015749454498291016e+00,-1.255994677543640137e+00
-5.110834121704101562e+00,5.038224458694458008e-01,-5.918070673942565918e-01,-4.560916423797607422e+00,-7.403809070587158203e+00,-7.496757507324218750e+00,-5.173411846160888672e+00,-4.103748321533203125e+00,-5.955426692962646484e+00,-5.651381492614746094e+00,-6.015317916870117188e+00,-5.282811641693115234e+00,-5.539921760559082031e+00,-4.329008102416992188e+00,-6.517703056335449219e+00,-8.960821151733398438e+00,-1.018649387359619141e+01,-1.114179325103759766e+01,-9.279588699340820312e+00,-6.275275707244873047e+00,-6.241453170776367188e+00,-5.654559612274169922e+00,-5.639046669006347656e+00,-4.681563854217529297e+00,-4.833943843841552734e+00,-5.853486061096191406e+00,-5.994766712188720703e+00,-5.226260185241699219e+00,-2.342555761337280273e+00,-2.175024986267089844e+00,-3.486030578613281250e+00,-3.655949831008911133e+00
-2.003357887268066406e+00,3.213956356048583984e+00,2.110092878341674805e+00,-2.137896537780761719e+00,-2.911504745483398438e+00,-3.728118181228637695e+00,-2.774765014648437500e+00,-8.291499614715576172e-01,-3.264538764953613281e+00,-4.582407474517822266e+00,-5.242178440093994141e+00,-2.090054988861083984e+00,-2.603082418441772461e+00,-8.687044382095336914e-01,-1.350274443626403809e+00,-3.263627529144287109e+00,-3.652551174163818359e+00,-3.840226411819458008e+00,-2.814378023147583008e+00,-2.039529085159301758e+00,-3.148495912551879883e+00,-4.044204652309417725e-01,4.843930006027221680e-01,2.256093502044677734e+00,2.438325643539428711e+00,3.353015661239624023e+00,1.098077774047851562e+00,-4.700468778610229492e-01,9.635769128799438477e-01,3.331819772720336914e+00,3.832651615142822266e+00,2.237317800521850586e+00
-1.615407347679138184e+00,3.526160955429077148e+00,3.719255447387695312e+00,2.608654022216796875e+00,2.887250661849975586e+00,1.562247872352600098e+00,-2.901180684566497803e-01,1.296297430992126465e+00,3.506010055541992188e+00,3.243320941925048828e+00,-8.563049882650375366e-02,-2.768363952636718750e-01,1.161378622055053711e+00,1.543625593185424805e+00,1.154361963272094727e+00,3.834739327430725098e-01,5.101398229598999023e-01,-9.787775874137878418e-01,-3.199791014194488525e-01,2.406249791383743286e-01,-1.809541881084442139e-01,3.290729999542236328e+00,5.134366035461425781e+00,4.282447338104248047e+00,3.481019973754882812e+00,4.705132961273193359e+00,5.209211349487304688e+00,1.661432027816772461e+00,8.176185488700866699e-01,3.766037464141845703e+00,8.747956275939941406e+00,9.637953758239746094e+00
2.677128314971923828e+00,1.952131271362304688e+00,9.183276891708374023e-01,1.464825749397277832e+00,1.428527534008026123e-01,2.030538558959960938e+00,2.020390272140502930e+00,1.304138451814651489e-01,1.487179279327392578e+00,4.601073265075683594e+00,5.373292446136474609e+00,1.357296347618103027e+00,1.977187991142272949e+00,2.085479259490966797e+00,2.238696098327636719e+00,2.149384021759033203e+00,3.656999021768569946e-02,-2.371448516845703125e+00,-2.696205854415893555e+00,-5.788387060165405273e-01,3.235595226287841797e-01,4.359051227569580078e+00,5.141304492950439453e+00,3.835929632186889648e+00,2.519942283630371094e+00,1.966728925704956055e+00,3.647674798965454102e+00,3.005712747573852539e+00,2.148397445678710938e+00,1.650401115417480469e+00,2.901767969131469727e+00,4.500238895416259766e+00
6.420816898345947266e+00,1.197968721389770508e+00,-3.493140459060668945e+00,-3.760443925857543945e+00,-2.819580793380737305e+00,1.939835190773010254e+00,3.248570203781127930e+00,-2.120811223983764648e+00,-3.200030565261840820e+00,2.155997753143310547e+00,8.388406753540039062e+00,4.821321964263916016e+00,3.614713907241821289e+00,3.502711296081542969e+00,3.507547855377197266e+00,4.535879611968994141e+00,4.303180217742919922e+00,4.502479076385498047e+00,2.486316919326782227e+00,7.494362592697143555e-01,-4.942407310009002686e-01,5.993987083435058594e+00,7.952836036682128906e+00,8.009621620178222656e+00,5.149217128753662109e+00,4.234301090240478516e+00,4.454245567321777344e+00,4.765277862548828125e+00,3.710000038146972656e+00,2.036525011062622070e+00,1.893331110477447510e-02,-6.660900115966796875e+00
3.977961778640747070e+00,2.540605783462524414e+00,-8.688312172889709473e-01,-8.470903635025024414e-01,2.277079582214355469e+00,3.799367427825927734e+00,2.781262159347534180e+00,-2.808191180229187012e-01,-6.544957160949707031e-01,9.001392722129821777e-01,5.138506889343261719e+00,6.366151332855224609e+00,5.136300086975097656e+00,1.450673818588256836e+00,-3.653995394706726074e-01,2.575155735015869141e+00,6.438206195831298828e+00,6.771816253662109375e+00,4.672934532165527344e+00,5.896426439285278320e-01,-1.291295170783996582e+00,4.784536361694335938e+00,6.374092102050781250e+00,4.655962944030761719e+00,1.653408169746398926e+00,3.516411781311035156e+00,4.859553813934326172e+00,4.205377578735351562e+00,3.574989080429077148e+00,4.582460403442382812e+00,5.582648754119873047e+00,-5.452040433883666992e-01
5.647939205169677734e+00,6.227755069732666016e+00,1.418246173858642578e+01,1.744953346252441406e+01,1.298988151550292969e+01,7.914615154266357422e+00,7.084503650665283203e+00,1.069686126708984375e+01,1.004535484313964844e+01,4.270589828491210938e+00,1.636191487312316895e+00,4.957825660705566406e+00,3.961459875106811523e+00,-1.247299313545227051e-01,-1.646863341331481934e+00,-5.779372453689575195e-01,8.980579972267150879e-01,-1.256548762321472168e+00,-9.627636075019836426e-01,-1.832765817642211914e+00,-1.310590028762817383e+00,3.214381933212280273e-01,-5.849000215530395508e-01,-1.406739234924316406e+00,-1.194259762763977051e+00,2.453360080718994141e+00,4.082681655883789062e+00,4.769313812255859375e+00,5.129374027252197266e+00,4.939195632934570312e+00,4.975382328033447266e+00,1.642523002624511719e+01
1.405911827087402344e+01,1.071812343597412109e+01,2.214664268493652344e+01,2.655860900878906250e+01,1.857660865783691406e+01,1.384759140014648438e+01,1.430300140380859375e+01,1.762142944335937500e+01,1.739315605163574219e+01,1.211841201782226562e+01,9.143301010131835938e+00,9.504255294799804688e+00,7.828416347503662109e+00,5.272785186767578125e+00,3.825227499008178711e+00,3.724407196044921875e+00,4.076101779937744141e+00,2.638273954391479492e+00,1.805536627769470215e+00,2.318162679672241211e+00,3.321242332458496094e+00,5.155664443969726562e+00,5.562576770782470703e+00,7.783248901367187500e+00,7.811504364013671875e+00,9.199387550354003906e+00,9.594317436218261719e+00,1.234375858306884766e+01,1.321765232086181641e+01,1.084007549285888672e+01,8.999340057373046875e+00,2.324415206909179688e+01
9.680768966674804688e+00,5.612393856048583984e+00,8.064835548400878906e+00,1.123616027832031250e+01,9.075819969177246094e+00,8.659089088439941406e+00,7.869125366210937500e+00,9.033727645874023438e+00,9.903249740600585938e+00,9.414282798767089844e+00,8.499198913574218750e+00,7.118276119232177734e+00,7.066434383392333984e+00,2.375623464584350586e+00,-1.650107741355895996e+00,1.074712157249450684e+00,5.717913627624511719e+00,4.793209075927734375e+00,6.038650274276733398e-01,1.130468845367431641e+00,2.654073953628540039e+00,7.534535884857177734e+00,9.165632247924804688e+00,9.928590774536132812e+00,7.443594455718994141e+00,7.265881061553955078e+00,9.381331443786621094e+00,1.097809314727783203e+01,1.059128189086914062e+01,9.578214645385742188e+00,1.093787574768066406e+01,1.056142807006835938e+01
3.005566120147705078e+00,2.224140644073486328e+00,4.109390676021575928e-01,3.228438198566436768e-01,8.648487925529479980e-01,2.016218185424804688e+00,1.434448719024658203e+00,2.525127828121185303e-01,1.787696480751037598e-01,1.921940296888351440e-01,7.885617613792419434e-01,1.883645534515380859e+00,2.226120710372924805e+00,-3.413914442062377930e+00,-8.267596244812011719e+00,-3.545091390609741211e+00,1.882350921630859375e+00,1.693059056997299194e-01,-5.713656425476074219e+00,-3.749712228775024414e+00,4.331211149692535400e-01,4.907400131225585938e+00,5.553059577941894531e+00,3.149334669113159180e+00,1.603215575218200684e+00,2.130285501480102539e+00,5.506809711456298828e+00,5.030579090118408203e+00,3.861380100250244141e+00,3.914963483810424805e+00,5.551693439483642578e+00,4.015565395355224609e+00
7.478286743164062500e+00,1.082336330413818359e+01,1.237885475158691406e+01,1.190487003326416016e+01,8.016557693481445312e+00,8.132229804992675781e+00,8.896086692810058594e+00,8.121447563171386719e+00,5.701131343841552734e+00,6.332892894744873047e+00,8.227576255798339844e+00,9.393958091735839844e+00,6.908313274383544922e+00,3.405972242355346680e+00,-1.180663518607616425e-02,5.850959300994873047e+00,7.818407535552978516e+00,7.062392711639404297e+00,1.678558826446533203e+00,4.543542385101318359e+00,7.725309371948242188e+00,1.103891658782958984e+01,1.167091369628906250e+01,1.065317344665527344e+01,1.004677867889404297e+01,9.732099533081054688e+00,1.081940746307373047e+01,8.544782638549804688e+00,8.151241302490234375e+00,8.758445739746093750e+00,1.006982612609863281e+01,1.272845935821533203e+01
1.066518878936767578e+01,1.251104927062988281e+01,1.455363559722900391e+01,1.675918388366699219e+01,1.587141609191894531e+01,1.426449108123779297e+01,1.438559722900390625e+01,1.386009979248046875e+01,1.434787559509277344e+01,1.291016674041748047e+01,1.466478347778320312e+01,1.343775939941406250e+01,1.113403129577636719e+01,5.960531234741210938e+00,4.130823612213134766e+00,7.779006481170654297e+00,1.036633205413818359e+01,9.586267471313476562e+00,5.584176540374755859e+00,7.970627307891845703e+00,9.941791534423828125e+00,1.425627994537353516e+01,1.535523128509521484e+01,1.416557216644287109e+01,1.255238151550292969e+01,1.145894336700439453e+01,1.366794300079345703e+01,1.341400527954101562e+01,1.350228404998779297e+01,1.364718055725097656e+01,1.553158950805664062e+01,1.536344051361083984e+01
-2.509789168834686279e-01,-3.624749779701232910e-01,1.572847962379455566e-01,1.598231673240661621e+00,3.890653371810913086e+00,3.260363578796386719e+00,4.672699928283691406e+00,3.571260690689086914e+00,5.838682651519775391e+00,4.451446533203125000e+00,5.144451141357421875e+00,2.742254734039306641e+00,2.167474985122680664e+00,-2.176433563232421875e+00,-5.191668033599853516e+00,-4.651445388793945312e+00,-3.229835748672485352e+00,-4.994068622589111328e+00,-7.604030609130859375e+00,-5.419415473937988281e+00,-2.236261367797851562e+00,7.485128045082092285e-01,1.071142554283142090e+00,1.357783675193786621e+00,-1.096470832824707031e+00,-1.140511512756347656e+00,1.696566820144653320e+00,2.923053503036499023e+00,1.930536270141601562e+00,1.310871243476867676e+00,1.358680248260498047e+00,8.124026656150817871e-01
-2.425982713699340820e+00,-1.998848676681518555e+00,-6.931053996086120605e-01,-4.141560196876525879e-01,-1.839033007621765137e+00,-1.929219841957092285e+00,-6.293625235557556152e-01,-9.892231225967407227e-01,-2.723966836929321289e+00,-2.727849483489990234e+00,-3.123484849929809570e+00,-2.514740228652954102e+00,-2.272913455963134766e+00,-4.117318153381347656e+00,-6.777948379516601562e+00,-6.905079841613769531e+00,-5.887657642364501953e+00,-6.170448303222656250e+00,-6.896357059478759766e+00,-5.243681430816650391e+00,-3.758044481277465820e+00,-2.112051725387573242e+00,-1.651165485382080078e+00,-9.871894717216491699e-01,-1.868589639663696289e+00,-2.818257808685302734e+00,-2.012858867645263672e+00,-1.027796506881713867e+00,-1.387517809867858887e+00,-2.029020547866821289e+00,-3.571856737136840820e+00,-1.288869738578796387e+00
5.186239242553710938e+00,4.072170734405517578e+00,4.272879123687744141e+00,6.013514518737792969e+00,5.017452239990234375e+00,5.547034740447998047e+00,4.814741134643554688e+00,6.110508441925048828e+00,4.730152606964111328e+00,4.669047355651855469e+00,4.498973846435546875e+00,6.439175128936767578e+00,5.388501644134521484e+00,4.115977287292480469e+00,4.130099773406982422e+00,4.473960399627685547e+00,5.575539588928222656e+00,7.350995540618896484e+00,8.182351112365722656e+00,7.610064983367919922e+00,7.671292781829833984e+00,9.365935325622558594e+00,9.686545372009277344e+00,8.692758560180664062e+00,6.982841968536376953e+00,5.374319553375244141e+00,8.126449584960937500e+00,6.836438655853271484e+00,5.870309352874755859e+00,4.945093154907226562e+00,6.681252002716064453e+00,4.235350608825683594e+00
-5.931467413902282715e-01,-3.846781015396118164e+00,-5.856048583984375000e+00,-4.842119693756103516e+00,-9.988189935684204102e-01,1.944917798042297363e+00,3.182037830352783203e+00,2.610697031021118164e+00,1.768011689186096191e+00,1.455917239189147949e+00,1.057373166084289551e+00,2.320215463638305664e+00,2.100304126739501953e+00,1.567768454551696777e+00,2.572785854339599609e+00,3.281771421432495117e+00,4.822234153747558594e+00,4.744855880737304688e+00,4.234563350677490234e+00,2.184031724929809570e+00,2.901167392730712891e+00,1.536261796951293945e+00,1.326710820198059082e+00,5.530256628990173340e-01,4.719810187816619873e-01,-6.115630865097045898e-01,1.825339078903198242e+00,5.037193298339843750e-01,-1.021268010139465332e+00,-1.644410014152526855e+00,-3.582149744033813477e-01,-9.135547637939453125e+00
-1.125281047821044922e+01,-1.147872257232666016e+01,-1.405117702484130859e+01,-1.386810779571533203e+01,-9.370475769042968750e+00,-8.233798980712890625e+00,-6.952464580535888672e+00,-7.370708942413330078e+00,-7.500491142272949219e+00,-7.221696853637695312e+00,-7.671282291412353516e+00,-7.639874458312988281e+00,-6.200161933898925781e+00,-4.127985000610351562e+00,-3.955591440200805664e+00,-6.874372959136962891e+00,-7.362559318542480469e+00,-4.522548198699951172e+00,-3.596058607101440430e+00,-5.005448341369628906e+00,-6.441485404968261719e+00,-8.192348480224609375e+00,-8.307835578918457031e+00,-7.444907188415527344e+00,-8.252326965332031250e+00,-9.881569862365722656e+00,-9.896478652954101562e+00,-9.869935989379882812e+00,-1.044576835632324219e+01,-1.129428768157958984e+01,-1.303647422790527344e+01,-1.832481193542480469e+01
-8.831892967224121094e+00,-6.771551609039306641e+00,-8.712320327758789062e+00,-8.388843536376953125e+00,-6.392245769500732422e+00,-6.580020427703857422e+00,-6.660377025604248047e+00,-5.343559741973876953e+00,-5.565442562103271484e+00,-3.130344867706298828e+00,-4.299386501312255859e+00,-4.110450744628906250e+00,-3.499414682388305664e+00,3.249721229076385498e-02,1.561626076698303223e+00,-2.099612474441528320e+00,-1.681280970573425293e+00,3.024489164352416992e+00,6.447021484375000000e+00,4.532785892486572266e+00,1.839661747217178345e-01,-1.741150856018066406e+00,-2.064303159713745117e+00,-3.042796850204467773e+00,-5.154012203216552734e+00,-5.614421367645263672e+00,-4.510301589965820312e+00,-6.724449634552001953e+00,-7.719667911529541016e+00,-8.652888298034667969e+00,-8.437285423278808594e+00,-1.165654659271240234e+01
-7.747064228169620037e-04,-1.494492173194885254e+00,-2.368099927902221680e+00,-1.601497411727905273e+00,6.287567019462585449e-01,2.610880851745605469e+00,3.944693803787231445e+00,2.690219879150390625e+00,1.897758603096008301e+00,1.683869242668151855e+00,1.852153658866882324e+00,2.203825473785400391e+00,2.262677907943725586e+00,5.125716686248779297e+00,9.475489616394042969e+00,7.385878086090087891e+00,7.471489429473876953e+00,1.075554752349853516e+01,1.316165065765380859e+01,9.513456344604492188e+00,6.249853134155273438e+00,2.104785203933715820e+00,2.208007097244262695e+00,1.546365380287170410e+00,2.003189325332641602e+00,1.239784479141235352e+00,2.182590484619140625e+00,1.153936386108398438e+00,2.512421607971191406e-01,-3.304178714752197266e-01,-7.216334342956542969e-02,-5.015810012817382812e+00
-3.363923311233520508e+00,-3.628804445266723633e+00,-1.255751013755798340e+00,1.234011292457580566e+00,1.788555622100830078e+00,3.232440948486328125e-01,2.122275352478027344e+00,3.334098339080810547e+00,4.385404586791992188e+00,1.527952194213867188e+00,8.089287877082824707e-01,8.598690629005432129e-01,1.736686348915100098e+00,5.163038253784179688e+00,8.206472396850585938e+00,7.033401966094970703e+00,5.363873481750488281e+00,8.857521057128906250e+00,1.077697753906250000e+01,7.840060234069824219e+00,5.334365844726562500e+00,9.730637073516845703e-01,5.309097170829772949e-01,2.792315483093261719e+00,6.210045814514160156e+00,2.639408826828002930e+00,7.516155242919921875e-01,9.577040076255798340e-01,2.639959454536437988e-01,-1.370183706283569336e+00,-2.121783494949340820e+00,-2.963462591171264648e+00
-7.468303680419921875e+00,-4.233122348785400391e+00,-2.932639598846435547e+00,-7.850497961044311523e-01,-1.055133700370788574e+00,-2.844781160354614258e+00,-3.061958312988281250e+00,1.385295152664184570e+00,1.825953841209411621e+00,2.222444295883178711e+00,5.206874608993530273e-01,1.675718307495117188e+00,1.129720091819763184e+00,3.181275129318237305e+00,3.550197601318359375e+00,3.126333236694335938e+00,3.158711910247802734e+00,6.629389762878417969e+00,9.092232704162597656e+00,8.704624176025390625e+00,7.113934516906738281e+00,5.717937469482421875e+00,3.027980566024780273e+00,2.683591604232788086e+00,5.198229312896728516e+00,2.681431293487548828e+00,2.842839956283569336e+00,4.839257895946502686e-01,-7.981350421905517578e-01,-4.149069786071777344e+00,-2.785978794097900391e+00,-5.182995319366455078e+00
-6.280292034149169922e+00,-4.767455577850341797e+00,-5.380418300628662109e+00,-5.226187705993652344e+00,-3.960994720458984375e+00,-1.223545789718627930e+00,-1.558740343898534775e-02,4.807009994983673096e-01,-2.087929725646972656e+00,-7.594348192214965820e-01,-1.020966291427612305e+00,1.464690804481506348e+00,1.431502461433410645e+00,2.392925739288330078e+00,2.552979946136474609e+00,2.928530693054199219e+00,2.169979095458984375e+00,2.194886922836303711e+00,3.249913454055786133e+00,3.194696187973022461e+00,3.345597982406616211e+00,5.058520317077636719e+00,2.697096824645996094e+00,-4.176785349845886230e-01,-7.357513904571533203e-01,-3.680547475814819336e-01,1.089942455291748047e+00,-1.921689987182617188e+00,-4.346756458282470703e+00,-6.368557929992675781e+00,-4.535182952880859375e+00,-9.081001281738281250e+00
-9.975967407226562500e-01,-2.690731287002563477e+00,-2.546870231628417969e+00,-1.682780385017395020e+00,-3.391014933586120605e-01,7.406103610992431641e-01,2.732121706008911133e+00,4.445126652717590332e-01,4.333639740943908691e-01,2.792933285236358643e-01,1.116584837436676025e-01,-9.756812453269958496e-01,2.204067558050155640e-01,2.076321601867675781e+00,3.697449922561645508e+00,5.008068084716796875e+00,6.102617979049682617e-01,-2.914773225784301758e+00,-2.610049962997436523e+00,-2.249610900878906250e+00,-2.694478273391723633e+00,-1.449503779411315918e+00,-1.405605524778366089e-01,2.439547777175903320e-01,5.202577710151672363e-01,-1.882652938365936279e-01,-1.374320745468139648e+00,-2.233248710632324219e+00,-2.603067636489868164e+00,-2.036353349685668945e+00,-2.525086879730224609e+00,-4.328455924987792969e+00
