Fp1,Fp2,F7,F3,Fz,F4,F8,FT7,FC3,FCz,FC4,FT8,T3,C3,Cz,C4,T4,TP7,CP3,CPz,CP4,TP8,T5,P3,Pz,P4,T6,O1,Oz,O2,A1,A2
2.399058490991592407e-01,-7.281863689422607422e+00,-1.057285404205322266e+01,-8.855770111083984375e+00,-6.870368003845214844e+00,-1.685685276985168457e+00,-1.281036257743835449e+00,-4.354279994964599609e+00,-5.618651866912841797e+00,-2.379469156265258789e+00,-2.140893936157226562e+00,-9.985018372535705566e-01,1.157243132591247559e+00,1.538379907608032227e+00,-1.461243629455566406e+00,-3.307014703750610352e+00,-3.480878770351409912e-01,2.193342208862304688e+00,1.053538918495178223e+00,-2.999528169631958008e+00,-4.614704608917236328e+00,1.435473859310150146e-01,-2.476981639862060547e+00,-3.872136354446411133e+00,-8.389078140258789062e+00,-1.254189395904541016e+01,-1.365060424804687500e+01,-8.573596000671386719e+00,-8.390300750732421875e+00,-1.420023441314697266e+01,-1.829601287841796875e+01,-1.727144241333007812e+01
2.988123655319213867e+00,-1.012891864776611328e+01,-5.350421905517578125e+00,-3.110383510589599609e+00,5.528807640075683594e-01,-6.188142299652099609e+00,-4.827630996704101562e+00,-4.542753696441650391e+00,4.686163425445556641e+00,2.448966026306152344e+00,-3.744313955307006836e+00,-4.885823249816894531e+00,-2.789125919342041016e+00,5.062622949481010437e-02,-3.197185039520263672e+00,-4.080514430999755859e+00,-3.358494281768798828e+00,-3.783482313156127930e+00,-2.901785850524902344e+00,-1.293072104454040527e+00,-9.663343429565429688e-01,2.817122459411621094e+00,2.343852281570434570e+00,-7.812009453773498535e-01,-8.105406761169433594e+00,-8.184773445129394531e+00,-6.929735660552978516e+00,-2.421309709548950195e+00,-3.607599258422851562e+00,-3.299278736114501953e+00,-3.645203590393066406e+00,-6.390951156616210938e+00
5.274904727935791016e+00,3.373755931854248047e+00,8.479963302612304688e+00,7.905173778533935547e+00,1.524833440780639648e+00,-3.129682779312133789e+00,-6.920564770698547363e-01,1.456737399101257324e+00,6.331523895263671875e+00,1.317038983106613159e-01,-6.590605735778808594e+00,-9.368064880371093750e+00,-8.764204025268554688e+00,-7.294012069702148438e+00,-8.082583427429199219e+00,-8.888578414916992188e+00,-1.113686656951904297e+01,-8.189338684082031250e+00,-4.756533622741699219e+00,-6.297270059585571289e-01,-2.384661436080932617e+00,-2.365089893341064453e+00,5.865330100059509277e-01,3.878411650657653809e-01,-1.905074238777160645e+00,-8.657699823379516602e-01,9.519531130790710449e-01,2.859309434890747070e+00,1.333811044692993164e+00,-1.058573126792907715e+00,-2.568628311157226562e+00,4.965940475463867188e+00
3.983925342559814453e+00,4.110876083374023438e+00,-2.683322727680206299e-01,1.506827354431152344e+00,-8.619774580001831055e-01,-5.020058751106262207e-01,-9.603843688964843750e-01,9.436142444610595703e-01,-8.828613162040710449e-01,-3.258143901824951172e+00,-6.556421279907226562e+00,-8.239386558532714844e+00,-8.684336662292480469e+00,-8.738794326782226562e+00,-4.894445419311523438e+00,-4.885435581207275391e+00,-5.799106121063232422e+00,-4.181680202484130859e+00,-2.392900943756103516e+00,-8.721076250076293945e-01,1.126908898353576660e+00,2.154942274093627930e+00,2.759384393692016602e+00,1.500374913215637207e+00,8.032412528991699219e-01,-2.410718441009521484e+00,-1.234583735466003418e+00,1.391997814178466797e+00,1.719132065773010254e-01,-8.764521598815917969e+00,-1.237682437896728516e+01,2.673868417739868164e+00
3.588212013244628906e+00,-1.082322978973388672e+01,-1.072770309448242188e+01,-4.418506145477294922e+00,2.725079298019409180e+00,-4.298013687133789062e+00,-6.346258640289306641e+00,-4.328027248382568359e+00,7.372341156005859375e-01,3.125534772872924805e+00,-5.167179927229881287e-02,-5.882598876953125000e+00,-5.561449527740478516e+00,-3.158554553985595703e+00,1.489320755004882812e+00,-2.569012045860290527e-01,-2.393859386444091797e+00,-6.833289623260498047e+00,-4.571144580841064453e+00,-2.723437786102294922e+00,6.937805414199829102e-01,5.681782364845275879e-01,3.219921588897705078e+00,-9.763782620429992676e-01,-3.761706829071044922e+00,-5.428904533386230469e+00,-9.526312351226806641e-01,1.600873112678527832e+00,6.294508576393127441e-01,-5.385812759399414062e+00,-8.402066230773925781e+00,-6.687726020812988281e+00
3.700998783111572266e+00,-8.829277992248535156e+00,1.762899637222290039e+00,5.054374694824218750e+00,3.134544134140014648e+00,-6.383636474609375000e+00,-4.940438747406005859e+00,-2.017647504806518555e+00,7.681557655334472656e+00,9.282722473144531250e+00,3.658573150634765625e+00,-6.098980426788330078e+00,-4.882760524749755859e+00,-1.738942623138427734e+00,-1.181057333946228027e+00,-5.808931827545166016e+00,-9.569200515747070312e+00,-1.101646518707275391e+01,-6.667543888092041016e+00,-4.029920101165771484e+00,-6.465066909790039062e+00,-9.952436447143554688e+00,-4.496342658996582031e+00,-7.645452022552490234e+00,-8.207756996154785156e+00,-4.814731121063232422e+00,3.010842323303222656e+00,2.215780019760131836e+00,1.534932255744934082e+00,-2.115698337554931641e+00,-4.161936759948730469e+00,-5.982753753662109375e+00
-2.112197160720825195e+00,1.992052793502807617e-01,9.763898849487304688e+00,9.094187736511230469e+00,-3.470494031906127930e+00,-5.722032546997070312e+00,-3.653824806213378906e+00,1.094033360481262207e+00,8.491656303405761719e+00,7.719548702239990234e+00,-9.716505557298660278e-02,-6.848782062530517578e+00,-5.168932914733886719e+00,-5.021748065948486328e+00,-4.357383728027343750e+00,-8.578797340393066406e+00,-1.054979324340820312e+01,-8.928169250488281250e+00,-5.366726875305175781e+00,-4.017261505126953125e+00,-6.091450214385986328e+00,-9.078918457031250000e+00,-8.364492416381835938e+00,-7.255002975463867188e+00,-4.094666481018066406e+00,-3.239277839660644531e+00,-2.866594314575195312e+00,-4.691266536712646484e+00,-4.477348327636718750e+00,-7.452266693115234375e+00,-7.070857524871826172e+00,2.626949071884155273e+00
-6.645471572875976562e+00,-1.105252742767333984e+01,-8.322934150695800781e+00,-4.684213638305664062e+00,-8.683014869689941406e+00,-7.435584068298339844e+00,-7.037652492523193359e+00,-3.242346286773681641e+00,3.081991910934448242e+00,4.685034751892089844e+00,-1.041985750198364258e+00,-4.934477329254150391e+00,-3.272220373153686523e+00,-4.897820949554443359e+00,-3.622429370880126953e+00,-6.193780899047851562e+00,-8.224715232849121094e+00,-1.181059360504150391e+01,-9.678276062011718750e+00,-6.183229446411132812e+00,-3.276770591735839844e+00,-5.381016731262207031e+00,-6.333747863769531250e+00,-1.348630785942077637e+00,2.278012990951538086e+00,-8.316825628280639648e-01,-8.328497886657714844e+00,-9.234314918518066406e+00,-9.708892822265625000e+00,-8.332150459289550781e+00,-3.810845613479614258e+00,7.403892278671264648e-01
-2.493139028549194336e+00,-1.353874588012695312e+01,-1.857140731811523438e+01,-1.253613090515136719e+01,-5.243988513946533203e+00,-1.480404019355773926e+00,4.287194907665252686e-01,-1.890457630157470703e+00,-2.165265321731567383e+00,3.220634460449218750e-01,2.339673042297363281e+00,2.213539838790893555e+00,1.305290818214416504e+00,-3.064962148666381836e+00,-5.164696216583251953e+00,-5.361879348754882812e+00,-6.803322792053222656e+00,-8.659842491149902344e+00,-7.312605857849121094e+00,-4.425128459930419922e+00,-5.423289299011230469e+00,-6.434831619262695312e+00,-3.351238965988159180e+00,8.301201462745666504e-02,-5.053105354309082031e-01,-4.671611189842224121e-01,-1.795418500900268555e+00,-1.660704970359802246e+00,-3.401547193527221680e+00,-2.897756099700927734e+00,-2.215710401535034180e+00,-8.845257759094238281e+00
1.289881587028503418e+00,3.183153152465820312e+00,-6.612170219421386719e+00,-5.061107158660888672e+00,9.446915388107299805e-01,7.873790740966796875e+00,8.062900543212890625e+00,3.738008737564086914e+00,-5.274605751037597656e+00,-6.483612537384033203e+00,-1.418940305709838867e+00,5.213176727294921875e+00,1.497888803482055664e+00,-5.095532417297363281e+00,-5.234539031982421875e+00,-2.205872535705566406e+00,-4.531475305557250977e-01,3.942117214202880859e+00,2.343963861465454102e+00,-6.077434420585632324e-01,-4.203993797302246094e+00,-2.408275127410888672e+00,-6.918926239013671875e-01,-2.555394411087036133e+00,-7.391775131225585938e+00,-4.785156726837158203e+00,1.588472485542297363e+00,5.179508209228515625e+00,5.183340072631835938e+00,2.681470155715942383e+00,-4.970418930053710938e+00,-1.414986610412597656e+01
-7.859363555908203125e+00,-2.248773813247680664e+00,-4.405676841735839844e+00,-5.279792785644531250e+00,-4.690919876098632812e+00,-2.730141401290893555e+00,-6.590575695037841797e+00,-2.686858177185058594e+00,-7.640586853027343750e+00,-7.277689933776855469e+00,-1.488259887695312500e+01,-9.760368347167968750e+00,-1.079154109954833984e+01,-6.856476306915283203e+00,-6.519291400909423828e+00,-4.471276283264160156e+00,-3.493167161941528320e+00,-7.254369854927062988e-01,-4.014198780059814453e+00,-8.125958442687988281e+00,-8.446422576904296875e+00,-6.682095527648925781e+00,-8.259122848510742188e+00,-9.396352767944335938e+00,-1.227776813507080078e+01,-1.191627407073974609e+01,-1.042181873321533203e+01,-1.067618274688720703e+01,-6.442681789398193359e+00,-3.852535009384155273e+00,-8.508104324340820312e+00,-1.855240440368652344e+01
-7.945823669433593750e+00,-1.236137676239013672e+01,-1.313194274902343750e+01,-1.363122558593750000e+01,-9.069595336914062500e+00,-1.016670703887939453e+01,-1.361553001403808594e+01,-9.850695610046386719e+00,-4.225024700164794922e+00,1.665712118148803711e+00,-1.073824977874755859e+01,-1.313546752929687500e+01,-9.808076858520507812e+00,-1.136472821235656738e+00,-6.297927856445312500e+00,-5.334450721740722656e+00,-5.481742858886718750e+00,-6.393197536468505859e+00,-8.938770294189453125e+00,-1.037966823577880859e+01,-9.988658905029296875e+00,-1.002766513824462891e+01,-8.645377159118652344e+00,-7.330895423889160156e+00,-9.954340934753417969e+00,-1.431691551208496094e+01,-1.390485858917236328e+01,-1.588299942016601562e+01,-1.052021980285644531e+01,-1.289140987396240234e+01,-1.762268829345703125e+01,-2.400359916687011719e+01
-2.238937377929687500e+00,-7.312880992889404297e+00,-8.347094535827636719e+00,-8.125185012817382812e+00,-8.348307013511657715e-01,-3.140844345092773438e+00,-1.413800954818725586e+00,-2.586393594741821289e+00,4.912333011627197266e+00,9.145728111267089844e+00,2.558167457580566406e+00,-4.948335170745849609e+00,-2.565199136734008789e+00,5.243043899536132812e+00,1.439100384712219238e+00,1.798322916030883789e+00,3.984812974929809570e+00,3.151214122772216797e+00,6.945486664772033691e-01,-3.132513761520385742e+00,-3.544327735900878906e+00,-3.443979740142822266e+00,-2.384278059005737305e+00,-2.707468509674072266e+00,-7.557628154754638672e+00,-1.207701110839843750e+01,-6.348376274108886719e+00,-1.890966057777404785e+00,-1.397825598716735840e+00,-1.324536991119384766e+01,-2.434776306152343750e+01,-2.167123603820800781e+01
-3.614122629165649414e+00,-4.716811656951904297e+00,2.865878343582153320e+00,5.731909751892089844e+00,6.588915348052978516e+00,4.247610867023468018e-01,3.812785863876342773e+00,5.695411682128906250e+00,7.382311820983886719e+00,5.581535816192626953e+00,-6.580327749252319336e-01,-6.767981529235839844e+00,-8.787718772888183594e+00,2.293013095855712891e+00,2.899441719055175781e+00,9.184182882308959961e-01,2.374749183654785156e+00,3.242381095886230469e+00,1.873306751251220703e+00,-5.064743995666503906e+00,-6.875654220581054688e+00,-6.002396583557128906e+00,-7.043174266815185547e+00,-5.532719612121582031e+00,-2.867011308670043945e+00,3.404292464256286621e-01,2.702468872070312500e+00,2.354053497314453125e+00,-1.548138022422790527e+00,-2.169012784957885742e+00,-3.164302110671997070e+00,-6.134449005126953125e+00
-4.005167007446289062e+00,-1.608637094497680664e+00,4.099450588226318359e+00,6.984503269195556641e+00,6.247401237487792969e+00,3.903218030929565430e+00,4.062789440155029297e+00,5.937383651733398438e+00,2.110128849744796753e-01,-4.871300697326660156e+00,-8.620995521545410156e+00,-8.235068321228027344e+00,-1.103850078582763672e+01,-5.826473712921142578e+00,-7.546080589294433594e+00,-1.126422786712646484e+01,-1.183852195739746094e+01,-9.949715614318847656e+00,-8.482624053955078125e+00,-1.271553230285644531e+01,-1.655823707580566406e+01,-1.633264160156250000e+01,-1.177328968048095703e+01,-8.588978767395019531e+00,-1.767414689064025879e+00,5.880110740661621094e+00,4.181434631347656250e+00,-3.005326747894287109e+00,-5.923000812530517578e+00,3.518743276596069336e+00,1.338480472564697266e+01,8.696451187133789062e+00
3.321136236190795898e+00,5.799027919769287109e+00,2.814932107925415039e+00,1.098020195960998535e+00,3.866306543350219727e+00,6.947028636932373047e+00,6.818114280700683594e+00,3.505230188369750977e+00,-2.968294620513916016e+00,-6.011889457702636719e+00,1.987694740295410156e+00,3.523425102233886719e+00,1.009964663535356522e-02,-7.025741577148437500e+00,-7.596404552459716797e+00,-8.616269111633300781e+00,-8.362236022949218750e+00,-1.063957214355468750e+01,-8.639961242675781250e+00,-8.122670173645019531e+00,-9.111286163330078125e+00,-1.074386310577392578e+01,-2.459056854248046875e+00,-1.428518891334533691e+00,-2.962278425693511963e-01,3.083312034606933594e+00,5.829168319702148438e+00,3.413984298706054688e+00,2.133736371994018555e+00,3.892207384109497070e+00,6.753804206848144531e+00,4.317387580871582031e+00
9.776314735412597656e+00,5.388778209686279297e+00,1.634146928787231445e+00,-2.005462884902954102e+00,1.899623990058898926e+00,3.248845815658569336e+00,2.771641969680786133e+00,-1.704773306846618652e+00,1.270306110382080078e+00,1.512870788574218750e+00,1.340029335021972656e+01,1.118609333038330078e+01,9.164584159851074219e+00,-2.224741697311401367e+00,2.662345647811889648e+00,3.997387170791625977e+00,4.070175647735595703e+00,-1.717612147331237793e+00,9.116263687610626221e-02,2.990362405776977539e+00,5.799235343933105469e+00,2.365259647369384766e+00,6.133269309997558594e+00,4.988487243652343750e+00,3.723637580871582031e+00,1.517789840698242188e+00,6.400687217712402344e+00,1.020353031158447266e+01,1.149871826171875000e+01,4.902353286743164062e+00,-3.108644008636474609e+00,-6.975293159484863281e+00
7.042325973510742188e+00,2.228842496871948242e+00,-1.736809015274047852e+00,-3.106647968292236328e+00,1.774386167526245117e+00,3.176423311233520508e+00,2.090488433837890625e+00,-3.183784186840057373e-01,3.328665018081665039e+00,1.692780494689941406e+00,5.197693347930908203e+00,1.478706002235412598e+00,1.898992776870727539e+00,-1.147598147392272949e+00,1.225843310356140137e+00,9.423698782920837402e-01,-1.054716825485229492e+00,-2.910956144332885742e-01,3.469336271286010742e+00,6.166095256805419922e+00,5.017456531524658203e+00,1.807817578315734863e+00,4.924376964569091797e+00,4.977241039276123047e+00,5.936600685119628906e+00,5.346348285675048828e+00,7.902252197265625000e+00,8.798060417175292969e+00,1.007796287536621094e+01,6.386334419250488281e+00,6.062616705894470215e-01,-2.973702430725097656e+00
1.208927345275878906e+01,7.556609630584716797e+00,-4.601015090942382812e+00,-3.776828289031982422e+00,6.525898456573486328e+00,1.177921962738037109e+01,1.245028781890869141e+01,9.977862358093261719e+00,7.601808905601501465e-01,-5.366812705993652344e+00,3.289428949356079102e+00,5.416847229003906250e+00,1.054499506950378418e+00,-3.809225320816040039e+00,-5.062331199645996094e+00,-5.595038414001464844e+00,-6.832634925842285156e+00,-5.231150984764099121e-01,1.597665548324584961e-01,2.038264036178588867e+00,5.773314237594604492e-01,3.672265052795410156e+00,9.074357032775878906e+00,9.731030464172363281e+00,9.730972290039062500e+00,1.415468025207519531e+01,1.767503166198730469e+01,1.823234176635742188e+01,1.573782444000244141e+01,1.533623218536376953e+01,1.359362316131591797e+01,6.961430072784423828e+00
1.472586917877197266e+01,2.668220043182373047e+00,-6.260912895202636719e+00,-3.690237998962402344e+00,6.662824630737304688e+00,1.020632457733154297e+01,1.117376422882080078e+01,8.070619583129882812e+00,-3.259366512298583984e+00,-4.484782695770263672e+00,9.146420478820800781e+00,1.476455116271972656e+01,8.507536888122558594e+00,-2.004978179931640625e+00,-2.014253854751586914e+00,-7.925713062286376953e-01,-8.518068194389343262e-01,3.002114057540893555e+00,-1.812641918659210205e-01,2.825331211090087891e+00,6.070170402526855469e+00,1.120607852935791016e+01,1.186732006072998047e+01,1.179996395111083984e+01,1.112822723388671875e+01,1.159015750885009766e+01,1.310352611541748047e+01,1.756105613708496094e+01,1.607303047180175781e+01,1.486364269256591797e+01,1.244764614105224609e+01,-6.352483630180358887e-01
5.657241821289062500e+00,-2.041996240615844727e+00,-4.703526973724365234e+00,-3.281232118606567383e+00,1.156049251556396484e+00,4.871038913726806641e+00,2.845195055007934570e+00,-5.720253586769104004e-01,-2.441420555114746094e+00,2.639347076416015625e+00,9.649350166320800781e+00,1.259853363037109375e+01,1.057048892974853516e+01,1.598045825958251953e+00,2.569809913635253906e+00,3.530739068984985352e+00,2.844753980636596680e+00,2.085236072540283203e+00,1.140892148017883301e+00,6.934853076934814453e+00,1.100603580474853516e+01,9.791842460632324219e+00,7.473002910614013672e+00,8.247869491577148438e+00,1.187885093688964844e+01,8.685314178466796875e+00,6.125044822692871094e+00,6.770928859710693359e+00,7.886970520019531250e+00,8.205166816711425781e+00,8.574787139892578125e+00,-1.168440818786621094e+01
-1.828259944915771484e+00,4.566499710083007812e+00,1.109238147735595703e+00,-1.335956573486328125e+00,-1.866289377212524414e+00,2.561995744705200195e+00,1.957330107688903809e+00,1.256687641143798828e+00,2.549891710281372070e+00,6.149890899658203125e+00,6.313503742218017578e+00,4.757908344268798828e+00,4.509690284729003906e+00,8.274427056312561035e-01,1.802911281585693359e+00,1.015934944152832031e+00,-6.826470494270324707e-01,-3.376095533370971680e+00,-3.039674758911132812e+00,2.293267965316772461e+00,5.777047157287597656e+00,3.614576578140258789e+00,4.272336006164550781e+00,2.631805658340454102e+00,5.761320114135742188e+00,7.578717231750488281e+00,7.062152385711669922e+00,3.681620836257934570e+00,2.799669027328491211e+00,4.217793941497802734e+00,6.893319129943847656e+00,-3.519434690475463867e+00
-7.274267077445983887e-01,7.493576526641845703e+00,4.451475620269775391e+00,1.741344928741455078e+00,1.242625236511230469e+00,9.209343791007995605e-01,1.233373641967773438e+00,3.414785146713256836e+00,5.439404010772705078e+00,7.018956184387207031e+00,8.259954452514648438e+00,6.300249576568603516e+00,4.111868381500244141e+00,2.614536285400390625e+00,1.497601985931396484e+00,-4.475294351577758789e-01,-2.260840892791748047e+00,-3.250285387039184570e+00,-4.193644046783447266e+00,-2.152608394622802734e+00,5.979383587837219238e-01,1.772201895713806152e+00,3.123818874359130859e+00,2.002244144678115845e-01,2.595847845077514648e-01,3.314322471618652344e+00,6.010534286499023438e+00,5.146996498107910156e+00,3.821706533432006836e+00,3.405817508697509766e+00,5.497224807739257812e+00,1.021410751342773438e+01
1.499013423919677734e+00,1.146361446380615234e+01,5.742359638214111328e+00,4.829093456268310547e+00,8.184802055358886719e+00,6.437193393707275391e+00,3.152797937393188477e+00,4.207534790039062500e+00,6.476377010345458984e+00,5.611682415008544922e+00,9.421864509582519531e+00,1.098657321929931641e+01,1.022647476196289062e+01,8.705977439880371094e+00,8.503271102905273438e+00,6.016854286193847656e+00,4.784212112426757812e+00,4.931251049041748047e+00,6.892724037170410156e+00,5.700136661529541016e+00,4.233295440673828125e+00,2.429106950759887695e+00,1.447499275207519531e+00,2.540540218353271484e+00,6.735804080963134766e+00,6.749131679534912109e+00,3.637996435165405273e+00,3.004457235336303711e+00,6.651193141937255859e+00,8.539066314697265625e+00,1.065502166748046875e+01,1.162091541290283203e+01
-4.055826187133789062e+00,1.192409515380859375e+01,5.593735218048095703e+00,4.656432151794433594e+00,5.781084060668945312e+00,5.025188446044921875e+00,4.113296031951904297e+00,5.425155639648437500e+00,4.931210517883300781e+00,9.726990759372711182e-02,5.218832969665527344e+00,4.675199031829833984e+00,3.874145269393920898e+00,6.713925361633300781e+00,1.279937839508056641e+01,1.002232551574707031e+01,9.737695693969726562e+00,9.812840461730957031e+00,1.373415851593017578e+01,1.000199222564697266e+01,6.063183307647705078e+00,2.154417514801025391e+00,5.441856980323791504e-01,4.128853797912597656e+00,1.009749031066894531e+01,9.909906387329101562e+00,4.837835311889648438e+00,1.636784791946411133e+00,2.787008047103881836e+00,5.400470256805419922e+00,6.573906898498535156e+00,-1.826032102108001709e-01
-1.220159816741943359e+01,-2.548338651657104492e+00,-2.525595426559448242e+00,-4.425661563873291016e+00,-8.167469978332519531e+00,-1.196305561065673828e+01,-1.205338382720947266e+01,-7.712502002716064453e+00,-3.754077672958374023e+00,-4.644429206848144531e+00,-1.969418287277221680e+00,-3.964642286300659180e+00,-7.083593845367431641e+00,-2.899045944213867188e+00,3.219547986984252930e+00,4.069516658782958984e+00,5.671303749084472656e+00,7.398994922637939453e+00,5.487450599670410156e+00,1.003040075302124023e+00,-2.431686967611312866e-01,9.889488220214843750e-01,-1.702407598495483398e+00,-2.965467214584350586e+00,-1.712401509284973145e+00,-1.918054461479187012e+00,-3.001556396484375000e+00,-5.561907291412353516e+00,-9.611867904663085938e+00,-8.585818290710449219e+00,-6.430550098419189453e+00,-7.894703388214111328e+00
-1.389938449859619141e+01,-1.089702892303466797e+01,-8.142035484313964844e+00,-1.191048336029052734e+01,-1.463840198516845703e+01,-1.847112464904785156e+01,-2.287748908996582031e+01,-1.760054397583007812e+01,-9.434279441833496094e+00,-5.786185741424560547e+00,-8.897665023803710938e+00,-4.499930381774902344e+00,-4.655757427215576172e+00,-4.667613029479980469e+00,-3.747534275054931641e+00,9.412816762924194336e-01,3.694880247116088867e+00,7.379119396209716797e+00,3.687163352966308594e+00,8.804989457130432129e-01,-3.052166700363159180e-01,3.824588358402252197e-01,-2.241682529449462891e+00,-6.354850292205810547e+00,-5.511812210083007812e+00,-6.871593475341796875e+00,-8.620369911193847656e+00,-1.114072799682617188e+01,-1.236171817779541016e+01,-7.471566677093505859e+00,8.691948023624718189e-04,2.089386731386184692e-01
-6.040001392364501953e+00,4.649516046047210693e-01,-1.830660343170166016e+00,-8.495523452758789062e+00,-9.277569770812988281e+00,-8.597551345825195312e+00,-8.382641792297363281e+00,-5.819933414459228516e+00,-3.675526618957519531e+00,-5.734821796417236328e+00,-5.160050392150878906e+00,2.928703069686889648e+00,3.973027229309082031e+00,6.255372166633605957e-01,2.368141889572143555e+00,7.843597412109375000e+00,9.590136528015136719e+00,1.141941738128662109e+01,1.067771625518798828e+01,9.917983055114746094e+00,8.103794097900390625e+00,7.192780971527099609e+00,6.727091789245605469e+00,4.405196666717529297e+00,3.701995849609375000e+00,3.253621578216552734e+00,3.421256065368652344e+00,1.311956286430358887e+00,-6.960038840770721436e-02,3.520811319351196289e+00,9.484498023986816406e+00,9.065751075744628906e+00
2.086602449417114258e-01,4.340978622436523438e+00,-2.316531896591186523e+00,-6.809151172637939453e+00,-6.198289394378662109e+00,-3.528027057647705078e+00,1.269421458244323730e+00,1.028442502021789551e+00,4.756819009780883789e-01,-4.750035285949707031e+00,1.541558146476745605e+00,6.342284202575683594e+00,6.573579788208007812e+00,3.041179180145263672e+00,7.376307487487792969e+00,1.015962219238281250e+01,1.059718513488769531e+01,1.125678634643554688e+01,1.003488159179687500e+01,1.060186862945556641e+01,1.184051704406738281e+01,1.324981784820556641e+01,1.092407321929931641e+01,9.357739448547363281e+00,9.124083518981933594e+00,9.885170936584472656e+00,1.078417968750000000e+01,8.469529151916503906e+00,3.912604570388793945e+00,4.323651313781738281e+00,8.259711265563964844e+00,6.057577133178710938e+00
1.371442437171936035e+00,1.395583152770996094e+00,-5.104314327239990234e+00,-4.145287036895751953e+00,-8.017752766609191895e-01,1.835931181907653809e+00,1.432528138160705566e+00,2.998426258563995361e-01,6.371574401855468750e-01,-1.125105142593383789e+00,4.519484519958496094e+00,8.063774108886718750e+00,9.708406448364257812e+00,6.809884071350097656e+00,9.348726272583007812e+00,6.393413066864013672e+00,5.677286624908447266e+00,6.199766159057617188e+00,5.568123340606689453e+00,6.153632640838623047e+00,7.752669334411621094e+00,7.998318195343017578e+00,4.536181926727294922e+00,3.164736986160278320e+00,9.344222068786621094e+00,9.915785789489746094e+00,5.552525997161865234e+00,-4.094751477241516113e-01,-1.901457548141479492e+00,3.994207859039306641e+00,1.255391502380371094e+01,4.790395259857177734e+00
1.271432280540466309e+00,5.593860626220703125e+00,6.257161140441894531e+00,6.744509696960449219e+00,5.561244010925292969e+00,7.218732357025146484e+00,6.474874019622802734e+00,5.951064586639404297e+00,1.661893486976623535e+00,2.137987852096557617e+00,7.101424217224121094e+00,9.094330787658691406e+00,9.037458419799804688e+00,9.457353591918945312e+00,1.262104415893554688e+01,8.053296089172363281e+00,6.220777511596679688e+00,6.903604030609130859e+00,9.395571708679199219e+00,9.442203521728515625e+00,8.574992179870605469e+00,4.783453941345214844e+00,8.704485297203063965e-01,2.958116769790649414e+00,1.212658119201660156e+01,1.235478973388671875e+01,4.248336791992187500e+00,-3.238315820693969727e+00,-1.972599864006042480e+00,5.530169486999511719e+00,1.251982593536376953e+01,4.099584102630615234e+00
-5.870964527130126953e+00,-1.487260699272155762e+00,6.681701183319091797e+00,4.112157344818115234e+00,-3.000481128692626953e+00,-1.718604207038879395e+00,2.932784259319305420e-01,-6.250469684600830078e-01,-3.900887489318847656e+00,-8.896756917238235474e-03,3.291945219039916992e+00,1.122622847557067871e+00,-1.883573174476623535e+00,-1.031765341758728027e+00,3.196879148483276367e+00,9.437708258628845215e-01,-1.955773085355758667e-01,2.982597589492797852e+00,4.237930297851562500e+00,3.585854530334472656e+00,2.135926246643066406e+00,1.037749052047729492e+00,-3.905452013015747070e+00,-1.508511543273925781e+00,2.095650672912597656e+00,3.207284927368164062e+00,-1.831961870193481445e+00,-6.536353111267089844e+00,-7.506839752197265625e+00,-4.688903331756591797e+00,-4.235198974609375000e+00,-1.286038208007812500e+01
-1.026221847534179688e+01,-1.428620624542236328e+01,-1.202006149291992188e+01,-1.321827220916748047e+01,-1.362267780303955078e+01,-8.910255432128906250e+00,-1.025564670562744141e+01,-1.265490818023681641e+01,-9.775723457336425781e+00,-5.527519226074218750e+00,-4.741204738616943359e+00,-7.519495010375976562e+00,-8.560307502746582031e+00,-9.640526771545410156e+00,-7.777142524719238281e+00,-7.942007064819335938e+00,-8.209115028381347656e+00,-3.546019792556762695e+00,-4.160552024841308594e+00,-4.662170886993408203e+00,-5.754052162170410156e+00,-4.354461193084716797e+00,-9.441500663757324219e+00,-1.300465869903564453e+01,-1.401480293273925781e+01,-1.260366725921630859e+01,-1.276431941986083984e+01,-1.619509506225585938e+01,-1.950803756713867188e+01,-1.530414295196533203e+01,-1.111374378204345703e+01,-2.463481140136718750e+01
-3.446639537811279297e+00,-7.149701595306396484e+00,-1.196019458770751953e+01,-1.090161132812500000e+01,-6.881871700286865234e+00,-9.898479580879211426e-01,-1.139891743659973145e+00,-2.545269012451171875e+00,-5.301148891448974609e+00,-8.496503829956054688e+00,-4.414637088775634766e+00,-5.135098457336425781e+00,-7.165788173675537109e+00,-5.666366577148437500e+00,-1.910045146942138672e+00,-8.767443299293518066e-01,-3.664911031723022461e+00,-3.246191978454589844e+00,-2.150307893753051758e+00,-1.781800389289855957e-01,-2.001103311777114868e-01,-3.284149408340454102e+00,-6.403131961822509766e+00,-9.572765350341796875e+00,-7.195035457611083984e+00,-8.481858253479003906e+00,-1.021671295166015625e+01,-1.315780735015869141e+01,-1.442415523529052734e+01,-9.253203392028808594e+00,-1.853455901145935059e+00,-9.000535964965820312e+00
-1.376411437988281250e+00,3.935064315795898438e+00,3.880731344223022461e+00,5.270266056060791016e+00,3.116366147994995117e+00,3.675789594650268555e+00,8.633782386779785156e+00,8.578957557678222656e+00,9.585484862327575684e-02,-8.084667205810546875e+00,-2.755789756774902344e+00,-2.301151275634765625e+00,-6.805801391601562500e+00,-4.611477851867675781e+00,9.418078064918518066e-01,3.068615198135375977e-01,-2.820744276046752930e+00,-3.714393138885498047e+00,-2.824416160583496094e+00,-1.684461951255798340e+00,-6.759381890296936035e-01,-2.564486980438232422e+00,-4.204098224639892578e+00,-3.367916941642761230e-01,4.899733543395996094e+00,8.821892738342285156e-01,-6.210995674133300781e+00,-7.580992221832275391e+00,-5.642929553985595703e+00,-6.449037551879882812e+00,-4.564093112945556641e+00,8.449548721313476562e+00
-4.857248783111572266e+00,-1.033529877662658691e+00,4.378100872039794922e+00,6.638913631439208984e+00,2.997289180755615234e+00,-4.935396194458007812e+00,-2.020515203475952148e+00,-5.326339006423950195e-01,-1.385066211223602295e-01,-5.676694869995117188e+00,-6.324976444244384766e+00,-6.439696311950683594e+00,-6.556982040405273438e+00,-6.166650772094726562e+00,-3.130269527435302734e+00,-5.020725250244140625e+00,-4.029480934143066406e+00,-1.383092254400253296e-01,-1.802483558654785156e+00,-5.884925842285156250e+00,-5.393925666809082031e+00,-9.306508898735046387e-01,-2.432618618011474609e+00,1.909496068954467773e+00,4.360763072967529297e+00,1.820646047592163086e+00,-3.540113925933837891e+00,-5.280403137207031250e+00,-3.302183151245117188e+00,-3.630029916763305664e+00,-4.013358116149902344e+00,3.672753810882568359e+00
-6.886413097381591797e+00,-7.400722503662109375e+00,-1.661257147789001465e+00,2.604781389236450195e-01,-2.297353982925415039e+00,-1.177838897705078125e+01,-1.255213069915771484e+01,-1.041168022155761719e+01,-1.750383615493774414e+00,-1.488247752189636230e+00,-7.520134449005126953e+00,-8.777429580688476562e+00,-5.735012531280517578e+00,-4.912868976593017578e+00,-2.224884748458862305e+00,-3.582512378692626953e+00,-3.893954753875732422e+00,-4.727772235870361328e+00,-6.950787544250488281e+00,-9.402436256408691406e+00,-7.710001468658447266e+00,-4.058313369750976562e+00,-2.084749221801757812e+00,-2.643637895584106445e+00,-5.366135597229003906e+00,-4.797887802124023438e+00,-1.639182329177856445e+00,-2.047153711318969727e+00,-1.670217156410217285e+00,6.064572334289550781e-01,-2.495257139205932617e+00,-1.028224849700927734e+01
-7.988172531127929688e+00,1.452663779258728027e+00,4.804255485534667969e+00,2.485895633697509766e+00,-3.591366052627563477e+00,-5.965828418731689453e+00,-9.103128433227539062e+00,-8.338791847229003906e+00,-1.718448877334594727e+00,3.671937942504882812e+00,-3.803717374801635742e+00,-3.468014001846313477e+00,-4.560573101043701172e+00,-2.374457597732543945e+00,-1.054486393928527832e+00,-4.542007148265838623e-01,-5.086746692657470703e+00,-1.091447353363037109e+01,-1.120365428924560547e+01,-7.320535659790039062e+00,-4.475522518157958984e+00,-5.729017257690429688e+00,-1.686625361442565918e+00,-1.600641727447509766e+00,-4.444753170013427734e+00,-4.633112907409667969e+00,-8.274824619293212891e-01,1.401645302772521973e+00,1.383677005767822266e+00,-1.996427297592163086e+00,-9.765230178833007812e+00,-6.727307319641113281e+00
-3.742389082908630371e-01,1.143607902526855469e+01,1.088126659393310547e+01,8.352530479431152344e+00,5.033779621124267578e+00,4.837025642395019531e+00,-2.295214235782623291e-01,1.752618193626403809e+00,4.429700374603271484e+00,8.273443222045898438e+00,3.198842763900756836e+00,3.003033161163330078e+00,2.276761770248413086e+00,2.484389781951904297e+00,6.074578166007995605e-01,1.221456766128540039e+00,-6.338826417922973633e-01,-7.015038728713989258e-01,8.927638083696365356e-02,3.009173631668090820e+00,4.541006088256835938e+00,4.825342178344726562e+00,4.838876247406005859e+00,5.695277690887451172e+00,4.713172912597656250e+00,5.071445941925048828e+00,5.385931015014648438e+00,6.156599998474121094e+00,6.979791164398193359e+00,4.563028812408447266e+00,1.159998416900634766e+00,8.946750640869140625e+00
9.401271820068359375e+00,5.670709609985351562e+00,6.665406227111816406e+00,1.058237266540527344e+01,1.291854858398437500e+01,5.976615905761718750e+00,8.437768936157226562e+00,1.255069446563720703e+01,1.139735126495361328e+01,7.301982402801513672e+00,8.288555145263671875e+00,6.526945114135742188e+00,8.957887649536132812e+00,4.737753868103027344e+00,3.883038520812988281e+00,4.659274101257324219e+00,7.276816368103027344e+00,1.023305702209472656e+01,7.843657016754150391e+00,5.716138839721679688e+00,6.202755928039550781e+00,1.172680473327636719e+01,9.158390998840332031e+00,4.893309116363525391e+00,4.821961522102355957e-01,4.377096176147460938e+00,9.105106353759765625e+00,9.122150421142578125e+00,1.058127403259277344e+01,1.446541690826416016e+01,1.332260036468505859e+01,7.304501533508300781e+00
4.873381137847900391e+00,-3.028753757476806641e+00,-3.379163146018981934e-01,4.915736675262451172e+00,6.241554260253906250e+00,2.134175062179565430e+00,6.596973896026611328e+00,8.466503143310546875e+00,7.618050098419189453e+00,1.385802984237670898e+00,4.754735946655273438e+00,5.122775554656982422e+00,5.670654296875000000e+00,-2.665627300739288330e-01,-3.305168390274047852e+00,-1.376033425331115723e-01,2.166257381439208984e+00,2.911976337432861328e+00,-1.339287161827087402e+00,-3.054927825927734375e+00,-1.861985683441162109e+00,3.865988969802856445e+00,3.416446208953857422e+00,-1.471795320510864258e+00,-8.953052520751953125e+00,-7.418633460998535156e+00,3.709540516138076782e-02,1.865373134613037109e+00,1.978572845458984375e+00,3.579707860946655273e+00,-1.042163133621215820e+00,-3.988515138626098633e+00
3.020641565322875977e+00,7.385606169700622559e-01,-1.334426760673522949e+00,-2.358665227890014648e+00,-2.591309547424316406e+00,5.636769294738769531e+00,4.744448184967041016e+00,2.426224470138549805e+00,4.509028196334838867e-01,-1.024868339300155640e-01,2.223459005355834961e+00,6.314632892608642578e+00,3.939743757247924805e+00,-2.964993953704833984e+00,-1.080568504333496094e+01,-5.474602699279785156e+00,-3.225170850753784180e+00,-2.156579732894897461e+00,-5.421688556671142578e+00,-5.137253761291503906e+00,-4.494403839111328125e+00,9.428228139877319336e-01,1.177725076675415039e+00,-9.243373274803161621e-01,-7.512868404388427734e+00,-8.814901351928710938e+00,-4.976209163665771484e+00,-3.915362834930419922e+00,-5.249350547790527344e+00,-6.451722621917724609e+00,-8.049110412597656250e+00,3.564973115921020508e+00
1.625576019287109375e+01,4.033975124359130859e+00,1.259820699691772461e+00,-1.313589096069335938e+00,2.381156206130981445e+00,1.036989212036132812e+01,9.663764953613281250e+00,6.301326274871826172e+00,1.222041487693786621e+00,4.853869438171386719e+00,5.846368789672851562e+00,1.155402660369873047e+01,9.457586288452148438e+00,1.628813624382019043e+00,-3.812079668045043945e+00,2.587739467620849609e+00,6.893284320831298828e+00,4.486353397369384766e+00,-1.729792058467864990e-01,9.941471815109252930e-01,3.341075420379638672e+00,8.180672645568847656e+00,6.534548282623291016e+00,4.032464981079101562e+00,2.608111128211021423e-02,4.374330937862396240e-01,2.565349340438842773e+00,5.351363182067871094e+00,8.753782272338867188e+00,8.020495414733886719e+00,4.998208522796630859e+00,1.215113830566406250e+01
9.935059547424316406e+00,-6.797327041625976562e+00,-3.677939414978027344e+00,-2.673001527786254883e+00,1.404291689395904541e-01,-5.418955683708190918e-01,-2.819384813308715820e+00,-1.757291316986083984e+00,1.135005354881286621e+00,4.241174221038818359e+00,-1.543261885643005371e+00,1.536883693188428879e-02,1.902999043464660645e+00,-1.389747619628906250e+00,-1.984227538108825684e+00,2.345703840255737305e+00,4.659516334533691406e+00,-3.555671215057373047e+00,-7.252496242523193359e+00,-5.533941745758056641e+00,-9.086776971817016602e-01,-4.831295013427734375e-01,-1.988569378852844238e+00,-4.147553920745849609e+00,-5.081202030181884766e+00,-3.924029827117919922e+00,-2.982261896133422852e+00,-3.709806799888610840e-01,5.302428245544433594e+00,2.100909471511840820e+00,-7.180955886840820312e+00,-4.789038181304931641e+00
-7.740548133850097656e+00,-1.302731990814208984e+01,-7.255821228027343750e+00,-6.035560131072998047e+00,-1.026155948638916016e+01,-1.254789257049560547e+01,-1.365391159057617188e+01,-9.926416397094726562e+00,-1.785718917846679688e+00,-1.760509014129638672e+00,-1.130946826934814453e+01,-1.551588249206542969e+01,-1.134528350830078125e+01,-9.645813941955566406e+00,-1.168875312805175781e+01,-1.161522197723388672e+01,-1.155132198333740234e+01,-1.554253864288330078e+01,-1.585724067687988281e+01,-1.665734481811523438e+01,-1.595746517181396484e+01,-1.619341850280761719e+01,-1.544276237487792969e+01,-1.559239006042480469e+01,-1.533948802947998047e+01,-1.501068115234375000e+01,-1.672445869445800781e+01,-1.648354148864746094e+01,-1.570998668670654297e+01,-2.064855575561523438e+01,-2.583117294311523438e+01,-1.902835464477539062e+01
-6.076900482177734375e+00,-1.048283767700195312e+01,-5.928132534027099609e+00,-2.496865749359130859e+00,-3.684029102325439453e+00,-4.384610176086425781e+00,2.313388824462890625e+00,4.386910438537597656e+00,1.356286525726318359e+00,-3.131198406219482422e+00,-5.765551567077636719e+00,-8.597189903259277344e+00,-6.030189990997314453e+00,-4.602827072143554688e+00,-8.535633087158203125e+00,-1.026655101776123047e+01,-9.269446372985839844e+00,-6.751734256744384766e+00,-6.607307910919189453e+00,-9.597234725952148438e+00,-1.372032356262207031e+01,-1.128519344329833984e+01,-1.068390274047851562e+01,-1.313319015502929688e+01,-1.407272338867187500e+01,-1.419682502746582031e+01,-1.512398624420166016e+01,-1.541754627227783203e+01,-1.675279426574707031e+01,-1.766662597656250000e+01,-1.476355838775634766e+01,-1.016830253601074219e+01
-7.222883105278015137e-01,-9.179112434387207031e+00,-1.218656730651855469e+01,-3.684667825698852539e+00,7.343866348266601562e+00,5.096528053283691406e+00,9.272975921630859375e+00,1.071218299865722656e+01,5.097032546997070312e+00,2.123901546001434326e-01,-9.280902743339538574e-01,1.825901031494140625e+00,4.060948848724365234e+00,6.999695301055908203e+00,3.976433277130126953e+00,1.104048728942871094e+00,5.580264925956726074e-01,3.792448520660400391e+00,3.954459190368652344e+00,2.555397033691406250e+00,6.737387180328369141e-01,5.149908065795898438e-01,-7.763245105743408203e-01,-3.795176506042480469e+00,-4.260083198547363281e+00,-4.714540004730224609e+00,-6.286825656890869141e+00,-8.335771560668945312e+00,-6.174178123474121094e+00,-3.885194540023803711e+00,-4.347627516835927963e-03,-1.503898739814758301e+00
-1.745359420776367188e+00,-7.192766666412353516e+00,-1.445292949676513672e+01,-9.373279571533203125e+00,2.092993497848510742e+00,-1.119110226631164551e+00,-3.421056747436523438e+00,-1.095206379890441895e+00,5.331171512603759766e+00,5.397292137145996094e+00,-3.407199621200561523e+00,-3.075001239776611328e+00,2.562937140464782715e-01,7.296465396881103516e+00,5.090954780578613281e+00,6.617507934570312500e-01,-2.809517860412597656e+00,-5.578884482383728027e-01,2.517805337905883789e+00,3.250084877014160156e+00,3.752393960952758789e+00,1.976716369390487671e-01,-1.563230752944946289e+00,9.931913018226623535e-01,2.320094585418701172e+00,1.994540333747863770e+00,-3.714554786682128906e+00,-5.587178230285644531e+00,-1.151483893394470215e+00,-1.501575946807861328e+00,-2.040675878524780273e+00,-7.916623592376708984e+00
-7.106294631958007812e+00,-1.161575031280517578e+01,-5.797373771667480469e+00,-5.944964408874511719e+00,-7.195529460906982422e+00,-1.140928268432617188e+01,-1.130317401885986328e+01,-6.745311737060546875e+00,1.015320181846618652e+00,3.284194946289062500e+00,-7.569779872894287109e+00,-1.438920783996582031e+01,-1.023223590850830078e+01,1.680624008178710938e+00,4.261632263660430908e-01,-5.209311008453369141e+00,-9.080621719360351562e+00,-7.628103256225585938e+00,-2.460034847259521484e+00,-1.023208737373352051e+00,-2.322433710098266602e+00,-6.909708023071289062e+00,-7.370077133178710938e+00,-1.998177289962768555e+00,-1.618067741394042969e+00,-3.703546047210693359e+00,-7.594257354736328125e+00,-5.974895477294921875e+00,-2.963964462280273438e+00,-7.498659133911132812e+00,-1.120748233795166016e+01,-1.805657386779785156e+01
-1.497537994384765625e+01,-1.718895339965820312e+01,-5.173182487487792969e+00,-3.222486734390258789e+00,-9.473831176757812500e+00,-1.686020851135253906e+01,-1.890946197509765625e+01,-1.172349548339843750e+01,-6.684019088745117188e+00,-6.259694099426269531e+00,-1.517163848876953125e+01,-2.063766860961914062e+01,-1.642600059509277344e+01,-5.044025555253028870e-02,-1.224462509155273438e+00,-7.956014633178710938e+00,-1.375620746612548828e+01,-1.162080001831054688e+01,-5.374308109283447266e+00,-3.824815034866333008e+00,-6.070370197296142578e+00,-1.392821216583251953e+01,-1.380356502532958984e+01,-1.241192340850830078e+01,-1.136400699615478516e+01,-1.357168197631835938e+01,-1.327162647247314453e+01,-1.315617847442626953e+01,-1.201539421081542969e+01,-1.584939002990722656e+01,-1.315330028533935547e+01,-1.188796234130859375e+01
-1.053929424285888672e+01,-9.245037078857421875e+00,-5.561103343963623047e+00,-1.406221866607666016e+00,-3.221605300903320312e+00,-8.468661308288574219e+00,-1.236984539031982422e+01,-7.392252445220947266e+00,-2.293329238891601562e+00,-5.103312015533447266e+00,-1.208477306365966797e+01,-1.260026931762695312e+01,-9.589530944824218750e+00,7.094545364379882812e-01,-1.854628205299377441e+00,-6.490965366363525391e+00,-1.124259376525878906e+01,-9.394176483154296875e+00,-5.403759479522705078e+00,-4.269371509552001953e+00,-5.202509880065917969e+00,-1.080244350433349609e+01,-1.092517948150634766e+01,-9.873564720153808594e+00,-6.412988185882568359e+00,-7.307763576507568359e+00,-8.795340538024902344e+00,-1.181415367126464844e+01,-1.148972511291503906e+01,-1.090777206420898438e+01,-4.208853721618652344e+00,1.403236150741577148e+00
1.479130363464355469e+01,1.559349918365478516e+01,1.501518917083740234e+01,1.558623409271240234e+01,1.391518115997314453e+01,1.479801750183105469e+01,1.745844650268554688e+01,1.492487907409667969e+01,1.034440326690673828e+01,7.176802158355712891e+00,1.113057041168212891e+01,1.350716686248779297e+01,1.273218059539794922e+01,8.350795745849609375e+00,5.521141052246093750e+00,7.055772304534912109e+00,1.046411705017089844e+01,9.332957267761230469e+00,9.687545776367187500e+00,1.005054473876953125e+01,9.152222633361816406e+00,9.213327407836914062e+00,1.084367465972900391e+01,1.273969554901123047e+01,1.516532516479492188e+01,1.537262725830078125e+01,1.558250617980957031e+01,1.519214153289794922e+01,1.627846527099609375e+01,1.625956535339355469e+01,1.688600540161132812e+01,1.762405967712402344e+01
1.648383140563964844e+01,2.015225982666015625e+01,1.861896324157714844e+01,1.801478767395019531e+01,1.656636619567871094e+01,1.799415779113769531e+01,1.896563911437988281e+01,1.591417503356933594e+01,6.206502437591552734e+00,4.963253021240234375e+00,1.188101387023925781e+01,1.657428932189941406e+01,1.515583133697509766e+01,9.675883293151855469e+00,6.284006118774414062e+00,8.540192604064941406e+00,1.202553272247314453e+01,1.065789127349853516e+01,1.038284683227539062e+01,1.071082782745361328e+01,1.021906566619873047e+01,1.021865367889404297e+01,1.214057540893554688e+01,1.315337467193603516e+01,1.703653907775878906e+01,1.751475715637207031e+01,1.847529792785644531e+01,1.715733718872070312e+01,1.716768074035644531e+01,1.853958511352539062e+01,2.246346092224121094e+01,2.024254035949707031e+01
-7.561237335205078125e+00,-3.469976186752319336e+00,-4.406846046447753906e+00,-2.186405897140502930e+00,-2.232305526733398438e+00,-2.149144887924194336e+00,-2.171892404556274414e+00,-1.086270928382873535e+00,-5.241343498229980469e+00,-8.292140007019042969e+00,-5.725885868072509766e+00,-6.509626388549804688e+00,-6.344950675964355469e+00,-8.729166030883789062e+00,-1.144230365753173828e+01,-1.100209903717041016e+01,-1.010572528839111328e+01,-1.102742195129394531e+01,-8.649241447448730469e+00,-7.395116329193115234e+00,-9.475729942321777344e+00,-1.104074001312255859e+01,-9.033439636230468750e+00,-5.901691913604736328e+00,-2.269313335418701172e+00,-2.877709150314331055e+00,-1.752084970474243164e+00,-7.031211853027343750e+00,-7.664873123168945312e+00,-4.841593265533447266e+00,-9.924016594886779785e-01,4.076273739337921143e-02
-1.431631374359130859e+01,-1.227171993255615234e+01,-4.390482425689697266e+00,-3.351314544677734375e+00,-8.298132896423339844e+00,-1.574915218353271484e+01,-1.517556667327880859e+01,-9.957834243774414062e+00,-4.301239490509033203e+00,-5.838959217071533203e+00,-1.260291194915771484e+01,-1.691619682312011719e+01,-1.682867240905761719e+01,-1.525148582458496094e+01,-1.639444160461425781e+01,-1.801193809509277344e+01,-1.630762290954589844e+01,-1.013881587982177734e+01,-7.645391464233398438e+00,-8.942421913146972656e+00,-1.505918693542480469e+01,-1.689872741699218750e+01,-1.682423210144042969e+01,-1.345744705200195312e+01,-1.028303050994873047e+01,-8.882102012634277344e+00,-9.506346702575683594e+00,-1.661073112487792969e+01,-1.893748855590820312e+01,-1.765699958801269531e+01,-1.518904876708984375e+01,-2.989215850830078125e+00
4.547034576535224915e-02,1.209846735000610352e+00,1.037389278411865234e+01,9.470314979553222656e+00,3.083564519882202148e+00,-2.385101318359375000e+00,-3.267918348312377930e+00,-1.539825677871704102e+00,1.194919943809509277e+00,9.216399192810058594e+00,2.021796941757202148e+00,1.605018854141235352e+00,-1.008304595947265625e+00,-3.535201549530029297e+00,-4.508311271667480469e+00,-4.121037006378173828e+00,2.312808513641357422e+00,1.237427902221679688e+01,1.157463169097900391e+01,7.499712944030761719e+00,-1.016475558280944824e-01,4.750452041625976562e-01,-2.446898818016052246e-01,1.322672128677368164e+00,5.135102272033691406e+00,6.153916835784912109e+00,8.274307250976562500e+00,2.758757591247558594e+00,-9.195079207420349121e-01,-9.737594723701477051e-01,1.324496984481811523e+00,5.457955837249755859e+00
-2.261139452457427979e-01,6.801949024200439453e+00,4.656982898712158203e+00,5.744536876678466797e+00,5.557455539703369141e+00,5.636007785797119141e+00,1.943665385246276855e+00,2.423708915710449219e+00,4.240108489990234375e+00,1.107861042022705078e+01,4.900719165802001953e+00,2.241583108901977539e+00,1.935397744178771973e+00,2.987276315689086914e+00,3.474605083465576172e+00,3.592760086059570312e+00,5.522793769836425781e+00,2.662247896194458008e+00,5.240490436553955078e+00,6.862061023712158203e+00,6.688331604003906250e+00,2.573592662811279297e+00,3.874046802520751953e+00,6.088308811187744141e+00,1.022837638854980469e+01,6.384069919586181641e+00,9.499368667602539062e+00,3.764374494552612305e+00,1.222292542457580566e+00,5.545948505401611328e+00,1.304322433471679688e+01,1.115332984924316406e+01
-1.445521068572998047e+01,-1.567623853683471680e+00,-6.799125194549560547e+00,-4.335756778717041016e+00,-1.316020369529724121e+00,-5.190515041351318359e+00,1.181845426559448242e+00,4.820199012756347656e+00,5.960260868072509766e+00,4.849034249782562256e-01,-7.070116996765136719e+00,-1.437692832946777344e+01,-1.405644893646240234e+01,-1.010676574707031250e+01,-7.757712841033935547e+00,-8.531186103820800781e+00,-9.890030860900878906e+00,-1.461969375610351562e+01,-1.214496803283691406e+01,-1.162539005279541016e+01,-8.655316352844238281e+00,-1.271093559265136719e+01,-1.239331912994384766e+01,-1.013238620758056641e+01,-3.095317363739013672e+00,-3.187439441680908203e+00,-3.298278331756591797e+00,-1.224142646789550781e+01,-1.226578617095947266e+01,-6.147643089294433594e+00,7.330570220947265625e-01,2.778456211090087891e+00
-1.789966392517089844e+01,-1.165273475646972656e+01,-8.228886604309082031e+00,-6.528242588043212891e+00,-5.714123249053955078e+00,-9.597649574279785156e+00,-9.687696397304534912e-02,5.120016574859619141e+00,2.353584289550781250e+00,-3.471270322799682617e+00,-7.875424861907958984e+00,-1.122342967987060547e+01,-1.259020805358886719e+01,-8.792360305786132812e+00,-6.392507553100585938e+00,-7.929289340972900391e+00,-6.065532684326171875e+00,-2.351138353347778320e+00,-1.627191156148910522e-02,-4.759343624114990234e+00,-1.102097225189208984e+01,-1.169052314758300781e+01,-1.281289863586425781e+01,-1.364543628692626953e+01,-1.319398117065429688e+01,-9.583576202392578125e+00,-6.015668869018554688e+00,-1.103179168701171875e+01,-1.509173965454101562e+01,-1.455511379241943359e+01,-1.369681835174560547e+01,-1.585772228240966797e+01
-7.417914867401123047e+00,-1.001823806762695312e+01,-9.786361694335937500e+00,-1.036389732360839844e+01,-7.284359931945800781e+00,-6.174932956695556641e+00,-7.705729961395263672e+00,-4.183449268341064453e+00,-3.358582973480224609e+00,9.013857245445251465e-01,-3.615756273269653320e+00,-1.512667417526245117e+00,-2.984237432479858398e+00,1.430661797523498535e+00,2.474129676818847656e+00,2.458177566528320312e+00,3.905762910842895508e+00,5.043963432312011719e+00,5.374769687652587891e+00,1.749077081680297852e+00,-2.525361776351928711e+00,-4.264060020446777344e+00,-3.044307947158813477e+00,-5.590422630310058594e+00,-8.073692321777343750e+00,-7.827679157257080078e+00,-2.131468296051025391e+00,-2.729346990585327148e+00,-4.782999992370605469e+00,-5.494385719299316406e+00,-2.966190099716186523e+00,-6.086827278137207031e+00
-4.401472091674804688e+00,-6.867390632629394531e+00,-7.242028713226318359e+00,-9.526581764221191406e+00,-6.989987850189208984e+00,-7.730750560760498047e+00,-1.220013427734375000e+01,-1.153988265991210938e+01,-2.552909612655639648e+00,6.530851125717163086e-01,-4.265811443328857422e+00,-6.021712779998779297e+00,-4.666862964630126953e+00,-5.511108636856079102e-01,1.014820218086242676e+00,4.251298904418945312e+00,5.517457008361816406e+00,1.624885797500610352e-01,-3.804688453674316406e+00,-5.148145198822021484e+00,-3.634130239486694336e+00,-2.626482963562011719e+00,-3.503558784723281860e-02,3.826292753219604492e-01,5.289697051048278809e-01,-1.992531895637512207e+00,-5.192763805389404297e-01,1.746902801096439362e-02,2.782861471176147461e+00,-4.284858107566833496e-01,2.865862131118774414e+00,1.365147113800048828e+01
-1.062581443786621094e+01,-5.235563755035400391e+00,-3.653567075729370117e+00,-7.602000713348388672e+00,-1.193572711944580078e+01,-1.164091205596923828e+01,-1.309636211395263672e+01,-1.358174610137939453e+01,-4.590772151947021484e+00,-7.214344978332519531e+00,-8.895221710205078125e+00,-1.235271930694580078e+01,-9.030858993530273438e+00,-8.045607566833496094e+00,-5.119980335235595703e+00,-6.351336836814880371e-01,4.729570865631103516e+00,5.655966758728027344e+00,5.757395625114440918e-01,-5.192861557006835938e+00,-6.402345657348632812e+00,-1.616892218589782715e+00,-1.461967825889587402e+00,-5.447759032249450684e-01,-4.116127490997314453e+00,-4.585410118103027344e+00,-3.067026853561401367e+00,-7.238284349441528320e-01,-1.679028749465942383e+00,-6.951856613159179688e+00,-6.976998805999755859e+00,1.025090694427490234e+00
-5.493155479431152344e+00,1.638199329376220703e+00,-6.212178707122802734e+00,-9.669141769409179688e+00,-1.547802829742431641e+01,-1.004585361480712891e+01,-1.463218975067138672e+01,-1.192404079437255859e+01,-8.713633537292480469e+00,-1.115918254852294922e+01,-1.050163936614990234e+01,-3.716090679168701172e+00,-1.216825962066650391e+00,-3.419708967208862305e+00,-2.642356157302856445e+00,9.265482425689697266e-01,6.372034549713134766e+00,1.191866016387939453e+01,9.138952255249023438e+00,1.006593942642211914e+00,-2.856862306594848633e+00,2.636090040206909180e+00,2.520420551300048828e+00,-1.076680302619934082e+00,-8.479125022888183594e+00,-6.593994140625000000e+00,-1.101002693176269531e+00,1.833379626274108887e+00,-2.202833890914916992e+00,-3.196726560592651367e+00,-2.967574119567871094e+00,-1.335187816619873047e+01
1.094165325164794922e+01,7.153008460998535156e+00,-2.539933681488037109e+00,-2.387450456619262695e+00,-4.009811401367187500e+00,3.509451627731323242e+00,3.629057884216308594e+00,4.036073684692382812e+00,-3.713133096694946289e+00,-6.269713878631591797e+00,2.462167739868164062e+00,1.675302314758300781e+01,1.579094409942626953e+01,9.392250061035156250e+00,7.022513866424560547e+00,1.098058795928955078e+01,1.455937194824218750e+01,1.330846691131591797e+01,1.127134513854980469e+01,7.010747432708740234e+00,6.065008640289306641e+00,1.075637817382812500e+01,1.252547454833984375e+01,6.155575275421142578e+00,1.555343031883239746e+00,3.089334249496459961e+00,7.715611457824707031e+00,8.523935317993164062e+00,7.102386474609375000e+00,5.697608947753906250e+00,8.284753799438476562e+00,5.120746612548828125e+00
1.369437789916992188e+01,2.855827212333679199e-01,-2.250682592391967773e+00,8.311356902122497559e-01,3.424624919891357422e+00,6.782264709472656250e+00,9.546042442321777344e+00,4.907072544097900391e+00,-7.215688824653625488e-01,-7.546558976173400879e-01,8.784173011779785156e+00,1.791136169433593750e+01,1.803223037719726562e+01,9.316856384277343750e+00,7.716856479644775391e+00,1.234666824340820312e+01,1.730129051208496094e+01,1.401068019866943359e+01,1.172495651245117188e+01,1.023594856262207031e+01,1.051044559478759766e+01,1.279815292358398438e+01,1.277536392211914062e+01,8.885636329650878906e+00,5.439941883087158203e+00,3.635350942611694336e+00,4.208966255187988281e+00,5.143521785736083984e+00,3.388599395751953125e+00,-1.966290950775146484e+00,1.876186370849609375e+00,1.400125312805175781e+01
-1.318144798278808594e+00,-1.072031211853027344e+01,-1.514063358306884766e+01,-1.259975719451904297e+01,-9.181509971618652344e+00,-5.612259864807128906e+00,-1.146267700195312500e+01,-1.388333034515380859e+01,-7.842051506042480469e+00,-1.755875349044799805e+00,-2.026676654815673828e+00,-1.621540784835815430e+00,4.860465824604034424e-01,-4.271517753601074219e+00,-5.241294860839843750e+00,-5.346521854400634766e+00,-3.800149440765380859e+00,-5.499626994132995605e-01,6.530868411064147949e-01,3.361840486526489258e+00,3.026002883911132812e+00,1.265004873275756836e+00,-1.563765645027160645e+00,-3.541465759277343750e+00,-8.069838523864746094e+00,-1.109201812744140625e+01,-1.075959300994873047e+01,-8.734130859375000000e+00,-1.106081581115722656e+01,-1.384544467926025391e+01,-1.165489864349365234e+01,-1.283744621276855469e+01
-6.955710887908935547e+00,-7.103769302368164062e+00,-1.432497406005859375e+01,-1.249333286285400391e+01,-1.042053413391113281e+01,-3.374965667724609375e+00,-8.673645973205566406e+00,-1.007340908050537109e+01,-7.948228836059570312e+00,-3.152076482772827148e+00,-2.310614824295043945e+00,-6.401231765747070312e+00,-6.407984256744384766e+00,-6.271454334259033203e+00,-9.436579704284667969e+00,-1.653862953186035156e+01,-1.909700393676757812e+01,-1.222443962097167969e+01,-7.152810573577880859e+00,-1.048151135444641113e+00,-1.524710297584533691e+00,-5.203092098236083984e+00,-7.206426143646240234e+00,-9.363615036010742188e+00,-1.249167728424072266e+01,-1.264620399475097656e+01,-9.875829696655273438e+00,-8.849363327026367188e+00,-9.445363998413085938e+00,-9.724138259887695312e+00,-1.283917617797851562e+01,-2.137269973754882812e+01
8.739044070243835449e-01,8.727013587951660156e+00,6.736705780029296875e+00,8.109951019287109375e+00,7.746196746826171875e+00,1.310324478149414062e+01,1.609562110900878906e+01,1.138529109954833984e+01,3.808432340621948242e+00,6.051211357116699219e-01,6.831932067871093750e+00,3.393461465835571289e+00,2.239217996597290039e+00,3.032313346862792969e+00,1.561214566230773926e+00,-5.321926593780517578e+00,-6.858603000640869141e+00,-2.030953407287597656e+00,3.151110172271728516e+00,7.223696708679199219e+00,6.785313606262207031e+00,3.246988058090209961e+00,1.493340969085693359e+00,1.418823838233947754e+00,8.573001027107238770e-01,4.677851200103759766e+00,5.966101169586181641e+00,6.048261165618896484e+00,4.471986293792724609e+00,3.099873304367065430e+00,-3.453814983367919922e-01,3.528569936752319336e+00
-2.110585212707519531e+00,7.400414466857910156e+00,4.923613548278808594e+00,4.667062282562255859e+00,7.351435661315917969e+00,1.256884765625000000e+01,1.681515884399414062e+01,1.054388332366943359e+01,1.850381493568420410e+00,-3.164074182510375977e+00,3.673748970031738281e+00,2.701217412948608398e+00,2.124863415956497192e-01,-1.800784915685653687e-01,2.839322566986083984e+00,3.042196750640869141e+00,3.244163274765014648e+00,5.732183933258056641e+00,6.357854366302490234e+00,4.752964496612548828e+00,4.093763351440429688e+00,3.388972282409667969e+00,1.708241462707519531e+00,1.799282908439636230e+00,2.786656141281127930e+00,3.871888160705566406e+00,3.043166160583496094e+00,4.494122982025146484e+00,3.943454980850219727e+00,3.181325435638427734e+00,2.780815839767456055e+00,1.210858345031738281e+01
-7.034656524658203125e+00,-3.952638149261474609e+00,-9.845326423645019531e+00,-1.117751121520996094e+01,-3.002123832702636719e+00,1.274196267127990723e+00,-1.766078114509582520e+00,-8.026745796203613281e+00,-1.245562267303466797e+01,-1.150978088378906250e+01,-5.848271369934082031e+00,-5.303576946258544922e+00,-8.011393547058105469e+00,-8.908323287963867188e+00,-6.186738491058349609e+00,-2.720699071884155273e+00,-1.476758956909179688e+00,-1.425779223442077637e+00,-4.301221370697021484e+00,-7.162417888641357422e+00,-6.326975822448730469e+00,-4.095495223999023438e+00,-3.142183303833007812e+00,-6.326420307159423828e+00,-4.215232849121093750e+00,-6.022555828094482422e+00,-6.460335731506347656e+00,-5.327935695648193359e+00,-2.119845390319824219e+00,-1.057342886924743652e+00,-1.746085166931152344e+00,-7.909226894378662109e+00
3.939742326736450195e+00,3.270211696624755859e+00,2.648690938949584961e+00,1.036563277244567871e+00,5.078038215637207031e+00,3.426841497421264648e+00,-1.969696402549743652e+00,-7.589087963104248047e+00,-5.292490959167480469e+00,-4.338741302490234375e+00,-1.214745640754699707e+00,-9.865021109580993652e-01,-5.360274314880371094e-01,-1.536592960357666016e+00,-1.473993301391601562e+00,-1.595643520355224609e+00,-1.316698789596557617e+00,-2.734362840652465820e+00,-2.839945554733276367e+00,-1.308200836181640625e+00,5.171878337860107422e-01,1.093215942382812500e+00,3.725630044937133789e+00,2.545229911804199219e+00,3.812861919403076172e+00,3.060124158859252930e+00,2.767430305480957031e+00,3.032744646072387695e+00,3.395271778106689453e+00,5.986499786376953125e+00,8.497002601623535156e+00,4.097733646631240845e-02
1.143037414550781250e+01,1.492618274688720703e+01,1.594425773620605469e+01,1.261170005798339844e+01,1.034350299835205078e+01,8.938283920288085938e+00,7.515018463134765625e+00,4.136018753051757812e+00,8.924891471862792969e+00,8.090865135192871094e+00,9.744435310363769531e+00,8.576396942138671875e+00,9.352956771850585938e+00,7.937131881713867188e+00,8.707208633422851562e+00,1.061693477630615234e+01,1.046637344360351562e+01,9.850381851196289062e+00,9.506160736083984375e+00,1.092843914031982422e+01,1.087801170349121094e+01,1.074908447265625000e+01,1.109000587463378906e+01,1.152380943298339844e+01,1.201232433319091797e+01,1.313723945617675781e+01,1.314186286926269531e+01,1.325089073181152344e+01,1.083997154235839844e+01,1.431612873077392578e+01,1.969234085083007812e+01,1.940036773681640625e+01
8.522120475769042969e+00,1.120986557006835938e+01,2.281498193740844727e+00,-1.768918514251708984e+00,2.671355009078979492e+00,5.340958595275878906e+00,5.534095764160156250e+00,1.280339956283569336e+00,4.601018428802490234e+00,3.467127799987792969e+00,8.005750656127929688e+00,6.251282691955566406e+00,6.285120010375976562e+00,5.085270404815673828e+00,7.808138370513916016e+00,1.131414508819580078e+01,1.235012912750244141e+01,1.290678691864013672e+01,1.045079898834228516e+01,1.024304676055908203e+01,8.851392745971679688e+00,1.102291202545166016e+01,9.446677207946777344e+00,6.914563655853271484e+00,7.089733600616455078e+00,9.696855545043945312e+00,1.167199802398681641e+01,1.125212192535400391e+01,1.197958660125732422e+01,1.185561084747314453e+01,1.042847156524658203e+01,1.074964904785156250e+01
1.111818790435791016e+01,1.015173912048339844e+01,-4.644486427307128906e+00,-7.819735050201416016e+00,4.277633190155029297e+00,5.865908622741699219e+00,4.507771492004394531e+00,-2.123623847961425781e+00,4.696148931980133057e-01,-3.742969989776611328e+00,2.968651294708251953e+00,1.183094143867492676e+00,2.902901649475097656e+00,3.122668027877807617e+00,6.144265651702880859e+00,4.426759719848632812e+00,4.571839332580566406e+00,6.549781799316406250e+00,7.774013042449951172e+00,9.085080146789550781e+00,8.871771812438964844e+00,1.123725318908691406e+01,1.134517192840576172e+01,9.068449974060058594e+00,8.557304382324218750e+00,7.727165699005126953e+00,9.641225814819335938e+00,1.012882137298583984e+01,1.104845142364501953e+01,6.325142383575439453e+00,2.206889390945434570e+00,4.278929710388183594e+00
1.529088497161865234e+01,1.638324546813964844e+01,6.465121746063232422e+00,3.269007921218872070e+00,8.226099967956542969e+00,6.660766601562500000e+00,4.275396823883056641e+00,-1.068859696388244629e+00,2.842127799987792969e+00,-6.706053018569946289e-01,2.642414569854736328e+00,1.614548563957214355e+00,1.685610294342041016e+00,1.956446528434753418e+00,3.510628223419189453e+00,1.834984064102172852e+00,2.046576023101806641e+00,5.792781829833984375e+00,8.225855827331542969e+00,9.643347740173339844e+00,1.014286708831787109e+01,1.171504592895507812e+01,1.220650291442871094e+01,1.319110107421875000e+01,1.355294609069824219e+01,1.082960605621337891e+01,1.216989898681640625e+01,1.304889583587646484e+01,1.142157936096191406e+01,9.024849891662597656e+00,1.340751934051513672e+01,2.078973388671875000e+01
6.579735279083251953e+00,3.436455011367797852e+00,3.309573411941528320e+00,4.185064792633056641e+00,2.552402734756469727e+00,-7.157327532768249512e-01,-3.106002807617187500e+00,-6.966008663177490234e+00,-5.358018398284912109e+00,-7.968010306358337402e-01,2.154188632965087891e+00,3.040168046951293945e+00,1.681528836488723755e-01,1.468666672706604004e+00,9.108182191848754883e-01,-8.742292225360870361e-02,-1.818956136703491211e-01,3.100693702697753906e+00,3.215901374816894531e+00,3.175111770629882812e+00,7.165606021881103516e-01,1.359154462814331055e+00,5.185317993164062500e-01,1.965183377265930176e+00,4.274255752563476562e+00,5.425316810607910156e+00,7.492216110229492188e+00,4.763338565826416016e+00,3.383518218994140625e+00,6.469950675964355469e+00,1.561294174194335938e+01,1.662994384765625000e+01
1.812539845705032349e-01,-6.017959117889404297e+00,-5.194247245788574219e+00,-8.145059347152709961e-01,2.848875708878040314e-02,-3.790114223957061768e-01,-1.233811140060424805e+00,-5.289359092712402344e+00,-6.297349929809570312e+00,3.475095033645629883e-01,4.429836750030517578e+00,8.488382339477539062e+00,6.331458568572998047e+00,5.173006534576416016e+00,4.812455177307128906e+00,4.676404953002929688e+00,4.762267589569091797e+00,-2.870924472808837891e-01,1.445170044898986816e+00,3.263016343116760254e-01,-2.337999105453491211e+00,-6.192526817321777344e+00,-4.698984146118164062e+00,-2.060646057128906250e+00,5.273220539093017578e-01,3.324831962585449219e+00,2.959310531616210938e+00,-2.687628269195556641e+00,-4.972284793853759766e+00,5.129438638687133789e-01,5.826116561889648438e+00,-5.813021183013916016e+00
5.758210659027099609e+00,6.555396080017089844e+00,2.068403363227844238e-01,3.425383865833282471e-01,-3.532327711582183838e-01,4.973824501037597656e+00,7.593409061431884766e+00,3.595299005508422852e+00,4.368704795837402344e+00,8.258797645568847656e+00,1.096115303039550781e+01,1.561276817321777344e+01,1.582450771331787109e+01,1.035552692413330078e+01,1.024720478057861328e+01,1.450268650054931641e+01,1.783061408996582031e+01,7.777804851531982422e+00,9.464565277099609375e+00,7.813556671142578125e+00,8.375075340270996094e+00,1.888099670410156250e+00,3.835983514785766602e+00,9.569250106811523438e+00,1.292981719970703125e+01,1.262172698974609375e+01,8.469767570495605469e+00,4.363090038299560547e+00,7.137795686721801758e-01,5.368463993072509766e+00,7.409746170043945312e+00,-6.634425163269042969e+00
1.206218051910400391e+01,7.514617919921875000e+00,-1.358021497726440430e+00,-3.739559650421142578e+00,-4.115433216094970703e+00,4.864926815032958984e+00,9.920367240905761719e+00,3.573416948318481445e+00,1.395198345184326172e+00,6.810069561004638672e+00,1.489652824401855469e+01,1.689062690734863281e+01,1.897344779968261719e+01,1.480612373352050781e+01,1.347733497619628906e+01,1.636706161499023438e+01,1.986390686035156250e+01,1.691997146606445312e+01,1.488294410705566406e+01,1.350821304321289062e+01,1.469367027282714844e+01,1.213329505920410156e+01,1.059773159027099609e+01,1.412488460540771484e+01,1.782136535644531250e+01,1.794122505187988281e+01,1.510335350036621094e+01,1.230817222595214844e+01,1.079266834259033203e+01,1.256567478179931641e+01,1.242896175384521484e+01,3.045836210250854492e+00
7.035738468170166016e+00,-6.511314392089843750e+00,-8.481389045715332031e+00,-7.009597778320312500e+00,-3.285619735717773438e+00,3.318815231323242188e+00,9.001242637634277344e+00,4.136117935180664062e+00,-5.289013385772705078e+00,-2.357251167297363281e+00,7.248845577239990234e+00,1.150537776947021484e+01,1.082645797729492188e+01,8.210783958435058594e+00,7.001816749572753906e+00,8.027230262756347656e+00,7.495519161224365234e+00,9.904254913330078125e+00,7.974938869476318359e+00,7.715322494506835938e+00,8.050749778747558594e+00,8.570562362670898438e+00,7.833138465881347656e+00,6.600874423980712891e+00,7.983905792236328125e+00,9.151584625244140625e+00,1.045956993103027344e+01,7.761522293090820312e+00,8.047464370727539062e+00,7.920471191406250000e+00,6.930191993713378906e+00,2.761901021003723145e-01
-7.652361869812011719e+00,-5.635483741760253906e+00,2.916484355926513672e+00,3.902343034744262695e+00,-5.459943413734436035e-01,-2.141772985458374023e+00,8.255870342254638672e-01,7.472047805786132812e+00,2.706464290618896484e+00,-1.918718099594116211e+00,-3.850255966186523438e+00,2.454982757568359375e+00,7.714432477951049805e-01,1.270556807518005371e+00,6.573807001113891602e-01,7.638702988624572754e-01,-2.328345775604248047e+00,-2.677329540252685547e+00,-4.030991077423095703e+00,-3.586091279983520508e+00,-1.821894407272338867e+00,-1.053224563598632812e+00,-1.374578475952148438e+00,-2.373330593109130859e+00,1.585048198699951172e+00,6.303595900535583496e-01,-1.761125206947326660e+00,-4.827414035797119141e+00,-3.801408052444458008e+00,-1.194302558898925781e+00,5.165216326713562012e-01,-6.100655347108840942e-02
-1.203223323822021484e+01,3.915868043899536133e+00,1.621681404113769531e+01,1.460329055786132812e+01,7.272198796272277832e-01,-5.480020999908447266e+00,-9.595826148986816406e+00,3.264009475708007812e+00,1.008566188812255859e+01,5.009828090667724609e+00,-6.573027133941650391e+00,-6.094305992126464844e+00,-5.087007999420166016e+00,-2.591338157653808594e+00,-3.894986867904663086e+00,-5.235424041748046875e+00,-4.377608299255371094e+00,-3.208359479904174805e+00,-5.674335002899169922e+00,-5.643376827239990234e+00,-4.940476894378662109e+00,-4.105829715728759766e+00,-6.900916099548339844e+00,-7.501769065856933594e+00,-5.233447551727294922e+00,-5.540676593780517578e+00,-8.113370895385742188e+00,-8.435242652893066406e+00,-5.939702510833740234e+00,-4.551183700561523438e+00,-5.217978477478027344e+00,6.560312747955322266e+00
2.597273111343383789e+00,8.360544204711914062e+00,9.477387428283691406e+00,9.748949050903320312e+00,5.162363052368164062e+00,6.105996608734130859e+00,1.012188315391540527e+00,5.497394084930419922e+00,9.548997879028320312e+00,7.561719417572021484e+00,-1.799110651016235352e+00,-4.772418022155761719e+00,-3.893992185592651367e+00,-4.951424121856689453e+00,-5.911153793334960938e+00,-4.509002685546875000e+00,-1.347321629524230957e+00,1.537142038345336914e+00,-1.746433228254318237e-01,5.055220723152160645e-01,-7.983899712562561035e-01,9.392704367637634277e-01,9.595525264739990234e-01,-3.123955965042114258e+00,-1.093634986877441406e+01,-1.001883602142333984e+01,-4.245411396026611328e+00,2.841860294342041016e+00,4.855218887329101562e+00,-1.235113859176635742e+00,-8.920866966247558594e+00,7.988318920135498047e+00
1.057515621185302734e+01,8.464566230773925781e+00,1.124656772613525391e+01,1.643161201477050781e+01,1.393274593353271484e+01,1.175146961212158203e+01,1.315699672698974609e+01,1.834446144104003906e+01,1.482623958587646484e+01,8.210051536560058594e+00,1.882664322853088379e+00,3.014694452285766602e+00,3.681314706802368164e+00,1.262452244758605957e+00,6.095272898674011230e-01,2.631116867065429688e+00,2.745606660842895508e+00,1.391903996467590332e+00,-1.915473341941833496e+00,-3.922429561614990234e+00,-3.175748586654663086e+00,1.781917452812194824e+00,5.209084510803222656e+00,-2.150765657424926758e-01,-1.041341209411621094e+01,-1.166795444488525391e+01,-4.660326004028320312e+00,7.364947319030761719e+00,8.392784118652343750e+00,-5.321073532104492188e-01,-9.660512924194335938e+00,4.874452590942382812e+00
4.555521488189697266e+00,5.601740837097167969e+00,1.969815254211425781e+01,2.478757286071777344e+01,1.462990760803222656e+01,4.969757556915283203e+00,6.691799163818359375e+00,1.717678451538085938e+01,1.388238334655761719e+01,9.486109733581542969e+00,-6.670531034469604492e-01,3.736777305603027344e+00,2.587573289871215820e+00,2.882590055465698242e+00,9.108518958091735840e-01,-5.380772352218627930e-01,-1.052984967827796936e-01,-1.072616934776306152e+00,-4.037637233734130859e+00,-8.202116012573242188e+00,-6.146450996398925781e+00,-7.435637116432189941e-01,6.060158610343933105e-01,-1.277665615081787109e+00,-3.220960378646850586e+00,-4.555078983306884766e+00,-6.092143058776855469e+00,2.309752464294433594e+00,4.355678081512451172e+00,1.781124949455261230e+00,-7.329542636871337891e-01,8.730831146240234375e+00
3.636460542678833008e+00,-2.231831789016723633e+00,2.076775312423706055e+00,3.546890020370483398e+00,2.334887742996215820e+00,1.668359398841857910e+00,4.036183953285217285e-01,4.685763359069824219e+00,3.785358667373657227e+00,7.241934299468994141e+00,-4.151329040527343750e+00,-2.657681465148925781e+00,-4.231675148010253906e+00,-2.260528564453125000e+00,-5.015478610992431641e+00,-9.136238098144531250e+00,-8.042715072631835938e+00,-6.363210678100585938e+00,-4.136344432830810547e+00,-4.154453277587890625e+00,-3.662548780441284180e+00,-3.286860466003417969e+00,-2.589326858520507812e+00,-4.213468551635742188e+00,-3.161256551742553711e+00,-3.552710294723510742e+00,-7.095571994781494141e+00,-2.941470384597778320e+00,2.199633121490478516e+00,2.769655704498291016e+00,2.765809774398803711e+00,1.094937133789062500e+01
2.764602601528167725e-01,-8.807123184204101562e+00,-6.034553050994873047e+00,-4.474548339843750000e+00,-5.347812175750732422e+00,-5.525925636291503906e+00,-4.461858749389648438e+00,6.785794161260128021e-03,4.636891841888427734e+00,3.459579467773437500e+00,-5.737816810607910156e+00,-9.213619232177734375e+00,-7.450616359710693359e+00,-6.760937690734863281e+00,-8.085071563720703125e+00,-1.146195220947265625e+01,-1.340225601196289062e+01,-1.398048114776611328e+01,-9.916122436523437500e+00,-8.079533576965332031e+00,-8.099399566650390625e+00,-8.905175209045410156e+00,-6.709476470947265625e+00,-8.794809341430664062e+00,-1.320501518249511719e+01,-1.404561805725097656e+01,-1.372307491302490234e+01,-8.701696395874023438e+00,-3.554739952087402344e+00,-6.037539958953857422e+00,-8.279003143310546875e+00,-3.494966506958007812e+00
-7.278578758239746094e+00,-8.342218399047851562e+00,6.135865211486816406e+00,7.239990711212158203e+00,-7.627940654754638672e+00,-1.436581039428710938e+01,-1.283459186553955078e+01,-3.651188611984252930e+00,4.422735691070556641e+00,4.114932537078857422e+00,-4.629546165466308594e+00,-9.807767868041992188e+00,-7.215994358062744141e+00,-7.456678390502929688e+00,-7.927915573120117188e+00,-1.033980274200439453e+01,-1.165324211120605469e+01,-1.349686813354492188e+01,-1.170066547393798828e+01,-1.150014686584472656e+01,-1.057893371582031250e+01,-8.672137260437011719e+00,-7.940410614013671875e+00,-7.904633998870849609e+00,-1.356256198883056641e+01,-1.487598419189453125e+01,-1.524934864044189453e+01,-1.031407642364501953e+01,-1.004235649108886719e+01,-1.596410369873046875e+01,-1.951167106628417969e+01,-2.077508735656738281e+01
-4.952172756195068359e+00,-1.024491786956787109e+01,-7.309440374374389648e-01,2.577451705932617188e+00,-5.031062126159667969e+00,-7.704993724822998047e+00,-7.539376735687255859e+00,-1.148277640342712402e+00,9.741584211587905884e-02,5.357832908630371094e+00,2.216637730598449707e-01,-3.644210577011108398e+00,-4.118722915649414062e+00,-2.151219367980957031e+00,-1.602282285690307617e+00,-4.204163551330566406e+00,-4.666806697845458984e+00,-6.868204116821289062e+00,-5.343252658843994141e+00,-2.688665151596069336e+00,1.681932481005787849e-04,2.801895439624786377e-01,-2.069296687841415405e-01,6.620481014251708984e-01,-5.202495574951171875e+00,-6.364356994628906250e+00,-6.904869556427001953e+00,-4.728852748870849609e+00,-8.927013397216796875e+00,-1.597802448272705078e+01,-1.711175155639648438e+01,-1.676230812072753906e+01
-2.894281625747680664e+00,-1.719698333740234375e+01,-1.183515357971191406e+01,-3.371775388717651367e+00,1.310292601585388184e+00,-3.250685214996337891e+00,1.406572580337524414e+00,5.946199893951416016e+00,3.557363510131835938e+00,1.469970941543579102e+00,1.421842724084854126e-01,-5.280706882476806641e+00,-6.317687988281250000e+00,-5.225236415863037109e-01,4.079588890075683594e+00,1.646135687828063965e+00,-1.811115026473999023e+00,-7.580206394195556641e-01,1.622483134269714355e+00,3.633294343948364258e+00,5.649320125579833984e+00,5.100703716278076172e+00,5.055110454559326172e+00,5.546991825103759766e+00,1.764013290405273438e+00,1.805808544158935547e+00,1.818624258041381836e+00,-2.351858913898468018e-01,-6.811702251434326172e+00,-8.234712600708007812e+00,8.363831639289855957e-01,-2.591570377349853516e+00
-1.035758018493652344e+01,-1.450039482116699219e+01,-1.558246731758117676e+00,4.996727943420410156e+00,2.707682847976684570e+00,-9.347640037536621094e+00,-2.484385490417480469e+00,3.951693058013916016e+00,7.590396881103515625e+00,5.732294917106628418e-01,-4.063860893249511719e+00,-1.088836002349853516e+01,-1.059667396545410156e+01,-3.170715332031250000e+00,1.373449921607971191e+00,-2.429471492767333984e+00,-4.370756149291992188e+00,2.384979963302612305e+00,1.978971123695373535e+00,7.970891594886779785e-01,1.596534252166748047e+00,2.480280160903930664e+00,8.018702268600463867e-02,4.443973064422607422e+00,6.355187892913818359e+00,6.567451000213623047e+00,4.322494029998779297e+00,-1.053840398788452148e+00,-7.608967304229736328e+00,-2.292475938796997070e+00,6.853422641754150391e+00,-9.583853483200073242e-01
-1.266962814331054688e+01,4.800426065921783447e-01,6.978140830993652344e+00,5.837051868438720703e+00,4.019163548946380615e-01,-3.697512865066528320e+00,-1.954406261444091797e+00,1.896340250968933105e+00,4.672536373138427734e+00,2.534404039382934570e+00,-4.620043277740478516e+00,-8.090891838073730469e+00,-7.571215152740478516e+00,-2.031998634338378906e+00,-2.753997445106506348e-01,-4.763037681579589844e+00,-4.337579250335693359e+00,-2.337809950113296509e-01,-5.347718000411987305e-01,6.938672065734863281e-02,5.151472091674804688e-01,-1.294841647148132324e+00,-4.743340969085693359e+00,2.219395399093627930e+00,5.412057399749755859e+00,7.878633022308349609e+00,4.598153114318847656e+00,-1.488351702690124512e+00,-3.108494043350219727e+00,4.872148513793945312e+00,4.382668972015380859e+00,-3.902806758880615234e+00
-1.199469184875488281e+01,-8.948611468076705933e-02,-7.420011520385742188e+00,-1.071723175048828125e+01,-8.917129516601562500e+00,-1.883944749832153320e+00,-6.023275375366210938e+00,-3.250894308090209961e+00,-2.287696123123168945e+00,-9.296606779098510742e-01,-8.978807449340820312e+00,-1.151363849639892578e+01,-9.606277465820312500e+00,-5.206100940704345703e+00,-3.167251586914062500e+00,-3.951507091522216797e+00,-5.211429119110107422e+00,-8.335573196411132812e+00,-6.785701751708984375e+00,-4.048704624176025391e+00,-5.711094856262207031e+00,-1.107185363769531250e+01,-1.177960872650146484e+01,-5.863258838653564453e+00,-7.798364758491516113e-02,2.476223945617675781e+00,-1.376431107521057129e+00,-4.941923618316650391e+00,-3.205411672592163086e+00,8.239263296127319336e-01,-4.269507825374603271e-01,-6.644926548004150391e+00
-1.272789669036865234e+01,-1.266525936126708984e+01,-1.589912891387939453e+01,-1.539892101287841797e+01,-1.521401119232177734e+01,-1.386185455322265625e+01,-2.014603042602539062e+01,-1.451253890991210938e+01,-6.748971939086914062e+00,-4.660952568054199219e+00,-1.459660434722900391e+01,-1.837833595275878906e+01,-1.411708927154541016e+01,-1.003230285644531250e+01,-1.041672611236572266e+01,-8.386383056640625000e+00,-8.024172782897949219e+00,-1.200228691101074219e+01,-1.406657695770263672e+01,-1.442426490783691406e+01,-1.648636817932128906e+01,-1.849380111694335938e+01,-1.724557685852050781e+01,-1.228022766113281250e+01,-6.113983154296875000e+00,-4.083842277526855469e+00,-7.183380126953125000e+00,-1.025777149200439453e+01,-1.210765552520751953e+01,-1.177264022827148438e+01,-8.937314033508300781e+00,-1.657764434814453125e+01
-3.431105136871337891e+00,-5.722192764282226562e+00,-6.107064723968505859e+00,-2.608035564422607422e+00,-6.558852672576904297e+00,-6.687545776367187500e+00,-1.117398262023925781e+01,-8.399744987487792969e+00,-3.238655328750610352e+00,-5.956212997436523438e+00,-9.622093200683593750e+00,-6.398650646209716797e+00,-4.200719833374023438e+00,-4.737863540649414062e+00,-7.694545745849609375e+00,-4.885726451873779297e+00,-1.096468210220336914e+00,-4.145514011383056641e+00,-8.771525382995605469e+00,-1.173965072631835938e+01,-1.157309341430664062e+01,-1.103958034515380859e+01,-8.847806930541992188e+00,-6.454104423522949219e+00,-4.786893844604492188e+00,-1.542405843734741211e+00,-2.139493703842163086e+00,-5.593695640563964844e+00,-6.956085681915283203e+00,-3.944069623947143555e+00,-3.106112718582153320e+00,-1.074934577941894531e+01
6.834467887878417969e+00,9.363482475280761719e+00,-5.816537141799926758e-02,5.162057876586914062e+00,5.814328193664550781e+00,9.887770652770996094e+00,9.488695144653320312e+00,1.022573757171630859e+01,8.672693252563476562e+00,9.060180783271789551e-01,5.165807247161865234e+00,1.032131290435791016e+01,9.998974800109863281e+00,9.114515304565429688e+00,7.529783248901367188e+00,7.481498718261718750e+00,7.945415496826171875e+00,7.125759601593017578e+00,4.347159385681152344e+00,2.478712558746337891e+00,2.564533233642578125e+00,3.400593280792236328e+00,4.063844680786132812e+00,2.522825002670288086e+00,3.608922004699707031e+00,4.433516502380371094e+00,4.945685386657714844e+00,4.018961429595947266e+00,8.166782379150390625e+00,1.199599361419677734e+01,1.027342987060546875e+01,1.352822399139404297e+01
1.628164410591125488e+00,6.974690437316894531e+00,-5.337226390838623047e-01,4.466553211212158203e+00,4.653110027313232422e+00,3.779454469680786133e+00,3.490096092224121094e+00,8.493897438049316406e+00,1.227616977691650391e+01,7.276652812957763672e+00,4.169973850250244141e+00,3.828012228012084961e+00,5.297776699066162109e+00,8.570417404174804688e+00,9.135993003845214844e+00,5.334036350250244141e+00,2.092504501342773438e+00,5.997386932373046875e+00,6.617748260498046875e+00,5.707171440124511719e+00,2.890357494354248047e+00,3.144046068191528320e+00,2.690215587615966797e+00,1.783359646797180176e+00,5.342957973480224609e+00,3.385425090789794922e+00,3.606529474258422852e+00,1.887738943099975586e+00,4.454274177551269531e+00,6.568958282470703125e+00,6.933864116668701172e+00,1.300010108947753906e+01
-8.878465652465820312e+00,-3.381000757217407227e+00,-3.570897579193115234e+00,-2.859819650650024414e+00,-1.108389091491699219e+01,-9.124485015869140625e+00,-1.172159099578857422e+01,-7.324326515197753906e+00,-3.618848919868469238e-01,1.219849586486816406e+00,-7.195042133331298828e+00,-6.778624057769775391e+00,-4.242606163024902344e+00,-2.966080665588378906e+00,-2.347808837890625000e+00,-7.476921558380126953e+00,-9.288821220397949219e+00,-6.998111724853515625e+00,-3.240455865859985352e+00,-8.916901797056198120e-02,-1.255711436271667480e+00,-5.689675807952880859e+00,-6.785474300384521484e+00,-5.047016143798828125e+00,-1.975640773773193359e+00,-5.389193534851074219e+00,-4.905350208282470703e+00,-9.104162216186523438e+00,-8.835092544555664062e+00,-6.319795131683349609e+00,-4.618265628814697266e+00,-9.086802482604980469e+00
-1.330393314361572266e+01,-1.357205295562744141e+01,-1.326538276672363281e+01,-1.346896266937255859e+01,-1.955315399169921875e+01,-1.264899063110351562e+01,-1.405017375946044922e+01,-1.249930191040039062e+01,-1.101706600189208984e+01,-4.238224506378173828e+00,-6.418955326080322266e+00,-4.704497337341308594e+00,-2.759517908096313477e+00,-2.134337663650512695e+00,-3.100985884666442871e-01,-6.753039360046386719e+00,-9.179620742797851562e+00,-1.052713298797607422e+01,-4.396194934844970703e+00,-5.439879894256591797e-01,-1.103367209434509277e+00,-7.589878082275390625e+00,-1.035886669158935547e+01,-1.120313358306884766e+01,-1.118268585205078125e+01,-1.318222522735595703e+01,-1.262989234924316406e+01,-1.486931991577148438e+01,-1.329999732971191406e+01,-1.291370964050292969e+01,-1.464392471313476562e+01,-1.607627105712890625e+01
-5.670455455780029297e+00,-1.582110404968261719e+01,-2.003294944763183594e+01,-1.537730789184570312e+01,-1.136166191101074219e+01,-7.218494415283203125e+00,-5.757869720458984375e+00,-3.530522346496582031e+00,-2.884538888931274414e+00,1.998463988304138184e+00,1.544301629066467285e+00,-1.923115730285644531e+00,-2.303973585367202759e-01,2.366362571716308594e+00,6.944606781005859375e+00,7.685497403144836426e-01,-2.510913133621215820e+00,-1.275255680084228516e+00,3.347392559051513672e+00,3.438886880874633789e+00,1.224017500877380371e+00,-7.284951806068420410e-01,-3.708379745483398438e+00,-9.316735267639160156e+00,-1.181987190246582031e+01,-1.207590675354003906e+01,-8.090387344360351562e+00,-8.710432052612304688e+00,-1.085200500488281250e+01,-1.585076904296875000e+01,-1.907641029357910156e+01,-1.221580982208251953e+01
8.852894902229309082e-01,-8.875151634216308594e+00,-1.369443702697753906e+01,-8.033527374267578125e+00,-4.835112094879150391e+00,1.454168260097503662e-01,4.248843193054199219e+00,5.171805381774902344e+00,3.289707183837890625e+00,4.859874725341796875e+00,5.293913841247558594e+00,2.000212192535400391e+00,2.298130273818969727e+00,-1.742159575223922729e-01,-7.278941571712493896e-03,-1.646082520484924316e+00,-7.041796445846557617e-01,-9.318986535072326660e-01,-1.263106763362884521e-01,5.339155793190002441e-01,2.002035140991210938e+00,3.251887321472167969e+00,1.322089910507202148e+00,-7.217758655548095703e+00,-1.073366641998291016e+01,-1.124990653991699219e+01,-6.872522830963134766e+00,-7.378133296966552734e+00,-1.007539463043212891e+01,-1.344953536987304688e+01,-1.347780609130859375e+01,-1.598525238037109375e+01
-6.236435770988464355e-01,-1.087094187736511230e+00,-3.486144065856933594e+00,-1.915014028549194336e+00,-3.351583957672119141e+00,3.810726642608642578e+00,9.411949157714843750e+00,7.171044826507568359e+00,-3.568112850189208984e+00,-5.218350410461425781e+00,1.787866830825805664e+00,6.432256698608398438e+00,1.479876041412353516e+00,-7.319348812103271484e+00,-1.021823692321777344e+01,-6.304009914398193359e+00,-3.594997644424438477e+00,-5.077318191528320312e+00,-7.268346786499023438e+00,-6.330109596252441406e+00,-3.686172008514404297e+00,1.315900981426239014e-01,-7.525286674499511719e-01,-5.149732112884521484e+00,-8.218396186828613281e+00,-9.612178802490234375e+00,-1.103927516937255859e+01,-7.471539974212646484e+00,-3.835987091064453125e+00,-4.617846488952636719e+00,-7.136204242706298828e+00,-1.386641311645507812e+01
4.660050868988037109e+00,3.489685535430908203e+00,3.307272434234619141e+00,3.662380456924438477e+00,2.237578153610229492e+00,4.528719425201416016e+00,5.914820671081542969e+00,4.590016841888427734e+00,-3.421342611312866211e+00,-4.353817939758300781e+00,-3.997817337512969971e-01,5.719954013824462891e+00,1.131542678922414780e-02,-5.779809474945068359e+00,-5.333015441894531250e+00,-3.526187241077423096e-01,9.237753152847290039e-01,3.688295125961303711e+00,1.411644220352172852e+00,-1.144311666488647461e+00,-4.079663276672363281e+00,1.245358824729919434e+00,2.537820339202880859e+00,4.672416210174560547e+00,1.670749306678771973e+00,-2.965676188468933105e-01,-1.078870296478271484e+00,4.037930488586425781e+00,6.215251922607421875e+00,1.107738137245178223e+00,-6.440837860107421875e+00,-3.987757205963134766e+00
1.478774547576904297e+01,8.756508827209472656e+00,1.051293087005615234e+01,1.306984615325927734e+01,1.050225830078125000e+01,1.070858383178710938e+01,8.419696807861328125e+00,7.207918167114257812e+00,4.162168025970458984e+00,6.760097503662109375e+00,6.177187442779541016e+00,9.679765701293945312e+00,7.765313625335693359e+00,3.599735975265502930e+00,3.349601507186889648e+00,7.671190738677978516e+00,9.511670112609863281e+00,9.110651016235351562e+00,7.426813125610351562e+00,6.448992729187011719e+00,4.034842491149902344e+00,6.556200504302978516e+00,8.854509353637695312e+00,8.261959075927734375e+00,5.145674705505371094e+00,4.979549407958984375e+00,9.344652175903320312e+00,1.075522041320800781e+01,9.162559509277343750e+00,4.903509616851806641e+00,1.144926846027374268e-01,4.517500996589660645e-01
9.217514038085937500e+00,9.772475242614746094e+00,8.947487831115722656e+00,1.297432136535644531e+01,8.659955978393554688e+00,1.261710739135742188e+01,1.271924877166748047e+01,8.977478027343750000e+00,2.323592901229858398e+00,3.339474201202392578e+00,7.902638912200927734e+00,1.040287208557128906e+01,9.116321563720703125e+00,2.235523939132690430e+00,-1.863956451416015625e+00,3.329603195190429688e+00,5.173942565917968750e+00,-2.350917100906372070e+00,-5.559749603271484375e+00,-2.506750822067260742e+00,-1.240816116333007812e-01,8.331371545791625977e-01,2.468156337738037109e+00,-1.524911999702453613e+00,-4.275863647460937500e+00,-4.206315040588378906e+00,3.277116417884826660e-01,2.503635644912719727e+00,3.925546884536743164e+00,2.292457580566406250e+00,-6.979129910469055176e-01,-1.652688026428222656e+00
-3.417712450027465820e+00,3.857101202011108398e+00,-2.012063503265380859e+00,2.755878120660781860e-02,6.806048154830932617e-01,1.591984033584594727e+00,-6.502335071563720703e-01,-3.567769050598144531e+00,-2.643269777297973633e+00,-3.106767654418945312e+00,-2.198765277862548828e+00,-3.968219995498657227e+00,-3.091637849807739258e+00,-5.212130546569824219e+00,-9.061570167541503906e+00,-6.233078002929687500e+00,-5.322803497314453125e+00,-5.258187294006347656e+00,-7.853198051452636719e+00,-7.436148643493652344e+00,-7.737321853637695312e+00,-3.467734813690185547e+00,-2.133074283599853516e+00,-2.363743782043457031e+00,-6.236652374267578125e+00,-8.114597320556640625e+00,-5.578535079956054688e+00,-1.777462124824523926e+00,-1.444794297218322754e+00,-5.032749652862548828e+00,-9.612915992736816406e+00,-9.721717834472656250e+00
2.361987113952636719e+00,3.086168050765991211e+00,-3.134786128997802734e+00,-3.250557899475097656e+00,1.449168443679809570e+00,1.006755009293556213e-01,-5.445532321929931641e+00,-8.116027832031250000e+00,-1.301414966583251953e-01,-2.242827266454696655e-01,-2.299208879470825195e+00,-3.742130279541015625e+00,-2.078774690628051758e+00,-2.122930809855461121e-02,-1.322596430778503418e+00,-1.063996911048889160e+00,-1.633242726325988770e+00,6.392780303955078125e+00,6.506795883178710938e+00,6.057517528533935547e+00,3.522840261459350586e+00,7.649015903472900391e+00,8.946870803833007812e+00,1.043665981292724609e+01,6.570745468139648438e+00,4.179451465606689453e+00,7.099574089050292969e+00,8.693332672119140625e+00,4.941851139068603516e+00,3.840849637985229492e+00,2.501555204391479492e+00,-1.447667312622070312e+01
8.964427947998046875e+00,5.343590736389160156e+00,2.300361871719360352e+00,3.554798603057861328e+00,4.420605182647705078e+00,6.773682594299316406e+00,8.606501579284667969e+00,4.487117290496826172e+00,8.914290070533752441e-01,-2.527197599411010742e+00,5.850764274597167969e+00,1.046539115905761719e+01,8.310535430908203125e+00,7.783951759338378906e+00,8.296140670776367188e+00,1.051267242431640625e+01,1.028607940673828125e+01,1.143883419036865234e+01,1.176128673553466797e+01,1.353455066680908203e+01,1.532390213012695312e+01,1.553967571258544922e+01,1.565417957305908203e+01,1.395079040527343750e+01,1.444467353820800781e+01,1.286089897155761719e+01,1.520897579193115234e+01,1.369697475433349609e+01,1.231241893768310547e+01,1.426306819915771484e+01,1.759457778930664062e+01,-2.941675662994384766e+00
1.046959161758422852e+00,1.266071319580078125e+00,8.359442949295043945e-01,1.199479818344116211e+00,-2.258632421493530273e+00,1.011311076581478119e-02,6.372296333312988281e+00,2.242127656936645508e+00,-3.046209812164306641e+00,-7.561142921447753906e+00,3.630316019058227539e+00,7.712268352508544922e+00,5.540166854858398438e+00,4.163307666778564453e+00,4.994145393371582031e+00,8.525395393371582031e+00,9.736310958862304688e+00,5.184943675994873047e+00,4.462223052978515625e+00,6.028859615325927734e+00,8.860921859741210938e+00,7.464297294616699219e+00,6.273473262786865234e+00,6.016683578491210938e+00,9.129057884216308594e+00,9.235978126525878906e+00,9.040477752685546875e+00,5.709736347198486328e+00,3.426152944564819336e+00,3.242887496948242188e+00,9.179877281188964844e+00,1.110620784759521484e+01
-4.146946907043457031e+00,-2.440507888793945312e+00,-2.237039327621459961e+00,-6.556694507598876953e+00,-1.133435344696044922e+01,-8.503661155700683594e+00,-1.052774429321289062e+01,-1.521864414215087891e+01,-7.806648731231689453e+00,-4.860223770141601562e+00,-1.756112456321716309e+00,-2.952523529529571533e-01,7.937966585159301758e-01,-8.734446167945861816e-01,-1.669015169143676758e+00,1.082405686378479004e+00,2.003502368927001953e+00,1.628817319869995117e+00,9.080264568328857422e-01,2.916192054748535156e+00,2.221282243728637695e+00,9.251325726509094238e-01,-8.709834218025207520e-01,1.319869518280029297e+00,1.585499525070190430e+00,-4.585302248597145081e-02,-7.003439664840698242e-01,-2.384883403778076172e+00,-5.883832454681396484e+00,-6.620531082153320312e+00,-1.391268134117126465e+00,9.967245101928710938e+00
-5.081202089786529541e-02,4.121758937835693359e-01,-3.997808396816253662e-01,-4.399724483489990234e+00,-7.185885906219482422e+00,6.424748897552490234e-01,-7.537442207336425781e+00,-1.489689636230468750e+01,-1.119204807281494141e+01,-1.361735582351684570e+00,1.959321498870849609e+00,7.438254356384277344e+00,5.416213035583496094e+00,3.848384320735931396e-01,-5.202534794807434082e-01,4.375015258789062500e+00,6.569009304046630859e+00,8.291843414306640625e+00,5.000130653381347656e+00,7.152640342712402344e+00,6.758225440979003906e+00,6.844201087951660156e+00,3.746464014053344727e+00,2.909426450729370117e+00,2.335626363754272461e+00,-2.941833972930908203e+00,-3.067639589309692383e+00,-3.147655010223388672e+00,-1.915642499923706055e+00,3.336008787155151367e-01,3.682987451553344727e+00,1.956548094749450684e+00
8.076534271240234375e-01,2.947654247283935547e+00,-3.782209157943725586e-01,-9.685114622116088867e-01,2.105616331100463867e+00,1.029457950592041016e+01,5.653040409088134766e+00,-5.996456742286682129e-01,-3.171417951583862305e+00,9.461649656295776367e-01,3.782659769058227539e+00,8.445724487304687500e+00,3.904125928878784180e+00,8.668435215950012207e-01,-3.816084936261177063e-02,5.067914009094238281e+00,7.573300361633300781e+00,7.900290012359619141e+00,3.577101707458496094e+00,6.102121353149414062e+00,7.221968173980712891e+00,8.075253486633300781e+00,4.266803264617919922e+00,4.101786136627197266e+00,6.705112934112548828e+00,4.742159366607666016e+00,1.769083380699157715e+00,-9.525527954101562500e-01,-4.751125872135162354e-01,2.680252075195312500e+00,4.823135375976562500e+00,-6.994326114654541016e+00
-1.806851863861083984e+00,-1.382771730422973633e+00,-4.466526508331298828e+00,-4.140738010406494141e+00,5.041517615318298340e-01,3.724187374114990234e+00,3.932625770568847656e+00,1.658703804016113281e+00,6.425455570220947266e+00,1.460479378700256348e+00,-3.413390398025512695e+00,-5.501644611358642578e+00,-6.166287899017333984e+00,-2.628336906433105469e+00,-3.897017717361450195e+00,-3.576511859893798828e+00,-3.891961812973022461e+00,-2.547714233398437500e+00,-3.000048160552978516e+00,1.085348725318908691e+00,2.527851819992065430e+00,-1.069488003849983215e-01,-3.526176214218139648e+00,8.310692310333251953e-01,4.760821342468261719e+00,7.232336044311523438e+00,2.669556379318237305e+00,-3.596166074275970459e-01,-2.876898288726806641e+00,-1.706977933645248413e-01,-3.180420100688934326e-01,-9.122919082641601562e+00
-1.564703464508056641e+00,-6.644659996032714844e+00,-5.999157905578613281e+00,-6.957241535186767578e+00,-4.367743968963623047e+00,-1.895538568496704102e+00,5.074182748794555664e-01,-1.618569135665893555e+00,4.925053119659423828e+00,-1.329660322517156601e-02,-4.788455486297607422e+00,-7.293569564819335938e+00,-8.285506248474121094e+00,-3.382865905761718750e+00,-1.537636756896972656e+00,-5.577282905578613281e+00,-9.220311164855957031e+00,-7.634466171264648438e+00,-4.027626514434814453e+00,-2.989967465400695801e-01,-4.068651795387268066e-02,-6.077695369720458984e+00,-8.080931663513183594e+00,-3.434215784072875977e+00,-1.053250908851623535e+00,1.688918828964233398e+00,9.835501909255981445e-01,7.828309535980224609e-01,6.703584194183349609e-01,3.650069475173950195e+00,1.239078998565673828e+00,-3.518246173858642578e+00
-2.664447784423828125e+00,-7.888432025909423828e+00,-6.914158821105957031e+00,-8.979642868041992188e+00,-6.829563140869140625e+00,-2.768503189086914062e+00,2.267901420593261719e+00,-1.588792324066162109e+00,-1.976956248283386230e+00,-2.770288705825805664e+00,-1.361711978912353516e+00,-2.220096349716186523e+00,-5.795022964477539062e+00,-2.884145498275756836e+00,1.652822494506835938e+00,-1.825673818588256836e+00,-4.992261409759521484e+00,-5.205703258514404297e+00,-1.084316968917846680e+00,-1.044626355171203613e+00,-2.435373306274414062e+00,-5.340841293334960938e+00,-5.559567928314208984e+00,-3.297191143035888672e+00,-1.452049851417541504e+00,1.504973173141479492e+00,1.227639198303222656e+00,-1.173628926277160645e+00,-2.146533727645874023e+00,4.871387965977191925e-03,-1.458047747611999512e+00,-3.513192892074584961e+00
-5.709061145782470703e+00,-1.388127517700195312e+01,-1.390509891510009766e+01,-1.350810432434082031e+01,-1.094583988189697266e+01,-6.455590724945068359e+00,-2.516982316970825195e+00,-5.559090137481689453e+00,-6.896712779998779297e+00,-6.668673515319824219e+00,-5.497352123260498047e+00,-6.498808860778808594e+00,-9.818324089050292969e+00,-6.683797836303710938e+00,-3.366159439086914062e+00,-4.870561599731445312e+00,-6.565577983856201172e+00,-4.844209194183349609e+00,-2.575270175933837891e+00,-2.985726833343505859e+00,-4.597561836242675781e+00,-4.135484695434570312e+00,-4.869620800018310547e+00,-5.699777603149414062e+00,-4.614040851593017578e+00,-4.489264488220214844e+00,-5.224961757659912109e+00,-9.164710044860839844e+00,-1.303071022033691406e+01,-1.373933982849121094e+01,-1.233673763275146484e+01,-1.243920421600341797e+01
-3.861242771148681641e+00,-1.240183639526367188e+01,-1.549637794494628906e+01,-1.333627605438232422e+01,-1.212995815277099609e+01,-6.900648593902587891e+00,-9.220613479614257812e+00,-1.145710182189941406e+01,-1.093375778198242188e+01,-1.035919189453125000e+01,-9.034208297729492188e+00,-9.508774757385253906e+00,-1.095190048217773438e+01,-6.692458152770996094e+00,-5.366114139556884766e+00,-7.124057769775390625e+00,-1.002977466583251953e+01,-6.310368537902832031e+00,-5.228169441223144531e+00,-2.217139005661010742e+00,-1.734244942665100098e+00,-2.482351779937744141e+00,-3.415393114089965820e+00,-4.949408531188964844e+00,-3.642824888229370117e+00,-6.875266075134277344e+00,-7.249122142791748047e+00,-8.558752059936523438e+00,-9.180802345275878906e+00,-8.688990592956542969e+00,-5.250869750976562500e+00,-7.987008571624755859e+00
3.477021694183349609e+00,2.470128059387207031e+00,-4.446563720703125000e+00,-5.867088317871093750e+00,-5.962259769439697266e+00,-1.631576538085937500e+00,-6.631072044372558594e+00,-9.646993637084960938e+00,-6.424068927764892578e+00,-3.928891181945800781e+00,-2.757167100906372070e+00,-4.051162242889404297e+00,-2.665941715240478516e+00,9.799146056175231934e-01,1.154527664184570312e+00,1.546082377433776855e+00,4.408889710903167725e-01,2.019409894943237305e+00,1.039861559867858887e+00,2.583688735961914062e+00,4.842727661132812500e+00,5.214783668518066406e+00,5.542733192443847656e+00,5.082364559173583984e+00,7.107844352722167969e+00,6.881287574768066406e+00,5.553647041320800781e+00,4.240551471710205078e+00,5.294187068939208984e+00,8.679409980773925781e+00,1.042536354064941406e+01,1.659870624542236328e+00
6.966259479522705078e+00,-2.114205211400985718e-01,-6.850487232208251953e+00,-7.456533908843994141e+00,-4.359156608581542969e+00,-2.999573469161987305e+00,-3.347316503524780273e+00,-4.650020122528076172e+00,2.225564241409301758e+00,1.871389031410217285e+00,1.286309361457824707e+00,-1.512106418609619141e+00,1.373897910118103027e+00,3.531570196151733398e+00,3.625540018081665039e+00,8.275861740112304688e+00,9.817946434020996094e+00,8.140021324157714844e+00,4.189180850982666016e+00,2.179357051849365234e+00,4.615139961242675781e+00,8.758934020996093750e+00,9.401916503906250000e+00,6.262201786041259766e+00,4.932751655578613281e+00,6.719392299652099609e+00,7.254101753234863281e+00,7.365149021148681641e+00,7.334699153900146484e+00,7.938301086425781250e+00,3.738242387771606445e+00,-9.825789451599121094e+00
5.840110778808593750e+00,-9.269733428955078125e+00,-1.682010650634765625e+01,-1.279554653167724609e+01,-6.903877258300781250e+00,-5.859566211700439453e+00,-4.516373634338378906e+00,-4.914627552032470703e+00,-1.983615756034851074e+00,-5.720950603485107422e+00,-1.575977087020874023e+00,-2.812302827835083008e+00,-1.774658560752868652e+00,-9.123420119285583496e-01,1.797012805938720703e+00,6.301075935363769531e+00,5.737379074096679688e+00,1.930431604385375977e+00,-3.703091442584991455e-01,-6.111138463020324707e-01,1.187930464744567871e+00,3.550822973251342773e+00,4.465747356414794922e+00,1.672364592552185059e+00,-1.282966613769531250e+00,-1.913993000984191895e+00,8.616484403610229492e-01,4.935462951660156250e+00,5.882587909698486328e+00,3.451364994049072266e+00,-1.576975941658020020e+00,-7.619757652282714844e+00
9.522543907165527344e+00,-2.589482307434082031e+00,-9.964707374572753906e+00,-7.072673797607421875e+00,-4.607601642608642578e+00,-1.303341984748840332e+00,-3.206940174102783203e+00,-6.494263172149658203e+00,-7.039482116699218750e+00,-6.072927951812744141e+00,1.398719549179077148e-01,1.541082859039306641e+00,6.170006990432739258e-01,6.018203496932983398e-01,3.080882310867309570e+00,5.642410278320312500e+00,5.298763275146484375e+00,1.521417498588562012e+00,3.366219997406005859e+00,4.312994956970214844e+00,5.401562690734863281e+00,4.728512287139892578e+00,7.135581970214843750e+00,8.255430221557617188e+00,8.255056381225585938e+00,6.712891578674316406e+00,7.291394233703613281e+00,8.698938369750976562e+00,8.117926597595214844e+00,8.407704353332519531e+00,1.115841197967529297e+01,9.479476928710937500e+00
1.647795486450195312e+01,1.317925834655761719e+01,9.348035812377929688e+00,7.998064994812011719e+00,4.819795608520507812e+00,1.043587398529052734e+01,9.493960380554199219e+00,3.933979749679565430e+00,4.744573593139648438e+00,5.828660011291503906e+00,8.482851028442382812e+00,8.016622543334960938e+00,8.035339355468750000e+00,7.197092533111572266e+00,5.553838253021240234e+00,6.471463680267333984e+00,8.032804489135742188e+00,9.543192863464355469e+00,1.025825977325439453e+01,9.483443260192871094e+00,9.133749961853027344e+00,1.160810852050781250e+01,1.305428028106689453e+01,1.444878864288330078e+01,1.847577095031738281e+01,1.890970039367675781e+01,1.713990592956542969e+01,1.481569957733154297e+01,1.373445606231689453e+01,1.578201675415039062e+01,2.017828178405761719e+01,1.752925682067871094e+01
1.708045578002929688e+01,2.258716964721679688e+01,1.744687843322753906e+01,1.429432296752929688e+01,9.481015205383300781e+00,1.947854804992675781e+01,2.174533462524414062e+01,1.384197044372558594e+01,8.077910423278808594e+00,5.435052871704101562e+00,1.094500255584716797e+01,8.819492340087890625e+00,8.073616027832031250e+00,6.845991134643554688e+00,5.726849555969238281e+00,3.874831199645996094e+00,4.289981842041015625e+00,1.034132099151611328e+01,7.990141868591308594e+00,7.191443920135498047e+00,6.214485645294189453e+00,9.998081207275390625e+00,1.052103042602539062e+01,1.137498474121093750e+01,1.470543384552001953e+01,1.720825576782226562e+01,1.763958549499511719e+01,1.768141365051269531e+01,1.916808319091796875e+01,2.093966293334960938e+01,1.914015769958496094e+01,1.783466911315917969e+01
9.235700607299804688e+00,1.445754718780517578e+01,9.108857154846191406e+00,6.211327552795410156e+00,1.944041490554809570e+00,1.251359176635742188e+01,1.171285533905029297e+01,3.151699781417846680e+00,-6.563804149627685547e+00,-3.849460840225219727e+00,2.325510501861572266e+00,3.176677465438842773e+00,7.257866859436035156e-01,7.633180618286132812e-01,2.913973093032836914e+00,7.338105440139770508e-01,-3.798515796661376953e-01,2.329557895660400391e+00,1.677472352981567383e+00,9.810345172882080078e-01,1.108146905899047852e+00,3.352441072463989258e+00,4.992485046386718750e+00,5.799591541290283203e+00,4.476791381835937500e+00,6.572576522827148438e+00,9.102299690246582031e+00,1.168524169921875000e+01,1.172526264190673828e+01,1.257395935058593750e+01,1.129113864898681641e+01,1.165850353240966797e+01
4.027306556701660156e+00,4.207706928253173828e+00,5.278964042663574219e+00,6.055137157440185547e+00,4.279609203338623047e+00,4.909847736358642578e+00,2.709634542465209961e+00,-1.782115101814270020e+00,-3.303984880447387695e+00,5.815019458532333374e-02,-3.289473056793212891e-01,-4.369573295116424561e-02,3.474974632263183594e-01,-2.344035804271697998e-01,1.063121676445007324e+00,-5.628458857536315918e-01,-4.035722911357879639e-01,1.338190436363220215e-01,8.044894933700561523e-01,1.400238126516342163e-01,1.946934103965759277e+00,3.479828357696533203e+00,4.192523479461669922e+00,5.734964370727539062e+00,5.912616729736328125e+00,5.691922664642333984e+00,4.751805782318115234e+00,4.774497509002685547e+00,2.989960432052612305e+00,4.742918968200683594e+00,8.428738594055175781e+00,5.077294826507568359e+00
8.208799362182617188e+00,6.815405845642089844e+00,1.011967754364013672e+01,1.368384361267089844e+01,1.355466747283935547e+01,8.111015319824218750e+00,1.035819625854492188e+01,9.828419685363769531e+00,1.371929740905761719e+01,1.042552280426025391e+01,7.803912639617919922e+00,2.746922254562377930e+00,5.502748012542724609e+00,3.852819681167602539e+00,4.174058437347412109e+00,7.471645474433898926e-01,2.120527744293212891e+00,6.271956920623779297e+00,4.885689735412597656e+00,5.130664825439453125e+00,7.245338439941406250e+00,8.618644714355468750e+00,6.940355300903320312e+00,8.597828865051269531e+00,1.269803905487060547e+01,1.141294956207275391e+01,9.056773185729980469e+00,7.569610595703125000e+00,7.886755943298339844e+00,9.762458801269531250e+00,1.197086906433105469e+01,9.456359863281250000e+00
4.849997043609619141e+00,9.472208976745605469e+00,8.690625190734863281e+00,5.129048824310302734e+00,4.043693065643310547e+00,3.837158918380737305e+00,3.838706970214843750e+00,4.691109657287597656e+00,6.601928234100341797e+00,9.022644042968750000e+00,5.112831592559814453e+00,-3.054898083209991455e-01,7.346524596214294434e-01,1.780506253242492676e+00,4.034106254577636719e+00,1.095124483108520508e+00,1.962585330009460449e+00,4.405017375946044922e+00,4.869870185852050781e+00,3.185934305191040039e+00,2.894139528274536133e+00,4.876864910125732422e+00,5.134930610656738281e+00,7.045048713684082031e+00,1.052748298645019531e+01,1.112899684906005859e+01,1.037158393859863281e+01,8.016061782836914062e+00,8.482772827148437500e+00,9.126187324523925781e+00,1.028540515899658203e+01,1.709740066528320312e+01
-5.830015182495117188e+00,-2.827235758304595947e-01,-2.290971279144287109e+00,-6.604183673858642578e+00,-5.646758079528808594e+00,-5.313427925109863281e+00,-8.745615005493164062e+00,-5.801120281219482422e+00,-5.863259792327880859e+00,-2.076727747917175293e-01,-5.029403686523437500e+00,-7.205565452575683594e+00,-6.971401691436767578e+00,-5.609506130218505859e+00,-4.789896488189697266e+00,-5.602248191833496094e+00,-5.540849685668945312e+00,-8.467638969421386719e+00,-7.401221275329589844e+00,-1.020694732666015625e+01,-1.146515369415283203e+01,-8.988007545471191406e+00,-5.903367042541503906e+00,-5.675141811370849609e+00,-4.818566322326660156e+00,-3.409373998641967773e+00,-3.737120628356933594e+00,-5.818362712860107422e+00,-5.092931747436523438e+00,-6.115198135375976562e+00,-6.263473033905029297e+00,3.204181671142578125e+00
-4.438453197479248047e+00,-1.875576138496398926e+00,4.013163149356842041e-01,2.857774257659912109e+00,4.814145565032958984e+00,9.605811238288879395e-01,2.603389024734497070e+00,6.036747932434082031e+00,3.975178241729736328e+00,-1.562958240509033203e+00,-1.332250118255615234e+00,-3.370932579040527344e+00,-3.272731781005859375e+00,-6.042318344116210938e+00,-9.900436401367187500e+00,-9.245025634765625000e+00,-8.606959342956542969e+00,-1.118925571441650391e+01,-1.185125255584716797e+01,-1.277833747863769531e+01,-1.315114974975585938e+01,-1.121909999847412109e+01,-7.933908462524414062e+00,-1.015596008300781250e+01,-8.823560714721679688e+00,-8.338331222534179688e+00,-9.279853820800781250e+00,-1.030088233947753906e+01,-8.726433753967285156e+00,-9.094719886779785156e+00,-1.078289413452148438e+01,-6.553235530853271484e+00
2.960190057754516602e+00,4.442316532135009766e+00,1.076992511749267578e+01,1.249238300323486328e+01,1.077381992340087891e+01,6.443088531494140625e+00,7.550832271575927734e+00,1.127328586578369141e+01,1.069083690643310547e+01,6.067545413970947266e+00,5.011972427368164062e+00,3.092228651046752930e+00,2.910384893417358398e+00,8.986853361129760742e-01,-3.174507617950439453e+00,-1.113772988319396973e+00,-7.395411729812622070e-01,-3.699574708938598633e+00,-3.571901798248291016e+00,-3.345267057418823242e+00,-2.267905950546264648e+00,-1.541672348976135254e+00,2.349083662033081055e+00,1.379545450210571289e+00,4.161644458770751953e+00,3.307996511459350586e+00,1.478330969810485840e+00,-6.789300441741943359e-01,-1.594607353210449219e+00,2.427181482315063477e+00,5.677863121032714844e+00,-1.202961206436157227e-01
-3.936314105987548828e+00,-2.180925846099853516e+00,4.152542114257812500e+00,3.566426992416381836e+00,1.430818200111389160e+00,-1.945882678031921387e+00,-3.840153932571411133e+00,1.382709622383117676e+00,3.269240140914916992e+00,7.497520923614501953e+00,1.841768994927406311e-02,-3.091431856155395508e+00,-2.109930992126464844e+00,-6.590857505798339844e-01,-2.225266218185424805e+00,-2.697448968887329102e+00,-3.301515102386474609e+00,-7.463764190673828125e+00,-5.782279491424560547e+00,-4.709815502166748047e+00,-2.660852432250976562e+00,-3.311805009841918945e+00,-3.224347159266471863e-02,1.207930207252502441e+00,2.813965678215026855e-01,-1.389196515083312988e+00,-1.010118007659912109e+00,-1.747722506523132324e+00,-2.747892379760742188e+00,6.750581860542297363e-01,3.090283155441284180e+00,-3.372896909713745117e+00
-8.999094009399414062e+00,-5.788046836853027344e+00,-1.034781098365783691e+00,-1.197829484939575195e+00,-1.821583390235900879e+00,-4.173539161682128906e+00,-3.492822408676147461e+00,-6.342639327049255371e-01,-2.268598794937133789e+00,-6.016520857810974121e-01,-5.068865776062011719e+00,-8.965662956237792969e+00,-7.156120300292968750e+00,-6.099036693572998047e+00,-6.572662353515625000e+00,-9.253247261047363281e+00,-9.753311157226562500e+00,-8.361103057861328125e+00,-6.958333969116210938e+00,-8.558812141418457031e+00,-9.022092819213867188e+00,-7.999972343444824219e+00,-7.613020420074462891e+00,-8.891010284423828125e+00,-1.412900161743164062e+01,-1.406731414794921875e+01,-1.060867881774902344e+01,-8.148760795593261719e+00,-7.270280361175537109e+00,-1.102973842620849609e+01,-1.607391929626464844e+01,-1.145634889602661133e+00
-6.296595931053161621e-01,4.499652862548828125e+00,9.965819358825683594e+00,9.052275657653808594e+00,4.442511081695556641e+00,1.321571469306945801e+00,4.290659904479980469e+00,5.116458415985107422e+00,3.839810132980346680e+00,-5.134302973747253418e-01,2.066250145435333252e-02,-1.579565644264221191e+00,-6.542165279388427734e-01,-6.540474891662597656e-01,-3.411075174808502197e-01,-1.315831542015075684e+00,-8.856062889099121094e-01,4.530277252197265625e+00,2.656580686569213867e+00,-3.705770015716552734e+00,-4.796418190002441406e+00,6.437488198280334473e-01,4.235408902168273926e-01,-4.521194934844970703e+00,-1.232101726531982422e+01,-1.041734886169433594e+01,-4.796947956085205078e+00,-1.094416901469230652e-01,-1.524188667535781860e-01,-7.193933486938476562e+00,-1.247208690643310547e+01,1.129632472991943359e+01
1.219566822052001953e+01,1.619783210754394531e+01,1.904192352294921875e+01,1.738164520263671875e+01,1.431258583068847656e+01,1.391284942626953125e+01,1.419537448883056641e+01,1.340424823760986328e+01,1.118673515319824219e+01,9.524137496948242188e+00,1.169180202484130859e+01,1.307109355926513672e+01,1.331257820129394531e+01,1.046368217468261719e+01,9.713532447814941406e+00,9.168096542358398438e+00,1.163852500915527344e+01,1.187563037872314453e+01,1.078965377807617188e+01,9.224305152893066406e+00,1.157036018371582031e+01,1.404543113708496094e+01,1.435741329193115234e+01,1.221715259552001953e+01,4.780961036682128906e+00,4.900681972503662109e+00,1.062426471710205078e+01,1.758680725097656250e+01,1.748466300964355469e+01,1.360510921478271484e+01,9.802152633666992188e+00,1.405298137664794922e+01
1.668443679809570312e+01,1.891359710693359375e+01,2.011204528808593750e+01,1.976963043212890625e+01,2.063932991027832031e+01,2.100895881652832031e+01,2.423633956909179688e+01,2.209584045410156250e+01,1.422271919250488281e+01,1.249964904785156250e+01,1.671840286254882812e+01,2.062059211730957031e+01,2.033382606506347656e+01,9.112521171569824219e+00,4.418396949768066406e+00,7.639618873596191406e+00,1.180827522277832031e+01,5.634398937225341797e+00,4.898010253906250000e+00,1.126142024993896484e+01,1.706767272949218750e+01,1.627986335754394531e+01,1.713661956787109375e+01,1.502044296264648438e+01,1.032172393798828125e+01,1.030205535888671875e+01,1.173038291931152344e+01,2.082147026062011719e+01,2.269330215454101562e+01,1.889197921752929688e+01,1.365536975860595703e+01,1.229913425445556641e+01
8.704186081886291504e-01,5.891603469848632812e+00,1.217467117309570312e+01,1.061660194396972656e+01,5.359299659729003906e+00,3.502578973770141602e+00,5.342695713043212891e+00,6.974715709686279297e+00,5.067589282989501953e+00,6.441856384277343750e+00,2.599432706832885742e+00,2.205736398696899414e+00,2.587088108062744141e+00,-8.377563476562500000e+00,-1.499250125885009766e+01,-8.836702346801757812e+00,-5.743067264556884766e+00,-8.634469985961914062e+00,-1.325731277465820312e+01,-6.139861106872558594e+00,1.155330181121826172e+00,4.862399101257324219e+00,4.492939472198486328e+00,1.946371436119079590e+00,9.236177206039428711e-01,1.565675973892211914e+00,-2.285812616348266602e+00,4.548715591430664062e+00,4.551946640014648438e+00,-8.792209625244140625e-01,-4.180380702018737793e-01,1.352380275726318359e+01
-1.666478729248046875e+01,-7.791293621063232422e+00,6.680021528154611588e-03,-3.425745725631713867e+00,-9.026322364807128906e+00,-1.060648345947265625e+01,-1.510267162322998047e+01,-1.037278461456298828e+01,-8.038478851318359375e+00,-6.341546773910522461e-01,-1.209242153167724609e+01,-1.553803730010986328e+01,-1.395008754730224609e+01,-1.267311286926269531e+01,-1.419653511047363281e+01,-1.408351612091064453e+01,-1.475524234771728516e+01,-9.888343811035156250e+00,-1.074058055877685547e+01,-1.143109703063964844e+01,-8.508493423461914062e+00,-4.482191562652587891e+00,-7.573348045349121094e+00,-7.722949504852294922e+00,-4.271882534027099609e+00,-5.396522521972656250e+00,-1.060276889801025391e+01,-1.002636909484863281e+01,-1.140910911560058594e+01,-1.550207519531250000e+01,-6.901360511779785156e+00,8.079646110534667969e+00
-1.636519622802734375e+01,-1.357813167572021484e+01,-7.827021598815917969e+00,-7.515058040618896484e+00,-6.549360275268554688e+00,-9.463017463684082031e+00,-8.092154502868652344e+00,-3.419211149215698242e+00,-6.519702434539794922e+00,-2.856437683105468750e+00,-7.903663635253906250e+00,-1.021556377410888672e+01,-7.286582946777343750e+00,-1.659219622611999512e+00,-4.119514301419258118e-02,-6.945667266845703125e+00,-8.817568778991699219e+00,-4.933838367462158203e+00,-6.889811754226684570e-01,-6.488278865814208984e+00,-8.402656555175781250e+00,-8.766221046447753906e+00,-9.673303604125976562e+00,-1.041891860961914062e+01,-1.007206344604492188e+01,-1.104539203643798828e+01,-1.273113155364990234e+01,-1.250867176055908203e+01,-1.134942531585693359e+01,-1.632465934753417969e+01,-1.090108680725097656e+01,-6.972095966339111328e+00
-9.593836784362792969e+00,-1.163596057891845703e+01,-4.577142238616943359e+00,-7.168932259082794189e-02,-1.228945136070251465e+00,-9.401318550109863281e+00,-1.198598623275756836e+00,6.982027053833007812e+00,7.729237556457519531e+00,4.365563392639160156e+00,-2.088712692260742188e+00,-8.343503952026367188e+00,-3.675976514816284180e+00,-1.201817274093627930e+00,-9.895008206367492676e-01,-5.278436183929443359e+00,-6.438885688781738281e+00,-7.705129146575927734e+00,-5.067779541015625000e+00,-6.057785987854003906e+00,-7.887605667114257812e+00,-1.050450801849365234e+01,-9.034378051757812500e+00,-6.653659343719482422e+00,-1.395589637756347656e+01,-1.510211181640625000e+01,-1.162117385864257812e+01,-5.920668601989746094e+00,-5.399834156036376953e+00,-1.298517227172851562e+01,-1.880875396728515625e+01,-1.470754528045654297e+01
-7.293704509735107422e+00,-1.121401500701904297e+01,-3.446909666061401367e+00,4.506418704986572266e+00,3.765489101409912109e+00,-7.716599464416503906e+00,-6.996681690216064453e+00,1.396610617637634277e+00,9.206436157226562500e+00,7.954558849334716797e+00,-3.988465309143066406e+00,-1.244875335693359375e+01,-9.067926406860351562e+00,-7.693095207214355469e+00,-7.023416042327880859e+00,-7.149462699890136719e+00,-7.926151752471923828e+00,-9.396753311157226562e+00,-1.018542766571044922e+01,-9.324836730957031250e+00,-8.102169036865234375e+00,-8.140689849853515625e+00,-6.895271301269531250e+00,-4.622610569000244141e+00,-1.278427982330322266e+01,-1.579043865203857422e+01,-1.242968082427978516e+01,-5.116245746612548828e+00,-5.742394924163818359e+00,-1.155325603485107422e+01,-1.991819381713867188e+01,-1.684441947937011719e+01
-9.250718116760253906e+00,-1.432523441314697266e+01,-1.029558277130126953e+01,2.554402351379394531e+00,2.081609010696411133e+00,-4.511407852172851562e+00,-7.482547760009765625e+00,2.092765331268310547e+00,4.167916774749755859e+00,2.737153291702270508e+00,-4.148640632629394531e+00,-7.080794811248779297e+00,-7.626399517059326172e+00,-8.604728698730468750e+00,-1.007112503051757812e+01,-1.220592594146728516e+01,-1.128528308868408203e+01,-1.144090270996093750e+01,-1.091842460632324219e+01,-1.023768043518066406e+01,-8.928153991699218750e+00,-9.947670936584472656e+00,-1.095703792572021484e+01,-1.290877437591552734e+01,-1.263091468811035156e+01,-1.361896514892578125e+01,-1.389285469055175781e+01,-1.481742477416992188e+01,-1.375140666961669922e+01,-1.154825973510742188e+01,-1.222226238250732422e+01,-1.638333892822265625e+01
-1.520264911651611328e+01,-1.287593364715576172e+01,-1.247796440124511719e+01,-4.931276321411132812e+00,-1.343765068054199219e+01,-1.068533897399902344e+01,-1.072243118286132812e+01,-6.233910918235778809e-01,8.935580849647521973e-01,-1.716762632131576538e-01,-6.828426837921142578e+00,-4.970286369323730469e+00,-4.364195346832275391e+00,-4.472385883331298828e+00,-7.991956233978271484e+00,-1.122209262847900391e+01,-1.192983818054199219e+01,-1.142975902557373047e+01,-8.863646507263183594e+00,-7.195709705352783203e+00,-7.780340671539306641e+00,-1.189700984954833984e+01,-1.480506420135498047e+01,-1.414960384368896484e+01,-7.018006801605224609e+00,-5.995593547821044922e+00,-8.818349838256835938e+00,-1.880968284606933594e+01,-1.816427421569824219e+01,-1.150965404510498047e+01,-4.766364574432373047e+00,-1.867404103279113770e+00
-1.477694416046142578e+01,-9.279663085937500000e+00,-5.881634235382080078e+00,-8.796435356140136719e+00,-1.964808845520019531e+01,-1.550224971771240234e+01,-1.759217834472656250e+01,-1.191564559936523438e+01,-3.866608142852783203e+00,1.785069465637207031e+00,-6.043935775756835938e+00,-4.272581577301025391e+00,-1.330264925956726074e+00,-2.118671089410781860e-01,-1.537113428115844727e+00,-3.698840618133544922e+00,-6.514757633209228516e+00,-6.570681571960449219e+00,-4.378859996795654297e+00,-4.086055278778076172e+00,-4.113292217254638672e+00,-5.101010322570800781e+00,-6.999329090118408203e+00,-4.821071147918701172e+00,-8.779262304306030273e-01,-1.383962869644165039e+00,-2.966130256652832031e+00,-8.728796005249023438e+00,-1.065749645233154297e+01,-7.464209079742431641e+00,-1.850325107574462891e+00,1.053446006774902344e+01
3.920818090438842773e+00,5.167222023010253906e+00,2.587910413742065430e+00,1.675475716590881348e+00,-2.683001041412353516e+00,4.682695865631103516e+00,2.427351951599121094e+00,8.082080483436584473e-01,-3.488778591156005859e+00,1.512510299682617188e+00,8.575072288513183594e+00,1.420217418670654297e+01,1.325380325317382812e+01,9.054836273193359375e+00,8.258522033691406250e+00,7.369922637939453125e+00,7.183388710021972656e+00,3.946858167648315430e+00,6.975718021392822266e+00,8.172261238098144531e+00,8.689322471618652344e+00,7.153738498687744141e+00,6.575212955474853516e+00,5.568340778350830078e+00,7.536314487457275391e+00,7.863562107086181641e+00,8.957465171813964844e+00,7.972342967987060547e+00,6.496301651000976562e+00,9.288080215454101562e+00,8.555950164794921875e+00,8.749105453491210938e+00
1.129497241973876953e+01,6.172586917877197266e+00,2.198943853378295898e+00,5.856149673461914062e+00,6.158998489379882812e+00,1.260531139373779297e+01,1.409936237335205078e+01,9.559565544128417969e+00,-4.010175168514251709e-02,-1.371182084083557129e+00,1.338344001770019531e+01,2.162308883666992188e+01,1.761292839050292969e+01,1.162834739685058594e+01,5.786291122436523438e+00,6.616323471069335938e+00,8.663973808288574219e+00,6.068480014801025391e+00,5.479568004608154297e+00,8.971070289611816406e+00,1.093453598022460938e+01,7.047087192535400391e+00,5.399019718170166016e+00,3.983230590820312500e+00,8.721474647521972656e+00,9.364224433898925781e+00,9.912878036499023438e+00,4.792344570159912109e+00,4.741087436676025391e+00,1.148584651947021484e+01,1.222117233276367188e+01,6.734909415245056152e-01
-4.785140514373779297e+00,-1.226391696929931641e+01,-8.229204177856445312e+00,-9.617233276367187500e+00,-8.492244720458984375e+00,-4.903719425201416016e+00,-2.225255012512207031e+00,-4.329168319702148438e+00,-6.918439865112304688e+00,-3.892440319061279297e+00,-3.366635560989379883e+00,-3.187993764877319336e-01,5.123707056045532227e-01,-4.415187537670135498e-01,-2.413679838180541992e+00,-4.038626670837402344e+00,-2.532145023345947266e+00,-2.945892572402954102e+00,-4.484018325805664062e+00,-4.596975326538085938e+00,-5.437382698059082031e+00,-8.114876747131347656e+00,-9.605187416076660156e+00,-7.894080638885498047e+00,-3.879085063934326172e+00,-4.879927635192871094e+00,-5.183801174163818359e+00,-1.174250793457031250e+01,-1.157914257049560547e+01,-5.214087486267089844e+00,-2.534735441207885742e+00,-5.364455223083496094e+00
