Fp1,Fp2,F7,F3,Fz,F4,F8,FT7,FC3,FCz,FC4,FT8,T3,C3,Cz,C4,T4,TP7,CP3,CPz,CP4,TP8,T5,P3,Pz,P4,T6,O1,Oz,O2,A1,A2
3.932565212249755859e+00,2.035899162292480469e+00,-3.848834037780761719e+00,4.060561358928680420e-01,4.212403774261474609e+00,7.055601119995117188e+00,4.282106876373291016e+00,5.592082500457763672e+00,3.196240186691284180e+00,3.321911811828613281e+00,2.792349338531494141e+00,3.165690898895263672e+00,9.076091647148132324e-01,-2.106498003005981445e+00,-3.161268234252929688e+00,-4.048232555389404297e+00,-1.007702469825744629e+00,-2.349035255610942841e-02,2.049445152282714844e+00,2.763032436370849609e+00,2.599293231964111328e+00,2.094583988189697266e+00,6.671776175498962402e-01,-8.753973841667175293e-01,-1.325936198234558105e+00,-6.827889680862426758e-01,1.005205273628234863e+00,3.602411746978759766e+00,3.728233098983764648e+00,1.299059033393859863e+00,3.112826049327850342e-01,1.039347648620605469e+01
1.487168192863464355e+00,3.412887811660766602e+00,1.988247156143188477e+00,1.615188598632812500e+00,3.119494300335645676e-03,1.231522917747497559e+00,-2.992134988307952881e-01,-1.963910162448883057e-01,-2.317285776138305664e+00,-1.140505313873291016e+00,1.200816333293914795e-01,3.315939903259277344e+00,-4.745640158653259277e-01,-2.085534334182739258e+00,8.502154350280761719e-01,1.884741902351379395e+00,-3.465932905673980713e-01,-3.973052799701690674e-01,7.995264530181884766e-01,3.101458251476287842e-01,-2.917623519897460938e+00,-1.126003742218017578e+00,-3.483359813690185547e-01,-4.080865859985351562e+00,-4.956511020660400391e+00,-5.478733539581298828e+00,-2.273397445678710938e+00,-4.932493865489959717e-01,2.210262537002563477e+00,-9.358898997306823730e-01,-2.333920478820800781e+00,4.580382823944091797e+00
2.344460964202880859e+00,5.375047922134399414e-01,-2.779179334640502930e+00,-3.876083135604858398e+00,-9.988715648651123047e-01,1.049035549163818359e+00,-8.033092617988586426e-01,-2.898591279983520508e+00,-5.284391403198242188e+00,-2.868523597717285156e+00,-5.994147658348083496e-01,2.043077468872070312e+00,1.115166544914245605e+00,-2.279024273157119751e-01,2.156673431396484375e+00,3.642303228378295898e+00,4.506567478179931641e+00,4.390357494354248047e+00,6.408700466156005859e+00,4.365896701812744141e+00,-4.087203145027160645e-01,-1.599030733108520508e+00,6.693797707557678223e-01,-3.940078735351562500e+00,-6.814693927764892578e+00,-6.739059925079345703e+00,-1.723241209983825684e+00,3.223542273044586182e-01,1.018728017807006836e+00,-2.095114231109619141e+00,-4.361254692077636719e+00,-3.313838541507720947e-01
2.545003652572631836e+00,-5.026943683624267578e+00,-8.616061210632324219e+00,-6.990947723388671875e+00,-4.088928699493408203e-01,2.781186580657958984e+00,2.840035676956176758e+00,4.673314690589904785e-01,-1.104823589324951172e+00,4.245024681091308594e+00,5.616226673126220703e+00,4.037560939788818359e+00,5.360458850860595703e+00,3.208650588989257812e+00,9.033548235893249512e-01,-1.303463894873857498e-02,7.399457454681396484e+00,7.376092910766601562e+00,6.800432205200195312e+00,5.978987693786621094e+00,9.233547210693359375e+00,7.686909675598144531e+00,5.661397933959960938e+00,3.745304107666015625e+00,2.390617847442626953e+00,1.278529167175292969e+00,2.852687358856201172e+00,5.164896965026855469e+00,2.002207279205322266e+00,1.248729586601257324e+00,1.237358570098876953e+00,-2.387481182813644409e-01
-7.851931095123291016e+00,-7.876328945159912109e+00,-1.087257099151611328e+01,-1.064328384399414062e+01,-9.234343528747558594e+00,-6.784996986389160156e+00,-5.452155590057373047e+00,-4.887309074401855469e+00,-7.204710006713867188e+00,-5.009634494781494141e+00,-3.600506305694580078e+00,-3.338187694549560547e+00,-5.584769725799560547e+00,-4.745567321777343750e+00,-5.803475379943847656e+00,-5.819715023040771484e+00,-2.864952087402343750e+00,-3.544025421142578125e+00,-7.154395103454589844e+00,-4.653446674346923828e+00,1.315517902374267578e+00,2.028718471527099609e+00,-2.347157001495361328e+00,-2.114176988601684570e+00,-1.698751091957092285e+00,-5.327524185180664062e+00,-6.168299198150634766e+00,-5.212635517120361328e+00,-4.413639545440673828e+00,-7.372316360473632812e+00,-8.162531852722167969e+00,-6.086934089660644531e+00
-5.929706096649169922e+00,1.076260089874267578e+00,-5.238414406776428223e-01,-3.690917253494262695e+00,-7.382635116577148438e+00,-6.450313568115234375e+00,-6.998913288116455078e+00,-6.020658969879150391e+00,-6.744945526123046875e+00,-9.077601432800292969e+00,-8.089383125305175781e+00,-5.545992851257324219e+00,-6.630978584289550781e+00,-2.704255104064941406e+00,1.755763769149780273e+00,9.097878932952880859e-01,-5.514927506446838379e-01,-3.015741586685180664e+00,-4.503744125366210938e+00,-5.680318832397460938e+00,-3.692482233047485352e+00,-2.078475713729858398e+00,-1.821437001228332520e+00,-1.029275655746459961e+00,-1.069367408752441406e+00,-2.306995391845703125e+00,-2.805080652236938477e+00,-2.388089418411254883e+00,-2.035404294729232788e-01,-6.155942916870117188e+00,-1.037409400939941406e+01,9.719781875610351562e-01
8.067455291748046875e+00,1.100624179840087891e+01,1.223192787170410156e+01,5.758738994598388672e+00,2.691448211669921875e+00,3.762800455093383789e+00,4.494789123535156250e+00,1.384650945663452148e+00,4.163338661193847656e+00,6.678525924682617188e+00,7.652282714843750000e+00,6.512884616851806641e+00,1.022646141052246094e+01,1.174496078491210938e+01,1.372518062591552734e+01,1.154695987701416016e+01,1.265059089660644531e+01,1.096715545654296875e+01,1.259659481048583984e+01,8.131987571716308594e+00,9.744015693664550781e+00,1.056151676177978516e+01,1.146190834045410156e+01,1.266265773773193359e+01,1.233595085144042969e+01,1.485052871704101562e+01,1.457536125183105469e+01,1.556716537475585938e+01,1.381556510925292969e+01,9.701391220092773438e+00,5.973948001861572266e+00,1.551237964630126953e+01
4.810208797454833984e+00,3.698002338409423828e+00,1.329969286918640137e+00,-4.011000633239746094e+00,1.940323561429977417e-01,2.545658349990844727e+00,3.755903720855712891e+00,2.598989009857177734e-01,1.205043911933898926e+00,5.200739860534667969e+00,7.081521034240722656e+00,4.821734905242919922e+00,5.673384666442871094e+00,6.177636146545410156e+00,5.099337100982666016e+00,2.171013593673706055e+00,3.152579784393310547e+00,6.147122383117675781e+00,7.705210208892822266e+00,9.171691894531250000e+00,9.151563644409179688e+00,7.762256145477294922e+00,5.983959674835205078e+00,6.385813236236572266e+00,6.595232009887695312e+00,8.039811134338378906e+00,8.764612197875976562e+00,8.749526023864746094e+00,6.448399543762207031e+00,5.323380470275878906e+00,6.041384220123291016e+00,8.712451934814453125e+00
-9.275592565536499023e-01,-1.587554574012756348e+00,-7.299528598785400391e+00,-9.180508613586425781e+00,-4.154655933380126953e+00,1.582917273044586182e-01,-5.347191691398620605e-01,-2.947513341903686523e+00,-6.777057647705078125e+00,-4.875399589538574219e+00,-3.464090824127197266e+00,-2.869400739669799805e+00,-4.503351688385009766e+00,-5.225205421447753906e+00,-7.265967845916748047e+00,-5.866272449493408203e+00,-4.651477336883544922e+00,-4.025563240051269531e+00,-2.754212379455566406e+00,1.944700777530670166e-01,-1.565837502479553223e+00,-3.843691349029541016e+00,-3.361302614212036133e+00,-4.534883975982666016e+00,-3.350375890731811523e+00,-3.844958305358886719e+00,-2.977902412414550781e+00,-5.262122154235839844e+00,-4.563855171203613281e+00,-5.363361358642578125e+00,-2.637104511260986328e+00,-1.561305403709411621e+00
6.102009296417236328e+00,7.148712635040283203e+00,6.474833011627197266e+00,6.689346790313720703e+00,3.928539276123046875e+00,7.069385528564453125e+00,6.553629875183105469e+00,4.694709300994873047e+00,2.842941761016845703e+00,3.684065580368041992e+00,5.742607116699218750e+00,4.600221157073974609e+00,3.976947069168090820e+00,1.627428174018859863e+00,7.842695713043212891e-01,3.952195405960083008e+00,6.873068809509277344e+00,4.732928752899169922e+00,7.553915977478027344e+00,2.864938259124755859e+00,1.755069971084594727e+00,1.460551977157592773e+00,4.075753211975097656e+00,2.670859813690185547e+00,4.373188972473144531e+00,6.024967670440673828e+00,3.890877246856689453e+00,3.372491359710693359e+00,4.052911281585693359e+00,4.349170684814453125e+00,4.972956657409667969e+00,4.661715030670166016e+00
4.845824718475341797e+00,4.489411830902099609e+00,8.566258430480957031e+00,1.097430133819580078e+01,6.071711540222167969e+00,5.010440349578857422e+00,4.103538513183593750e+00,5.175590991973876953e+00,6.383763313293457031e+00,7.357046604156494141e+00,7.567599296569824219e+00,4.404802799224853516e+00,5.249175071716308594e+00,2.979101657867431641e+00,2.565783977508544922e+00,2.471996545791625977e+00,4.183197975158691406e+00,6.377071380615234375e+00,7.830779075622558594e+00,4.043231010437011719e+00,1.887318372726440430e+00,1.953748106956481934e+00,6.945106983184814453e-01,1.792311429977416992e+00,1.888032078742980957e+00,3.788252353668212891e+00,9.096234440803527832e-01,2.629793882369995117e+00,9.574471712112426758e-01,3.460146427154541016e+00,5.270086288452148438e+00,2.214578628540039062e+00
-3.758000373840332031e+00,-9.295788764953613281e+00,-9.224647521972656250e+00,-3.908571481704711914e+00,-2.910306453704833984e+00,-5.254029750823974609e+00,-7.062322139739990234e+00,-4.784766674041748047e+00,-4.702480316162109375e+00,-3.992325305938720703e+00,-5.709043025970458984e+00,-5.585196495056152344e+00,-6.950675487518310547e+00,-7.334549903869628906e+00,-1.196215057373046875e+01,-1.094494438171386719e+01,-1.350185298919677734e+01,-8.470441818237304688e+00,-9.229463577270507812e+00,-6.441038608551025391e+00,-7.710648536682128906e+00,-7.873916149139404297e+00,-9.507697105407714844e+00,-8.975471496582031250e+00,-1.159624385833740234e+01,-1.189114284515380859e+01,-1.083167266845703125e+01,-1.039415836334228516e+01,-9.626633644104003906e+00,-8.893990516662597656e+00,-6.845417499542236328e+00,-8.328423500061035156e+00
-2.097433805465698242e+00,-6.050820350646972656e+00,-9.218354225158691406e+00,-5.163536071777343750e+00,-1.531846046447753906e+00,-1.382616519927978516e+00,-1.717310190200805664e+00,-2.156061410903930664e+00,-4.034307956695556641e+00,-3.256776332855224609e+00,-1.469958305358886719e+00,1.826320439577102661e-01,-4.073512077331542969e+00,-4.779643535614013672e+00,-7.119504451751708984e+00,-6.971027374267578125e+00,-9.519763946533203125e+00,-9.437998771667480469e+00,-9.295020103454589844e+00,-1.007895374298095703e+01,-8.773713111877441406e+00,-5.466071605682373047e+00,-2.260216236114501953e+00,-4.385283946990966797e+00,-7.206344127655029297e+00,-8.633681297302246094e+00,-7.039455890655517578e+00,-4.734092235565185547e+00,-3.787757456302642822e-01,-2.972348213195800781e+00,-5.465965747833251953e+00,-4.000253677368164062e+00
6.509855985641479492e-01,3.809520959854125977e+00,3.312023356556892395e-02,1.614513278007507324e+00,4.216552257537841797e+00,5.285993099212646484e+00,5.041455745697021484e+00,4.132432460784912109e+00,6.862693786621093750e+00,6.519864082336425781e+00,6.966321468353271484e+00,5.447524547576904297e+00,4.534774124622344971e-01,2.566142678260803223e-01,2.841393947601318359e+00,2.903350830078125000e+00,3.172765672206878662e-01,9.306775927543640137e-01,3.263519763946533203e+00,-2.171423912048339844e+00,-3.579411268234252930e+00,-1.306696534156799316e+00,2.318725109100341797e+00,1.210160732269287109e+00,1.873881340026855469e+00,1.411221504211425781e+00,-4.043910801410675049e-01,1.460375189781188965e+00,3.995075702667236328e+00,3.289960384368896484e+00,5.427626371383666992e-01,1.451721072196960449e+00
9.896861314773559570e-01,1.551511049270629883e+00,-4.719695448875427246e-01,2.202829599380493164e+00,3.982593536376953125e+00,3.465501308441162109e+00,9.139717370271682739e-02,-1.277959585189819336e+00,5.622898101806640625e+00,5.461968898773193359e+00,2.636804819107055664e+00,-8.664203286170959473e-01,-1.340906739234924316e+00,5.041958689689636230e-01,9.366559386253356934e-01,1.435092687606811523e+00,-5.931531190872192383e-01,2.992236614227294922e+00,6.065470695495605469e+00,4.940415859222412109e+00,1.731186747550964355e+00,-4.153904914855957031e-01,-5.314238071441650391e-01,5.539161562919616699e-01,2.721518516540527344e+00,2.726631402969360352e+00,-2.968230545520782471e-01,-1.136446118354797363e+00,-2.588307857513427734e+00,-1.130016088485717773e+00,-3.856581822037696838e-02,-2.169266343116760254e-01
2.870642900466918945e+00,8.442149758338928223e-01,5.193707466125488281e+00,5.615498065948486328e+00,3.395212888717651367e+00,1.551244139671325684e+00,1.489418148994445801e+00,-4.558285772800445557e-01,4.059709072113037109e+00,4.347576618194580078e+00,2.418980360031127930e+00,6.075207591056823730e-01,3.733389616012573242e+00,5.328711509704589844e+00,3.384261608123779297e+00,1.470682978630065918e+00,2.583024978637695312e+00,3.707786083221435547e+00,6.610175132751464844e+00,7.691566944122314453e+00,6.794006824493408203e+00,4.484568119049072266e+00,3.876999139785766602e+00,5.206989765167236328e+00,5.752697467803955078e+00,6.138654708862304688e+00,3.717279195785522461e+00,4.067405223846435547e+00,3.268733739852905273e+00,3.212161064147949219e+00,1.814397335052490234e+00,2.518850266933441162e-01
-2.078970909118652344e+00,1.024504825472831726e-01,5.703336715698242188e+00,1.779932141304016113e+00,-6.941800713539123535e-01,-2.587093353271484375e+00,2.162565231323242188e+00,3.361336469650268555e+00,3.933833837509155273e+00,9.368548393249511719e-01,-6.649795174598693848e-01,-2.038971781730651855e-01,2.483357667922973633e+00,4.756968975067138672e+00,6.467352390289306641e+00,3.291357278823852539e+00,2.415399074554443359e+00,2.019667148590087891e+00,6.243624210357666016e+00,6.582479953765869141e+00,4.207851886749267578e+00,1.078615039587020874e-01,4.557963609695434570e-01,2.739660024642944336e+00,2.951111793518066406e+00,3.195588827133178711e+00,1.210871219635009766e+00,1.765064001083374023e+00,2.646101951599121094e+00,2.924855470657348633e+00,-2.014610469341278076e-01,-4.010070323944091797e+00
-1.105690765380859375e+01,-9.075622558593750000e+00,-8.575840950012207031e+00,-9.795125961303710938e+00,-9.670377731323242188e+00,-1.186893272399902344e+01,-1.055307865142822266e+01,-5.105966091156005859e+00,-2.297129631042480469e+00,-6.770556926727294922e+00,-1.167803859710693359e+01,-1.142613506317138672e+01,-9.618946075439453125e+00,-5.284235000610351562e+00,-1.621822595596313477e+00,-2.919366598129272461e+00,-7.342768669128417969e+00,-7.274824142456054688e+00,-3.616707801818847656e+00,-1.149246454238891602e+00,-3.935188770294189453e+00,-1.025890350341796875e+01,-1.233927631378173828e+01,-9.890602111816406250e+00,-7.784144878387451172e+00,-6.642303943634033203e+00,-8.880023956298828125e+00,-1.119196891784667969e+01,-1.290535354614257812e+01,-9.215822219848632812e+00,-7.506165981292724609e+00,-1.190007591247558594e+01
-9.705526351928710938e+00,-9.749404907226562500e+00,-1.025384140014648438e+01,-8.974884986877441406e+00,-9.982646942138671875e+00,-1.138721561431884766e+01,-1.238307189941406250e+01,-8.435002326965332031e+00,-3.665807247161865234e+00,-4.905342102050781250e+00,-9.557308197021484375e+00,-1.001166915893554688e+01,-8.561758041381835938e+00,-4.742156982421875000e+00,-2.956308364868164062e+00,-6.088742256164550781e+00,-8.361434936523437500e+00,-8.973943710327148438e+00,-6.152391433715820312e+00,-4.252607822418212891e+00,-3.537254571914672852e+00,-8.057256698608398438e+00,-1.046716213226318359e+01,-1.023946762084960938e+01,-5.905516624450683594e+00,-5.284452438354492188e+00,-8.142459869384765625e+00,-1.101502513885498047e+01,-1.247376728057861328e+01,-1.022429180145263672e+01,-7.123497486114501953e+00,-1.154931449890136719e+01
-1.125250434875488281e+01,-9.651340484619140625e+00,-1.073977851867675781e+01,-1.211220645904541016e+01,-1.009862327575683594e+01,-1.061693763732910156e+01,-8.483213424682617188e+00,-7.463276386260986328e+00,-6.075354576110839844e+00,-7.609060287475585938e+00,-1.042242240905761719e+01,-1.019064140319824219e+01,-9.762666702270507812e+00,-4.141258239746093750e+00,-4.375289440155029297e+00,-1.110934829711914062e+01,-1.247076225280761719e+01,-1.145976161956787109e+01,-9.695497512817382812e+00,-1.040768146514892578e+01,-1.021063995361328125e+01,-1.354118251800537109e+01,-1.348246097564697266e+01,-1.256628608703613281e+01,-8.877752304077148438e+00,-9.302544593811035156e+00,-1.153312587738037109e+01,-1.219103622436523438e+01,-1.003292942047119141e+01,-1.098009300231933594e+01,-1.299354171752929688e+01,-1.649625778198242188e+01
-1.429853248596191406e+01,-1.532267856597900391e+01,-1.819069480895996094e+01,-1.835408782958984375e+01,-1.232948303222656250e+01,-1.348495578765869141e+01,-1.083839988708496094e+01,-9.992251396179199219e+00,-1.016510105133056641e+01,-1.166083621978759766e+01,-1.538539314270019531e+01,-1.505992412567138672e+01,-1.492822456359863281e+01,-8.799105644226074219e+00,-9.143132209777832031e+00,-1.641719436645507812e+01,-1.765318679809570312e+01,-1.640204429626464844e+01,-1.582589244842529297e+01,-1.447636985778808594e+01,-1.527749443054199219e+01,-1.841674613952636719e+01,-1.772970962524414062e+01,-1.563141632080078125e+01,-1.493840217590332031e+01,-1.451253700256347656e+01,-1.437154960632324219e+01,-1.471574115753173828e+01,-1.258891105651855469e+01,-1.271726989746093750e+01,-1.687169837951660156e+01,-2.124486351013183594e+01
-1.572162389755249023e+00,-3.535605967044830322e-03,-9.099664688110351562e-01,-1.492112517356872559e+00,-1.935171484947204590e+00,-2.216192245483398438e+00,-2.295502424240112305e+00,-1.084298610687255859e+00,1.491658329963684082e+00,9.802815914154052734e-01,-2.170789241790771484e+00,-1.727140665054321289e+00,-1.881277680397033691e+00,4.643977642059326172e+00,6.399906635284423828e+00,-2.682011842727661133e+00,-3.594185113906860352e+00,-3.277881383895874023e+00,-1.829030990600585938e+00,-2.352398157119750977e+00,-3.590476036071777344e+00,-2.540474414825439453e+00,-2.676128387451171875e+00,-3.662490129470825195e+00,-5.684200286865234375e+00,-4.516021728515625000e+00,-3.349917888641357422e+00,-2.456428766250610352e+00,-6.308124065399169922e-01,-1.447773277759552002e-01,-2.526017189025878906e+00,-6.165294170379638672e+00
1.196491003036499023e+00,5.147451877593994141e+00,7.685361862182617188e+00,8.774580001831054688e+00,4.000907421112060547e+00,3.876193046569824219e+00,9.197772741317749023e-01,9.027588963508605957e-01,3.851866960525512695e+00,6.463259696960449219e+00,4.152949810028076172e+00,2.587691783905029297e+00,2.551913499832153320e+00,7.674849987030029297e+00,1.011008644104003906e+01,2.484358549118041992e+00,3.376756310462951660e-01,7.814572453498840332e-01,5.713094472885131836e-01,-2.413902997970581055e+00,-4.575659751892089844e+00,-6.745283603668212891e-01,-1.167646527290344238e+00,-2.996820926666259766e+00,-6.494297504425048828e+00,-6.982290744781494141e+00,-6.430366992950439453e+00,-2.013798952102661133e+00,6.843750476837158203e-01,8.563540577888488770e-01,1.264768540859222412e-01,3.875884711742401123e-01
-8.243719100952148438e+00,-6.421586036682128906e+00,-4.404827117919921875e+00,-1.463519215583801270e+00,-1.686214804649353027e+00,-3.695204496383666992e+00,-8.552367210388183594e+00,-9.644762039184570312e+00,-7.552896976470947266e+00,-2.467427492141723633e+00,-4.756466388702392578e+00,-7.626423835754394531e+00,-7.857026576995849609e+00,-3.196187973022460938e+00,-2.422685384750366211e+00,-9.019327163696289062e+00,-1.279940032958984375e+01,-1.258992385864257812e+01,-1.436815547943115234e+01,-1.344178390502929688e+01,-1.449968528747558594e+01,-1.402905750274658203e+01,-1.301819992065429688e+01,-1.270974159240722656e+01,-1.319013977050781250e+01,-1.384366512298583984e+01,-1.245349788665771484e+01,-1.078898906707763672e+01,-9.562038421630859375e+00,-8.134349822998046875e+00,-7.941254138946533203e+00,-1.126341819763183594e+01
-6.096818447113037109e+00,-8.370983123779296875e+00,-1.003713703155517578e+01,-1.050444316864013672e+01,-4.978392601013183594e+00,-6.221642971038818359e+00,-5.626278400421142578e+00,-5.839512348175048828e+00,-5.098479270935058594e+00,-5.524650096893310547e+00,-8.900015830993652344e+00,-7.882057189941406250e+00,-9.968671798706054688e+00,-6.911567687988281250e+00,-7.278314113616943359e+00,-1.097800350189208984e+01,-1.160038661956787109e+01,-1.160842704772949219e+01,-1.063892555236816406e+01,-8.109781265258789062e+00,-8.986979484558105469e+00,-1.018332290649414062e+01,-9.744343757629394531e+00,-1.109186649322509766e+01,-9.164494514465332031e+00,-6.299707889556884766e+00,-5.042694091796875000e+00,-7.059522628784179688e+00,-4.458044528961181641e+00,-1.927544713020324707e+00,-3.076978206634521484e+00,-8.870308876037597656e+00
3.008598089218139648e+00,6.546619892120361328e+00,5.612934112548828125e+00,2.405844211578369141e+00,7.221428304910659790e-02,9.249923825263977051e-01,5.398229598999023438e+00,7.028312206268310547e+00,8.562383651733398438e+00,6.176020145416259766e+00,2.169098377227783203e+00,3.093362569808959961e+00,2.846609115600585938e+00,4.147553443908691406e+00,5.222529411315917969e+00,3.471804618835449219e+00,3.040001630783081055e+00,3.828235626220703125e+00,4.702923774719238281e+00,2.752540111541748047e+00,2.064242839813232422e+00,2.723798513412475586e+00,2.771054983139038086e+00,2.194096326828002930e+00,2.479401350021362305e+00,3.227029800415039062e+00,3.208936452865600586e+00,3.119545459747314453e+00,7.097443580627441406e+00,7.148098468780517578e+00,6.473896026611328125e+00,3.900634050369262695e+00
1.944724798202514648e+00,9.242434501647949219e+00,1.071540546417236328e+01,8.854161262512207031e+00,3.985371351242065430e+00,2.734479188919067383e+00,-1.088647365570068359e+00,1.201152443885803223e+00,4.033051013946533203e+00,3.116396903991699219e+00,-2.092657327651977539e+00,-1.056257367134094238e+00,3.799189805984497070e+00,8.302251815795898438e+00,7.211978435516357422e+00,8.650104403495788574e-01,1.354476690292358398e+00,1.221363306045532227e+00,8.851929903030395508e-01,5.792847275733947754e-02,2.002503156661987305e+00,1.753205418586730957e+00,1.486287236213684082e+00,3.606098651885986328e+00,4.009300231933593750e+00,3.018588542938232422e+00,2.319879293441772461e+00,2.881992816925048828e+00,4.431483745574951172e+00,3.789937973022460938e+00,2.826988220214843750e+00,-9.199905991554260254e-01
2.534224748611450195e+00,7.900592684745788574e-01,5.958063006401062012e-01,8.848936557769775391e-01,3.190247297286987305e+00,9.832021594047546387e-01,-3.628160476684570312e+00,-4.646548748016357422e+00,-4.449216365814208984e+00,-3.811641454696655273e+00,-3.389104366302490234e+00,-1.134023427963256836e+00,2.318175077438354492e+00,1.907880663871765137e+00,-4.884450733661651611e-01,-3.742125988006591797e+00,-1.228432774543762207e+00,-2.329070329666137695e+00,-3.199369192123413086e+00,-2.285909205675125122e-01,4.163398265838623047e+00,3.635458707809448242e+00,8.094325661659240723e-01,1.972364902496337891e+00,4.284553527832031250e+00,5.236105442047119141e+00,3.638438701629638672e+00,1.855418682098388672e+00,2.605349302291870117e+00,4.137828826904296875e+00,3.838412046432495117e+00,-4.228641510009765625e+00
6.946484088897705078e+00,6.706308364868164062e+00,7.713549137115478516e+00,5.933498382568359375e+00,7.600504875183105469e+00,5.827335357666015625e+00,8.102654457092285156e+00,6.423013210296630859e+00,5.063846588134765625e+00,3.913711547851562500e+00,6.698049545288085938e+00,8.059909820556640625e+00,6.018541336059570312e+00,3.715355396270751953e+00,2.543744564056396484e+00,5.378636837005615234e+00,5.626202106475830078e+00,6.523938655853271484e+00,6.799132347106933594e+00,8.853931427001953125e+00,7.416781902313232422e+00,6.778939247131347656e+00,4.540484905242919922e+00,4.289772987365722656e+00,5.914983749389648438e+00,8.309114456176757812e+00,7.945410728454589844e+00,5.809063434600830078e+00,8.918943405151367188e+00,1.243325519561767578e+01,1.517264938354492188e+01,8.618971824645996094e+00
4.170459747314453125e+00,1.096194171905517578e+01,1.497018814086914062e+01,1.387929439544677734e+01,7.891932487487792969e+00,5.949752330780029297e+00,7.823438167572021484e+00,9.158219337463378906e+00,1.000628757476806641e+01,7.050851345062255859e+00,6.489573478698730469e+00,5.002527236938476562e+00,3.195672512054443359e+00,4.414999485015869141e+00,2.941152811050415039e+00,7.233741283416748047e+00,3.463226318359375000e+00,4.504477024078369141e+00,2.073590517044067383e+00,3.017943620681762695e+00,-7.550221681594848633e-01,5.973381400108337402e-01,2.443363904953002930e+00,1.413645982742309570e+00,1.156723141670227051e+00,2.594011783599853516e+00,4.940614223480224609e+00,4.692418575286865234e+00,8.432820320129394531e+00,1.153418731689453125e+01,1.395114135742187500e+01,9.955458641052246094e+00
1.060376882553100586e+00,2.826789855957031250e+00,6.430446624755859375e+00,5.873645782470703125e+00,-4.545662105083465576e-01,-2.736427783966064453e+00,-3.917956113815307617e+00,-1.026427745819091797e+00,8.398596644401550293e-01,1.328528765588998795e-02,-5.249314904212951660e-01,-3.366085290908813477e+00,-1.358929872512817383e+00,-9.570038914680480957e-01,-3.459655284881591797e+00,-1.741667985916137695e+00,-3.007349252700805664e+00,-5.357832431793212891e+00,-1.079675960540771484e+01,-8.525231361389160156e+00,-5.275125026702880859e+00,-3.348837196826934814e-01,1.472193479537963867e+00,-3.753885328769683838e-01,-6.109193563461303711e-01,-1.515411853790283203e+00,-5.999944806098937988e-01,9.043598771095275879e-01,4.528840541839599609e+00,4.938656806945800781e+00,3.412102699279785156e+00,-2.746235132217407227e+00
-2.167146444320678711e+00,-4.268910408020019531e+00,-4.183388710021972656e+00,-5.203882217407226562e+00,-3.986711978912353516e+00,-4.795697212219238281e+00,-5.823873996734619141e+00,-5.196990489959716797e+00,-6.425212860107421875e+00,-8.650889396667480469e+00,-7.121872901916503906e+00,-6.096786499023437500e+00,-5.706408023834228516e+00,-7.577008724212646484e+00,-9.645132064819335938e+00,-6.888739585876464844e+00,-7.937753200531005859e+00,-7.604298591613769531e+00,-7.637576103210449219e+00,-7.413828849792480469e+00,-7.999053955078125000e+00,-4.685138225555419922e+00,-3.578037738800048828e+00,-4.549407005310058594e+00,-6.458563327789306641e+00,-7.319239616394042969e+00,-6.250682353973388672e+00,-4.215517997741699219e+00,-7.334990501403808594e-01,-1.159446239471435547e+00,-1.918074607849121094e+00,-7.548948287963867188e+00
-3.060858249664306641e+00,-1.769109129905700684e+00,-3.855516433715820312e+00,-4.655405044555664062e+00,-1.690724253654479980e+00,-9.138844013214111328e-01,-1.702969789505004883e+00,-2.324049949645996094e+00,-5.199705600738525391e+00,-9.442661285400390625e+00,-6.817005634307861328e+00,-3.027341127395629883e+00,-6.580024719238281250e+00,-9.341166496276855469e+00,-1.171524906158447266e+01,-4.990425586700439453e+00,-7.482227325439453125e+00,-4.462940216064453125e+00,-2.760639429092407227e+00,-4.937647342681884766e+00,-8.805018424987792969e+00,-8.185077667236328125e+00,-7.722100734710693359e+00,-7.475661277770996094e+00,-9.438673019409179688e+00,-9.332498550415039062e+00,-6.431619644165039062e+00,-6.045520305633544922e+00,-2.694673538208007812e+00,2.253495305776596069e-01,2.943868875503540039e+00,-5.178945541381835938e+00
4.689529538154602051e-01,6.327995777130126953e+00,9.437693595886230469e+00,8.283230781555175781e+00,4.259486198425292969e+00,2.435478925704956055e+00,7.570061683654785156e-01,2.263062477111816406e+00,1.944639444351196289e+00,-1.916417479515075684e-01,1.968378186225891113e+00,1.386871218681335449e+00,2.606343746185302734e+00,1.155732572078704834e-01,-2.287121534347534180e+00,1.056410074234008789e+00,6.682952046394348145e-01,-7.051874399185180664e-01,-7.467133998870849609e-01,-9.739594459533691406e-01,6.768901944160461426e-01,6.545353531837463379e-01,-1.864851832389831543e+00,-2.175371885299682617e+00,3.133451938629150391e-01,2.707677125930786133e+00,3.398119449615478516e+00,7.714080810546875000e-01,4.132986545562744141e+00,7.737340927124023438e+00,8.468834877014160156e+00,-1.462932586669921875e+00
6.835785388946533203e+00,1.149099063873291016e+01,1.622608566284179688e+01,1.492619609832763672e+01,1.106145191192626953e+01,8.168794631958007812e+00,6.744799613952636719e+00,7.739444255828857422e+00,5.871207714080810547e+00,4.379383087158203125e+00,6.129346370697021484e+00,5.049718379974365234e+00,9.778657913208007812e+00,8.616094589233398438e+00,6.756937503814697266e+00,4.417417526245117188e+00,5.249539375305175781e+00,3.356342315673828125e+00,2.819217443466186523e+00,4.696230411529541016e+00,6.806426048278808594e+00,6.662709236145019531e+00,5.051169872283935547e+00,5.519860744476318359e+00,8.626667976379394531e+00,1.135926055908203125e+01,9.573744773864746094e+00,8.390615463256835938e+00,1.049208259582519531e+01,1.089741516113281250e+01,8.011149406433105469e+00,7.315091609954833984e+00
7.349625587463378906e+00,9.280731201171875000e+00,6.773987770080566406e+00,6.999724864959716797e+00,9.750958442687988281e+00,1.015918922424316406e+01,7.526979923248291016e+00,7.800795555114746094e+00,1.636046767234802246e+00,-1.930275201797485352e+00,2.695109248161315918e-01,5.444462299346923828e+00,4.948612213134765625e+00,5.642843246459960938e+00,4.853435516357421875e+00,4.404501914978027344e+00,2.408348560333251953e+00,3.705576658248901367e+00,4.848277568817138672e+00,4.201932907104492188e+00,2.836766958236694336e+00,8.897137641906738281e-01,3.891034364700317383e+00,4.358675003051757812e+00,4.959688186645507812e+00,4.526111125946044922e+00,2.995412111282348633e+00,4.403399944305419922e+00,6.528083801269531250e+00,7.034417152404785156e+00,5.340844631195068359e+00,1.346539592742919922e+01
3.144621372222900391e+00,7.659426212310791016e+00,4.262851774692535400e-01,-2.866811156272888184e-01,5.073884010314941406e+00,6.730946540832519531e+00,2.980165004730224609e+00,4.701140403747558594e+00,-2.756985187530517578e+00,-7.484319210052490234e+00,-5.652581691741943359e+00,2.383914470672607422e+00,4.105241894721984863e-01,1.748628735542297363e+00,2.202600955963134766e+00,2.378078222274780273e+00,-5.972811579704284668e-01,4.070227444171905518e-01,3.309670448303222656e+00,1.093464612960815430e+00,-1.767028570175170898e+00,-4.992249965667724609e+00,-2.122943639755249023e+00,-1.565922737121582031e+00,-5.397661328315734863e-01,-2.073194265365600586e+00,-4.843256950378417969e+00,-2.729359388351440430e+00,8.291198611259460449e-01,1.227568984031677246e+00,8.668220788240432739e-02,1.084673118591308594e+01
-7.957677841186523438e-01,2.306525707244873047e+00,-1.573068022727966309e+00,-1.103834748268127441e+00,3.969880104064941406e+00,3.735430717468261719e+00,1.364161252975463867e+00,2.756264209747314453e+00,-5.154162883758544922e+00,-8.269535064697265625e+00,-6.732828140258789062e+00,-1.614436030387878418e+00,7.305716276168823242e-01,2.588095664978027344e+00,6.344189643859863281e-01,-3.890520334243774414e+00,-5.328944206237792969e+00,-5.195273876190185547e+00,-4.363665580749511719e+00,-3.316500902175903320e+00,-3.794952630996704102e+00,-5.334886074066162109e+00,-6.324543952941894531e+00,-5.253921508789062500e+00,-3.277270793914794922e+00,-2.822226762771606445e+00,-6.072897434234619141e+00,-4.291850090026855469e+00,-2.802922725677490234e+00,-4.126515865325927734e+00,-7.628924846649169922e+00,1.201999187469482422e+00
7.653927803039550781e-01,-6.216884851455688477e-01,-6.695935726165771484e-01,1.282593607902526855e+00,4.348361968994140625e+00,3.428410530090332031e+00,1.255601167678833008e+00,2.419539213180541992e+00,-4.680975437164306641e+00,-6.252281188964843750e+00,-4.947925567626953125e+00,-5.581642985343933105e-01,5.013995766639709473e-01,1.551618456840515137e+00,-2.358370721340179443e-01,-2.859822511672973633e+00,-3.356662034988403320e+00,-3.348306417465209961e+00,-3.611188173294067383e+00,-1.729479789733886719e+00,-2.221980839967727661e-01,-9.922381043434143066e-01,-8.432114720344543457e-01,-7.087931782007217407e-02,9.399089217185974121e-01,1.553173303604125977e+00,4.647626280784606934e-01,9.052361249923706055e-01,-8.876372575759887695e-01,-1.148710131645202637e+00,-3.257387638092041016e+00,2.580394029617309570e+00
8.874552726745605469e+00,9.269446372985839844e+00,9.759550094604492188e+00,8.231050491333007812e+00,7.943522453308105469e+00,9.057485580444335938e+00,4.910093307495117188e+00,7.646671295166015625e+00,4.541616439819335938e+00,3.602500200271606445e+00,3.799282312393188477e+00,9.637411117553710938e+00,8.058706283569335938e+00,5.318819999694824219e+00,9.439378738403320312e+00,1.335049533843994141e+01,1.378148937225341797e+01,1.291823959350585938e+01,1.378784370422363281e+01,1.456252765655517578e+01,1.361966896057128906e+01,1.128897476196289062e+01,1.041989898681640625e+01,1.114240169525146484e+01,1.270906543731689453e+01,1.225999450683593750e+01,1.078491401672363281e+01,8.090258598327636719e+00,6.800485610961914062e+00,8.504187583923339844e+00,1.180995368957519531e+01,1.329388046264648438e+01
8.127680778503417969e+00,7.337406635284423828e+00,9.343007087707519531e+00,7.447813034057617188e+00,6.433613777160644531e+00,9.069566726684570312e+00,5.038088321685791016e+00,8.150037765502929688e+00,4.794004917144775391e+00,4.759218692779541016e+00,4.831686496734619141e+00,1.025645542144775391e+01,8.891200065612792969e+00,6.171340465545654297e+00,1.011950683593750000e+01,1.349281406402587891e+01,1.441932678222656250e+01,1.360876941680908203e+01,1.373870277404785156e+01,1.548954868316650391e+01,1.562172889709472656e+01,1.315536117553710938e+01,7.660356044769287109e+00,1.007792758941650391e+01,1.214518070220947266e+01,1.145331192016601562e+01,8.954322814941406250e+00,4.814449787139892578e+00,3.819825410842895508e+00,4.225381374359130859e+00,7.110336780548095703e+00,4.316704273223876953e+00
-5.800579547882080078e+00,-9.738796234130859375e+00,-9.093027114868164062e+00,-8.943082809448242188e+00,-7.036359310150146484e+00,-6.411691188812255859e+00,-9.788821220397949219e+00,-5.757432460784912109e+00,-8.806023597717285156e+00,-8.085106849670410156e+00,-9.148290634155273438e+00,-3.503777027130126953e+00,-5.624577045440673828e+00,-8.887005805969238281e+00,-6.203695774078369141e+00,-1.025522232055664062e+00,-3.040863573551177979e-01,-1.386752009391784668e+00,-2.082299232482910156e+00,5.542365312576293945e-01,7.865195274353027344e-01,-1.929686307907104492e+00,-4.340092658996582031e+00,-3.552524328231811523e+00,-3.269468545913696289e+00,-3.647781133651733398e+00,-2.976474761962890625e+00,-6.070529460906982422e+00,-9.974428176879882812e+00,-9.517003059387207031e+00,-8.895469665527343750e+00,-1.181117725372314453e+01
-6.029151439666748047e+00,-7.261600017547607422e+00,-6.263778209686279297e+00,-8.459359169006347656e+00,-7.400319576263427734e+00,-6.357947826385498047e+00,-7.329737186431884766e+00,-4.923830509185791016e+00,-1.040849018096923828e+01,-9.852934837341308594e+00,-7.882955551147460938e+00,-4.258314132690429688e+00,-5.399669170379638672e+00,-7.402275562286376953e+00,-6.198380470275878906e+00,-3.101198911666870117e+00,-1.585338950157165527e+00,-3.875117063522338867e+00,-3.920660972595214844e+00,-4.031049251556396484e+00,-2.233330726623535156e+00,-1.126920700073242188e+00,-2.488030046224594116e-01,-1.287284255027770996e+00,-1.049154639244079590e+00,6.762861460447311401e-02,5.820764899253845215e-01,-2.132899761199951172e+00,-7.583194732666015625e+00,-6.896797657012939453e+00,-4.743902683258056641e+00,-3.176803112030029297e+00
8.744472503662109375e+00,9.352685928344726562e+00,1.388021945953369141e+01,9.774816513061523438e+00,6.828993797302246094e+00,7.478154182434082031e+00,7.449398994445800781e+00,7.636478424072265625e+00,1.030282855033874512e+00,1.742981791496276855e+00,6.376966476440429688e+00,8.447584152221679688e+00,8.025664329528808594e+00,6.341604232788085938e+00,8.845277786254882812e+00,9.816049575805664062e+00,1.003899288177490234e+01,1.014486789703369141e+01,1.043667793273925781e+01,8.589752197265625000e+00,8.557550430297851562e+00,1.012884998321533203e+01,8.739945411682128906e+00,9.941784858703613281e+00,1.051137351989746094e+01,1.237456035614013672e+01,1.100040149688720703e+01,9.016000747680664062e+00,7.180074214935302734e+00,5.692240715026855469e+00,6.833414554595947266e+00,9.618129730224609375e+00
5.620987415313720703e+00,7.407290935516357422e+00,1.249394226074218750e+01,7.489960193634033203e+00,2.613287925720214844e+00,6.081003189086914062e+00,5.988213062286376953e+00,5.291428089141845703e+00,3.243572950363159180e+00,3.335536956787109375e+00,5.177351951599121094e+00,4.631595134735107422e+00,3.333501815795898438e+00,3.921776056289672852e+00,3.862965345382690430e+00,4.098274707794189453e+00,2.552611112594604492e+00,4.885134696960449219e+00,5.227787971496582031e+00,7.247021198272705078e+00,3.732886075973510742e+00,7.114533185958862305e-01,7.960999608039855957e-01,1.712655663490295410e+00,1.765504121780395508e+00,3.272106170654296875e+00,4.257257938385009766e+00,4.307314395904541016e+00,5.716536521911621094e+00,3.769322395324707031e+00,2.704897642135620117e+00,3.916064023971557617e+00
-9.414367675781250000e+00,-3.323410987854003906e+00,-6.136077880859375000e+00,-1.156883049011230469e+01,-1.135801792144775391e+01,-9.179359436035156250e+00,-8.073211669921875000e+00,-8.375029563903808594e+00,-8.327152252197265625e+00,-8.723197937011718750e+00,-8.959448814392089844e+00,-8.650592803955078125e+00,-9.179165840148925781e+00,-9.723299026489257812e+00,-1.013837337493896484e+01,-9.454808235168457031e+00,-9.751031875610351562e+00,-1.055673599243164062e+01,-1.042853450775146484e+01,-7.521256923675537109e+00,-6.202029705047607422e+00,-9.287467002868652344e+00,-8.725695610046386719e+00,-9.279129981994628906e+00,-7.031332969665527344e+00,-5.743779182434082031e+00,-6.577406883239746094e+00,-7.372554779052734375e+00,-6.262916564941406250e+00,-4.534331798553466797e+00,-3.106522083282470703e+00,-2.924131393432617188e+00
-9.796071052551269531e+00,-6.127999782562255859e+00,-1.195300579071044922e+01,-1.678286933898925781e+01,-8.381584167480468750e+00,-8.378960609436035156e+00,-8.422430992126464844e+00,-5.476734638214111328e+00,-7.751455307006835938e+00,-1.148055171966552734e+01,-1.052386856079101562e+01,-1.131118202209472656e+01,-7.872946739196777344e+00,-8.111064910888671875e+00,-1.046960639953613281e+01,-1.395591354370117188e+01,-1.189422607421875000e+01,-1.215208053588867188e+01,-1.335894298553466797e+01,-1.018137359619140625e+01,-5.239443302154541016e+00,-5.318853378295898438e+00,-8.478702545166015625e+00,-7.355424404144287109e+00,-3.465965270996093750e+00,-3.483407735824584961e+00,-7.812664508819580078e+00,-8.797688484191894531e+00,-7.113787651062011719e+00,-5.256054401397705078e+00,-4.129181861877441406e+00,-4.614441394805908203e+00
3.317726373672485352e+00,3.157433509826660156e+00,1.497931241989135742e+00,-4.932863235473632812e+00,3.762320280075073242e-01,2.793255567550659180e+00,3.327205419540405273e+00,3.543730020523071289e+00,2.034813642501831055e+00,-3.985198140144348145e-01,1.622509121894836426e+00,-1.470605134963989258e+00,1.698023319244384766e+00,6.104838371276855469e+00,4.949823379516601562e+00,-1.916426181793212891e+00,-2.520263671875000000e+00,-1.765610456466674805e+00,-1.531270980834960938e+00,-5.781254172325134277e-01,2.723481655120849609e+00,2.790750980377197266e+00,2.060655832290649414e+00,3.635176420211791992e+00,5.430794239044189453e+00,4.028623580932617188e+00,3.475355386734008789e+00,3.439985275268554688e+00,6.105851650238037109e+00,5.542502403259277344e+00,4.918918609619140625e+00,-4.239340424537658691e-01
1.203377151489257812e+01,1.499955272674560547e+01,1.846994400024414062e+01,7.206932544708251953e+00,2.645183324813842773e+00,8.957580566406250000e+00,1.009994792938232422e+01,7.378151893615722656e+00,7.458390235900878906e+00,1.076387596130371094e+01,1.357198143005371094e+01,1.015781116485595703e+01,9.747504234313964844e+00,1.130974197387695312e+01,1.315862751007080078e+01,1.190176296234130859e+01,1.063131904602050781e+01,1.073580741882324219e+01,1.148243522644042969e+01,1.182497882843017578e+01,1.251965045928955078e+01,1.397186374664306641e+01,1.650135231018066406e+01,1.648259925842285156e+01,1.535590744018554688e+01,1.582448291778564453e+01,1.833256530761718750e+01,1.712072944641113281e+01,1.797464179992675781e+01,1.890264701843261719e+01,2.224639892578125000e+01,1.550465679168701172e+01
6.077792167663574219e+00,6.712035179138183594e+00,1.148572254180908203e+01,3.388290643692016602e+00,-3.945944905281066895e-01,4.914087772369384766e+00,8.077146530151367188e+00,5.506830692291259766e+00,2.593682765960693359e+00,5.803216934204101562e+00,9.209492683410644531e+00,6.887530326843261719e+00,5.478302478790283203e+00,2.237282276153564453e+00,3.885956764221191406e+00,6.277288436889648438e+00,7.779720306396484375e+00,8.693016052246093750e+00,8.327377319335937500e+00,8.259752273559570312e+00,4.010972499847412109e+00,6.407383918762207031e+00,8.623945236206054688e+00,7.475239753723144531e+00,4.652874946594238281e+00,6.048359870910644531e+00,1.040404701232910156e+01,9.696172714233398438e+00,9.813154220581054688e+00,9.485823631286621094e+00,1.562252140045166016e+01,1.753660774230957031e+01
-3.181509494781494141e+00,-8.280424118041992188e+00,-6.382921695709228516e+00,-8.845017433166503906e+00,-6.857064723968505859e+00,-3.105724096298217773e+00,-7.813943624496459961e-01,-2.659292221069335938e+00,-5.070044517517089844e+00,-4.675149440765380859e+00,-3.507120132446289062e+00,-5.547303199768066406e+00,-5.436373233795166016e+00,-6.628962039947509766e+00,-6.937858104705810547e+00,-6.806200981140136719e+00,-5.636546134948730469e+00,-5.673851490020751953e+00,-5.148821830749511719e+00,-7.018186092376708984e+00,-8.963316917419433594e+00,-7.589416980743408203e+00,-6.407850265502929688e+00,-7.767715454101562500e+00,-1.020173168182373047e+01,-1.051654529571533203e+01,-7.754618167877197266e+00,-6.071721076965332031e+00,-5.308108329772949219e+00,-6.261102199554443359e+00,-5.863654613494873047e+00,-8.928505182266235352e-01
4.451504051685333252e-01,-2.031723976135253906e+00,-2.582072019577026367e+00,-7.487926006317138672e+00,-5.111277103424072266e+00,1.565390080213546753e-01,1.080725789070129395e+00,-1.518582820892333984e+00,-1.361181378364562988e+00,-7.149889469146728516e-01,2.482099294662475586e+00,1.418798327445983887e+00,1.538254618644714355e+00,1.141391873359680176e+00,8.045752644538879395e-01,2.252956628799438477e-01,3.958342969417572021e-01,7.721791267395019531e-01,3.531751334667205811e-01,-1.038935303688049316e+00,-7.313126325607299805e-01,1.052164077758789062e+00,1.960861206054687500e+00,4.212207794189453125e-01,-1.081435680389404297e+00,-2.152242898941040039e+00,-1.342756271362304688e+00,1.114608287811279297e+00,1.827732682228088379e+00,1.778711199760437012e+00,8.084066510200500488e-01,-2.721378087997436523e+00
1.078023624420166016e+01,1.149535083770751953e+01,1.304326915740966797e+01,6.871691703796386719e+00,5.727525234222412109e+00,1.173398113250732422e+01,1.335937690734863281e+01,8.957806587219238281e+00,7.977093696594238281e+00,1.002150726318359375e+01,1.580731391906738281e+01,1.509334564208984375e+01,1.533975219726562500e+01,1.244451236724853516e+01,1.128367805480957031e+01,1.349679946899414062e+01,1.670913696289062500e+01,1.724770164489746094e+01,1.698398590087890625e+01,1.454736232757568359e+01,1.399228858947753906e+01,1.673115730285644531e+01,1.805987167358398438e+01,1.625115585327148438e+01,1.319998836517333984e+01,1.367674255371093750e+01,1.412390708923339844e+01,1.637455749511718750e+01,1.629725265502929688e+01,1.675203895568847656e+01,1.696811676025390625e+01,1.318294048309326172e+01
9.895632743835449219e+00,3.627615690231323242e+00,6.433677196502685547e+00,4.934294700622558594e+00,5.261972904205322266e+00,1.029755878448486328e+01,1.081771564483642578e+01,6.365753173828125000e+00,6.599659919738769531e+00,6.878494739532470703e+00,1.008729743957519531e+01,1.002506923675537109e+01,1.016181564331054688e+01,8.451509475708007812e+00,9.223102569580078125e+00,9.103594779968261719e+00,1.095239639282226562e+01,1.117619705200195312e+01,1.093862056732177734e+01,7.580090999603271484e+00,6.966734409332275391e+00,9.609634399414062500e+00,1.060405921936035156e+01,8.272624015808105469e+00,6.193764686584472656e+00,4.893735408782958984e+00,5.334976673126220703e+00,8.752553939819335938e+00,8.592160224914550781e+00,9.300760269165039062e+00,9.487279891967773438e+00,1.189705753326416016e+01
-2.304757118225097656e+00,-1.085136127471923828e+01,-1.309051132202148438e+01,-1.173511886596679688e+01,-5.908185005187988281e+00,-3.137515306472778320e+00,-2.615661144256591797e+00,-6.038115978240966797e+00,-2.136265277862548828e+00,-3.812850475311279297e+00,-1.656418442726135254e+00,-3.857122182846069336e+00,-5.279050827026367188e+00,-7.384862422943115234e+00,-3.969577550888061523e+00,-2.926472425460815430e+00,-4.527540206909179688e+00,-5.690649509429931641e+00,-3.383534669876098633e+00,-9.367794990539550781e+00,-1.134030437469482422e+01,-7.692683696746826172e+00,-4.842825889587402344e+00,-8.047536849975585938e+00,-9.541964530944824219e+00,-1.067845153808593750e+01,-1.120022392272949219e+01,-7.819304466247558594e+00,-6.555320739746093750e+00,-7.061013221740722656e+00,-6.567931175231933594e+00,-5.515814781188964844e+00
-7.487330913543701172e+00,-9.724093437194824219e+00,-9.402229309082031250e+00,-9.824076652526855469e+00,-7.404585361480712891e+00,-5.801274299621582031e+00,-3.670659542083740234e+00,-8.196264266967773438e+00,-5.576958656311035156e+00,-6.969688415527343750e+00,-2.438271999359130859e+00,-2.285432577133178711e+00,-2.875796556472778320e+00,-5.770019531250000000e+00,-5.530565738677978516e+00,-5.221959590911865234e+00,-3.077984094619750977e+00,-3.863282918930053711e+00,-4.793302536010742188e+00,-8.645444869995117188e+00,-9.728923797607421875e+00,-5.537519931793212891e+00,-5.969565391540527344e+00,-7.777384757995605469e+00,-1.003637409210205078e+01,-7.561547279357910156e+00,-7.575745105743408203e+00,-7.298877239227294922e+00,-8.099824905395507812e+00,-7.967345237731933594e+00,-6.916584014892578125e+00,-9.634046554565429688e+00
-2.079942226409912109e+00,-2.185692548751831055e+00,1.269167542457580566e+00,3.020332194864749908e-02,-1.220146298408508301e+00,6.415916681289672852e-01,3.576545238494873047e+00,-1.915572404861450195e+00,-2.793669223785400391e+00,-1.968408226966857910e+00,1.658639788627624512e+00,1.637053728103637695e+00,4.668179512023925781e+00,4.353419303894042969e+00,1.532987713813781738e+00,2.543389564380049706e-03,4.205388069152832031e+00,3.490734338760375977e+00,6.396527886390686035e-01,-2.616022109985351562e+00,-2.610858917236328125e+00,-6.591019630432128906e-01,-7.294235229492187500e-01,-2.409369230270385742e+00,-3.749045610427856445e+00,-1.065339565277099609e+00,4.388623833656311035e-01,-7.195804715156555176e-01,-1.802661299705505371e+00,1.752510666847229004e-01,4.468785226345062256e-01,-1.289043903350830078e+00
9.012822508811950684e-01,-4.215999603271484375e+00,-3.835721969604492188e+00,-1.315015673637390137e+00,1.400954723358154297e+00,1.125124096870422363e+00,2.490890502929687500e+00,-3.285233736038208008e+00,-2.188740491867065430e+00,-3.680527806282043457e-01,3.864032506942749023e+00,3.161977529525756836e+00,2.068083524703979492e+00,-1.561721563339233398e+00,-2.552527666091918945e+00,1.161319375038146973e+00,2.035261869430541992e+00,2.427835226058959961e+00,3.375604391098022461e+00,-3.457701444625854492e+00,-5.743399620056152344e+00,-1.820027112960815430e+00,1.460856437683105469e+00,-3.988267898559570312e+00,-6.057012557983398438e+00,-4.232754230499267578e+00,-2.053074598312377930e+00,-1.656437635421752930e+00,-2.170027017593383789e+00,-1.056547522544860840e+00,-1.018563866615295410e+00,8.609691262245178223e-02
-1.726179271936416626e-01,-5.896290779113769531e+00,-6.212329864501953125e+00,-1.743927121162414551e+00,1.574700593948364258e+00,-1.853154301643371582e-01,-5.630015134811401367e-01,-5.718114852905273438e+00,-1.303869485855102539e+00,4.090757966041564941e-01,5.061367511749267578e+00,4.385460376739501953e+00,4.543214440345764160e-01,-4.884826183319091797e+00,-6.458786010742187500e+00,-2.386275529861450195e+00,-3.157596886157989502e-01,8.587265610694885254e-01,2.159528017044067383e+00,-1.566006064414978027e+00,-2.859692335128784180e+00,7.406644821166992188e-01,1.988180041313171387e+00,-3.110793590545654297e+00,-5.861255168914794922e+00,-1.976257801055908203e+00,-6.898756027221679688e-01,-1.125595450401306152e+00,-3.591939449310302734e+00,-2.347380638122558594e+00,-1.529890060424804688e+00,1.013139843940734863e+00
9.921069145202636719e+00,1.539932608604431152e+00,-3.183688037097454071e-03,1.851247191429138184e+00,4.437458992004394531e+00,7.174410343170166016e+00,8.655564308166503906e+00,2.150667428970336914e+00,4.523725986480712891e+00,7.787038803100585938e+00,1.054317665100097656e+01,9.694495201110839844e+00,1.072044372558593750e+01,7.789388179779052734e+00,9.000480651855468750e+00,9.445003509521484375e+00,1.277866649627685547e+01,1.181170749664306641e+01,1.156268215179443359e+01,1.031591033935546875e+01,8.858014106750488281e+00,1.024511909484863281e+01,1.151115417480468750e+01,7.720228672027587891e+00,4.975728988647460938e+00,9.022373199462890625e+00,1.128113651275634766e+01,8.944224357604980469e+00,5.767837524414062500e+00,8.588185310363769531e+00,1.059916305541992188e+01,8.463350296020507812e+00
1.297815704345703125e+01,1.739309310913085938e+00,-2.718726634979248047e+00,-4.589141368865966797e+00,4.129935264587402344e+00,9.649980545043945312e+00,9.893781661987304688e+00,1.534451961517333984e+00,2.824527263641357422e+00,8.710379600524902344e+00,1.328479480743408203e+01,1.331258106231689453e+01,1.240153217315673828e+01,7.968535900115966797e+00,9.016007423400878906e+00,1.090624141693115234e+01,1.437426567077636719e+01,1.420550441741943359e+01,1.494446468353271484e+01,1.399894332885742188e+01,1.070053482055664062e+01,1.395902729034423828e+01,1.566710948944091797e+01,1.099934005737304688e+01,7.367577075958251953e+00,1.069836711883544922e+01,1.515854263305664062e+01,1.236692810058593750e+01,8.228600502014160156e+00,1.137404727935791016e+01,1.340069198608398438e+01,3.197960615158081055e+00
-7.523205280303955078e-01,-1.206481075286865234e+01,-7.040832996368408203e+00,-9.391408920288085938e+00,-5.715178966522216797e+00,-4.510693073272705078e+00,-3.681493282318115234e+00,-9.416193962097167969e+00,-5.421405315399169922e+00,-9.607354998588562012e-01,1.718214631080627441e+00,7.083266973495483398e-01,-7.672067284584045410e-01,-5.196126461029052734e+00,-6.243884086608886719e+00,-3.819938421249389648e+00,-7.315309047698974609e-01,-9.669052958488464355e-01,-5.074149966239929199e-01,-1.002342775464057922e-01,-1.720141530036926270e+00,-8.963614702224731445e-01,-2.223403751850128174e-01,-5.459088802337646484e+00,-9.844504356384277344e+00,-4.394079208374023438e+00,-6.247434616088867188e-01,-3.147911548614501953e+00,-7.854289531707763672e+00,-5.746976852416992188e+00,-6.576389312744140625e+00,-9.334503173828125000e+00
-1.164136600494384766e+01,-1.497198486328125000e+01,-1.552532911300659180e-01,-3.047778643667697906e-02,-7.244226455688476562e+00,-1.165646648406982422e+01,-9.884271621704101562e+00,-7.866781711578369141e+00,-1.586105346679687500e+00,-8.694915175437927246e-01,-7.617610454559326172e+00,-1.001234340667724609e+01,-8.563940048217773438e+00,-9.217773437500000000e+00,-1.095644378662109375e+01,-1.335999870300292969e+01,-1.173961639404296875e+01,-1.274145984649658203e+01,-1.186627674102783203e+01,-7.835871696472167969e+00,-7.538066387176513672e+00,-1.276422023773193359e+01,-1.330077457427978516e+01,-1.515279865264892578e+01,-1.581686401367187500e+01,-1.105895805358886719e+01,-1.055970954895019531e+01,-1.342110919952392578e+01,-1.498250865936279297e+01,-1.080273628234863281e+01,-8.750130653381347656e+00,-1.000501871109008789e+00
-4.618755340576171875e+00,-1.881793975830078125e+00,7.628510951995849609e+00,1.024819374084472656e+01,5.297760963439941406e+00,-2.736926555633544922e+00,-1.110685467720031738e+00,5.332147598266601562e+00,1.122387695312500000e+01,8.870164871215820312e+00,-6.705263257026672363e-01,-4.292418003082275391e+00,-1.448964357376098633e+00,1.002569079399108887e+00,9.184033870697021484e-01,-5.323613643646240234e+00,-5.217137336730957031e+00,-6.802166461944580078e+00,-3.874775648117065430e+00,-7.131035923957824707e-01,-1.414655685424804688e+00,-4.975638389587402344e+00,-5.648923397064208984e+00,-4.898040294647216797e+00,-2.570549249649047852e+00,-4.521064758300781250e-01,-2.323610633611679077e-01,-4.380168437957763672e+00,-4.117886066436767578e+00,2.999219894409179688e+00,1.088819980621337891e+01,1.552305412292480469e+01
-2.786927223205566406e+00,4.033751487731933594e+00,5.618951320648193359e+00,9.605143547058105469e+00,1.063442230224609375e+01,4.204640865325927734e+00,4.373621940612792969e+00,7.576810836791992188e+00,1.297989559173583984e+01,8.955315589904785156e+00,4.852524280548095703e+00,9.009990692138671875e-01,-1.927734732627868652e+00,-3.132091760635375977e+00,-2.504401922225952148e+00,-1.384926676750183105e+00,-2.396923780441284180e+00,-3.101819992065429688e+00,-3.561594188213348389e-01,3.718645572662353516e+00,2.621214866638183594e+00,6.468662619590759277e-01,1.166688442230224609e+00,9.732427000999450684e-01,2.306139230728149414e+00,5.348749637603759766e+00,6.878965854644775391e+00,2.229664802551269531e+00,4.987970352172851562e+00,1.034299373626708984e+01,1.435804843902587891e+01,1.278946495056152344e+01
-2.641013622283935547e+00,4.897293448448181152e-01,-4.346409797668457031e+00,-6.042134165763854980e-01,5.043128490447998047e+00,2.005137443542480469e+00,-7.773696780204772949e-01,-1.289570450782775879e+00,3.332700967788696289e+00,-4.909617304801940918e-01,-2.696369171142578125e+00,-3.530346870422363281e+00,-6.202906608581542969e+00,-1.469953727722167969e+01,-1.749832916259765625e+01,-1.149604797363281250e+01,-4.919174194335937500e+00,-4.534331321716308594e+00,-5.096797943115234375e+00,2.948212325572967529e-01,1.052506446838378906e+00,-1.845124721527099609e+00,-3.709007263183593750e+00,-2.308372974395751953e+00,-1.403435468673706055e+00,1.657177925109863281e+00,3.659854412078857422e+00,-1.080004870891571045e-01,2.326452732086181641e+00,4.945258617401123047e+00,1.905906915664672852e+00,2.392383575439453125e+00
1.714965581893920898e+00,8.639766573905944824e-01,-3.868710517883300781e+00,-6.219567060470581055e-01,5.548656940460205078e+00,5.437148094177246094e+00,1.432566761970520020e+00,-1.264070510864257812e+00,1.702656269073486328e+00,-1.191741347312927246e+00,-4.243011474609375000e+00,-3.800669908523559570e+00,-2.482068538665771484e+00,-7.517011165618896484e+00,-9.979772567749023438e+00,-8.379415512084960938e+00,-4.077339649200439453e+00,-4.253789901733398438e+00,-4.619781970977783203e+00,-2.301090002059936523e+00,-2.679862082004547119e-01,1.647467136383056641e+00,1.127588987350463867e+00,1.222319483757019043e+00,1.827987432479858398e+00,4.236687660217285156e+00,5.211823940277099609e+00,2.686593055725097656e+00,3.808292388916015625e+00,5.625227928161621094e+00,4.840949058532714844e+00,6.873605251312255859e+00
1.083421587944030762e+00,6.131596088409423828e+00,6.817291259765625000e+00,9.894789695739746094e+00,1.013488769531250000e+01,9.264251708984375000e+00,6.768205642700195312e+00,3.964781045913696289e+00,3.556578874588012695e+00,2.043425321578979492e+00,1.924483418464660645e+00,1.345986962318420410e+00,1.392433404922485352e+00,3.715763568878173828e+00,5.795820236206054688e+00,3.933264255523681641e+00,1.179866671562194824e+00,1.041917443275451660e+00,2.328419834375381470e-01,-9.551656842231750488e-01,-1.070852518081665039e+00,3.545503616333007812e+00,3.275473117828369141e+00,2.073017597198486328e+00,3.836743116378784180e+00,8.023210525512695312e+00,7.409219741821289062e+00,5.265479087829589844e+00,7.568038463592529297e+00,1.027746963500976562e+01,1.041331768035888672e+01,1.387751770019531250e+01
-4.585336208343505859e+00,2.910945415496826172e+00,2.751411199569702148e+00,6.056132793426513672e+00,5.023765563964843750e+00,5.688721179962158203e+00,3.109203338623046875e+00,-6.243226528167724609e-01,-1.911584734916687012e+00,-3.702711582183837891e+00,-3.226594924926757812e+00,-3.301165580749511719e+00,-4.343297958374023438e+00,-3.153133869171142578e+00,-2.655303955078125000e+00,-2.146210670471191406e+00,-3.159588098526000977e+00,-4.710001945495605469e-01,-1.915956258773803711e+00,-1.969652175903320312e+00,-4.823677062988281250e+00,-5.018896102905273438e+00,-6.421236991882324219e+00,-7.669047832489013672e+00,-4.272122383117675781e+00,8.838654160499572754e-01,9.130296111106872559e-01,-9.666459560394287109e-01,3.311993598937988281e+00,4.199139118194580078e+00,3.467102646827697754e-01,5.227842807769775391e+00
-9.556931495666503906e+00,-7.378201961517333984e+00,-1.419937038421630859e+01,-1.058910751342773438e+01,-3.860150337219238281e+00,-4.491621553897857666e-01,-4.396525859832763672e+00,-1.033271694183349609e+01,-6.260464668273925781e+00,-8.211855888366699219e+00,-1.071423530578613281e+01,-1.196142101287841797e+01,-1.067987155914306641e+01,-8.593405723571777344e+00,-9.168133735656738281e+00,-8.801191329956054688e+00,-1.025313663482666016e+01,-8.363605499267578125e+00,-6.958076477050781250e+00,-5.174989700317382812e+00,-6.913184642791748047e+00,-9.590173721313476562e+00,-1.022627639770507812e+01,-1.208747100830078125e+01,-1.139694690704345703e+01,-7.811917781829833984e+00,-7.738501548767089844e+00,-7.684250831604003906e+00,-5.057669162750244141e+00,-6.023666858673095703e+00,-1.160590076446533203e+01,-9.203085899353027344e+00
-3.905679225921630859e+00,-3.193408012390136719e+00,-8.744894981384277344e+00,-4.361632347106933594e+00,2.576794385910034180e+00,4.671303749084472656e+00,-7.640684843063354492e-01,-6.257423877716064453e+00,9.853666275739669800e-02,3.913820683956146240e-01,-1.209948301315307617e+00,-4.315519332885742188e+00,-2.398426771163940430e+00,3.679847240447998047e+00,6.370063304901123047e+00,2.866120100021362305e+00,-1.463345170021057129e+00,-2.400665044784545898e+00,-4.713000655174255371e-01,-2.936258316040039062e-01,-9.430522918701171875e-01,-2.266179800033569336e+00,-8.094438910484313965e-01,-2.020803213119506836e+00,-3.417135000228881836e+00,-1.474454402923583984e+00,-2.099171638488769531e+00,-6.457085013389587402e-01,-2.720249593257904053e-01,4.571066796779632568e-01,-4.460962295532226562e+00,-5.315851688385009766e+00
5.250840187072753906e-01,1.962139010429382324e+00,4.246057987213134766e+00,7.501835346221923828e+00,5.889744758605957031e+00,6.757929325103759766e+00,4.557301998138427734e+00,5.654923319816589355e-01,1.267439246177673340e+00,2.417544364929199219e+00,3.698061227798461914e+00,3.719102859497070312e+00,3.217981338500976562e+00,7.319042682647705078e+00,1.019769668579101562e+01,6.632420539855957031e+00,5.718178749084472656e+00,5.416332244873046875e+00,2.667609453201293945e+00,-2.169584035873413086e-01,-9.368918538093566895e-01,-2.534236013889312744e-01,8.616549968719482422e-01,1.075393795967102051e+00,8.750662952661514282e-02,-4.541399478912353516e-01,5.413339734077453613e-01,2.284186840057373047e+00,3.473356962203979492e+00,4.137257099151611328e+00,8.423044085502624512e-01,-3.824182450771331787e-01
-1.134495925903320312e+01,-1.064852046966552734e+01,-9.871999740600585938e+00,-8.675904273986816406e+00,-9.915892601013183594e+00,-6.091947078704833984e+00,-3.075654029846191406e+00,-6.352960586547851562e+00,-1.027395534515380859e+01,-1.056521701812744141e+01,-9.070749282836914062e+00,-5.013652801513671875e+00,-8.055917739868164062e+00,-2.763258457183837891e+00,-3.753255009651184082e-01,-3.296571969985961914e+00,-4.799268245697021484e+00,-5.525902271270751953e+00,-9.924861907958984375e+00,-1.425099277496337891e+01,-1.219859313964843750e+01,-1.019486999511718750e+01,-1.052738380432128906e+01,-1.263550949096679688e+01,-1.530010700225830078e+01,-1.810599136352539062e+01,-1.443996810913085938e+01,-1.273506546020507812e+01,-1.090590667724609375e+01,-1.388836574554443359e+01,-1.509649658203125000e+01,-1.696153259277343750e+01
-1.080721950531005859e+01,-1.363704204559326172e+01,-1.739768791198730469e+01,-1.318285369873046875e+01,-9.815476417541503906e+00,-4.741127490997314453e+00,-2.324097394943237305e+00,-4.816985130310058594e+00,-8.537117004394531250e+00,-8.319214820861816406e+00,-7.453104019165039062e+00,-5.829437732696533203e+00,-8.569384574890136719e+00,-1.308508813381195068e-01,2.781106710433959961e+00,-3.219760894775390625e+00,-7.197231769561767578e+00,-9.476190567016601562e+00,-9.027935028076171875e+00,-1.261407089233398438e+01,-1.138125991821289062e+01,-1.231529998779296875e+01,-1.158688068389892578e+01,-1.360003566741943359e+01,-1.483601951599121094e+01,-1.606388854980468750e+01,-1.458542537689208984e+01,-1.343541908264160156e+01,-1.095620346069335938e+01,-1.367146110534667969e+01,-1.581012153625488281e+01,-1.874308967590332031e+01
5.498050689697265625e+00,1.076929941773414612e-01,-3.525785923004150391e+00,1.661598563194274902e+00,2.769870281219482422e+00,5.967698097229003906e+00,5.444770336151123047e+00,2.899824380874633789e+00,1.810474157333374023e+00,4.504665374755859375e+00,5.181942939758300781e+00,3.075358867645263672e+00,4.277001857757568359e+00,9.798331260681152344e+00,1.195648097991943359e+01,4.872327804565429688e+00,3.121434450149536133e+00,2.547492265701293945e+00,5.437702655792236328e+00,2.731045007705688477e+00,-9.269761443138122559e-01,-3.589694738388061523e+00,-3.866830825805664062e+00,-2.046931505203247070e+00,-1.550321817398071289e+00,-1.278956890106201172e+00,-2.398450374603271484e+00,6.861920356750488281e-01,4.761384963989257812e+00,3.347952842712402344e+00,-3.124958574771881104e-01,5.903547406196594238e-01
2.053018093109130859e+00,2.621812224388122559e-01,-2.922249555587768555e+00,-1.315994858741760254e+00,-2.677284955978393555e+00,-3.713768124580383301e-01,-9.818910807371139526e-02,-2.915638446807861328e+00,-1.654918551445007324e+00,-5.398223996162414551e-01,-3.103146851062774658e-01,-1.901716470718383789e+00,1.067500114440917969e+00,5.206355094909667969e+00,7.461008071899414062e+00,2.310500383377075195e+00,3.936731517314910889e-01,2.615402042865753174e-01,-7.374120950698852539e-01,-3.106724500656127930e+00,-4.315102100372314453e+00,-2.219281673431396484e+00,-3.767374992370605469e+00,-2.260765552520751953e+00,-3.511216640472412109e+00,-3.143653154373168945e+00,-3.944929838180541992e+00,-2.117509365081787109e+00,-3.627956211566925049e-01,-1.692960381507873535e+00,-3.228335142135620117e+00,-6.984055638313293457e-01
-6.365345478057861328e+00,-4.456456661224365234e+00,-6.498315811157226562e+00,-4.694970607757568359e+00,-5.711764812469482422e+00,-5.095807075500488281e+00,-3.139720201492309570e+00,-4.283510684967041016e+00,-6.134957313537597656e+00,-7.112839221954345703e+00,-5.224086761474609375e+00,-4.504630565643310547e+00,-5.804631710052490234e+00,-2.542558431625366211e+00,-6.345869302749633789e-01,-3.739760398864746094e+00,-5.966058731079101562e+00,-7.079146862030029297e+00,-9.357620239257812500e+00,-9.614504814147949219e+00,-6.924916744232177734e+00,-4.520808696746826172e+00,-3.445000886917114258e+00,-6.236648082733154297e+00,-9.197813034057617188e+00,-6.670854568481445312e+00,-3.805388212203979492e+00,-5.769809246063232422e+00,-7.775457382202148438e+00,-6.268678188323974609e+00,-6.204090595245361328e+00,-9.359614372253417969e+00
3.601801395416259766e+00,5.035090446472167969e+00,9.042735099792480469e+00,1.430559635162353516e+01,8.592896461486816406e+00,5.663936138153076172e+00,5.893267631530761719e+00,8.430397987365722656e+00,4.563521862030029297e+00,3.055395126342773438e+00,3.848823547363281250e+00,5.052430629730224609e+00,3.678814888000488281e+00,4.562050819396972656e+00,5.472828865051269531e+00,2.707992553710937500e+00,2.877596616744995117e+00,2.773444175720214844e+00,3.124415874481201172e+00,4.036612510681152344e+00,5.184200286865234375e+00,3.827362775802612305e+00,5.487443447113037109e+00,3.252874135971069336e+00,1.348659276962280273e+00,3.288439750671386719e+00,6.638408184051513672e+00,5.485438823699951172e+00,5.150219440460205078e+00,6.914839267730712891e+00,5.274345874786376953e+00,1.165142059326171875e+00
3.382823944091796875e+00,2.762886762619018555e+00,7.214851856231689453e+00,1.294572448730468750e+01,9.031617164611816406e+00,5.774573326110839844e+00,2.804113626480102539e+00,6.093920230865478516e+00,7.233367443084716797e+00,7.873425483703613281e+00,4.027254104614257812e+00,2.397387742996215820e+00,6.659041404724121094e+00,1.041976642608642578e+01,1.215922069549560547e+01,6.383728981018066406e+00,4.476016521453857422e+00,5.493697166442871094e+00,6.272206783294677734e+00,7.575508117675781250e+00,7.193279266357421875e+00,6.846464633941650391e+00,5.091344356536865234e+00,7.836618900299072266e+00,8.009498596191406250e+00,3.528931856155395508e+00,2.257965326309204102e+00,4.401495933532714844e+00,4.618306636810302734e+00,6.788050532341003418e-01,-7.750142216682434082e-01,2.596642971038818359e+00
-7.872235774993896484e+00,-1.353713226318359375e+01,-1.297180271148681641e+01,-5.230577468872070312e+00,-4.919313907623291016e+00,-7.063694000244140625e+00,-7.949631690979003906e+00,-4.966561317443847656e+00,-3.776445150375366211e+00,-1.202627778053283691e+00,-3.150936603546142578e+00,-6.833084583282470703e+00,-2.542822122573852539e+00,4.706035614013671875e+00,6.661882400512695312e+00,-1.645570755004882812e+00,-6.351987838745117188e+00,-4.732827663421630859e+00,-2.522985696792602539e+00,-2.847481012344360352e+00,-3.578741788864135742e+00,-4.282887458801269531e+00,-4.681969165802001953e+00,-2.099623441696166992e+00,-6.977686285972595215e-01,-5.956763267517089844e+00,-9.335547447204589844e+00,-8.571743011474609375e+00,-1.093433284759521484e+01,-1.504305458068847656e+01,-1.504047584533691406e+01,-9.845725059509277344e+00
-3.335392951965332031e+00,-7.252152919769287109e+00,-6.645976543426513672e+00,-1.164293050765991211e+00,-5.712111473083496094e+00,-5.772933959960937500e+00,-4.456178188323974609e+00,-6.000992655754089355e-01,-4.173501491546630859e+00,-1.914770483970642090e+00,-7.016699910163879395e-01,-1.622403740882873535e+00,-3.395054340362548828e-01,3.085652112960815430e+00,3.646510362625122070e+00,-3.524657726287841797e+00,-5.041413784027099609e+00,-4.489850521087646484e+00,-5.195189118385314941e-01,-1.012375950813293457e+00,-3.477443218231201172e+00,-6.163887977600097656e+00,-5.179253578186035156e+00,-6.290962219238281250e+00,-5.626992702484130859e+00,-5.098939895629882812e+00,-4.937762737274169922e+00,-5.288547515869140625e+00,-7.541457176208496094e+00,-7.289453029632568359e+00,-5.879536628723144531e+00,-4.299146652221679688e+00
-1.282018542289733887e+00,3.542132377624511719e-01,1.463027954101562500e+00,4.050405502319335938e+00,-2.855897426605224609e+00,-5.931772232055664062e+00,-3.333260536193847656e+00,2.493362687528133392e-02,-2.752002954483032227e+00,-4.888565063476562500e+00,-4.810508251190185547e+00,-4.062932491302490234e+00,-3.437756776809692383e+00,-3.143366575241088867e+00,-3.023422241210937500e+00,-5.506738662719726562e+00,-5.296235561370849609e+00,-7.452131748199462891e+00,-7.879340171813964844e+00,-7.376420974731445312e+00,-6.856124877929687500e+00,-5.838570117950439453e+00,-5.216586589813232422e+00,-7.790914535522460938e+00,-8.453496932983398438e+00,-6.729497909545898438e+00,-3.716949939727783203e+00,-3.302764654159545898e+00,-3.800226688385009766e+00,-2.897793769836425781e+00,-5.168035626411437988e-01,-2.533843517303466797e-01
-9.029277801513671875e+00,-8.446960449218750000e+00,-9.494956970214843750e+00,-6.310943603515625000e+00,-1.114198589324951172e+01,-1.502135658264160156e+01,-1.215454292297363281e+01,-5.165558815002441406e+00,-8.384751319885253906e+00,-1.092432498931884766e+01,-1.141995620727539062e+01,-1.014277553558349609e+01,-1.145811843872070312e+01,-1.088297176361083984e+01,-1.359862136840820312e+01,-1.459833049774169922e+01,-1.452186679840087891e+01,-1.362021446228027344e+01,-1.534951782226562500e+01,-1.233970546722412109e+01,-1.060693168640136719e+01,-9.689753532409667969e+00,-1.019557285308837891e+01,-8.771606445312500000e+00,-6.411248207092285156e+00,-7.203659534454345703e+00,-9.666979789733886719e+00,-1.111291980743408203e+01,-1.134468841552734375e+01,-1.030150890350341797e+01,-9.380429267883300781e+00,-1.004520034790039062e+01
1.269096851348876953e+00,5.018589496612548828e+00,4.659565925598144531e+00,6.118085861206054688e+00,-5.286061763763427734e+00,-5.439763069152832031e+00,-2.543823719024658203e+00,6.878779411315917969e+00,1.844174265861511230e+00,1.920483857393264771e-01,-2.798117697238922119e-01,1.697833657264709473e+00,-1.009425163269042969e+00,-1.525962948799133301e+00,-3.713850498199462891e+00,-5.217981338500976562e+00,-1.561280846595764160e+00,9.303275942802429199e-01,-2.343041896820068359e+00,2.301045656204223633e+00,5.751708984375000000e+00,7.064306259155273438e+00,3.745225429534912109e+00,7.614400863647460938e+00,1.058371257781982422e+01,1.036865520477294922e+01,5.503910064697265625e+00,4.049686431884765625e+00,1.865484952926635742e+00,4.478460311889648438e+00,6.649576187133789062e+00,2.746082544326782227e+00
1.048809909820556641e+01,1.263285255432128906e+01,1.756400680541992188e+01,1.900814056396484375e+01,1.860986471176147461e+00,2.801963090896606445e+00,3.350502490997314453e+00,1.270335674285888672e+01,1.308386993408203125e+01,1.099518775939941406e+01,6.948685646057128906e+00,8.254016876220703125e+00,8.444382667541503906e+00,9.550528526306152344e+00,9.187324523925781250e+00,9.419137954711914062e+00,1.233158206939697266e+01,1.349115085601806641e+01,1.243162250518798828e+01,1.468132209777832031e+01,1.482516574859619141e+01,1.471440982818603516e+01,1.461247444152832031e+01,1.517546176910400391e+01,1.578454685211181641e+01,1.688871574401855469e+01,1.635825920104980469e+01,1.513563728332519531e+01,1.356119918823242188e+01,1.579483699798583984e+01,1.963863945007324219e+01,1.594334506988525391e+01
1.323302507400512695e+00,2.370388507843017578e+00,7.790643215179443359e+00,9.502670288085937500e+00,-6.718537330627441406e+00,-6.542243480682373047e+00,-6.711186408996582031e+00,4.517949104309082031e+00,7.796754360198974609e+00,5.550575733184814453e+00,-1.854251265525817871e+00,-7.191435098648071289e-01,1.014589309692382812e+00,3.474432706832885742e+00,1.866700053215026855e+00,3.681648254394531250e+00,6.192146301269531250e+00,6.725484371185302734e+00,6.285418510437011719e+00,7.687922477722167969e+00,5.840945243835449219e+00,3.889064311981201172e+00,4.819784164428710938e+00,3.340091705322265625e+00,1.283116340637207031e+00,3.260060548782348633e+00,6.539855003356933594e+00,6.595292568206787109e+00,5.270473480224609375e+00,5.948686599731445312e+00,6.860057353973388672e+00,4.789674580097198486e-01
-1.056968498229980469e+01,-9.897798538208007812e+00,-9.203881263732910156e+00,-3.843980789184570312e+00,-1.234104442596435547e+01,-1.474901103973388672e+01,-1.395360279083251953e+01,-2.427849292755126953e+00,-5.483809947967529297e+00,-8.154882431030273438e+00,-8.844189643859863281e+00,-6.254538059234619141e+00,-1.106147193908691406e+01,-1.114758872985839844e+01,-1.243688774108886719e+01,-1.060398674011230469e+01,-8.229771614074707031e+00,-7.658980369567871094e+00,-7.026647567749023438e+00,-7.861227989196777344e+00,-7.892171382904052734e+00,-9.713655471801757812e+00,-7.928790092468261719e+00,-7.236181259155273438e+00,-7.393678188323974609e+00,-9.587582588195800781e+00,-9.251928329467773438e+00,-1.042949962615966797e+01,-1.168084144592285156e+01,-1.122479629516601562e+01,-1.009118843078613281e+01,-1.490188980102539062e+01
-3.403020143508911133e+00,-2.183978557586669922e+00,-1.250737190246582031e+00,4.320705413818359375e+00,-5.649113655090332031e+00,-5.315605163574218750e+00,-4.999620437622070312e+00,5.970765590667724609e+00,-3.665599524974822998e-01,-3.315170764923095703e+00,-1.552085757255554199e+00,4.234220981597900391e+00,-4.742389678955078125e+00,-6.787883281707763672e+00,-5.810242176055908203e+00,-3.633091688156127930e+00,-6.499083042144775391e-01,-1.423618793487548828e-01,2.028457403182983398e+00,-1.138503193855285645e+00,-3.430878221988677979e-01,-1.657333731651306152e+00,-9.993695653975009918e-03,1.602337509393692017e-02,5.844342112541198730e-01,-3.020209670066833496e-01,-2.507468461990356445e+00,-4.462257862091064453e+00,-5.919320106506347656e+00,-4.344332218170166016e+00,-1.239827513694763184e+00,-1.897571325302124023e+00
1.459652781486511230e+00,7.075075626373291016e+00,1.161298561096191406e+01,6.169667243957519531e+00,-2.556359052658081055e+00,-6.223886609077453613e-01,4.460103988647460938e+00,7.968918800354003906e+00,5.792907714843750000e+00,1.673967480659484863e+00,-8.299852013587951660e-01,5.771638870239257812e+00,-2.518272876739501953e+00,-2.289077520370483398e+00,3.685766935348510742e+00,6.987947940826416016e+00,5.636007785797119141e+00,3.448018789291381836e+00,6.359680652618408203e+00,6.821446895599365234e+00,5.172545909881591797e+00,1.725466489791870117e+00,1.046170830726623535e+00,1.713785767555236816e+00,1.295786380767822266e+00,4.242357730865478516e+00,2.847256898880004883e+00,1.499977588653564453e+00,-2.050605535507202148e+00,1.237191557884216309e+00,2.916579484939575195e+00,4.080335617065429688e+00
1.678851008415222168e+00,-2.563290596008300781e+00,2.189834356307983398e+00,7.336388826370239258e-01,3.828306913375854492e+00,2.646636486053466797e+00,1.651438474655151367e+00,-2.985133409500122070e+00,-1.356910586357116699e+00,5.772045254707336426e-01,-3.202549934387207031e+00,2.009652853012084961e+00,-1.655234098434448242e+00,-3.509414672851562500e+00,-4.190779209136962891e+00,-2.335127830505371094e+00,-3.065955400466918945e+00,-5.476597309112548828e+00,-8.045810699462890625e+00,-3.896964073181152344e+00,-2.966306924819946289e+00,-3.964848518371582031e+00,-4.897175312042236328e+00,-2.517083406448364258e+00,-2.129597425460815430e+00,-8.402550816535949707e-01,8.322349190711975098e-02,-4.319897294044494629e-01,-2.325375318527221680e+00,-4.981839358806610107e-01,-7.804925441741943359e-01,-1.464786887168884277e+00
4.426430225372314453e+00,6.740279495716094971e-02,5.764739990234375000e+00,3.710612058639526367e+00,8.113211631774902344e+00,9.103672981262207031e+00,6.555461406707763672e+00,1.529482841491699219e+00,2.128331899642944336e+00,5.703153610229492188e+00,3.825082063674926758e+00,5.368547439575195312e+00,5.442912578582763672e+00,-8.258199095726013184e-01,-7.875505447387695312e+00,-8.052096366882324219e+00,-1.953419923782348633e+00,-1.323179125785827637e+00,-5.528779029846191406e+00,-3.599069356918334961e+00,-2.139164209365844727e+00,4.045244678854942322e-02,-1.365905046463012695e+00,-2.484984397888183594e+00,-8.546839356422424316e-01,-1.136352300643920898e+00,5.046542286872863770e-01,4.176822025328874588e-03,1.431440353393554688e+00,1.691205859184265137e+00,1.407894134521484375e+00,-1.250902749598026276e-02
1.582997734658420086e-03,1.333995223045349121e+00,8.226980209350585938e+00,2.539188385009765625e+00,4.811109542846679688e+00,7.637667655944824219e+00,6.901368618011474609e+00,4.356365203857421875e+00,4.296644687652587891e+00,3.167197942733764648e+00,1.891596317291259766e-01,2.602269053459167480e-01,8.070144653320312500e-01,-1.667163372039794922e+00,-2.911494255065917969e+00,-1.335540294647216797e+00,1.587018251419067383e+00,1.695417642593383789e+00,-2.557663619518280029e-01,1.262093067169189453e+00,8.342950344085693359e-01,-6.687799096107482910e-02,-1.669444918632507324e+00,-4.472099781036376953e+00,-4.796729564666748047e+00,-4.606589794158935547e+00,-2.604919910430908203e+00,-4.311800956726074219e+00,-4.454670429229736328e+00,-1.594309926033020020e+00,-9.577114135026931763e-02,-1.778699040412902832e+00
-1.080025196075439453e+01,-8.033754348754882812e+00,-3.363541126251220703e+00,-6.092203617095947266e+00,1.168092846870422363e+00,2.177123069763183594e+00,-9.191673398017883301e-01,-6.699335575103759766e+00,-7.642085075378417969e+00,-1.009199428558349609e+01,-1.423271846771240234e+01,-9.613466262817382812e+00,-1.027525234222412109e+01,-9.513982772827148438e+00,-5.855495452880859375e+00,-5.400429725646972656e+00,-6.669773578643798828e+00,-7.874120235443115234e+00,-7.250065326690673828e+00,-6.871119499206542969e+00,-7.484234333038330078e+00,-1.056030750274658203e+01,-1.078528976440429688e+01,-1.183077812194824219e+01,-1.263034057617187500e+01,-1.310334014892578125e+01,-1.033432865142822266e+01,-1.052820301055908203e+01,-1.283788871765136719e+01,-1.111207962036132812e+01,-1.080448436737060547e+01,-1.073499488830566406e+01
-1.194311046600341797e+01,-7.928217887878417969e+00,-5.659785747528076172e+00,-3.292332887649536133e+00,4.749706745147705078e+00,3.011333942413330078e+00,-1.192918896675109863e+00,-6.373367786407470703e+00,-8.088287353515625000e+00,-6.303039550781250000e+00,-1.007531452178955078e+01,-6.300265312194824219e+00,-6.214679718017578125e+00,-6.741433620452880859e+00,-8.188610076904296875e+00,-1.084224987030029297e+01,-9.077948570251464844e+00,-8.387145042419433594e+00,-7.497979640960693359e+00,-1.207404899597167969e+01,-1.188979434967041016e+01,-1.232242870330810547e+01,-1.020575428009033203e+01,-1.100411033630371094e+01,-7.006152153015136719e+00,-8.865622520446777344e+00,-8.597514152526855469e+00,-7.342775821685791016e+00,-7.287263870239257812e+00,-9.131716728210449219e+00,-1.256523799896240234e+01,-8.325198173522949219e+00
-6.304993629455566406e+00,-4.047728538513183594e+00,2.652948796749114990e-01,5.341444015502929688e+00,9.062408447265625000e+00,6.378303527832031250e+00,3.856467723846435547e+00,3.763035058975219727e+00,6.699788093566894531e+00,8.733630180358886719e+00,1.719066977500915527e+00,-1.725545644760131836e+00,-4.030372500419616699e-01,-2.060917466878890991e-01,-4.489746570587158203e+00,-7.949212074279785156e+00,-5.952650070190429688e+00,-3.151551246643066406e+00,-1.643735289573669434e+00,-3.259111404418945312e+00,-4.161343097686767578e+00,-5.774025917053222656e+00,-5.042054176330566406e+00,-3.556487798690795898e+00,1.605031728744506836e+00,-1.106344938278198242e+00,-6.705254554748535156e+00,-5.875891208648681641e+00,-2.322484016418457031e+00,-3.163649797439575195e+00,-7.135730743408203125e+00,-3.676821947097778320e+00
-6.165209770202636719e+00,-8.306612968444824219e+00,-1.555709719657897949e+00,1.218000769615173340e+00,3.882300615310668945e+00,2.249094009399414062e+00,1.339373707771301270e+00,9.895195364952087402e-01,6.083058357238769531e+00,4.424800872802734375e+00,-4.001065731048583984e+00,-4.863780021667480469e+00,-5.213239669799804688e+00,-3.775471448898315430e+00,-1.186724901199340820e+00,-1.052598595619201660e+00,-5.213569641113281250e+00,-3.061095476150512695e+00,1.136363863945007324e+00,1.794119000434875488e+00,-1.290136456489562988e+00,-4.814664363861083984e+00,-4.767733097076416016e+00,-4.575314998626708984e+00,-4.944645881652832031e+00,-6.754662036895751953e+00,-9.538804054260253906e+00,-7.548291206359863281e+00,-4.562818050384521484e+00,-5.705252170562744141e+00,-8.782422065734863281e+00,-9.302680015563964844e+00
-4.175005435943603516e+00,-7.136082649230957031e+00,-3.182427406311035156e+00,-4.208055019378662109e+00,-1.414331674575805664e+00,-1.084091067314147949e+00,2.334048599004745483e-01,-3.238669633865356445e+00,-2.923825263977050781e+00,-3.946116209030151367e+00,-9.311205863952636719e+00,-4.685333728790283203e+00,-3.653854608535766602e+00,-4.265619754791259766e+00,-5.209923386573791504e-01,-2.123243361711502075e-01,-1.902627348899841309e+00,-7.897976636886596680e-01,1.409360885620117188e+00,-2.302193880081176758e+00,-3.390886783599853516e+00,-4.322266101837158203e+00,-3.765112876892089844e+00,-6.733452796936035156e+00,-8.979822158813476562e+00,-6.692697048187255859e+00,-4.459552764892578125e+00,-3.255424976348876953e+00,-2.564276695251464844e+00,-4.524007797241210938e+00,-6.849349021911621094e+00,-8.484566688537597656e+00
1.454344034194946289e+00,1.705457866191864014e-01,2.832388401031494141e+00,2.032942533493041992e+00,1.948730826377868652e+00,2.645129680633544922e+00,6.395198822021484375e+00,3.887465000152587891e+00,2.012702226638793945e+00,5.103082656860351562e+00,2.348353147506713867e+00,3.830240011215209961e+00,8.731011390686035156e+00,4.686389923095703125e+00,2.356976270675659180e+00,-1.453533530235290527e+00,4.549621582031250000e+00,3.926515579223632812e+00,1.714994311332702637e+00,-1.788215637207031250e+00,-1.821949519217014313e-02,8.567352294921875000e-01,1.363564729690551758e+00,-6.618009507656097412e-02,-2.987343370914459229e-01,3.486454010009765625e+00,3.800395727157592773e+00,3.260286092758178711e+00,3.729194879531860352e+00,4.930382728576660156e+00,4.674846649169921875e+00,3.692828893661499023e+00
-2.844181537628173828e+00,-1.122660160064697266e+00,6.729079246520996094e+00,6.096439361572265625e+00,3.673573970794677734e+00,4.252802848815917969e+00,5.539185047149658203e+00,3.011964797973632812e+00,5.445378303527832031e+00,9.132066726684570312e+00,5.907563209533691406e+00,3.916744709014892578e+00,8.606918334960937500e+00,6.629410743713378906e+00,3.322752475738525391e+00,-7.834647893905639648e-01,2.657489299774169922e+00,2.140109539031982422e+00,1.268328428268432617e+00,-1.792923569679260254e+00,-2.328763008117675781e+00,-5.957957506179809570e-01,1.525847792625427246e+00,-2.227935075759887695e+00,-4.134967803955078125e+00,-3.626993894577026367e+00,-3.987886011600494385e-01,4.071591496467590332e-01,6.154711246490478516e-01,1.543810069561004639e-01,1.026560187339782715e+00,6.343714714050292969e+00
-4.080103874206542969e+00,-1.410928368568420410e+00,6.216345787048339844e+00,2.893872499465942383e+00,5.857232213020324707e-01,2.761401891708374023e+00,2.446339130401611328e+00,-2.104848623275756836e+00,6.523265242576599121e-01,1.385295152664184570e+00,-7.645686268806457520e-01,-9.098879098892211914e-01,-1.939779758453369141e+00,-1.231337070465087891e+00,3.451724052429199219e-01,6.486786007881164551e-01,3.220115602016448975e-01,3.958536386489868164e+00,4.154020309448242188e+00,-3.269222736358642578e+00,-6.743866920471191406e+00,-4.368280887603759766e+00,-2.592996120452880859e+00,-6.635253906250000000e+00,-8.022794723510742188e+00,-8.402180671691894531e+00,-5.192673683166503906e+00,-4.571650505065917969e+00,-3.841681003570556641e+00,-6.124080181121826172e+00,-6.041268348693847656e+00,2.010380983352661133e+00
5.810071945190429688e+00,4.252859592437744141e+00,4.869963169097900391e+00,4.735888957977294922e+00,7.048180103302001953e+00,8.651206970214843750e+00,7.965206623077392578e+00,6.180222988128662109e+00,6.461846351623535156e+00,5.508119106292724609e+00,4.127615928649902344e+00,4.665978908538818359e+00,1.248497605323791504e+00,2.352471351623535156e-01,2.908931732177734375e+00,7.952976703643798828e+00,9.334905624389648438e+00,1.058932685852050781e+01,8.472321510314941406e+00,1.382377266883850098e+00,-6.754782199859619141e-01,2.557101488113403320e+00,2.868279695510864258e+00,4.949108123779296875e+00,5.821264266967773438e+00,6.214241504669189453e+00,4.405986785888671875e+00,3.168740749359130859e+00,3.240490436553955078e+00,2.455264627933502197e-01,2.856919765472412109e-01,7.265062332153320312e+00
7.446095943450927734e+00,4.168318271636962891e+00,4.735599040985107422e+00,7.160350799560546875e+00,1.036040592193603516e+01,9.790290832519531250e+00,7.852571010589599609e+00,7.526148796081542969e+00,8.054523468017578125e+00,5.829152107238769531e+00,4.893326282501220703e+00,6.033510684967041016e+00,6.815278053283691406e+00,2.162739992141723633e+00,8.137854933738708496e-01,5.781331062316894531e+00,7.479267120361328125e+00,3.448477983474731445e+00,2.343656778335571289e+00,8.277389407157897949e-01,3.176922321319580078e+00,9.090388298034667969e+00,9.245720863342285156e+00,1.145203971862792969e+01,1.047467803955078125e+01,7.798251628875732422e+00,5.493041038513183594e+00,7.545496940612792969e+00,8.291967391967773438e+00,2.584141969680786133e+00,1.582926988601684570e+00,5.194412708282470703e+00
1.760429739952087402e+00,-4.368238151073455811e-01,4.417916774749755859e+00,1.702992200851440430e+00,-1.577323675155639648e-01,3.738360404968261719e+00,3.990426778793334961e+00,-1.757826507091522217e-01,-3.303975343704223633e+00,-2.872816562652587891e+00,-1.734241247177124023e+00,1.680452823638916016e+00,2.232085704803466797e+00,-2.170528411865234375e+00,-3.941980123519897461e+00,-3.239403247833251953e+00,-1.553149223327636719e+00,-1.937482476234436035e+00,-3.372019767761230469e+00,-5.539595603942871094e+00,-3.217901229858398438e+00,2.934511899948120117e+00,4.472582817077636719e+00,1.314335346221923828e+00,-3.522145748138427734e+00,-6.208717823028564453e+00,-5.050371646881103516e+00,-1.205705642700195312e+00,-1.061658263206481934e+00,-6.255135059356689453e+00,-8.350865364074707031e+00,-7.004266262054443359e+00
6.872628211975097656e+00,1.399790763854980469e+00,2.359018802642822266e+00,-2.312171459197998047e+00,-1.348385214805603027e+00,5.910482406616210938e+00,7.546583175659179688e+00,2.475909948348999023e+00,-2.490470647811889648e+00,1.878085970878601074e+00,4.524785995483398438e+00,6.525780200958251953e+00,4.724387168884277344e+00,3.066901922225952148e+00,4.663118362426757812e+00,2.945565938949584961e+00,5.974212169647216797e+00,7.631322860717773438e+00,5.277894973754882812e+00,4.909654557704925537e-01,-2.159558057785034180e+00,-4.933038353919982910e-01,3.847289323806762695e+00,2.260775327682495117e+00,-3.198549032211303711e+00,-3.307640552520751953e+00,-1.537439703941345215e+00,-1.640430450439453125e+00,-3.553092718124389648e+00,-4.889597415924072266e+00,-5.973924636840820312e+00,-2.883958816528320312e+00
9.425794601440429688e+00,3.471771001815795898e+00,1.199021816253662109e+00,6.032416224479675293e-01,6.386485099792480469e+00,8.694646835327148438e+00,7.838078498840332031e+00,5.018207550048828125e+00,4.445333003997802734e+00,5.492877483367919922e+00,6.828728199005126953e+00,7.204119682312011719e+00,6.151857376098632812e+00,3.256610870361328125e+00,5.723235130310058594e+00,6.648412704467773438e+00,9.002599716186523438e+00,8.222883224487304688e+00,7.089865207672119141e+00,4.941410064697265625e+00,2.137256383895874023e+00,2.520692825317382812e+00,6.458327293395996094e+00,9.913527488708496094e+00,7.153018474578857422e+00,5.158915996551513672e+00,4.122034072875976562e+00,3.988961219787597656e+00,5.428894519805908203e+00,5.598391056060791016e+00,4.442883014678955078e+00,5.530917644500732422e+00
-4.680488109588623047e+00,-6.485272407531738281e+00,-4.591624259948730469e+00,-2.646812915802001953e+00,-9.259493947029113770e-01,-3.171041727066040039e+00,-5.041467189788818359e+00,-4.836945056915283203e+00,-2.324492216110229492e+00,-6.919593811035156250e+00,-6.887124061584472656e+00,-7.467429161071777344e+00,-9.285531997680664062e+00,-1.189300060272216797e+01,-1.060853290557861328e+01,-5.127940654754638672e+00,-5.177347183227539062e+00,-6.901271820068359375e+00,-7.641479492187500000e+00,-7.714768409729003906e+00,-7.532195091247558594e+00,-4.930073261260986328e+00,-5.014735221862792969e+00,-2.877325057983398438e+00,-4.159628391265869141e+00,-6.861315250396728516e+00,-9.012809753417968750e+00,-6.897614002227783203e+00,-2.342267990112304688e+00,-3.792417287826538086e+00,-5.963726997375488281e+00,-7.421258449554443359e+00
-6.486160755157470703e+00,-9.063799858093261719e+00,-1.045616149902343750e+01,-9.700670242309570312e+00,-9.513383865356445312e+00,-7.458769798278808594e+00,-6.396517753601074219e+00,-5.990320205688476562e+00,-4.474720478057861328e+00,-5.225861072540283203e+00,-4.235378265380859375e+00,-4.560402393341064453e+00,-4.556484699249267578e+00,-4.950273513793945312e+00,-5.076542854309082031e+00,-3.896440744400024414e+00,-3.583346128463745117e+00,-5.277031898498535156e+00,-4.277922630310058594e+00,-4.799035549163818359e+00,-6.287858963012695312e+00,-5.786160469055175781e+00,-4.852162837982177734e+00,-6.382306575775146484e+00,-8.447463035583496094e+00,-1.042164134979248047e+01,-9.245450973510742188e+00,-8.632908821105957031e+00,-6.958878517150878906e+00,-9.316140174865722656e+00,-1.083613586425781250e+01,-8.199946403503417969e+00
7.085243701934814453e+00,5.825179576873779297e+00,3.246001482009887695e+00,1.664455294609069824e+00,3.458353877067565918e-01,4.167943000793457031e+00,6.112272262573242188e+00,6.201236248016357422e+00,8.393210411071777344e+00,9.019807815551757812e+00,1.111023998260498047e+01,1.058176040649414062e+01,1.191916179656982422e+01,1.276468276977539062e+01,1.401062774658203125e+01,1.281567764282226562e+01,1.356653499603271484e+01,1.171912193298339844e+01,1.468420410156250000e+01,1.392358493804931641e+01,1.204187393188476562e+01,1.250555992126464844e+01,1.367614459991455078e+01,9.385639190673828125e+00,8.244899749755859375e+00,6.861365795135498047e+00,8.894140243530273438e+00,7.898351192474365234e+00,7.971489429473876953e+00,6.214548587799072266e+00,9.391032218933105469e+00,1.631234741210937500e+01
1.028505325317382812e+01,9.778272628784179688e+00,1.040457820892333984e+01,1.099816703796386719e+01,9.166226387023925781e+00,1.128867340087890625e+01,1.028099441528320312e+01,6.549622058868408203e+00,8.219719886779785156e+00,8.609229087829589844e+00,1.069560432434082031e+01,9.783026695251464844e+00,1.273849201202392578e+01,1.382456684112548828e+01,1.431046581268310547e+01,1.275322818756103516e+01,1.369076728820800781e+01,1.471497344970703125e+01,1.503489017486572266e+01,1.459663200378417969e+01,1.250920581817626953e+01,1.226133537292480469e+01,1.293524742126464844e+01,1.274577045440673828e+01,1.273829174041748047e+01,1.361472988128662109e+01,1.324576377868652344e+01,1.182989025115966797e+01,9.767447471618652344e+00,1.171237277984619141e+01,1.509727287292480469e+01,1.634576988220214844e+01
-2.409092426300048828e+00,-2.782947301864624023e+00,-3.696260690689086914e+00,-1.395798563957214355e+00,1.599508374929428101e-01,1.671829581260681152e+00,-2.673884332180023193e-01,-5.605189800262451172e+00,-4.715309143066406250e+00,-4.205902576446533203e+00,-2.575640201568603516e+00,-3.689656496047973633e+00,6.027387976646423340e-01,2.655310869216918945e+00,2.307984977960586548e-01,-1.780551433563232422e+00,-1.405488133430480957e+00,1.602561473846435547e+00,-7.458720356225967407e-02,1.266794651746749878e-01,-2.246983766555786133e+00,-3.931043863296508789e+00,-4.125977516174316406e+00,-2.330502748489379883e+00,-2.362103700637817383e+00,7.934490591287612915e-02,-5.375048518180847168e-01,-1.581118941307067871e+00,-5.309478759765625000e+00,-2.192098140716552734e+00,-1.888079047203063965e+00,-5.614572048187255859e+00
-6.464562416076660156e+00,-4.290242195129394531e+00,-1.211653327941894531e+01,-1.159189414978027344e+01,-9.059706687927246094e+00,-5.235450267791748047e+00,-5.286127090454101562e+00,-8.513145446777343750e+00,-9.149069786071777344e+00,-8.683731079101562500e+00,-5.655325889587402344e+00,-7.825188159942626953e+00,-8.034334182739257812e+00,-6.947205543518066406e+00,-9.067174911499023438e+00,-1.054052162170410156e+01,-1.116374015808105469e+01,-8.645109176635742188e+00,-9.290860176086425781e+00,-7.894613265991210938e+00,-7.995366573333740234e+00,-8.539681434631347656e+00,-1.020532131195068359e+01,-9.541174888610839844e+00,-8.805575370788574219e+00,-5.612175464630126953e+00,-7.689556598663330078e+00,-6.139132022857666016e+00,-7.538129329681396484e+00,-6.748019695281982422e+00,-8.664044380187988281e+00,-7.098459243774414062e+00
5.838257789611816406e+00,1.068514728546142578e+01,9.538556337356567383e-01,-1.049138754606246948e-01,-1.171701550483703613e-01,5.076193809509277344e+00,5.165289878845214844e+00,-2.352135814726352692e-02,3.952376246452331543e-01,9.361496567726135254e-01,5.613725185394287109e+00,2.482698440551757812e+00,-4.586956501007080078e-01,-2.776749730110168457e-01,-2.328436374664306641e-01,-1.881516575813293457e+00,-2.569808959960937500e+00,1.992472261190414429e-01,-1.573402136564254761e-01,2.335549354553222656e+00,3.852353096008300781e+00,4.662672996520996094e+00,2.256243944168090820e+00,2.901639938354492188e+00,3.001386880874633789e+00,4.223831176757812500e+00,5.210929870605468750e+00,7.649334430694580078e+00,7.182772636413574219e+00,8.281716346740722656e+00,8.406856536865234375e+00,1.037241649627685547e+01
4.665802478790283203e+00,1.126952362060546875e+01,5.015006542205810547e+00,5.832603931427001953e+00,2.699856281280517578e+00,6.861353397369384766e+00,4.239107131958007812e+00,-1.165649533271789551e+00,4.116476178169250488e-01,2.128173351287841797e+00,6.431960105895996094e+00,4.430469989776611328e+00,3.480796098709106445e+00,4.554748535156250000e+00,4.222126483917236328e+00,3.811288118362426758e+00,3.850764513015747070e+00,3.561274290084838867e+00,1.432624220848083496e+00,7.214653491973876953e+00,1.226327800750732422e+01,9.183462142944335938e+00,2.939313173294067383e+00,2.448144435882568359e+00,5.222419738769531250e+00,7.140359878540039062e+00,8.573594093322753906e+00,7.756387233734130859e+00,9.265486717224121094e+00,1.254496288299560547e+01,1.347324371337890625e+01,3.421235799789428711e+00
-8.228902816772460938e+00,-3.734614372253417969e+00,-1.152258872985839844e+01,-9.014897346496582031e+00,-8.681958198547363281e+00,-7.013771533966064453e+00,-7.983911991119384766e+00,-7.678775787353515625e+00,-8.138598442077636719e+00,-1.075324821472167969e+01,-7.029073715209960938e+00,-3.017830133438110352e+00,-1.469952583312988281e+00,2.894079446792602539e+00,4.122913837432861328e+00,2.196392774581909180e+00,-2.966263771057128906e+00,-6.185089588165283203e+00,-4.065949440002441406e+00,-8.313352614641189575e-02,2.973610639572143555e+00,-2.064016819000244141e+00,-5.684579849243164062e+00,-3.358793020248413086e+00,3.578222036361694336e+00,3.973399400711059570e+00,1.023453712463378906e+00,-2.775508165359497070e+00,-3.087840557098388672e+00,-4.817537665367126465e-01,2.371869087219238281e+00,-4.813687801361083984e+00
-1.414641022682189941e+00,-7.820888519287109375e+00,-1.727581596374511719e+01,-1.602875709533691406e+01,-1.262119579315185547e+01,-9.210922241210937500e+00,-4.457021236419677734e+00,-5.261452198028564453e+00,-9.583533287048339844e+00,-1.299342632293701172e+01,-5.123662948608398438e+00,-1.456024199724197388e-01,3.210525214672088623e-01,2.063225507736206055e+00,4.126451015472412109e+00,2.068117856979370117e+00,-1.016327500343322754e+00,-3.409623384475708008e+00,-7.883322238922119141e-01,-2.397013902664184570e+00,-1.090047240257263184e+00,-9.261681437492370605e-01,3.587195634841918945e+00,3.004550933837890625e+00,4.236903190612792969e+00,2.590089797973632812e+00,2.277720689773559570e+00,5.383338332176208496e-01,1.521356552839279175e-01,3.491562008857727051e-01,1.369551420211791992e+00,5.597439289093017578e+00
7.996050834655761719e+00,4.611979484558105469e+00,-3.370545864105224609e+00,-4.353888034820556641e+00,-7.982502460479736328e+00,-1.663121819496154785e+00,5.125410556793212891e-01,-3.171485900878906250e+00,-6.692778587341308594e+00,-7.111454486846923828e+00,2.078659057617187500e+00,3.550803184509277344e+00,6.092779636383056641e-01,-1.021690249443054199e+00,-6.997557282447814941e-01,8.610671758651733398e-01,3.647233963012695312e+00,3.873008728027343750e+00,5.551722049713134766e+00,2.345573663711547852e+00,1.102547526359558105e+00,6.732924580574035645e-01,6.857124328613281250e+00,4.239858150482177734e+00,3.574631214141845703e+00,3.892981767654418945e+00,6.918992519378662109e+00,6.253179550170898438e+00,6.780473709106445312e+00,7.974325180053710938e+00,8.007088661193847656e+00,1.046316146850585938e+01
1.830573558807373047e+00,8.947080612182617188e+00,3.292581558227539062e+00,3.293492794036865234e-01,-8.395825386047363281e+00,-2.064597845077514648e+00,-1.657907009124755859e+00,-5.287150859832763672e+00,-2.097484111785888672e+00,-2.134191274642944336e+00,3.315635204315185547e+00,-1.233621984720230103e-01,-7.634156346321105957e-01,-1.862490057945251465e+00,-2.071962833404541016e+00,1.288941800594329834e-01,1.668033123016357422e+00,2.715830564498901367e+00,6.036094665527343750e+00,6.424970149993896484e+00,3.440319299697875977e+00,2.890426516532897949e-01,1.810669302940368652e-01,4.584556221961975098e-01,3.658386945724487305e+00,5.494423389434814453e+00,5.343281269073486328e+00,4.928944110870361328e+00,5.516738891601562500e+00,7.781148910522460938e+00,9.935076713562011719e+00,8.314578056335449219e+00
4.976253986358642578e+00,6.816498279571533203e+00,-4.244787693023681641e+00,-7.419780254364013672e+00,-8.386538505554199219e+00,1.664860486984252930e+00,2.689404964447021484e+00,-6.174306869506835938e+00,-3.235086441040039062e+00,-2.442791700363159180e+00,7.254760742187500000e+00,2.643340587615966797e+00,4.174067497253417969e+00,2.580641031265258789e+00,2.395394325256347656e+00,3.334087133407592773e+00,4.502485752105712891e+00,4.034459590911865234e+00,4.696243762969970703e+00,7.182860374450683594e+00,7.500010967254638672e+00,8.314046859741210938e+00,5.816461086273193359e+00,7.092988491058349609e+00,7.092095375061035156e+00,8.102774620056152344e+00,5.986626625061035156e+00,6.238117694854736328e+00,5.009010791778564453e+00,4.944711208343505859e+00,6.086928844451904297e+00,8.988368988037109375e+00
1.224461746215820312e+01,4.388595104217529297e+00,-1.541064643859863281e+01,-1.504519939422607422e+01,-5.277510166168212891e+00,7.539591312408447266e+00,6.125029563903808594e+00,-6.465594291687011719e+00,-1.117458915710449219e+01,-7.641740798950195312e+00,9.346057891845703125e+00,7.527696132659912109e+00,6.698369026184082031e+00,4.150138854980468750e+00,5.010424613952636719e+00,5.240103244781494141e+00,6.966734409332275391e+00,5.463256835937500000e+00,4.661245346069335938e+00,6.230007171630859375e+00,8.464580535888671875e+00,1.032181453704833984e+01,1.104979419708251953e+01,1.164534664154052734e+01,9.663785934448242188e+00,1.152940940856933594e+01,1.048656940460205078e+01,1.014562797546386719e+01,7.220965862274169922e+00,7.508078098297119141e+00,7.313654422760009766e+00,2.738695144653320312e+00
5.801946640014648438e+00,3.724559783935546875e+00,-7.262559413909912109e+00,-7.558456897735595703e+00,-4.111122608184814453e+00,5.574908256530761719e+00,5.933699131011962891e+00,-8.691725730895996094e-01,-6.124971866607666016e+00,-7.470514774322509766e+00,4.764281272888183594e+00,5.399472713470458984e+00,6.293156623840332031e+00,4.257504940032958984e+00,7.003509998321533203e+00,6.690752506256103516e+00,7.247654914855957031e+00,6.212350368499755859e+00,6.478821754455566406e+00,6.102564811706542969e+00,5.683375835418701172e+00,5.570083141326904297e+00,5.609661102294921875e+00,5.104981899261474609e+00,5.529915332794189453e+00,6.491171836853027344e+00,6.825792312622070312e+00,6.837888717651367188e+00,6.825886249542236328e+00,7.271310329437255859e+00,8.445799827575683594e+00,-2.839111566543579102e+00
1.127123832702636719e+00,7.071139812469482422e+00,1.144271087646484375e+01,6.203451156616210938e+00,-5.239318370819091797e+00,2.598806858062744141e+00,6.652416706085205078e+00,5.828325748443603516e+00,6.083920955657958984e+00,3.211592137813568115e-02,7.127877473831176758e-01,2.794606447219848633e+00,5.751664161682128906e+00,4.333764076232910156e+00,5.115653038024902344e+00,5.977745532989501953e+00,8.848889350891113281e+00,6.624502658843994141e+00,3.898205995559692383e+00,3.505733489990234375e+00,4.452019214630126953e+00,5.398708820343017578e+00,2.047441482543945312e+00,1.160203099250793457e+00,1.511741638183593750e+00,1.849220037460327148e+00,2.547670125961303711e+00,2.689433574676513672e+00,4.470380783081054688e+00,4.650534152984619141e+00,5.655294895172119141e+00,3.310099124908447266e+00
-3.421700000762939453e+00,-5.597462654113769531e+00,5.192377567291259766e+00,5.819745063781738281e+00,-4.149259090423583984e+00,-1.545157909393310547e+00,-1.959969997406005859e+00,-6.529008746147155762e-01,4.126833915710449219e+00,6.223406195640563965e-01,-4.775735855102539062e+00,-3.637292385101318359e+00,-2.802435874938964844e+00,-1.391045212745666504e+00,-3.907118558883666992e+00,-5.134864807128906250e+00,-4.548573970794677734e+00,-6.737444400787353516e+00,-9.335693359375000000e+00,-8.659530639648437500e+00,-6.957465171813964844e+00,-5.925584316253662109e+00,-7.002191066741943359e+00,-7.341874599456787109e+00,-9.699049949645996094e+00,-8.355549812316894531e+00,-7.567956447601318359e+00,-6.417918205261230469e+00,-7.470912456512451172e+00,-9.179538726806640625e+00,-1.277142238616943359e+01,-3.170221328735351562e+00
-7.807914733886718750e+00,-1.250620937347412109e+01,-1.011377811431884766e+01,-2.740184068679809570e+00,1.264667045325040817e-02,-1.811935663223266602e+00,-8.807914733886718750e+00,-6.965194225311279297e+00,-4.893613338470458984e+00,-5.699183464050292969e+00,-4.743104934692382812e+00,-4.851018428802490234e+00,-7.749543666839599609e+00,-3.714972496032714844e+00,-3.169594764709472656e+00,-4.768033981323242188e+00,-1.083120727539062500e+01,-7.940151214599609375e+00,-4.969850063323974609e+00,-6.627573490142822266e+00,-9.025336265563964844e+00,-1.026355171203613281e+01,-6.916938781738281250e+00,-6.295800685882568359e+00,-5.978137493133544922e+00,-7.061799526214599609e+00,-7.042912006378173828e+00,-7.434588432312011719e+00,-8.961366653442382812e+00,-8.406448364257812500e+00,-8.034858703613281250e+00,-6.567646503448486328e+00
-3.358675003051757812e+00,-1.513729929924011230e+00,1.932981982827186584e-02,5.565226554870605469e+00,5.994762897491455078e+00,5.009594917297363281e+00,8.231791853904724121e-01,2.353812217712402344e+00,4.234536647796630859e+00,3.435795068740844727e+00,2.269422054290771484e+00,2.162504673004150391e+00,1.543962359428405762e-01,4.906847000122070312e+00,6.924850940704345703e+00,5.865180015563964844e+00,6.263841390609741211e-01,6.263408660888671875e+00,8.717374801635742188e+00,3.479861497879028320e+00,-9.008899331092834473e-02,-5.578253269195556641e-01,1.936896800994873047e+00,3.218620538711547852e+00,6.584096431732177734e+00,1.809172630310058594e+00,-2.723102867603302002e-01,-1.330842614173889160e+00,1.330043554306030273e+00,1.786059141159057617e+00,4.769812107086181641e+00,4.373511314392089844e+00
8.643610477447509766e-01,1.185624980926513672e+01,1.584099292755126953e+01,1.399036026000976562e+01,4.728512763977050781e+00,7.372667789459228516e+00,8.016253471374511719e+00,1.236822891235351562e+01,1.235898494720458984e+01,9.391498565673828125e+00,4.607124805450439453e+00,5.095729351043701172e+00,4.706246376037597656e+00,7.978293895721435547e+00,5.993663787841796875e+00,4.325722217559814453e+00,3.778126478195190430e+00,7.225748538970947266e+00,5.904292106628417969e+00,5.662752151489257812e+00,8.008645057678222656e+00,8.497382164001464844e+00,5.737563610076904297e+00,7.168685913085937500e+00,9.693672180175781250e+00,4.590783596038818359e+00,1.572204232215881348e+00,1.010624393820762634e-01,3.252845764160156250e+00,3.970880508422851562e+00,8.137615203857421875e+00,1.129680252075195312e+01
-3.063400745391845703e+00,5.144605159759521484e+00,8.453461647033691406e+00,6.590124607086181641e+00,-2.797236680984497070e+00,2.015650719404220581e-01,1.359387636184692383e+00,6.519744873046875000e+00,4.496398448944091797e+00,-1.325958520174026489e-01,-3.085973739624023438e+00,-1.905665636062622070e+00,-1.290383815765380859e+00,-2.146650314331054688e+00,-3.919589042663574219e+00,-2.933109283447265625e+00,-3.315064430236816406e+00,-8.115883469581604004e-01,-3.510553836822509766e-01,4.149679660797119141e+00,5.840753555297851562e+00,4.435328483581542969e+00,6.681331992149353027e-01,1.193952918052673340e+00,-5.786595121026039124e-02,-1.554679870605468750e+00,4.531625658273696899e-02,3.300676643848419189e-01,-1.570633053779602051e-01,4.207330048084259033e-01,2.961486339569091797e+00,2.596668720245361328e+00
-8.550412178039550781e+00,-3.887737989425659180e+00,2.242896795272827148e+00,5.614489555358886719e+00,-1.591104507446289062e+00,-4.884833335876464844e+00,-7.023961544036865234e+00,-2.527104139328002930e+00,-8.983098268508911133e-01,-7.555411815643310547e+00,-9.443992614746093750e+00,-9.724211692810058594e+00,-7.924379348754882812e+00,-9.446712493896484375e+00,-8.292725563049316406e+00,-6.387810230255126953e+00,-7.630014419555664062e+00,-6.009502410888671875e+00,-4.699641704559326172e+00,-2.119334459304809570e+00,-5.791986942291259766e+00,-8.766934394836425781e+00,-9.474547386169433594e+00,-9.638895988464355469e+00,-1.162347698211669922e+01,-1.056336498260498047e+01,-7.054088592529296875e+00,-5.831644535064697266e+00,-5.053229331970214844e+00,-5.394403457641601562e+00,-8.313241004943847656e+00,-5.042479515075683594e+00
-5.357788085937500000e+00,-6.629284858703613281e+00,7.870195508003234863e-01,8.014649391174316406e+00,2.338059425354003906e+00,-5.735424518585205078e+00,-8.745616912841796875e+00,2.503100633621215820e-01,2.377866506576538086e+00,-2.306779623031616211e+00,-7.099277973175048828e+00,-7.976730346679687500e+00,-7.768177986145019531e+00,-6.136156558990478516e+00,-7.588601589202880859e+00,-8.131074905395507812e+00,-8.330382347106933594e+00,-1.002127742767333984e+01,-1.033506488800048828e+01,-7.414059162139892578e+00,-5.924017429351806641e+00,-8.947711944580078125e+00,-8.614550590515136719e+00,-8.670129776000976562e+00,-8.084229469299316406e+00,-1.029000186920166016e+01,-1.149763107299804688e+01,-1.170685291290283203e+01,-8.150170326232910156e+00,-6.378281116485595703e+00,-9.839557647705078125e+00,-8.742586135864257812e+00
9.716117978096008301e-01,-9.158965110778808594e+00,-1.502701997756958008e+00,3.354393482208251953e+00,-2.022932291030883789e+00,-6.542867660522460938e+00,-4.109294414520263672e+00,4.597681999206542969e+00,2.961748600006103516e+00,3.571389436721801758e+00,-6.784057617187500000e-01,-1.043823480606079102e+00,-2.143692016601562500e+00,-1.599701523780822754e+00,-4.728014469146728516e+00,-4.818666934967041016e+00,-3.549664258956909180e+00,-6.380129814147949219e+00,-5.480282306671142578e+00,-3.140830516815185547e+00,1.136157035827636719e+00,3.696185648441314697e-01,4.651284217834472656e-01,-1.255729943513870239e-01,-9.447771310806274414e-01,-3.207191228866577148e+00,-4.333298206329345703e+00,-3.115663528442382812e+00,-3.627792835235595703e+00,-2.756894826889038086e+00,-4.009099006652832031e+00,-1.183596897125244141e+01
-7.165914177894592285e-01,-3.089406251907348633e+00,3.412491559982299805e+00,3.356801033020019531e+00,-5.274081707000732422e+00,-4.789837837219238281e+00,-1.703929662704467773e+00,3.838042020797729492e+00,2.182670116424560547e+00,3.417394638061523438e+00,2.808127701282501221e-01,-1.156068921089172363e+00,4.281738400459289551e-01,-1.212377190589904785e+00,1.798746585845947266e-01,1.331588983535766602e+00,3.210239410400390625e+00,-4.508384317159652710e-02,2.456917166709899902e-01,-4.136646747589111328e+00,-6.509364128112792969e+00,-4.309431552886962891e+00,-4.006731510162353516e+00,-4.963256835937500000e+00,-5.716341018676757812e+00,-1.199395433068275452e-01,1.633001208305358887e+00,1.734836459159851074e+00,-2.103200674057006836e+00,-1.946415066719055176e+00,-2.127170562744140625e+00,-6.734310150146484375e+00
-1.166395664215087891e+01,-7.842486381530761719e+00,2.079117536544799805e+00,5.832779407501220703e+00,-2.839481830596923828e-01,-8.682337760925292969e+00,-1.002098560333251953e+01,6.277704834938049316e-01,5.699649333953857422e+00,2.605184018611907959e-01,-9.586917877197265625e+00,-1.112797832489013672e+01,-7.856450557708740234e+00,-6.825860977172851562e+00,-4.604015350341796875e+00,-6.683595180511474609e+00,-7.556226730346679688e+00,-1.161544418334960938e+01,-1.372192955017089844e+01,-1.828445434570312500e+01,-1.993835449218750000e+01,-1.924547767639160156e+01,-1.865977096557617188e+01,-1.947414207458496094e+01,-2.048373222351074219e+01,-1.501511383056640625e+01,-1.392232418060302734e+01,-1.382256221771240234e+01,-1.553407001495361328e+01,-1.796727752685546875e+01,-2.185343742370605469e+01,-1.603559875488281250e+01
-9.324593544006347656e+00,-1.380301761627197266e+01,-6.091938495635986328e+00,-1.981872081756591797e+00,-2.555626928806304932e-01,-1.079778766632080078e+01,-9.654117584228515625e+00,-1.373723983764648438e+00,2.438716650009155273e+00,-3.152978420257568359e+00,-9.671407699584960938e+00,-7.525516033172607422e+00,-9.433049201965332031e+00,-1.045469856262207031e+01,-1.327466106414794922e+01,-1.290407276153564453e+01,-1.242575454711914062e+01,-1.119620704650878906e+01,-1.317699241638183594e+01,-1.106442070007324219e+01,-1.180793190002441406e+01,-1.051832199096679688e+01,-9.101277351379394531e+00,-9.632032394409179688e+00,-9.927831649780273438e+00,-1.189132213592529297e+01,-1.253117084503173828e+01,-1.120700836181640625e+01,-1.074268817901611328e+01,-1.404904079437255859e+01,-1.790205001831054688e+01,-1.852539443969726562e+01
-1.599990963935852051e+00,-7.561738014221191406e+00,9.367723464965820312e-01,1.695587038993835449e+00,-3.885927438735961914e+00,-8.545932769775390625e+00,-8.098185658454895020e-01,5.292738914489746094e+00,6.998878002166748047e+00,2.012979745864868164e+00,-1.610463023185729980e+00,1.754769206047058105e+00,-3.543993711471557617e+00,-7.739864349365234375e+00,-1.054353332519531250e+01,-7.355861663818359375e+00,-4.705383777618408203e+00,1.098004102706909180e+00,-6.344584226608276367e-01,5.697464942932128906e-01,-1.207713365554809570e+00,1.685191993601620197e-03,8.620631098747253418e-01,1.392799496650695801e+00,2.469634115695953369e-01,-1.432791948318481445e+00,-1.643513798713684082e+00,1.331192404031753540e-01,5.558530092239379883e-01,-5.596034526824951172e+00,-9.326522827148437500e+00,-8.586132049560546875e+00
-1.798393964767456055e+00,-9.532840847969055176e-01,1.141304969787597656e+01,1.380635261535644531e+01,6.638779491186141968e-02,-6.393352985382080078e+00,-3.201997876167297363e-01,9.152584075927734375e+00,1.258791732788085938e+01,5.893928050994873047e+00,-1.420519113540649414e+00,6.231786608695983887e-01,-1.785783916711807251e-01,-1.034932971000671387e+00,-1.301510185003280640e-01,-1.488270521163940430e+00,-1.442544937133789062e+00,-3.687299191951751709e-01,-3.594954490661621094e+00,-4.428324222564697266e+00,-6.925781250000000000e+00,-4.367491245269775391e+00,-2.086858749389648438e+00,-2.655358076095581055e+00,-2.126681804656982422e+00,-1.551627516746520996e+00,-2.783127784729003906e+00,-2.431795597076416016e+00,-2.562296628952026367e+00,-7.575832366943359375e+00,-9.813137054443359375e+00,-7.253217220306396484e+00
-2.934290885925292969e+00,-5.238248825073242188e+00,2.031292676925659180e+00,7.346968173980712891e+00,3.743497610092163086e+00,-2.027242660522460938e+00,-1.755009412765502930e+00,3.263776779174804688e+00,4.732100486755371094e+00,6.686261296272277832e-01,-1.217731714248657227e+00,-4.598945081233978271e-01,2.158312082290649414e+00,1.460090398788452148e+00,8.145577311515808105e-01,-1.185692548751831055e+00,-9.003095328807830811e-02,-2.091048240661621094e+00,-6.893792629241943359e+00,-8.258184432983398438e+00,-8.833979606628417969e+00,-2.417396306991577148e+00,1.084120512008666992e+00,-1.511402368545532227e+00,-2.243233919143676758e+00,-2.035732507705688477e+00,-1.877373576164245605e+00,-2.924851417541503906e+00,-3.707696199417114258e+00,-3.855691909790039062e+00,-4.192898273468017578e+00,-7.953074455261230469e+00
-5.258170127868652344e+00,-1.126562404632568359e+01,-1.118761348724365234e+01,-6.903839588165283203e+00,-2.472483634948730469e+00,-1.408828854560852051e+00,-3.811488866806030273e+00,-5.116173267364501953e+00,-1.931140065193176270e+00,-3.281599998474121094e+00,-2.339110374450683594e+00,-3.602076768875122070e+00,-3.302229404449462891e+00,-6.963997364044189453e+00,-7.873489856719970703e+00,-5.315304279327392578e+00,-1.717336177825927734e+00,-5.084187388420104980e-01,-2.520688772201538086e+00,-5.221955776214599609e+00,-8.374929428100585938e+00,-5.246040821075439453e+00,-3.185328960418701172e+00,-7.469689846038818359e+00,-9.416790962219238281e+00,-7.985972404479980469e+00,-3.053356170654296875e+00,-4.296749114990234375e+00,-4.288805961608886719e+00,-5.869952201843261719e+00,-7.466794013977050781e+00,-6.675284862518310547e+00
-9.270326614379882812e+00,-4.349601268768310547e+00,-7.962952136993408203e+00,-5.144325733184814453e+00,-8.288567543029785156e+00,-7.068933010101318359e+00,-9.978444099426269531e+00,-8.435354232788085938e+00,-1.649447441101074219e+00,-5.493441581726074219e+00,-8.763069152832031250e+00,-1.114633464813232422e+01,-1.017200756072998047e+01,-7.866261005401611328e+00,-8.871768951416015625e+00,-5.953627109527587891e+00,-5.331110954284667969e+00,-4.679138660430908203e+00,-1.768322825431823730e+00,-3.191345930099487305e+00,-7.159039497375488281e+00,-1.101874732971191406e+01,-9.886940956115722656e+00,-1.183544158935546875e+01,-1.202007675170898438e+01,-1.221114826202392578e+01,-9.248765945434570312e+00,-9.874814987182617188e+00,-9.654214859008789062e+00,-1.048766326904296875e+01,-1.129810428619384766e+01,-8.509152412414550781e+00
-4.348518371582031250e+00,4.246741771697998047e+00,2.998872041702270508e+00,8.887210845947265625e+00,-9.625300765037536621e-01,-4.708216667175292969e+00,-4.967874050140380859e+00,-1.294379234313964844e-01,4.294191360473632812e+00,-1.220622658729553223e+00,-3.910765349864959717e-01,-1.893379092216491699e+00,4.859982430934906006e-01,5.907861709594726562e+00,7.483041763305664062e+00,6.144121646881103516e+00,2.254726409912109375e+00,1.063038706779479980e+00,3.724639177322387695e+00,4.134263515472412109e+00,2.090766191482543945e+00,-1.489231824874877930e+00,-1.079167604446411133e+00,3.488801419734954834e-01,4.835388660430908203e-01,-2.795125007629394531e+00,-6.068709373474121094e+00,-4.682842254638671875e+00,-5.447975158691406250e+00,-1.690033912658691406e+00,-1.037015676498413086e+00,-5.675331592559814453e+00
1.790722966194152832e+00,-1.299963712692260742e+00,8.398038148880004883e-01,9.938723564147949219e+00,6.938030242919921875e+00,2.544816493988037109e+00,3.301497220993041992e+00,6.381514549255371094e+00,7.431414127349853516e+00,6.440884590148925781e+00,7.359901428222656250e+00,5.166544437408447266e+00,8.576503753662109375e+00,1.116333103179931641e+01,1.205893993377685547e+01,9.292216300964355469e+00,8.569205284118652344e+00,8.073738098144531250e+00,1.005211067199707031e+01,1.002235889434814453e+01,6.193748950958251953e+00,1.805755257606506348e+00,4.476396739482879639e-01,1.073809564113616943e-01,1.072266817092895508e+00,1.104387521743774414e+00,-1.409739375114440918e+00,-7.932321429252624512e-01,-2.322984486818313599e-02,3.301629066467285156e+00,3.275670528411865234e+00,1.072006464004516602e+00
-4.711366176605224609e+00,-1.083623027801513672e+01,-1.390578937530517578e+01,-3.057019948959350586e+00,2.934382677078247070e+00,-2.054987907409667969e+00,-5.355921268463134766e+00,-1.735596656799316406e+00,2.279997467994689941e-01,-6.124517917633056641e-01,-1.802277207374572754e+00,-4.131211757659912109e+00,2.047893404960632324e-01,2.009512901306152344e+00,3.774317204952239990e-01,-4.127699375152587891e+00,-3.155233621597290039e+00,-5.115094184875488281e+00,-2.627938985824584961e+00,-1.628992795944213867e+00,-5.272329330444335938e+00,-1.129506683349609375e+01,-1.286797046661376953e+01,-1.627054977416992188e+01,-1.457912254333496094e+01,-1.159231758117675781e+01,-1.033248805999755859e+01,-9.912150382995605469e+00,-7.618364810943603516e+00,-5.403722763061523438e+00,-5.296530246734619141e+00,-3.657148122787475586e+00
-9.124485969543457031e+00,-8.694641113281250000e+00,-1.372321701049804688e+01,-5.061933040618896484e+00,-8.402053713798522949e-01,-7.319983959197998047e+00,-1.134563541412353516e+01,-6.019228935241699219e+00,-7.003308773040771484e+00,-8.220782279968261719e+00,-9.421594619750976562e+00,-8.219902992248535156e+00,-7.207748889923095703e+00,-7.693972110748291016e+00,-8.874387741088867188e+00,-9.210703849792480469e+00,-6.664809226989746094e+00,-8.725437164306640625e+00,-8.175806045532226562e+00,-7.054855823516845703e+00,-8.619390487670898438e+00,-1.146093082427978516e+01,-9.803335189819335938e+00,-1.144264411926269531e+01,-1.156802558898925781e+01,-1.069180774688720703e+01,-9.463784217834472656e+00,-7.125539302825927734e+00,-6.220044136047363281e+00,-4.952951431274414062e+00,-5.478510856628417969e+00,-8.387779235839843750e+00
-9.155547022819519043e-01,1.114369630813598633e+00,4.453025817871093750e+00,7.305685997009277344e+00,4.897069036960601807e-01,-2.470296144485473633e+00,-1.830462455749511719e+00,2.998160600662231445e+00,-9.648061394691467285e-01,6.512793898582458496e-01,-3.747636675834655762e-01,3.240941047668457031e+00,2.272881984710693359e+00,-5.583210587501525879e-01,6.363155841827392578e-01,2.438485860824584961e+00,7.406945705413818359e+00,4.957303524017333984e+00,4.812347888946533203e+00,5.830535411834716797e+00,2.572524547576904297e+00,-7.852466702461242676e-01,2.853342294692993164e+00,2.613238811492919922e+00,3.852704286575317383e+00,4.913721561431884766e+00,5.511016845703125000e+00,4.648744106292724609e+00,3.805689573287963867e+00,4.533378601074218750e+00,3.938447713851928711e+00,1.142168283462524414e+00
-1.495898365974426270e+00,5.575703978538513184e-01,6.184297561645507812e+00,6.992801666259765625e+00,-2.632522583007812500e+00,-4.575114727020263672e+00,-3.996743440628051758e+00,1.700627446174621582e+00,6.757839918136596680e-01,4.500847816467285156e+00,7.729832530021667480e-01,1.592861890792846680e+00,4.808449745178222656e+00,6.084533691406250000e+00,8.846484184265136719e+00,9.413562774658203125e+00,6.713461875915527344e+00,6.895263671875000000e+00,1.211780166625976562e+01,1.258469963073730469e+01,4.320119380950927734e+00,-2.667315721511840820e+00,-1.548529028892517090e+00,-4.598215579986572266e+00,-3.574073791503906250e+00,-1.185194611549377441e+00,1.091382384300231934e+00,-1.522555112838745117e+00,-2.622462987899780273e+00,-6.912819147109985352e-01,4.943394064903259277e-01,-1.643489748239517212e-01
-7.469847202301025391e+00,-7.305660247802734375e+00,-9.915353775024414062e+00,-5.669785976409912109e+00,-3.921119928359985352e+00,-7.729176998138427734e+00,-8.021891593933105469e+00,-2.343822479248046875e+00,-5.300101757049560547e+00,-3.299765348434448242e+00,-5.930067062377929688e+00,-7.467492580413818359e+00,-5.387353420257568359e+00,-3.832420825958251953e+00,-2.008425712585449219e+00,-1.324998617172241211e+00,-3.209960937500000000e+00,-2.824193477630615234e+00,2.494949340820312500e+00,6.781681060791015625e+00,9.479795694351196289e-01,-3.379744291305541992e+00,-4.396298408508300781e+00,-6.261253833770751953e+00,-9.304558753967285156e+00,-9.763840675354003906e+00,-9.539701461791992188e+00,-8.304636001586914062e+00,-8.158799171447753906e+00,-7.447559833526611328e+00,-8.616100311279296875e+00,-1.127483654022216797e+01
4.034850120544433594e+00,2.889811396598815918e-01,-4.806221008300781250e+00,-2.548423707485198975e-01,5.246327877044677734e+00,3.670659542083740234e+00,6.303741455078125000e+00,9.559029579162597656e+00,2.530552625656127930e+00,5.290187358856201172e+00,6.315764427185058594e+00,6.863358974456787109e+00,6.482347488403320312e+00,6.667882442474365234e+00,3.867275476455688477e+00,3.549861907958984375e+00,7.650434017181396484e+00,9.744951248168945312e+00,7.270649433135986328e+00,8.037385940551757812e+00,5.416422367095947266e+00,7.266541957855224609e+00,8.376601219177246094e+00,1.066412830352783203e+01,1.007326889038085938e+01,7.542734146118164062e+00,3.421406507492065430e+00,4.423836231231689453e+00,4.504933834075927734e+00,2.629302740097045898e+00,8.724743723869323730e-01,8.958074450492858887e-01
9.184512138366699219e+00,1.147949600219726562e+01,1.456916809082031250e+01,1.397786426544189453e+01,8.015714645385742188e+00,6.321380615234375000e+00,7.086939334869384766e+00,9.024719238281250000e+00,9.096273422241210938e+00,1.408802604675292969e+01,1.054517173767089844e+01,8.562679290771484375e+00,1.185857963562011719e+01,1.436045646667480469e+01,1.333755302429199219e+01,9.242630958557128906e+00,1.099175071716308594e+01,1.205321311950683594e+01,7.192521095275878906e+00,2.492550849914550781e+00,-4.763082265853881836e-01,4.895887374877929688e+00,1.018827247619628906e+01,7.837413311004638672e+00,1.106266212463378906e+01,1.093867778778076172e+01,1.057591819763183594e+01,8.904772758483886719e+00,7.947435379028320312e+00,5.962901592254638672e+00,7.305240154266357422e+00,1.110383510589599609e+01
